Time	Channel A	Channel B	Channel C
(us)	(V)	(mV)	(mV)

-4.49999956	0.00000000	66.40624000	31.57603000
-4.29999957	0.00000000	66.40624000	31.57603000
-4.09999958	0.00000000	66.40624000	31.57603000
-3.89999959	0.00000000	66.40624000	31.57603000
-3.69999960	0.00000000	66.40624000	31.57603000
-3.49999962	0.00000000	66.40624000	31.61909000
-3.29999963	0.00000000	66.40624000	31.99434000
-3.09999964	0.00000000	66.40624000	32.73868000
-2.89999965	0.00000000	66.40624000	33.06471000
-2.69999966	0.00000000	66.40624000	32.78174000
-2.49999968	0.00000000	66.40624000	32.41265000
-2.29999969	0.00000000	66.44931000	32.78174000
-2.09999970	0.00000000	66.78149000	33.11393000
-1.89999971	0.00000000	67.15059000	33.15699000
-1.69999972	0.00000000	66.78149000	33.15699000
-1.49999973	0.00000000	66.44931000	33.15699000
-1.29999975	0.00000000	66.40624000	33.15699000
-1.09999976	0.00000000	66.40624000	33.15699000
-0.89999977	0.00000000	66.40624000	33.15699000
-0.69999978	0.00000000	66.40624000	33.15699000
-0.49999979	0.00000000	66.44931000	33.15699000
-0.29999981	0.31803640	66.78149000	33.15699000
-0.09999982	0.63668800	67.15059000	33.15699000
0.10000017	0.95533960	66.78149000	33.15699000
0.30000016	0.95533960	66.49852000	33.15699000
0.50000015	0.79601380	66.78149000	33.15699000
0.70000013	0.15871060	67.19365000	33.15699000
0.90000012	-0.63668800	67.20596000	33.15699000
1.10000011	-1.75196900	67.61810000	33.15699000
1.30000010	-2.54859700	67.95029000	33.15699000
1.50000009	-2.70792300	67.99335000	33.15699000
1.70000008	-2.38927200	67.99335000	33.20005000
1.90000006	-0.95533960	67.99335000	33.53223000
2.10000005	0.79601380	67.95029000	33.90133000
2.30000004	3.02657500	67.61810000	33.53223000
2.50000003	4.77854300	67.20596000	33.20005000
2.70000002	5.25652100	67.19365000	33.11393000
2.90000000	4.61921700	66.78149000	32.73868000
3.09999999	2.38927200	66.44931000	31.99434000
3.29999998	-0.63668800	66.40624000	31.66830000
3.49999997	-4.14124000	66.40624000	31.99434000
3.69999996	-6.84916400	66.44931000	32.73868000
3.89999994	-7.96444400	66.82455000	33.11393000
4.09999993	-7.16781500	67.57505000	33.15699000
4.29999992	-4.45989200	67.95029000	33.15699000
4.49999991	-0.31803640	67.99335000	33.15699000
4.69999990	4.14124000	67.95029000	33.15699000
4.89999989	7.64579200	67.57505000	33.11393000
5.09999987	9.39837600	66.82455000	32.73868000
5.29999986	8.76107300	66.44931000	31.99434000
5.49999985	5.89382400	66.40624000	31.61909000
5.69999984	1.43331700	66.40624000	31.57603000
5.89999983	-3.18590100	66.40624000	31.57603000
6.09999981	-7.16781500	66.44931000	31.61909000
6.29999980	-9.39837600	66.78149000	31.99434000
6.49999979	-9.07972400	67.15059000	32.73868000
6.69999978	-6.53112700	66.82455000	33.11393000
6.89999977	-2.70792300	66.82455000	33.15699000
7.09999975	1.75196900	67.15059000	33.15699000
7.29999974	5.41584600	66.78149000	33.11393000
7.49999973	7.48646600	66.44931000	32.73868000
7.69999972	7.48646600	66.40624000	31.99434000
7.89999971	5.73449800	66.40624000	31.61909000
8.09999970	2.86724900	66.40624000	31.57603000
8.29999968	-0.47736220	66.40624000	31.57603000
8.49999967	-3.18590100	66.40624000	31.57603000
8.69999966	-4.93786900	66.40624000	31.57603000
8.89999965	-5.09719500	66.40624000	31.61909000
9.09999964	-4.14124000	66.44931000	31.99434000
9.29999962	-2.38927200	66.82455000	32.68946000
9.49999961	-0.31803640	67.57505000	32.73868000
9.69999960	1.27399100	67.90108000	32.41265000
9.89999959	2.22994600	67.57505000	32.78174000
10.09999958	2.54859700	66.82455000	33.11393000
10.29999956	2.07062000	66.44931000	33.15699000
10.49999955	1.27399100	66.40624000	33.15699000
10.69999954	0.31803640	66.40624000	33.15699000
10.89999953	-0.31803640	66.40624000	33.15699000
11.09999952	-0.79601380	66.44931000	33.15699000
11.29999951	-0.95533960	66.82455000	33.15699000
11.49999949	-0.95533960	67.57505000	33.15699000
11.69999948	-0.63668800	67.90108000	33.15699000
11.89999947	-0.47736220	67.57505000	33.15699000
12.09999946	-0.15871060	66.82455000	33.15699000
12.29999945	-0.15871060	66.49852000	33.15699000
12.49999943	0.00000000	66.82455000	33.15699000
12.69999942	0.00000000	67.57505000	33.15699000
12.89999941	0.00000000	67.95029000	33.15699000
13.09999940	0.00000000	67.95029000	33.15699000
13.29999939	0.00000000	67.61810000	33.15699000
13.49999937	0.00000000	67.24901000	33.15699000
13.69999936	0.00000000	67.61810000	33.15699000
13.89999935	-0.15871060	67.95029000	33.15699000
14.09999934	-0.15871060	67.99335000	33.15699000
14.29999933	-0.15871060	67.99335000	33.15699000
14.49999932	-0.15871060	67.99335000	33.15699000
14.69999930	0.00000000	67.99335000	33.15699000
14.89999929	0.00000000	67.99335000	33.15699000
15.09999928	0.00000000	67.99335000	33.15699000
15.29999927	0.00000000	67.99335000	33.15699000
15.49999926	0.00000000	67.99335000	33.15699000
15.69999924	0.00000000	67.95029000	33.15699000
15.89999923	0.00000000	67.61810000	33.15699000
16.09999922	0.00000000	67.24901000	33.15699000
16.29999921	0.00000000	67.61810000	33.15699000
16.49999920	-0.15871060	67.95029000	33.15699000
16.69999919	-0.15871060	67.99335000	33.15699000
16.89999917	0.00000000	68.03641000	33.15699000
17.09999916	0.00000000	68.41166000	33.15699000
17.29999915	0.00000000	69.15600000	33.15699000
17.49999914	0.00000000	69.53124000	33.15699000
17.69999913	0.00000000	69.53124000	33.15699000
17.89999911	0.00000000	69.10678000	33.15699000
18.09999910	0.00000000	67.94415000	33.15699000
18.29999909	0.00000000	66.40624000	33.15699000
18.49999908	0.00000000	64.82529000	33.15699000
18.69999907	0.00000000	63.28740000	33.15699000
18.89999905	0.00000000	62.17396000	33.15699000
19.09999904	-0.15871060	62.21702000	33.15699000
19.29999903	0.00000000	63.75492000	33.15699000
19.49999902	0.00000000	66.49852000	33.15699000
19.69999901	0.00000000	69.99261000	33.15699000
19.89999900	0.00000000	73.84965000	33.15699000
20.09999898	0.00000000	76.92544000	33.15699000
20.29999897	0.00000000	78.41412000	33.15699000
20.49999896	0.00000000	77.62057000	33.15699000
20.69999895	0.00000000	74.04650000	33.15699000
20.89999894	0.00000000	68.22096000	33.11393000
21.09999892	0.00000000	60.50073000	32.78174000
21.29999891	0.00000000	53.19881000	32.41265000
21.49999890	0.00000000	48.21604000	32.78174000
21.69999889	0.00000000	46.77657000	33.06471000
21.89999888	0.00000000	50.72588000	32.78174000
22.09999886	0.00000000	59.56569000	32.36959000
22.29999885	0.00000000	71.24138000	32.36343000
22.49999884	0.00000000	83.57529000	31.95128000
22.69999883	0.00000000	93.99606000	31.66830000
22.89999882	0.00000000	99.31102000	31.99434000
23.09999881	0.00000000	98.04995000	32.73868000
23.29999879	0.00000000	89.06865000	33.11393000
23.49999878	0.00000000	73.62820000	33.20005000
23.69999877	0.00000000	55.51796000	33.57529000
23.89999876	0.00000000	38.87180000	34.31963000
24.09999875	0.00000000	27.73745000	34.64567000
24.29999873	0.00000000	24.71703000	34.27042000
24.49999872	0.00000000	31.78518000	33.11393000
24.69999871	0.00000000	47.98228000	31.57603000
24.89999870	0.00000000	69.66043000	30.00123000
25.09999869	0.00000000	92.04601000	28.46333000
25.29999867	0.00000000	110.14390000	27.34990000
25.49999866	0.00000000	118.94070000	27.39296000
25.69999865	0.00000000	115.87110000	28.93085000
25.89999864	0.00000000	101.54400000	31.66830000
26.09999863	0.00000000	79.15845000	35.15625000
26.29999862	0.00000000	53.66018000	39.05635000
26.49999860	0.00000000	31.27460000	42.49508000
26.69999859	0.00000000	16.99680000	44.72810000
26.89999858	0.00000000	14.29626000	44.26673000
27.09999857	0.00000000	23.92347000	40.40969000
27.29999856	0.00000000	43.23941000	34.22736000
27.49999854	0.00000000	67.94415000	26.83932000
27.69999853	0.00000000	92.27977000	19.54355000
27.89999852	0.00000000	110.47610000	14.15477000
28.09999851	0.00000000	119.03300000	12.29085000
28.29999850	0.00000000	116.28940000	14.70842000
28.49999848	0.00000000	102.79280000	22.09646000
28.69999847	0.00000000	81.62524000	33.24926000
28.89999846	0.00000000	58.45226000	45.23868000
29.09999845	0.00000000	38.67495000	55.69020000
29.29999844	0.00000000	25.87967000	62.56766000
29.49999843	0.00000000	22.76083000	63.59498000
29.69999841	0.00000000	29.65059000	57.41264000
29.89999840	0.00000000	44.26673000	45.06028000
30.09999839	0.00000000	62.82603000	29.62598000
30.29999838	0.00000000	81.06544000	14.15477000
30.49999837	0.00000000	95.81692000	2.21456700
30.69999835	0.00000000	104.28150000	-3.54330700
30.89999834	0.00000000	104.33070000	-1.59325800
31.09999833	0.00000000	96.32750000	8.10777600
31.29999832	0.00000000	83.20619000	23.58514000
31.49999831	0.00000000	68.07948000	42.07677000
31.69999829	0.00000000	53.75246000	59.03666000
31.89999828	0.00000000	43.33169000	70.28174000
32.09999827	0.00000000	39.00713000	74.18184000
32.29999826	0.00000000	41.28322000	69.86343000
32.49999825	0.00000000	49.00959000	57.92323000
32.69999824	0.00000000	60.54995000	40.87721000
32.89999822	0.00000000	72.87770000	22.37328000
33.09999821	0.00000000	82.60334000	6.12081600
33.29999820	0.00000000	88.46579000	-3.91855300
33.49999819	0.00000000	89.57922000	-6.28690900
33.69999818	0.00000000	85.39001000	-0.43061020
33.89999816	0.00000000	77.38681000	12.66609000
34.09999815	0.00000000	68.50394000	29.95201000
34.29999814	0.00000000	60.72834000	47.00418000
34.49999813	0.00000000	55.33341000	60.20546000
34.69999812	0.00000000	53.75246000	67.91338000
34.89999810	0.00000000	56.02854000	67.87032000
35.09999809	0.00000000	61.01131000	59.87328000
35.29999808	0.00000000	67.57505000	46.77042000
35.49999807	0.00000000	73.72047000	31.66830000
35.69999806	0.00000000	77.95275000	17.40280000
35.89999805	0.00000000	79.10925000	7.41264700
36.09999803	0.00000000	76.83316000	4.25688900
36.29999802	0.00000000	72.22563000	8.06471300
36.49999801	0.00000000	66.45546000	17.26747000
36.69999800	0.00000000	61.14665000	29.62598000
36.89999799	0.00000000	58.40305000	41.89838000
37.09999797	0.00000000	58.72908000	51.13803000
37.29999796	0.00000000	61.05437000	54.58292000
37.49999795	0.00000000	65.33588000	51.60556000
37.69999794	0.00000000	70.64468000	43.56545000
37.89999793	0.00000000	74.92618000	33.24926000
38.09999791	0.00000000	77.25147000	23.62820000
38.29999790	0.00000000	77.66363000	17.49508000
38.49999789	0.00000000	75.71973000	16.33243000
38.69999788	0.00000000	72.26870000	20.56471000
38.89999787	0.00000000	67.99335000	28.93085000
39.09999786	0.00000000	63.75492000	38.50270000
39.29999784	0.00000000	60.63607000	46.16756000
39.49999783	0.00000000	59.05511000	49.98154000
39.69999782	0.00000000	59.05511000	48.44365000
39.89999781	0.00000000	60.63607000	41.94144000
40.09999780	0.00000000	63.66264000	32.73868000
40.29999778	0.00000000	67.19980000	23.12377000
40.49999777	0.00000000	70.32480000	15.87106000
40.69999776	0.00000000	73.43134000	13.17667000
40.89999775	0.00000000	75.34448000	15.91412000
41.09999774	0.00000000	75.80585000	23.54207000
41.29999772	0.00000000	75.38755000	33.90133000
41.49999771	0.00000000	73.80659000	43.52239000
41.69999770	0.00000000	71.11221000	50.48597000
41.89999769	0.00000000	68.03641000	53.13730000
42.09999768	0.00000000	65.29281000	50.44291000
42.29999767	0.00000000	63.33661000	43.19020000
42.49999765	0.00000000	62.13090000	33.62450000
42.69999764	0.00000000	61.75566000	24.79084000
42.89999763	0.00000000	62.17396000	18.94070000
43.09999762	0.00000000	63.71186000	16.98450000
43.29999761	0.00000000	66.03100000	18.84842000
43.49999759	0.00000000	68.36859000	23.86196000
43.69999758	0.00000000	70.68774000	30.37647000
43.89999757	0.00000000	72.22563000	36.96481000
44.09999756	0.00000000	72.69316000	41.99065000
44.29999755	0.00000000	72.73621000	44.72810000
44.49999753	0.00000000	72.73621000	44.72810000
44.69999752	0.00000000	72.69316000	42.03371000
44.89999751	0.00000000	72.31791000	37.47539000
45.09999750	0.00000000	71.48744000	32.50492000
45.29999749	0.00000000	70.31865000	29.01698000
45.49999748	0.00000000	68.31938000	27.34990000
45.69999746	0.00000000	65.98794000	26.97465000
45.89999745	0.00000000	63.24434000	27.76821000
46.09999744	0.00000000	60.59301000	30.08735000
46.29999743	0.00000000	59.05511000	33.11393000
46.49999742	0.00000000	59.09818000	35.85138000
46.69999740	0.00000000	61.10359000	37.80142000
46.89999739	0.00000000	65.37893000	38.96407000
47.09999738	0.00000000	71.19833000	38.96407000
47.29999737	0.00000000	77.38681000	37.80142000
47.49999736	0.00000000	82.73868000	35.89444000
47.69999734	0.00000000	85.39001000	33.53223000
47.89999733	0.00000000	84.18430000	31.20078000
48.09999732	0.00000000	79.15845000	28.93085000
48.29999731	0.00000000	71.06299000	27.81127000
48.49999730	0.00000000	62.17396000	28.55561000
48.69999729	0.00000000	54.44759000	30.46260000
48.89999727	0.00000000	49.47096000	33.20005000
49.09999726	0.00000000	49.09572000	36.26968000
49.29999725	0.00000000	53.33415000	38.96407000
49.49999724	0.00000000	61.10359000	40.50196000
49.69999723	0.00000000	71.15526000	40.50196000
49.89999721	0.00000000	81.11466000	38.92101000
50.09999720	0.00000000	88.04133000	35.85138000
50.29999719	0.00000000	89.95448000	31.99434000
50.49999718	0.00000000	86.50959000	28.51255000
50.69999717	0.00000000	78.46333000	25.81816000
50.89999715	0.00000000	68.45472000	24.70472000
51.09999714	0.00000000	59.19045000	25.86122000
51.29999713	0.00000000	52.58981000	28.93085000
51.49999712	0.00000000	50.30758000	33.15699000
51.69999711	0.00000000	52.58981000	37.38312000
51.89999710	0.00000000	59.14739000	40.50196000
52.09999708	0.00000000	67.94415000	42.03371000
52.29999707	0.00000000	76.41486000	41.61540000
52.49999706	0.00000000	82.18504000	38.92101000
52.69999705	0.00000000	83.76598000	34.73794000
52.89999704	0.00000000	81.06544000	30.51181000
53.09999702	0.00000000	74.96924000	27.44217000
53.29999701	0.00000000	67.29208000	26.19340000
53.49999700	0.00000000	60.77140000	26.59941000
53.69999699	0.00000000	56.87131000	28.14345000
53.89999698	0.00000000	56.49606000	31.20078000
54.09999696	0.00000000	59.52263000	34.18430000
54.29999695	0.00000000	64.96062000	35.80217000
54.49999694	0.00000000	71.43823000	36.22047000
54.69999693	0.00000000	77.15920000	35.80217000
54.89999692	0.00000000	79.48450000	34.27042000
55.09999691	0.00000000	78.41412000	32.04355000
55.29999689	0.00000000	74.92618000	30.51181000
55.49999688	0.00000000	69.52509000	30.13656000
55.69999687	0.00000000	63.79798000	30.88090000
55.89999686	0.00000000	59.56569000	32.83095000
56.09999685	0.00000000	58.02780000	35.06397000
56.29999683	0.00000000	59.56569000	36.96481000
56.49999682	0.00000000	63.75492000	37.29700000
56.69999681	0.00000000	69.10678000	35.80217000
56.89999680	0.00000000	73.76353000	33.06471000
57.09999679	0.00000000	76.88238000	29.62598000
57.29999677	0.00000000	77.99581000	26.19340000
57.49999676	0.00000000	76.45792000	24.32948000
57.69999675	0.00000000	72.64394000	24.69857000
57.89999674	0.00000000	68.07948000	27.43602000
58.09999673	0.00000000	64.17323000	32.08661000
58.29999672	0.00000000	61.84178000	37.85064000
58.49999670	0.00000000	61.05437000	43.14714000
58.69999669	0.00000000	62.21702000	45.84153000
58.89999668	0.00000000	64.91756000	45.10334000
59.09999667	0.00000000	68.36859000	41.61540000
59.29999666	0.00000000	71.80733000	35.80217000
59.49999664	0.00000000	73.72047000	28.88164000
59.69999663	0.00000000	73.80659000	22.74852000
59.89999662	0.00000000	72.64394000	18.94070000
60.09999661	0.00000000	70.73695000	18.94070000
60.29999660	0.00000000	68.41166000	22.74852000
60.49999658	0.00000000	66.49852000	28.97392000
60.69999657	0.00000000	65.33588000	36.68799000
60.89999656	0.00000000	65.33588000	44.30979000
61.09999655	0.00000000	66.49852000	48.91117000
61.29999654	0.00000000	68.41166000	49.37254000
61.49999653	0.00000000	70.68774000	46.30905000
61.69999651	0.00000000	72.18258000	40.45275000
61.89999650	0.00000000	72.22563000	32.73868000
62.09999649	0.00000000	71.11221000	24.69857000
62.29999648	0.00000000	69.57431000	18.98376000
62.49999647	0.00000000	67.99335000	17.35974000
62.69999645	0.00000000	66.45546000	19.63582000
62.89999644	0.00000000	65.33588000	24.65551000
63.09999643	0.00000000	65.33588000	31.62524000
63.29999642	0.00000000	66.49852000	38.92101000
63.49999641	0.00000000	68.41166000	44.72810000
63.69999639	0.00000000	70.73695000	47.84079000
63.89999638	0.00000000	72.64394000	47.84079000
64.09999637	0.00000000	73.76353000	44.72810000
64.29999636	0.00000000	73.43134000	39.00713000
64.49999635	0.00000000	71.90575000	32.46186000
64.69999634	0.00000000	70.31865000	27.01772000
64.89999632	0.00000000	67.99335000	23.12377000
65.09999631	0.00000000	65.75418000	21.58587000
65.29999630	0.00000000	65.00369000	22.70546000
65.49999629	0.00000000	65.71111000	25.72589000
65.69999628	0.00000000	67.61810000	29.62598000
65.89999626	0.00000000	69.48203000	33.48917000
66.09999625	0.00000000	70.68774000	37.01402000
66.29999624	0.00000000	71.06299000	39.38238000
66.49999623	0.00000000	70.68774000	40.96333000
66.69999622	0.00000000	69.53124000	41.70152000
66.89999620	0.00000000	68.03641000	40.96333000
67.09999619	0.00000000	66.87376000	39.43159000
67.29999618	0.00000000	66.49852000	37.43233000
67.49999617	0.00000000	66.91682000	34.68873000
67.69999616	0.00000000	68.45472000	31.57603000
67.89999615	0.00000000	70.78001000	28.46333000
68.09999613	0.00000000	73.06840000	25.72589000
68.29999612	0.00000000	74.92618000	23.86196000
68.49999611	0.00000000	74.92618000	23.49901000
68.69999610	0.00000000	73.01919000	25.44291000
68.89999609	0.00000000	70.26943000	28.88779000
69.09999607	0.00000000	66.36318000	33.20005000
69.29999606	0.00000000	62.21702000	37.85064000
69.49999605	0.00000000	59.52263000	42.07677000
69.69999604	0.00000000	59.14739000	44.72810000
69.89999603	0.00000000	61.10359000	44.72810000
70.09999601	0.00000000	65.37893000	42.03371000
70.29999600	0.00000000	71.10605000	37.38312000
70.49999599	0.00000000	76.50713000	31.57603000
70.69999598	0.00000000	79.99508000	25.81816000
70.89999597	0.00000000	81.15772000	21.59203000
71.09999596	0.00000000	79.57676000	20.05413000
71.29999594	0.00000000	75.34448000	21.54281000
71.49999593	0.00000000	69.52509000	25.39985000
71.69999592	0.00000000	63.33661000	30.41954000
71.89999591	0.00000000	57.94168000	35.80832000
72.09999590	0.00000000	54.91510000	40.03444000
72.29999588	0.00000000	55.29035000	42.03371000
72.49999587	0.00000000	59.09818000	42.03371000
72.69999586	0.00000000	64.87450000	40.12672000
72.89999585	0.00000000	71.10605000	36.68799000
73.09999584	0.00000000	76.92544000	33.24926000
73.29999582	0.00000000	81.11466000	30.51181000
73.49999581	0.00000000	82.27116000	29.01698000
73.69999580	0.00000000	80.04429000	29.34916000
73.89999579	0.00000000	75.80585000	31.20078000
74.09999578	0.00000000	70.73695000	33.06471000
74.29999577	0.00000000	65.33588000	34.27042000
74.49999575	0.00000000	61.10359000	34.64567000
74.69999574	0.00000000	59.14739000	34.22736000
74.89999573	0.00000000	59.52263000	32.73868000
75.09999572	0.00000000	62.21702000	30.88090000
75.29999571	0.00000000	66.40624000	30.13656000
75.49999569	0.00000000	70.64468000	30.55487000
75.69999568	0.00000000	73.80659000	32.50492000
75.89999567	0.00000000	75.76279000	35.93750000
76.09999566	0.00000000	76.50713000	39.38238000
76.29999565	0.00000000	75.34448000	42.07677000
76.49999563	0.00000000	72.73621000	43.14714000
76.69999562	0.00000000	70.08488000	41.61540000
76.89999561	0.00000000	68.50394000	37.80142000
77.09999560	0.00000000	68.03641000	33.15699000
77.29999559	0.00000000	68.03641000	28.51255000
77.49999558	0.00000000	68.41166000	24.65551000
77.69999556	0.00000000	69.15600000	22.74852000
77.89999555	0.00000000	69.53124000	23.16683000
78.09999554	0.00000000	69.53124000	26.27953000
78.29999553	0.00000000	69.15600000	31.62524000
78.49999552	0.00000000	68.41166000	37.38312000
78.69999550	0.00000000	68.08563000	42.07677000
78.89999549	0.00000000	68.46087000	45.14640000
79.09999548	0.00000000	69.61736000	45.88459000
79.29999547	0.00000000	71.15526000	43.56545000
79.49999546	0.00000000	72.69316000	39.00713000
79.69999544	0.00000000	73.84965000	33.62450000
79.89999543	0.00000000	74.22490000	28.93085000
80.09999542	0.00000000	73.80659000	25.44291000
80.29999541	0.00000000	72.22563000	23.49901000
80.49999540	0.00000000	69.57431000	23.91117000
80.69999539	0.00000000	66.87376000	26.14419000
80.89999537	0.00000000	64.91756000	29.62598000
81.09999536	0.00000000	63.75492000	33.11393000
81.29999535	0.00000000	63.84104000	36.26968000
81.49999534	0.00000000	65.75418000	38.96407000
81.69999533	0.00000000	69.15600000	40.50196000
81.89999531	0.00000000	72.22563000	40.58809000
82.09999530	0.00000000	74.18184000	39.80684000
82.29999529	0.00000000	74.96924000	38.63804000
82.49999528	0.00000000	74.22490000	36.64493000
82.69999527	0.00000000	72.69316000	34.31963000
82.89999525	0.00000000	70.73695000	31.57603000
83.09999524	0.00000000	68.41166000	28.88164000
83.29999523	0.00000000	66.54158000	26.93159000
83.49999522	0.00000000	65.71111000	25.77510000
83.69999521	0.00000000	66.07406000	25.81816000
83.89999520	0.00000000	66.82455000	27.34990000
84.09999518	0.00000000	67.99335000	30.08735000
84.29999517	0.00000000	69.15600000	33.57529000
84.49999516	0.00000000	69.94955000	37.43233000
84.69999515	0.00000000	70.73695000	40.50196000
84.89999514	0.00000000	71.06299000	42.07677000
85.09999512	0.00000000	70.73695000	42.03371000
85.29999511	0.00000000	70.04182000	40.07751000
85.49999510	0.00000000	70.04182000	36.26968000
85.69999509	0.00000000	70.73695000	31.99434000
85.89999508	0.00000000	71.11221000	28.08809000
86.09999506	0.00000000	71.15526000	24.65551000
86.29999505	0.00000000	71.11221000	23.16683000
86.49999504	0.00000000	70.68774000	24.28026000
86.69999503	0.00000000	69.53124000	27.34990000
86.89999502	0.00000000	68.03641000	31.61909000
87.09999501	0.00000000	66.87376000	36.22662000
87.29999499	0.00000000	66.49852000	40.07751000
87.49999498	0.00000000	66.87376000	41.99065000
87.69999497	0.00000000	68.03641000	41.61540000
87.89999496	0.00000000	69.57431000	38.92101000
88.09999495	0.00000000	71.11221000	34.73794000
88.29999493	0.00000000	72.26870000	30.51181000
88.49999492	0.00000000	72.64394000	27.39296000
88.69999491	0.00000000	72.26870000	25.86122000
88.89999490	0.00000000	71.11221000	26.27953000
89.09999489	0.00000000	69.57431000	28.93085000
89.29999487	0.00000000	68.03641000	32.78174000
89.49999486	0.00000000	66.87376000	36.64493000
89.69999485	0.00000000	66.49852000	40.12672000
89.89999484	0.00000000	66.87376000	41.99065000
90.09999483	0.00000000	67.99335000	41.56618000
90.29999482	0.00000000	69.15600000	38.50270000
90.49999480	0.00000000	69.94955000	33.62450000
90.69999479	0.00000000	70.78001000	29.39222000
90.89999478	0.00000000	71.48744000	27.01772000
91.09999477	0.00000000	71.89960000	26.23647000
91.29999476	0.00000000	71.53051000	27.44217000
91.49999474	0.00000000	71.15526000	30.51181000
91.69999473	0.00000000	70.73695000	34.73794000
91.89999472	0.00000000	70.04182000	38.96407000
92.09999471	0.00000000	69.99261000	42.03371000
92.29999470	0.00000000	70.31865000	43.14714000
92.49999468	0.00000000	69.94955000	41.61540000
92.69999467	0.00000000	69.61736000	37.80142000
92.89999466	0.00000000	69.53124000	33.20005000
93.09999465	0.00000000	69.10678000	28.97392000
93.29999464	0.00000000	67.99335000	26.27953000
93.49999463	0.00000000	66.91682000	25.86122000
93.69999461	0.00000000	66.91682000	27.44217000
93.89999460	0.00000000	68.03641000	30.93012000
94.09999459	0.00000000	69.61736000	35.85138000
94.29999458	0.00000000	71.57356000	40.03444000
94.49999457	0.00000000	73.84965000	42.03371000
94.69999455	0.00000000	75.34448000	42.03371000
94.89999454	0.00000000	75.38755000	40.07751000
95.09999453	0.00000000	74.22490000	36.22662000
95.29999452	0.00000000	72.26870000	31.66830000
95.49999451	0.00000000	69.52509000	27.81127000
95.69999449	0.00000000	66.45546000	25.90428000
95.89999448	0.00000000	63.75492000	26.23647000
96.09999447	0.00000000	62.26008000	28.55561000
96.29999446	0.00000000	62.63533000	31.99434000
96.49999445	0.00000000	64.96062000	35.85138000
96.69999444	0.00000000	68.41166000	38.87795000
96.89999442	0.00000000	72.31791000	40.08366000
97.09999441	0.00000000	75.80585000	39.33932000
97.29999440	0.00000000	78.50639000	37.43233000
97.49999439	0.00000000	79.61983000	34.73794000
97.69999438	0.00000000	78.46333000	32.08661000
97.89999436	0.00000000	75.43060000	30.51181000
98.09999435	0.00000000	71.53051000	30.09350000
98.29999434	0.00000000	67.61810000	30.46260000
98.49999433	0.00000000	63.75492000	31.57603000
98.69999432	0.00000000	61.14665000	32.73868000
98.89999430	0.00000000	61.10359000	33.53223000
99.09999429	0.00000000	63.33661000	34.31963000
99.29999428	0.00000000	66.40624000	34.69488000
99.49999427	0.00000000	69.61736000	34.73794000
99.69999426	0.00000000	73.06840000	34.73794000
99.89999425	0.00000000	76.13188000	34.73794000
100.09999423	0.00000000	77.30068000	34.78100000
100.29999422	0.00000000	76.96850000	35.15625000
100.49999421	0.00000000	75.38755000	35.85138000
100.69999420	0.00000000	72.69316000	35.80217000
100.89999419	0.00000000	69.61736000	34.68873000
101.09999417	0.00000000	66.87376000	33.15699000
101.29999416	0.00000000	64.91756000	31.57603000
101.49999415	0.00000000	63.75492000	30.04429000
101.69999414	0.00000000	63.75492000	28.93085000
101.89999413	0.00000000	64.91756000	28.93085000
102.09999411	0.00000000	66.82455000	30.08735000
102.29999410	0.00000000	69.19906000	32.04355000
102.49999409	0.00000000	71.48744000	34.73794000
102.69999408	0.00000000	73.48056000	37.38312000
102.89999407	0.00000000	74.60014000	38.92101000
103.09999406	0.00000000	75.01230000	38.96407000
103.29999404	0.00000000	74.22490000	37.80142000
103.49999403	0.00000000	72.69316000	35.85138000
103.69999402	0.00000000	70.73695000	33.15699000
103.89999401	0.00000000	68.45472000	30.46260000
104.09999400	0.00000000	66.91682000	28.55561000
104.29999398	0.00000000	66.44931000	27.76821000
104.49999397	0.00000000	66.44931000	28.55561000
104.69999396	0.00000000	66.87376000	30.46260000
104.89999395	0.00000000	68.03641000	33.15699000
105.09999394	0.00000000	69.57431000	35.85138000
105.29999392	0.00000000	71.11221000	37.80142000
105.49999391	0.00000000	72.26870000	38.92101000
105.69999390	0.00000000	72.64394000	38.54576000
105.89999389	0.00000000	72.26870000	36.64493000
106.09999388	0.00000000	71.15526000	34.36269000
106.29999387	0.00000000	69.99261000	32.04355000
106.49999385	0.00000000	69.19906000	30.51181000
106.69999384	0.00000000	68.46087000	30.13656000
106.89999383	0.00000000	68.50394000	30.88090000
107.09999382	0.00000000	69.57431000	32.78174000
107.29999381	0.00000000	70.68774000	34.68873000
107.49999379	0.00000000	71.15526000	36.22662000
107.69999378	0.00000000	71.53051000	37.00787000
107.89999377	0.00000000	71.85040000	36.64493000
108.09999376	0.00000000	71.11221000	35.89444000
108.29999375	0.00000000	69.99261000	34.68873000
108.49999374	0.00000000	69.19906000	33.20005000
108.69999372	0.00000000	68.41166000	32.04355000
108.89999371	0.00000000	68.08563000	31.66830000
109.09999370	0.00000000	68.46087000	32.04355000
109.29999369	0.00000000	69.61736000	33.20005000
109.49999368	0.00000000	71.11221000	34.73794000
109.69999366	0.00000000	72.26870000	36.26968000
109.89999365	0.00000000	72.69316000	37.42618000
110.09999364	0.00000000	72.69316000	37.80142000
110.29999363	0.00000000	72.31791000	37.42618000
110.49999362	0.00000000	71.53051000	36.26968000
110.69999360	0.00000000	70.73695000	34.73794000
110.89999359	0.00000000	69.57431000	33.20005000
111.09999358	0.00000000	68.46087000	32.04355000
111.29999357	0.00000000	68.08563000	31.61909000
111.49999356	0.00000000	68.41166000	31.61909000
111.69999355	0.00000000	69.19906000	31.99434000
111.89999353	0.00000000	69.94955000	32.78174000
112.09999352	0.00000000	70.73695000	33.53223000
112.29999351	0.00000000	71.11221000	34.36269000
112.49999350	0.00000000	71.15526000	35.06397000
112.69999349	0.00000000	71.15526000	35.47613000
112.89999347	0.00000000	71.15526000	35.11319000
113.09999346	0.00000000	71.11221000	34.78100000
113.29999345	0.00000000	70.73695000	34.69488000
113.49999344	0.00000000	69.99261000	34.31963000
113.69999343	0.00000000	69.61736000	33.57529000
113.89999341	0.00000000	69.57431000	33.20005000
114.09999340	0.00000000	69.57431000	33.15699000
114.29999339	0.00000000	69.61736000	33.11393000
114.49999338	0.00000000	69.99261000	32.73868000
114.69999337	0.00000000	70.73695000	31.99434000
114.89999336	0.00000000	71.11221000	31.61909000
115.09999334	0.00000000	71.11221000	31.57603000
115.29999333	0.00000000	70.78001000	31.61909000
115.49999332	0.00000000	70.36786000	32.04355000
115.69999331	0.00000000	70.36171000	33.15699000
115.89999330	0.00000000	69.94955000	34.31963000
116.09999328	0.00000000	69.61736000	35.11319000
116.29999327	0.00000000	69.57431000	35.85138000
116.49999326	0.00000000	69.57431000	35.85138000
116.69999325	0.00000000	69.57431000	35.11319000
116.89999324	0.00000000	69.57431000	34.36269000
117.09999322	0.00000000	69.61736000	33.53223000
117.29999321	0.00000000	69.99261000	32.73868000
117.49999320	0.00000000	70.78001000	31.57603000
117.69999319	0.00000000	71.53051000	30.46260000
117.89999318	0.00000000	72.31791000	30.09350000
118.09999317	0.00000000	72.64394000	30.46260000
118.29999315	0.00000000	72.26870000	31.57603000
118.49999314	0.00000000	71.11221000	32.73868000
118.69999313	0.00000000	69.61736000	33.53223000
118.89999312	0.00000000	68.46087000	34.36269000
119.09999311	0.00000000	68.03641000	35.06397000
119.29999309	0.00000000	67.99335000	35.47613000
119.49999308	0.00000000	68.03641000	35.11319000
119.69999307	0.00000000	68.46087000	34.78100000
119.89999306	0.00000000	69.61736000	34.69488000
120.09999305	0.00000000	71.11221000	34.31963000
120.29999303	0.00000000	72.31791000	33.57529000
120.49999302	0.00000000	73.06840000	33.20005000
120.69999301	0.00000000	73.48056000	33.15699000
120.89999300	0.00000000	73.06840000	33.15699000
121.09999299	0.00000000	72.31791000	33.15699000
121.29999298	0.00000000	71.15526000	33.15699000
121.49999296	0.00000000	69.99261000	33.20005000
121.69999295	0.00000000	69.19906000	33.57529000
121.89999294	0.00000000	68.41166000	34.31963000
122.09999293	0.00000000	68.03641000	34.73794000
122.29999292	0.00000000	68.03641000	35.15625000
122.49999290	0.00000000	68.46087000	35.89444000
122.69999289	0.00000000	69.57431000	36.26968000
122.89999288	0.00000000	70.73695000	36.26968000
123.09999287	0.00000000	71.53051000	35.93750000
123.29999286	0.00000000	72.31791000	35.53149000
123.49999284	0.00000000	72.69316000	35.51919000
123.69999283	0.00000000	72.73621000	35.11319000
123.89999282	0.00000000	72.73621000	34.73794000
124.09999281	0.00000000	72.69316000	34.31963000
124.29999280	0.00000000	72.26870000	33.57529000
124.49999279	0.00000000	71.15526000	33.20005000
124.69999277	0.00000000	70.04182000	33.20005000
124.89999276	0.00000000	69.57431000	33.57529000
125.09999275	0.00000000	69.19906000	34.31963000
125.29999274	0.00000000	68.82996000	34.69488000
125.49999273	0.00000000	69.24213000	34.73794000
125.69999271	0.00000000	69.94955000	34.73794000
125.89999270	0.00000000	70.78001000	34.73794000
126.09999269	0.00000000	71.57356000	34.73794000
126.29999268	0.00000000	72.69316000	34.73794000
126.49999267	0.00000000	73.43134000	34.73794000
126.69999265	0.00000000	73.06840000	34.69488000
126.89999264	0.00000000	72.36097000	34.31963000
127.09999263	0.00000000	71.53051000	33.57529000
127.29999262	0.00000000	70.73695000	33.20005000
127.49999261	0.00000000	69.57431000	33.15699000
127.69999260	0.00000000	68.46087000	33.15699000
127.89999258	0.00000000	68.08563000	33.15699000
128.09999257	0.00000000	68.46087000	33.20005000
128.29999256	0.00000000	69.57431000	33.57529000
128.49999255	0.00000000	70.73695000	34.31963000
128.69999254	0.00000000	71.53051000	34.69488000
128.89999252	0.00000000	72.31791000	34.73794000
129.09999251	0.00000000	72.69316000	34.69488000
129.29999250	0.00000000	72.69316000	34.31963000
129.49999249	0.00000000	72.26870000	33.57529000
129.69999248	0.00000000	71.15526000	33.20005000
129.89999246	0.00000000	69.99261000	33.15699000
130.09999245	0.00000000	69.19906000	33.15699000
130.29999244	0.00000000	68.46087000	33.15699000
130.49999243	0.00000000	68.46087000	33.15699000
130.69999242	0.00000000	69.19906000	33.20005000
130.89999241	0.00000000	69.99261000	33.57529000
131.09999239	0.00000000	71.15526000	34.27042000
131.29999238	0.00000000	72.26870000	34.27042000
131.49999237	0.00000000	72.64394000	33.57529000
131.69999236	0.00000000	72.31791000	33.15699000
131.89999235	0.00000000	71.57356000	32.78174000
132.09999233	0.00000000	71.15526000	32.41265000
132.29999232	0.00000000	70.73695000	32.78174000
132.49999231	0.00000000	69.99261000	33.11393000
132.69999230	0.00000000	69.61736000	33.20005000
132.89999229	0.00000000	69.61736000	33.57529000
133.09999227	0.00000000	69.99261000	34.31963000
133.29999226	0.00000000	70.73695000	34.69488000
133.49999225	0.00000000	71.11221000	34.73794000
133.69999224	0.00000000	71.15526000	34.73794000
133.89999223	0.00000000	71.15526000	34.69488000
134.09999222	0.00000000	71.15526000	34.31963000
134.29999220	0.00000000	71.15526000	33.57529000
134.49999219	0.00000000	71.15526000	33.15699000
134.69999218	0.00000000	71.15526000	32.78174000
134.89999217	0.00000000	71.15526000	32.41265000
135.09999216	0.00000000	71.19833000	32.78174000
135.29999214	0.00000000	71.53051000	33.11393000
135.49999213	0.00000000	71.89960000	33.20005000
135.69999212	0.00000000	71.53051000	33.57529000
135.89999211	0.00000000	71.15526000	34.36269000
136.09999210	0.00000000	70.73695000	35.11319000
136.29999208	0.00000000	69.99261000	35.85138000
136.49999207	0.00000000	69.61736000	35.85138000
136.69999206	0.00000000	69.61736000	35.15625000
136.89999205	0.00000000	69.99261000	34.73794000
137.09999204	0.00000000	70.78001000	34.31963000
137.29999203	0.00000000	71.53051000	33.57529000
137.49999201	0.00000000	72.31791000	33.20005000
137.69999200	0.00000000	72.69316000	33.15699000
137.89999199	0.00000000	72.73621000	33.15699000
138.09999198	0.00000000	72.69316000	33.15699000
138.29999197	0.00000000	72.31791000	33.15699000
138.49999195	0.00000000	71.53051000	33.20005000
138.69999194	0.00000000	70.78001000	33.57529000
138.89999193	0.00000000	69.99261000	34.31963000
139.09999192	0.00000000	69.66658000	34.73794000
139.29999191	0.00000000	69.99261000	35.15625000
139.49999189	0.00000000	70.73695000	35.89444000
139.69999188	0.00000000	71.15526000	36.22047000
139.89999187	0.00000000	71.57356000	35.89444000
140.09999186	0.00000000	72.31791000	35.15625000
140.29999185	0.00000000	72.69316000	34.73794000
140.49999184	0.00000000	72.69316000	34.31963000
140.69999182	0.00000000	72.31791000	33.57529000
140.89999181	0.00000000	71.57356000	33.20005000
141.09999180	0.00000000	71.19833000	33.15699000
141.29999179	0.00000000	71.15526000	33.15699000
141.49999178	0.00000000	71.15526000	33.20005000
141.69999176	0.00000000	71.15526000	33.57529000
141.89999175	0.00000000	71.19833000	34.36269000
142.09999174	0.00000000	71.53051000	35.11319000
142.29999173	0.00000000	71.89960000	35.89444000
142.49999172	0.00000000	71.53051000	36.22047000
142.69999170	0.00000000	71.19833000	35.89444000
142.89999169	0.00000000	71.15526000	35.11319000
143.09999168	0.00000000	71.15526000	34.36269000
143.29999167	0.00000000	71.15526000	33.53223000
143.49999166	0.00000000	71.15526000	32.82480000
143.69999165	0.00000000	71.15526000	32.41265000
143.89999163	0.00000000	71.15526000	32.78174000
144.09999162	0.00000000	71.15526000	33.15699000
144.29999161	0.00000000	71.19833000	33.57529000
144.49999160	0.00000000	71.57356000	34.31963000
144.69999159	0.00000000	72.31791000	34.69488000
144.89999157	0.00000000	72.64394000	34.73794000
145.09999156	0.00000000	72.31791000	34.73794000
145.29999155	0.00000000	71.57356000	34.73794000
145.49999154	0.00000000	71.19833000	34.69488000
145.69999153	0.00000000	71.15526000	34.31963000
145.89999151	0.00000000	71.15526000	33.57529000
146.09999150	0.00000000	71.15526000	33.15699000
146.29999149	0.00000000	71.15526000	32.78174000
146.49999148	0.00000000	71.15526000	32.41265000
146.69999147	0.00000000	71.19833000	32.78174000
146.89999146	0.00000000	71.57356000	33.15699000
147.09999144	0.00000000	72.26870000	33.53223000
147.29999143	0.00000000	72.31791000	33.94439000
147.49999142	0.00000000	71.94881000	33.95054000
147.69999141	0.00000000	71.94266000	34.36269000
147.89999140	0.00000000	71.53051000	34.69488000
148.09999138	0.00000000	71.15526000	34.73794000
148.29999137	0.00000000	70.78001000	34.69488000
148.49999136	0.00000000	70.41092000	34.31963000
148.69999135	0.00000000	70.78001000	33.57529000
148.89999134	0.00000000	71.11221000	33.20005000
149.09999132	0.00000000	71.15526000	33.15699000
149.29999131	0.00000000	71.19833000	33.15699000
149.49999130	0.00000000	71.53051000	33.15699000
149.69999129	0.00000000	71.94266000	33.20005000
149.89999128	0.00000000	71.90575000	33.57529000
150.09999127	0.00000000	71.94266000	34.31963000
150.29999125	0.00000000	71.57356000	34.69488000
150.49999124	0.00000000	71.53051000	34.73794000
150.69999123	0.00000000	71.52435000	34.73794000
150.89999122	0.00000000	70.78616000	34.73794000
151.09999121	0.00000000	70.82307000	34.73794000
151.29999119	0.00000000	71.11221000	34.73794000
151.49999118	0.00000000	71.15526000	34.73794000
151.69999117	0.00000000	71.15526000	34.69488000
151.89999116	0.00000000	71.19833000	34.31963000
152.09999115	0.00000000	71.57356000	33.62450000
152.29999113	0.00000000	72.31791000	33.62450000
152.49999112	0.00000000	72.69316000	34.27042000
152.69999111	0.00000000	72.73621000	34.31963000
152.89999110	0.00000000	72.73621000	33.99360000
153.09999109	0.00000000	72.69316000	34.36269000
153.29999108	0.00000000	72.31791000	34.69488000
153.49999106	0.00000000	71.57356000	34.73794000
153.69999105	0.00000000	71.19833000	34.73794000
153.89999104	0.00000000	71.11221000	34.73794000
154.09999103	0.00000000	70.78001000	34.73794000
154.29999102	0.00000000	70.41092000	34.73794000
154.49999100	0.00000000	70.78001000	34.73794000
154.69999099	0.00000000	71.15526000	34.73794000
154.89999098	0.00000000	71.53051000	34.69488000
155.09999097	0.00000000	71.94266000	34.36269000
155.29999096	0.00000000	71.94881000	33.99360000
155.49999094	0.00000000	72.36097000	34.36269000
155.69999093	0.00000000	72.69316000	34.69488000
155.89999092	0.00000000	72.73621000	34.73794000
156.09999091	0.00000000	72.69316000	34.73794000
156.29999090	0.00000000	72.31791000	34.73794000
156.49999089	0.00000000	71.57356000	34.78100000
156.69999087	0.00000000	71.19833000	35.15625000
156.89999086	0.00000000	71.15526000	35.89444000
157.09999085	0.00000000	71.15526000	36.22047000
157.29999084	0.00000000	71.15526000	35.89444000
157.49999083	0.00000000	71.15526000	35.15625000
157.69999081	0.00000000	71.19833000	34.78100000
157.89999080	0.00000000	71.57356000	34.69488000
158.09999079	0.00000000	72.31791000	34.31963000
158.29999078	0.00000000	72.69316000	33.57529000
158.49999077	0.00000000	72.73621000	33.20005000
158.69999075	0.00000000	72.73621000	33.20005000
158.89999074	0.00000000	72.73621000	33.57529000
159.09999073	0.00000000	72.69316000	34.31963000
159.29999072	0.00000000	72.31791000	34.69488000
159.49999071	0.00000000	71.57356000	34.73794000
159.69999070	0.00000000	71.19833000	34.73794000
159.89999068	0.00000000	71.15526000	34.73794000
160.09999067	0.00000000	71.15526000	34.73794000
160.29999066	0.00000000	71.15526000	34.73794000
160.49999065	0.00000000	71.15526000	34.73794000
160.69999064	0.00000000	71.15526000	34.69488000
160.89999062	0.00000000	71.15526000	34.31963000
161.09999061	0.00000000	71.15526000	33.57529000
161.29999060	0.00000000	71.19833000	33.20005000
161.49999059	0.00000000	71.53051000	33.15699000
161.69999058	0.00000000	71.94266000	33.15699000
161.89999056	0.00000000	71.90575000	33.20005000
162.09999055	0.00000000	71.98573000	33.57529000
162.29999054	0.00000000	71.94881000	34.31963000
162.49999053	0.00000000	72.31791000	34.69488000
162.69999052	0.00000000	72.26870000	34.73794000
162.89999051	0.00000000	71.57356000	34.73794000
163.09999049	0.00000000	71.19833000	34.73794000
163.29999048	0.00000000	71.15526000	34.69488000
163.49999047	0.00000000	71.15526000	34.31963000
163.69999046	0.00000000	71.15526000	33.62450000
163.89999045	0.00000000	71.15526000	33.57529000
164.09999043	0.00000000	71.15526000	33.90133000
164.29999042	0.00000000	71.19833000	33.53223000
164.49999041	0.00000000	71.57356000	33.20005000
164.69999040	0.00000000	72.31791000	33.15699000
164.89999039	0.00000000	72.69316000	33.15699000
165.09999037	0.00000000	72.73621000	33.20005000
165.29999036	0.00000000	72.73621000	33.57529000
165.49999035	0.00000000	72.69316000	34.31963000
165.69999034	0.00000000	72.31791000	34.69488000
165.89999033	0.00000000	71.57356000	34.73794000
166.09999032	0.00000000	71.19833000	34.73794000
166.29999030	0.00000000	71.15526000	34.73794000
166.49999029	0.00000000	71.15526000	34.73794000
166.69999028	0.00000000	71.15526000	34.73794000
166.89999027	0.00000000	71.15526000	34.73794000
167.09999026	0.00000000	71.15526000	34.73794000
167.29999024	0.00000000	71.19833000	34.73794000
167.49999023	0.00000000	71.57356000	34.73794000
167.69999022	0.00000000	72.31791000	34.73794000
167.89999021	0.00000000	72.69316000	34.69488000
168.09999020	0.00000000	72.73621000	34.36269000
168.29999018	0.00000000	72.73621000	33.99360000
168.49999017	0.00000000	72.73621000	34.36269000
168.69999016	0.00000000	72.69316000	34.69488000
168.89999015	0.00000000	72.36097000	34.73794000
169.09999014	0.00000000	71.94881000	34.73794000
169.29999013	0.00000000	71.94266000	34.73794000
169.49999011	0.00000000	71.53051000	34.73794000
169.69999010	0.00000000	71.24754000	34.73794000
169.89999009	0.00000000	71.57356000	34.73794000
170.09999008	0.00000000	72.31791000	34.73794000
170.29999007	0.00000000	72.69316000	34.73794000
170.49999005	0.00000000	72.73621000	34.73794000
170.69999004	0.00000000	72.73621000	34.73794000
170.89999003	0.00000000	72.73621000	34.73794000
171.09999002	0.00000000	72.73621000	34.73794000
171.29999001	0.00000000	72.73621000	34.73794000
171.49998999	0.00000000	72.69316000	34.73794000
171.69998998	0.00000000	72.31791000	34.69488000
171.89998997	0.00000000	71.62278000	34.36269000
172.09998996	0.00000000	71.62278000	33.99360000
172.29998995	0.00000000	72.26870000	34.36269000
172.49998994	0.00000000	72.31791000	34.69488000
172.69998992	0.00000000	71.99188000	34.73794000
172.89998991	0.00000000	72.36097000	34.73794000
173.09998990	0.00000000	72.69316000	34.73794000
173.29998989	0.00000000	72.73621000	34.73794000
173.49998988	0.00000000	72.73621000	34.73794000
173.69998986	0.00000000	72.73621000	34.73794000
173.89998985	0.00000000	72.73621000	34.73794000
174.09998984	0.00000000	72.73621000	34.73794000
174.29998983	0.00000000	72.73621000	34.73794000
174.49998982	0.00000000	72.73621000	34.73794000
174.69998980	0.00000000	72.69316000	34.73794000
174.89998979	0.00000000	72.36097000	34.73794000
175.09998978	0.00000000	71.99188000	34.73794000
175.29998977	0.00000000	72.36097000	34.73794000
175.49998976	0.00000000	72.69316000	34.73794000
175.69998975	0.00000000	72.73621000	34.73794000
175.89998973	0.00000000	72.73621000	34.69488000
176.09998972	0.00000000	72.73621000	34.31963000
176.29998971	0.00000000	72.73621000	33.62450000
176.49998970	0.00000000	72.73621000	33.57529000
176.69998969	0.00000000	72.69316000	33.90133000
176.89998967	0.00000000	72.31791000	33.53223000
177.09998966	0.00000000	71.57356000	33.20005000
177.29998965	0.00000000	71.19833000	33.15699000
177.49998964	0.00000000	71.15526000	33.15699000
177.69998963	0.00000000	71.15526000	33.15699000
177.89998961	0.00000000	71.15526000	33.20005000
178.09998960	0.00000000	71.19833000	33.53223000
178.29998959	0.00000000	71.53051000	33.90133000
178.49998958	0.00000000	71.89960000	33.57529000
178.69998957	0.00000000	71.57356000	33.62450000
178.89998956	0.00000000	71.62278000	34.31963000
179.09998954	0.00000000	72.31791000	34.69488000
179.29998953	0.00000000	72.69316000	34.69488000
179.49998952	0.00000000	72.73621000	34.36269000
179.69998951	0.00000000	72.73621000	33.99360000
179.89998950	0.00000000	72.73621000	34.36269000
180.09998948	0.00000000	72.69316000	34.69488000
180.29998947	0.00000000	72.36097000	34.73794000
180.49998946	0.00000000	71.99188000	34.73794000
180.69998945	0.00000000	72.36097000	34.73794000
180.89998944	0.00000000	72.69316000	34.73794000
181.09998942	0.00000000	72.73621000	34.73794000
181.29998941	0.00000000	72.73621000	34.73794000
181.49998940	0.00000000	72.73621000	34.73794000
181.69998939	0.00000000	72.73621000	34.73794000
181.89998938	0.00000000	72.73621000	34.73794000
182.09998937	0.00000000	72.73621000	34.73794000
182.29998935	0.00000000	72.73621000	34.73794000
182.49998934	0.00000000	72.69316000	34.73794000
182.69998933	0.00000000	72.36097000	34.73794000
182.89998932	0.00000000	71.99188000	34.73794000
183.09998931	0.00000000	72.36097000	34.73794000
183.29998929	0.00000000	72.69316000	34.73794000
183.49998928	0.00000000	72.73621000	34.73794000
183.69998927	0.00000000	72.73621000	34.73794000
183.89998926	0.00000000	72.73621000	34.73794000
184.09998925	0.00000000	72.73621000	34.73794000
184.29998923	0.00000000	72.73621000	34.78100000
184.49998922	0.00000000	72.73621000	35.15625000
184.69998921	0.00000000	72.73621000	35.89444000
184.89998920	0.00000000	72.73621000	36.26968000
185.09998919	0.00000000	72.73621000	36.26968000
185.29998918	0.00000000	72.73621000	35.89444000
185.49998916	0.00000000	72.73621000	35.15625000
185.69998915	0.00000000	72.73621000	34.73794000
185.89998914	0.00000000	72.73621000	34.31963000
186.09998913	0.00000000	72.73621000	33.57529000
186.29998912	0.00000000	72.73621000	33.20005000
186.49998910	0.00000000	72.73621000	33.20005000
186.69998909	0.00000000	72.73621000	33.57529000
186.89998908	0.00000000	72.73621000	34.31963000
187.09998907	0.00000000	72.69316000	34.69488000
187.29998906	0.00000000	72.36097000	34.78100000
187.49998904	0.00000000	71.99188000	35.11319000
187.69998903	0.00000000	72.36097000	35.47613000
187.89998902	0.00000000	72.69316000	35.11319000
188.09998901	0.00000000	72.73621000	34.78100000
188.29998900	0.00000000	72.73621000	34.73794000
188.49998899	0.00000000	72.73621000	34.69488000
188.69998897	0.00000000	72.73621000	34.31963000
188.89998896	0.00000000	72.73621000	33.57529000
189.09998895	0.00000000	72.73621000	33.20005000
189.29998894	0.00000000	72.73621000	33.20005000
189.49998893	0.00000000	72.73621000	33.57529000
189.69998891	0.00000000	72.73621000	34.31963000
189.89998890	0.00000000	72.69316000	34.69488000
190.09998889	0.00000000	72.31791000	34.73794000
190.29998888	0.00000000	71.62278000	34.73794000
190.49998887	0.00000000	71.62278000	34.73794000
190.69998885	0.00000000	72.31791000	34.73794000
190.89998884	0.00000000	72.69316000	34.73794000
191.09998883	0.00000000	72.73621000	34.73794000
191.29998882	0.00000000	72.73621000	34.73794000
191.49998881	0.00000000	72.73621000	34.69488000
191.69998880	0.00000000	72.73621000	34.31963000
191.89998878	0.00000000	72.73621000	33.62450000
192.09998877	0.00000000	72.73621000	33.57529000
192.29998876	0.00000000	72.73621000	33.90133000
192.49998875	0.00000000	72.73621000	33.53223000
192.69998874	0.00000000	72.73621000	33.24926000
192.89998872	0.00000000	72.69316000	33.53223000
193.09998871	0.00000000	72.36097000	33.94439000
193.29998870	0.00000000	71.94881000	33.95054000
193.49998869	0.00000000	71.98573000	34.36269000
193.69998868	0.00000000	71.94881000	34.69488000
193.89998866	0.00000000	72.36097000	34.73794000
194.09998865	0.00000000	72.69316000	34.73794000
194.29998864	0.00000000	72.73621000	34.73794000
194.49998863	0.00000000	72.73621000	34.73794000
194.69998862	0.00000000	72.73621000	34.73794000
194.89998861	0.00000000	72.73621000	34.73794000
195.09998859	0.00000000	72.73621000	34.69488000
195.29998858	0.00000000	72.73621000	34.36269000
195.49998857	0.00000000	72.73621000	33.99360000
195.69998856	0.00000000	72.73621000	34.36269000
195.89998855	0.00000000	72.73621000	34.69488000
196.09998853	0.00000000	72.73621000	34.73794000
