Time	Channel A	Channel B	Channel C
(us)	(V)	(mV)	(mV)

-4.49999956	0.00000000	-63.24434000	-15.78494000
-4.29999957	0.00000000	-63.24434000	-15.78494000
-4.09999958	0.00000000	-63.24434000	-15.78494000
-3.89999959	0.00000000	-63.24434000	-15.78494000
-3.69999960	0.00000000	-63.24434000	-15.78494000
-3.49999962	0.00000000	-63.24434000	-15.78494000
-3.29999963	0.00000000	-63.24434000	-15.78494000
-3.09999964	0.00000000	-63.24434000	-15.78494000
-2.89999965	0.00000000	-63.24434000	-15.78494000
-2.69999966	0.00000000	-63.24434000	-15.78494000
-2.49999968	0.00000000	-63.24434000	-15.78494000
-2.29999969	0.00000000	-63.24434000	-15.78494000
-2.09999970	0.00000000	-63.24434000	-15.78494000
-1.89999971	0.00000000	-63.24434000	-15.78494000
-1.69999972	0.00000000	-63.24434000	-15.78494000
-1.49999973	0.00000000	-63.24434000	-15.78494000
-1.29999975	0.00000000	-63.24434000	-15.78494000
-1.09999976	0.00000000	-63.24434000	-15.78494000
-0.89999977	0.00000000	-63.24434000	-15.78494000
-0.69999978	0.00000000	-63.24434000	-15.78494000
-0.49999979	0.00000000	-63.24434000	-15.78494000
-0.29999981	0.31803640	-63.24434000	-15.78494000
-0.09999982	0.63668800	-63.24434000	-15.78494000
0.10000017	0.95533960	-63.24434000	-15.78494000
0.30000016	1.11466500	-63.24434000	-15.78494000
0.50000015	0.95533960	-63.20127000	-15.78494000
0.70000013	0.31803640	-62.86909000	-15.78494000
0.90000012	-0.47736220	-62.50000000	-15.78494000
1.10000011	-1.43331700	-62.86909000	-15.78494000
1.30000010	-2.22994600	-63.20127000	-15.78494000
1.50000009	-2.70792300	-63.24434000	-15.78494000
1.70000008	-2.54859700	-63.24434000	-15.78494000
1.90000006	-1.43331700	-63.24434000	-15.78494000
2.10000005	0.31803640	-63.24434000	-15.78494000
2.30000004	2.54859700	-63.20127000	-15.78494000
2.50000003	4.30056600	-62.86909000	-15.78494000
2.70000002	5.25652100	-62.50000000	-15.78494000
2.90000000	4.93786900	-62.86909000	-15.82800000
3.09999999	3.18590100	-63.20127000	-16.16018000
3.29999998	0.15871060	-63.24434000	-16.57234000
3.49999997	-3.18590100	-63.24434000	-16.53543000
3.69999996	-6.21247500	-63.24434000	-16.57234000
3.89999994	-7.80511800	-63.24434000	-16.16018000
4.09999993	-7.64579200	-63.24434000	-15.82800000
4.29999992	-5.25652100	-63.24434000	-15.78494000
4.49999991	-1.43331700	-63.24434000	-15.78494000
4.69999990	3.02657500	-63.24434000	-15.78494000
4.89999989	6.84916400	-63.24434000	-15.82800000
5.09999987	9.23905000	-63.24434000	-16.20325000
5.29999986	9.23905000	-63.24434000	-16.94759000
5.49999985	6.84916400	-63.24434000	-17.32283000
5.69999984	2.86724900	-63.24434000	-17.36589000
5.89999983	-1.91129400	-63.24434000	-17.32283000
6.09999981	-6.21247500	-63.24434000	-16.94759000
6.29999980	-8.92039900	-63.24434000	-16.20325000
6.49999979	-9.39837600	-63.20127000	-15.82800000
6.69999978	-7.32714100	-62.86909000	-15.78494000
6.89999977	-3.82258900	-62.50000000	-15.78494000
7.09999975	0.63668800	-62.86909000	-15.78494000
7.29999974	4.45989200	-63.20127000	-15.78494000
7.49999973	7.16781500	-63.24434000	-15.82800000
7.69999972	7.64579200	-63.24434000	-16.20325000
7.89999971	6.53112700	-63.24434000	-16.89837000
8.09999970	3.82258900	-63.24434000	-16.89837000
8.29999968	0.47736220	-63.24434000	-16.20325000
8.49999967	-2.54859700	-63.24434000	-15.82800000
8.69999966	-4.61921700	-63.24434000	-15.78494000
8.89999965	-5.25652100	-63.24434000	-15.78494000
9.09999964	-4.45989200	-63.24434000	-15.78494000
9.29999962	-2.86724900	-63.24434000	-15.78494000
9.49999961	-0.79601380	-63.24434000	-15.78494000
9.69999960	0.95533960	-63.24434000	-15.78494000
9.89999959	2.07062000	-63.24434000	-15.78494000
10.09999958	2.54859700	-63.24434000	-15.78494000
10.29999956	2.22994600	-63.24434000	-15.78494000
10.49999955	1.43331700	-63.24434000	-15.82800000
10.69999954	0.63668800	-63.24434000	-16.16018000
10.89999953	-0.15871060	-63.24434000	-16.52928000
11.09999952	-0.63668800	-63.24434000	-16.16018000
11.29999951	-0.95533960	-63.20127000	-15.82800000
11.49999949	-0.95533960	-62.86909000	-15.78494000
11.69999948	-0.79601380	-62.50000000	-15.78494000
11.89999947	-0.47736220	-62.86909000	-15.78494000
12.09999946	-0.15871060	-63.20127000	-15.78494000
12.29999945	-0.15871060	-63.24434000	-15.78494000
12.49999943	-0.15871060	-63.24434000	-15.78494000
12.69999942	0.00000000	-63.24434000	-15.78494000
12.89999941	0.00000000	-63.24434000	-15.78494000
13.09999940	0.00000000	-63.24434000	-15.78494000
13.29999939	0.00000000	-63.24434000	-15.78494000
13.49999937	0.00000000	-63.20127000	-15.78494000
13.69999936	0.00000000	-62.86909000	-15.78494000
13.89999935	0.00000000	-62.50000000	-15.78494000
14.09999934	-0.15871060	-62.86909000	-15.78494000
14.29999933	-0.15871060	-63.20127000	-15.82800000
14.49999932	-0.15871060	-63.24434000	-16.16018000
14.69999930	0.00000000	-63.24434000	-16.52928000
14.89999929	0.00000000	-63.24434000	-16.16018000
15.09999928	0.00000000	-63.24434000	-15.82800000
15.29999927	0.00000000	-63.24434000	-15.78494000
15.49999926	0.00000000	-63.24434000	-15.78494000
15.69999924	0.00000000	-63.24434000	-15.78494000
15.89999923	0.00000000	-63.24434000	-15.78494000
16.09999922	0.00000000	-63.24434000	-15.78494000
16.29999921	0.00000000	-63.24434000	-15.78494000
16.49999920	-0.15871060	-63.24434000	-15.78494000
16.69999919	0.00000000	-63.20127000	-15.78494000
16.89999917	0.00000000	-62.82603000	-15.78494000
17.09999916	0.00000000	-62.08169000	-15.78494000
17.29999915	0.00000000	-61.66338000	-15.78494000
17.49999914	0.00000000	-61.28814000	-15.78494000
17.69999913	0.00000000	-60.91904000	-15.78494000
17.89999911	0.00000000	-61.33120000	-15.78494000
18.09999910	0.00000000	-62.08169000	-15.78494000
18.29999909	0.00000000	-63.28740000	-15.78494000
18.49999908	0.00000000	-64.82529000	-15.78494000
18.69999907	0.00000000	-66.36318000	-15.74188000
18.89999905	0.00000000	-67.48277000	-15.40969000
19.09999904	0.00000000	-67.48277000	-15.04675000
19.29999903	0.00000000	-66.27091000	-15.40969000
19.49999902	0.00000000	-63.89641000	-15.74188000
19.69999901	0.00000000	-60.03937000	-15.78494000
19.89999900	0.00000000	-55.85014000	-15.78494000
20.09999898	0.00000000	-52.73130000	-15.78494000
20.29999897	0.00000000	-51.19340000	-15.78494000
20.49999896	0.00000000	-51.66092000	-15.78494000
20.69999895	0.00000000	-54.86589000	-15.78494000
20.89999894	0.00000000	-61.06053000	-15.78494000
21.09999892	0.00000000	-69.15600000	-15.78494000
21.29999891	0.00000000	-76.83316000	-15.78494000
21.49999890	0.00000000	-82.22810000	-15.78494000
21.69999889	0.00000000	-83.72293000	-15.78494000
21.89999888	0.00000000	-80.56102000	-15.78494000
22.09999886	0.00000000	-72.74237000	-15.78494000
22.29999885	0.00000000	-61.10974000	-15.78494000
22.49999884	0.00000000	-48.03149000	-15.78494000
22.69999883	0.00000000	-36.86639000	-15.78494000
22.89999882	0.00000000	-30.76402000	-15.78494000
23.09999881	0.00000000	-31.56373000	-15.74188000
23.29999879	0.00000000	-39.78838000	-15.36663000
23.49999878	0.00000000	-54.12770000	-14.62844000
23.69999877	0.00000000	-72.26870000	-14.25320000
23.89999876	0.00000000	-89.57922000	-14.21014000
24.09999875	0.00000000	-101.54400000	-14.25320000
24.29999873	0.00000000	-105.35800000	-14.67150000
24.49999872	0.00000000	-99.49556000	-15.83415000
24.69999871	0.00000000	-84.74409000	-17.36589000
24.89999870	0.00000000	-63.85334000	-18.94685000
25.09999869	0.00000000	-41.10482000	-20.47859000
25.29999867	0.00000000	-22.25640000	-21.59203000
25.49999866	0.00000000	-12.25394000	-21.54897000
25.69999865	0.00000000	-13.83489000	-20.01722000
25.89999864	0.00000000	-26.95620000	-17.27977000
26.09999863	0.00000000	-48.54207000	-13.79183000
26.29999862	0.00000000	-73.29601000	-9.93479300
26.49999860	0.00000000	-95.76771000	-6.86515700
26.69999859	0.00000000	-111.54650000	-5.33341500
26.89999858	0.00000000	-116.47390000	-5.75172200
27.09999857	0.00000000	-108.42770000	-8.53838500
27.29999856	0.00000000	-89.95448000	-13.60113000
27.49999854	0.00000000	-65.98794000	-20.57087000
27.69999853	0.00000000	-41.65846000	-27.86663000
27.89999852	0.00000000	-22.71777000	-33.63066000
28.09999851	0.00000000	-13.41043000	-36.23277000
28.29999850	0.00000000	-15.28051000	-34.27657000
28.49999848	0.00000000	-27.60211000	-27.68824000
28.69999847	0.00000000	-46.87500000	-17.97490000
28.89999846	0.00000000	-68.55315000	-6.36072800
29.09999845	0.00000000	-87.91216000	4.74286400
29.29999844	0.00000000	-101.07650000	12.03863000
29.49999843	0.00000000	-105.40110000	13.57037000
29.69999841	0.00000000	-100.42450000	8.83366100
29.89999840	0.00000000	-88.09055000	-1.99311000
30.09999839	0.00000000	-71.06299000	-17.03986000
30.29999838	0.00000000	-53.33415000	-32.42495000
30.49999837	0.00000000	-38.95792000	-44.82037000
30.69999835	0.00000000	-30.76402000	-51.33489000
30.89999834	0.00000000	-29.55832000	-50.54134000
31.09999833	0.00000000	-35.28543000	-42.03986000
31.29999832	0.00000000	-46.07529000	-27.73130000
31.49999831	0.00000000	-58.87672000	-10.72219000
31.69999829	0.00000000	-71.71505000	5.90551100
31.89999828	0.00000000	-82.14198000	18.22096000
32.09999827	0.00000000	-87.95521000	23.65280000
32.29999826	0.00000000	-87.95521000	20.91535000
32.49999825	0.00000000	-82.22810000	10.50689000
32.69999824	0.00000000	-72.64394000	-5.33341500
32.89999822	0.00000000	-62.17396000	-23.12992000
33.09999821	0.00000000	-52.82357000	-39.34547000
33.29999820	0.00000000	-45.84769000	-50.54134000
33.49999819	0.00000000	-42.77190000	-54.07234000
33.69999818	0.00000000	-44.26673000	-49.84621000
33.89999816	0.00000000	-49.66166000	-38.97022000
34.09999815	0.00000000	-57.38804000	-23.17298000
34.29999814	0.00000000	-65.85260000	-6.21924200
34.49999813	0.00000000	-72.74237000	7.72022600
34.69999812	0.00000000	-75.90427000	16.27091000
34.89999810	0.00000000	-75.25220000	17.80266000
35.09999809	0.00000000	-72.13951000	12.03863000
35.29999808	0.00000000	-67.10752000	0.46751960
35.49999807	0.00000000	-60.96825000	-14.16708000
35.69999806	0.00000000	-55.98548000	-28.47564000
35.89999805	0.00000000	-53.24187000	-39.25935000
36.09999803	0.00000000	-53.24187000	-44.27288000
36.29999802	0.00000000	-55.89320000	-41.99680000
36.49999801	0.00000000	-60.12549000	-33.63066000
36.69999800	0.00000000	-64.73917000	-22.01649000
36.89999799	0.00000000	-68.59621000	-9.70103300
37.09999797	0.00000000	-70.55856000	0.65821850
37.29999796	0.00000000	-70.55856000	5.63484200
37.49999795	0.00000000	-68.59621000	4.18922200
37.69999794	0.00000000	-64.73917000	-2.68823800
37.89999793	0.00000000	-60.12549000	-12.62918000
38.09999791	0.00000000	-55.93627000	-22.61934000
38.29999790	0.00000000	-53.61712000	-29.91511000
38.49999789	0.00000000	-53.93700000	-32.60949000
38.69999788	0.00000000	-55.85014000	-29.95817000
38.89999787	0.00000000	-59.01205000	-23.03765000
39.09999786	0.00000000	-63.24434000	-13.87795000
39.29999784	0.00000000	-67.48277000	-5.10580700
39.49999783	0.00000000	-70.55856000	-0.08612204
39.69999782	0.00000000	-71.76427000	0.33218500
39.89999781	0.00000000	-71.01993000	-3.56791300
40.09999780	0.00000000	-69.06373000	-11.64493000
40.29999778	0.00000000	-65.89567000	-21.54897000
40.49999777	0.00000000	-61.66338000	-29.95817000
40.69999776	0.00000000	-57.43110000	-34.19045000
40.89999775	0.00000000	-54.31225000	-33.07701000
41.09999774	0.00000000	-52.77436000	-27.31299000
41.29999772	0.00000000	-53.14960000	-18.47933000
41.49999771	0.00000000	-55.43184000	-8.86441900
41.69999770	0.00000000	-58.54454000	-1.19955700
41.89999769	0.00000000	-62.08169000	2.65748000
42.09999768	0.00000000	-65.94488000	1.53789400
42.29999767	0.00000000	-69.02066000	-3.80167300
42.49999765	0.00000000	-70.60162000	-11.51575000
42.69999764	0.00000000	-70.60162000	-19.97416000
42.89999763	0.00000000	-69.06373000	-26.89468000
43.09999762	0.00000000	-66.36318000	-30.37647000
43.29999761	0.00000000	-63.24434000	-30.05044000
43.49999759	0.00000000	-60.21776000	-26.24262000
43.69999758	0.00000000	-58.26771000	-20.52780000
43.89999757	0.00000000	-58.16929000	-14.67766000
44.09999756	0.00000000	-58.45841000	-9.65182000
44.29999755	0.00000000	-58.54454000	-6.17618100
44.49999753	0.00000000	-58.91978000	-5.42568800
44.69999752	0.00000000	-59.66412000	-7.24040300
44.89999751	0.00000000	-60.03937000	-10.72219000
45.09999750	0.00000000	-60.12549000	-14.53617000
45.29999749	0.00000000	-60.54995000	-18.06102000
45.49999748	0.00000000	-61.75566000	-20.34941000
45.69999746	0.00000000	-63.71186000	-21.22293000
45.89999745	0.00000000	-66.40624000	-20.81078000
46.09999744	0.00000000	-69.10678000	-19.64198000
46.29999743	0.00000000	-71.01993000	-17.32283000
46.49999742	0.00000000	-71.76427000	-14.67150000
46.69999740	0.00000000	-70.50935000	-12.72146000
46.89999739	0.00000000	-66.97219000	-11.51575000
47.09999738	0.00000000	-61.20201000	-11.18356000
47.29999737	0.00000000	-54.68750000	-11.93405000
47.49999736	0.00000000	-49.66166000	-13.83489000
47.69999734	0.00000000	-46.96112000	-15.78494000
47.89999733	0.00000000	-47.38558000	-17.78420000
48.09999732	0.00000000	-51.28568000	-20.01722000
48.29999731	0.00000000	-57.89247000	-21.13066000
48.49999730	0.00000000	-66.36318000	-20.39247000
48.69999729	0.00000000	-74.41560000	-18.47933000
48.89999727	0.00000000	-79.44143000	-15.78494000
49.09999726	0.00000000	-80.60408000	-13.04749000
49.29999725	0.00000000	-77.48523000	-10.72219000
49.49999724	0.00000000	-70.50935000	-8.82135800
49.69999723	0.00000000	-61.24508000	-8.48917200
49.89999721	0.00000000	-51.66092000	-10.02707000
50.09999720	0.00000000	-44.77731000	-13.09670000
50.29999719	0.00000000	-42.82111000	-16.94759000
50.49999718	0.00000000	-45.84769000	-20.43553000
50.69999717	0.00000000	-52.77436000	-23.12992000
50.89999715	0.00000000	-61.66338000	-24.29257000
51.09999714	0.00000000	-70.50935000	-23.50517000
51.29999713	0.00000000	-77.06693000	-21.17372000
51.49999712	0.00000000	-79.39838000	-17.32283000
51.69999711	0.00000000	-77.48523000	-13.09670000
51.89999710	0.00000000	-71.67200000	-9.60875900
52.09999708	0.00000000	-63.24434000	-7.33267600
52.29999707	0.00000000	-54.82283000	-7.33267600
52.49999706	0.00000000	-49.05265000	-9.55954600
52.69999705	0.00000000	-47.47170000	-12.67224000
52.89999704	0.00000000	-50.12303000	-16.16018000
53.09999702	0.00000000	-55.85014000	-19.64198000
53.29999701	0.00000000	-62.78297000	-21.92421000
53.49999700	0.00000000	-68.97145000	-22.71161000
53.69999699	0.00000000	-73.20988000	-21.54897000
53.89999698	0.00000000	-74.32332000	-18.89764000
54.09999696	0.00000000	-71.62278000	-15.83415000
54.29999695	0.00000000	-65.94488000	-13.13976000
54.49999694	0.00000000	-59.43036000	-11.60187000
54.69999693	0.00000000	-54.40452000	-11.55881000
54.89999692	0.00000000	-51.66092000	-12.67224000
55.09999691	0.00000000	-51.70398000	-14.21014000
55.29999689	0.00000000	-54.77977000	-15.74188000
55.49999688	0.00000000	-60.12549000	-16.85531000
55.69999687	0.00000000	-65.85260000	-16.89837000
55.89999686	0.00000000	-70.13410000	-16.11712000
56.09999685	0.00000000	-72.09030000	-14.94833000
56.29999683	0.00000000	-71.71505000	-13.09055000
56.49999682	0.00000000	-68.97145000	-12.02018000
56.69999681	0.00000000	-64.40699000	-12.76452000
56.89999680	0.00000000	-59.43036000	-14.67150000
57.09999679	0.00000000	-55.93627000	-17.41511000
57.29999677	0.00000000	-54.31225000	-20.43553000
57.49999676	0.00000000	-54.35531000	-22.71161000
57.69999675	0.00000000	-56.26845000	-23.03765000
57.89999674	0.00000000	-59.70718000	-21.13066000
58.09999673	0.00000000	-63.15207000	-17.27362000
58.29999672	0.00000000	-65.89567000	-12.62918000
58.49999670	0.00000000	-67.43970000	-8.02780400
58.69999669	0.00000000	-67.43970000	-4.63828700
58.89999668	0.00000000	-65.94488000	-4.26304100
59.09999667	0.00000000	-63.66264000	-6.90821800
59.29999666	0.00000000	-61.70644000	-11.60187000
59.49999664	0.00000000	-60.12549000	-17.78420000
59.69999663	0.00000000	-59.01205000	-24.29257000
59.89999662	0.00000000	-58.96899000	-28.84473000
60.09999661	0.00000000	-59.70718000	-30.00738000
60.29999660	0.00000000	-60.50073000	-27.35605000
60.49999658	0.00000000	-61.66338000	-21.96727000
60.69999657	0.00000000	-62.77681000	-15.36663000
60.89999656	0.00000000	-63.15207000	-8.44611200
61.09999655	0.00000000	-62.82603000	-3.10039400
61.29999654	0.00000000	-62.03863000	-1.15034400
61.49999653	0.00000000	-61.28814000	-2.68208600
61.69999651	0.00000000	-60.54995000	-7.33267600
61.89999650	0.00000000	-60.54995000	-14.29626000
62.09999649	0.00000000	-61.28814000	-21.96727000
62.29999648	0.00000000	-62.08169000	-28.47564000
62.49999647	0.00000000	-63.24434000	-31.53912000
62.69999645	0.00000000	-64.31471000	-30.46875000
62.89999644	0.00000000	-64.35777000	-26.19955000
63.09999643	0.00000000	-63.61958000	-19.64198000
63.29999642	0.00000000	-62.82603000	-11.93405000
63.49999641	0.00000000	-61.62032000	-5.37647600
63.69999639	0.00000000	-60.12549000	-1.10728300
63.89999638	0.00000000	-58.96899000	0.04921259
64.09999637	0.00000000	-58.63681000	-2.26377900
64.29999636	0.00000000	-59.33809000	-7.24040300
64.49999635	0.00000000	-60.86983000	-13.83489000
64.69999634	0.00000000	-62.03863000	-20.34941000
64.89999632	0.00000000	-63.24434000	-25.40600000
65.09999631	0.00000000	-64.31471000	-27.73130000
65.29999630	0.00000000	-64.35777000	-27.40526000
65.49999629	0.00000000	-63.61958000	-24.71087000
65.69999628	0.00000000	-62.82603000	-20.47859000
65.89999626	0.00000000	-61.66338000	-15.83415000
66.09999625	0.00000000	-60.54995000	-11.55881000
66.29999624	0.00000000	-60.17470000	-8.44611200
66.49999623	0.00000000	-60.54995000	-6.86515700
66.69999622	0.00000000	-61.66338000	-6.82209600
66.89999620	0.00000000	-62.82603000	-7.98474400
67.09999619	0.00000000	-63.61958000	-9.93479300
67.29999618	0.00000000	-64.31471000	-12.67224000
67.49999617	0.00000000	-63.89641000	-15.74188000
67.69999616	0.00000000	-61.99557000	-18.52854000
67.89999615	0.00000000	-59.70718000	-20.85384000
68.09999613	0.00000000	-57.38804000	-22.84695000
68.29999612	0.00000000	-55.89320000	-23.92347000
68.49999611	0.00000000	-55.89320000	-23.91732000
68.69999610	0.00000000	-57.47416000	-21.96727000
68.89999609	0.00000000	-60.54995000	-18.94685000
69.09999607	0.00000000	-64.40699000	-15.74188000
69.29999606	0.00000000	-67.90108000	-12.21087000
69.49999605	0.00000000	-70.55856000	-8.40305000
69.69999604	0.00000000	-71.29675000	-5.75172200
69.89999603	0.00000000	-69.34670000	-5.33341500
70.09999601	0.00000000	-65.52657000	-6.86515700
70.29999600	0.00000000	-60.45767000	-10.02707000
70.49999599	0.00000000	-55.47490000	-14.67766000
70.69999598	0.00000000	-51.61786000	-20.06029000
70.89999597	0.00000000	-50.07997000	-24.66781000
71.09999596	0.00000000	-51.24261000	-27.35605000
71.29999594	0.00000000	-54.73056000	-27.35605000
71.49999593	0.00000000	-60.12549000	-24.66781000
71.69999592	0.00000000	-65.89567000	-20.06029000
71.89999591	0.00000000	-70.60162000	-14.72072000
72.09999590	0.00000000	-73.67126000	-10.44537000
72.29999588	0.00000000	-74.41560000	-8.07086500
72.49999587	0.00000000	-72.09030000	-7.28346400
72.69999586	0.00000000	-67.48277000	-8.44611200
72.89999585	0.00000000	-61.71259000	-11.09744000
73.09999584	0.00000000	-56.26845000	-14.21014000
73.29999582	0.00000000	-52.40526000	-17.27977000
73.49999581	0.00000000	-50.45521000	-19.55585000
73.69999580	0.00000000	-51.24261000	-19.97416000
73.89999579	0.00000000	-54.26919000	-18.90379000
74.09999578	0.00000000	-58.54454000	-17.40895000
74.29999577	0.00000000	-63.20127000	-16.20325000
74.49999575	0.00000000	-67.43970000	-15.45891000
74.69999574	0.00000000	-70.09104000	-15.04675000
74.89999573	0.00000000	-70.18331000	-15.45891000
75.09999572	0.00000000	-68.27633000	-16.20325000
75.29999571	0.00000000	-65.56963000	-17.27362000
75.49999569	0.00000000	-62.08169000	-17.64272000
75.69999568	0.00000000	-59.05511000	-16.44316000
75.89999567	0.00000000	-57.43110000	-14.57308000
76.09999566	0.00000000	-57.01279000	-11.84178000
76.29999565	0.00000000	-57.38804000	-9.60875900
76.49999563	0.00000000	-58.54454000	-8.40305000
76.69999562	0.00000000	-60.03937000	-8.48917200
76.89999561	0.00000000	-61.24508000	-10.44537000
77.09999560	0.00000000	-61.99557000	-14.30241000
77.29999559	0.00000000	-62.40772000	-18.90379000
77.49999558	0.00000000	-62.03863000	-23.12992000
77.69999556	0.00000000	-61.70644000	-25.82431000
77.89999555	0.00000000	-61.70644000	-26.19955000
78.09999554	0.00000000	-62.13090000	-24.24335000
78.29999553	0.00000000	-63.24434000	-20.01722000
78.49999552	0.00000000	-64.35777000	-14.62844000
78.69999550	0.00000000	-64.73302000	-9.56569900
78.89999549	0.00000000	-64.35777000	-5.33341500
79.09999548	0.00000000	-63.15207000	-3.10039400
79.29999547	0.00000000	-61.24508000	-4.21998000
79.49999546	0.00000000	-58.91978000	-7.98474400
79.69999544	0.00000000	-57.01279000	-12.62918000
79.89999543	0.00000000	-55.89320000	-17.32283000
80.09999542	0.00000000	-56.31151000	-21.59203000
80.29999541	0.00000000	-58.54454000	-24.66166000
80.49999540	0.00000000	-61.24508000	-25.82431000
80.69999539	0.00000000	-63.61958000	-24.66166000
80.89999537	0.00000000	-65.94488000	-21.64124000
81.09999536	0.00000000	-67.43970000	-17.78420000
81.29999535	0.00000000	-67.43970000	-14.25320000
81.49999534	0.00000000	-65.89567000	-11.09744000
81.69999533	0.00000000	-63.20127000	-8.44611200
81.89999531	0.00000000	-60.12549000	-7.28346400
82.09999530	0.00000000	-57.47416000	-7.98474400
82.29999529	0.00000000	-56.26845000	-9.55954600
82.49999528	0.00000000	-56.63754000	-11.88484000
82.69999527	0.00000000	-57.75713000	-14.99139000
82.89999525	0.00000000	-59.70718000	-17.69808000
83.09999524	0.00000000	-61.62032000	-20.10950000
83.29999523	0.00000000	-63.20127000	-22.01649000
83.49999522	0.00000000	-64.35777000	-23.17298000
83.69999521	0.00000000	-64.73302000	-23.12992000
83.89999520	0.00000000	-64.35777000	-21.59203000
84.09999518	0.00000000	-63.24434000	-18.85458000
84.29999517	0.00000000	-62.08169000	-15.36663000
84.49999516	0.00000000	-61.28814000	-11.51575000
84.69999515	0.00000000	-60.50073000	-8.44611200
84.89999514	0.00000000	-60.12549000	-6.86515700
85.09999512	0.00000000	-60.08243000	-6.86515700
85.29999511	0.00000000	-60.08243000	-8.44611200
85.49999510	0.00000000	-60.08243000	-11.55881000
85.69999509	0.00000000	-60.08243000	-15.78494000
85.89999508	0.00000000	-60.08243000	-20.06029000
86.09999506	0.00000000	-60.12549000	-23.50517000
86.29999505	0.00000000	-60.50073000	-25.40600000
86.49999504	0.00000000	-61.28814000	-24.61860000
86.69999503	0.00000000	-62.08169000	-21.59203000
86.89999502	0.00000000	-63.24434000	-17.32283000
87.09999501	0.00000000	-64.35777000	-12.67224000
87.29999499	0.00000000	-64.73302000	-8.44611200
87.49999498	0.00000000	-64.35777000	-5.75172200
87.69999497	0.00000000	-63.20127000	-5.42568800
87.89999496	0.00000000	-61.66338000	-7.70792300
88.09999495	0.00000000	-60.12549000	-12.29700000
88.29999493	0.00000000	-58.96899000	-17.27362000
88.49999492	0.00000000	-58.54454000	-21.59203000
88.69999491	0.00000000	-58.59375000	-24.61860000
88.89999490	0.00000000	-59.38730000	-25.35679000
89.09999489	0.00000000	-61.24508000	-23.08686000
89.29999487	0.00000000	-62.77681000	-18.85458000
89.49999486	0.00000000	-63.61958000	-13.83489000
89.69999485	0.00000000	-64.35777000	-8.86441900
89.89999484	0.00000000	-64.31471000	-5.80093500
90.09999483	0.00000000	-63.24434000	-5.37647600
90.29999482	0.00000000	-62.08169000	-7.33267600
90.49999480	0.00000000	-61.28814000	-11.55881000
90.69999479	0.00000000	-60.50073000	-16.89837000
90.89999478	0.00000000	-60.12549000	-21.54897000
91.09999477	0.00000000	-60.08243000	-24.61860000
91.29999476	0.00000000	-60.12549000	-25.35679000
91.49999474	0.00000000	-60.50073000	-23.03765000
91.69999473	0.00000000	-61.19586000	-18.47933000
91.89999472	0.00000000	-61.19586000	-13.09670000
92.09999471	0.00000000	-60.50073000	-8.48917200
92.29999470	0.00000000	-60.12549000	-5.80093500
92.49999468	0.00000000	-60.12549000	-5.80093500
92.69999467	0.00000000	-60.50073000	-8.44611200
92.89999466	0.00000000	-61.28814000	-12.67224000
93.09999465	0.00000000	-62.08169000	-17.32283000
93.29999464	0.00000000	-63.24434000	-21.54897000
93.49999463	0.00000000	-64.35777000	-24.20029000
93.69999461	0.00000000	-64.68996000	-24.20029000
93.89999460	0.00000000	-63.93946000	-21.54897000
94.09999459	0.00000000	-62.03863000	-17.32283000
94.29999458	0.00000000	-60.08243000	-12.72146000
94.49999457	0.00000000	-58.12622000	-8.90747900
94.69999455	0.00000000	-56.22539000	-7.33267600
94.89999454	0.00000000	-55.47490000	-8.07086500
95.09999453	0.00000000	-55.85014000	-10.40231000
95.29999452	0.00000000	-57.43110000	-14.25320000
95.49999451	0.00000000	-60.12549000	-18.43627000
95.69999449	0.00000000	-63.24434000	-21.50590000
95.89999448	0.00000000	-66.32012000	-22.66240000
96.09999447	0.00000000	-68.59621000	-21.54897000
96.29999446	0.00000000	-68.97145000	-18.89764000
96.49999445	0.00000000	-67.43970000	-15.78494000
96.69999444	0.00000000	-64.36392000	-12.72146000
96.89999442	0.00000000	-60.50073000	-10.44537000
97.09999441	0.00000000	-57.01279000	-10.02707000
97.29999440	0.00000000	-54.26919000	-11.14050000
97.49999439	0.00000000	-52.73130000	-13.04749000
97.69999438	0.00000000	-52.77436000	-15.36663000
97.89999436	0.00000000	-54.73056000	-17.27362000
98.09999435	0.00000000	-58.54454000	-18.47933000
98.29999434	0.00000000	-62.77681000	-18.85458000
98.49999433	0.00000000	-66.32012000	-18.47933000
98.69999432	0.00000000	-69.02066000	-17.36589000
98.89999430	0.00000000	-70.18331000	-16.20325000
99.09999429	0.00000000	-69.39591000	-15.40969000
99.29999428	0.00000000	-67.06447000	-14.62844000
99.49999427	0.00000000	-63.20127000	-14.25320000
99.69999426	0.00000000	-59.01205000	-14.21014000
99.89999425	0.00000000	-55.85014000	-14.16708000
100.09999423	0.00000000	-53.89394000	-13.79183000
100.29999422	0.00000000	-53.14960000	-13.04749000
100.49999421	0.00000000	-54.31225000	-12.67224000
100.69999420	0.00000000	-56.96358000	-12.67224000
100.89999419	0.00000000	-60.08243000	-13.09670000
101.09999417	0.00000000	-63.20127000	-14.29626000
101.29999416	0.00000000	-65.89567000	-16.20325000
101.49999415	0.00000000	-67.43970000	-18.47933000
101.69999414	0.00000000	-67.48277000	-19.97416000
101.89999413	0.00000000	-66.32012000	-20.01722000
102.09999411	0.00000000	-64.40699000	-18.85458000
102.29999410	0.00000000	-62.03863000	-16.90453000
102.49999409	0.00000000	-59.75024000	-14.21014000
102.69999408	0.00000000	-57.75713000	-11.51575000
102.89999407	0.00000000	-56.63754000	-9.60875900
103.09999406	0.00000000	-56.22539000	-8.82135800
103.29999404	0.00000000	-57.01279000	-9.60875900
103.49999403	0.00000000	-58.50147000	-11.51575000
103.69999402	0.00000000	-60.12549000	-14.25320000
103.89999401	0.00000000	-62.03863000	-17.32283000
104.09999400	0.00000000	-63.93946000	-20.01722000
104.29999398	0.00000000	-64.73302000	-21.54897000
104.49999397	0.00000000	-64.78223000	-21.54897000
104.69999396	0.00000000	-64.31471000	-20.01722000
104.89999395	0.00000000	-62.82603000	-17.32283000
105.09999394	0.00000000	-60.91904000	-14.25320000
105.29999392	0.00000000	-59.75024000	-11.55881000
105.49999391	0.00000000	-58.91978000	-10.02707000
105.69999390	0.00000000	-58.59375000	-10.02707000
105.89999389	0.00000000	-58.96899000	-11.51575000
106.09999388	0.00000000	-60.12549000	-13.83489000
106.29999387	0.00000000	-61.62032000	-16.16018000
106.49999385	0.00000000	-62.77681000	-18.43627000
106.69999384	0.00000000	-63.20127000	-19.59892000
106.89999383	0.00000000	-63.20127000	-19.22982000
107.09999382	0.00000000	-62.77681000	-18.06102000
107.29999381	0.00000000	-61.62032000	-15.74188000
107.49999379	0.00000000	-60.12549000	-13.13976000
107.69999378	0.00000000	-58.96899000	-11.60187000
107.89999377	0.00000000	-58.59375000	-11.51575000
108.09999376	0.00000000	-58.91978000	-12.29700000
108.29999375	0.00000000	-59.70718000	-13.46580000
108.49999374	0.00000000	-60.50073000	-15.40969000
108.69999372	0.00000000	-61.66338000	-17.27362000
108.89999371	0.00000000	-62.77681000	-18.47933000
109.09999370	0.00000000	-63.15207000	-18.85458000
109.29999369	0.00000000	-62.82603000	-18.43627000
109.49999368	0.00000000	-62.03863000	-16.90453000
109.69999366	0.00000000	-61.24508000	-14.67150000
109.89999365	0.00000000	-60.08243000	-13.09670000
110.09999364	0.00000000	-58.96899000	-12.29700000
110.29999363	0.00000000	-58.59375000	-11.93405000
110.49999362	0.00000000	-58.96899000	-12.72146000
110.69999360	0.00000000	-60.08243000	-14.21014000
110.89999359	0.00000000	-61.24508000	-15.74188000
111.09999358	0.00000000	-62.03863000	-16.94759000
111.29999357	0.00000000	-62.82603000	-17.74114000
111.49999356	0.00000000	-63.15207000	-18.47933000
111.69999355	0.00000000	-62.82603000	-18.43627000
111.89999353	0.00000000	-62.03863000	-17.32283000
112.09999352	0.00000000	-61.28814000	-15.83415000
112.29999351	0.00000000	-60.50073000	-14.62844000
112.49999350	0.00000000	-60.12549000	-13.87795000
112.69999349	0.00000000	-60.08243000	-13.42274000
112.89999347	0.00000000	-60.08243000	-13.45964000
113.09999346	0.00000000	-60.08243000	-13.42274000
113.29999345	0.00000000	-60.08243000	-13.83489000
113.49999344	0.00000000	-60.08243000	-14.21014000
113.69999343	0.00000000	-60.12549000	-14.58538000
113.89999341	0.00000000	-60.45767000	-14.99139000
114.09999340	0.00000000	-60.86983000	-15.00369000
114.29999339	0.00000000	-60.87598000	-15.40969000
114.49999338	0.00000000	-61.28814000	-15.78494000
114.69999337	0.00000000	-61.62032000	-16.20325000
114.89999336	0.00000000	-61.62032000	-16.94759000
115.09999334	0.00000000	-61.24508000	-17.27362000
115.29999333	0.00000000	-60.50073000	-16.94759000
115.49999332	0.00000000	-60.12549000	-16.16018000
115.69999331	0.00000000	-60.08243000	-15.40969000
115.89999330	0.00000000	-60.08243000	-14.58538000
116.09999328	0.00000000	-60.08243000	-13.83489000
116.29999327	0.00000000	-60.08243000	-13.04749000
116.49999326	0.00000000	-60.12549000	-12.67224000
116.69999325	0.00000000	-60.50073000	-12.67224000
116.89999324	0.00000000	-61.24508000	-13.04749000
117.09999322	0.00000000	-61.57111000	-13.83489000
117.29999321	0.00000000	-61.24508000	-14.62844000
117.49999320	0.00000000	-60.45767000	-15.78494000
117.69999319	0.00000000	-59.70718000	-16.89837000
117.89999318	0.00000000	-58.91978000	-17.32283000
118.09999317	0.00000000	-58.59375000	-17.32283000
118.29999315	0.00000000	-58.91978000	-16.94759000
118.49999314	0.00000000	-59.70718000	-16.20325000
118.69999313	0.00000000	-60.45767000	-15.78494000
118.89999312	0.00000000	-61.28814000	-15.36663000
119.09999311	0.00000000	-62.03863000	-14.62844000
119.29999309	0.00000000	-62.82603000	-14.21014000
119.49999308	0.00000000	-63.15207000	-13.83489000
119.69999307	0.00000000	-62.82603000	-13.46580000
119.89999306	0.00000000	-62.03863000	-13.87795000
120.09999305	0.00000000	-61.24508000	-14.58538000
120.29999303	0.00000000	-60.03937000	-15.36663000
120.49999302	0.00000000	-58.59375000	-15.78494000
120.69999301	0.00000000	-57.80634000	-16.20325000
120.89999300	0.00000000	-58.12622000	-16.94759000
121.09999299	0.00000000	-58.50147000	-17.32283000
121.29999298	0.00000000	-58.96899000	-17.32283000
121.49999296	0.00000000	-60.12549000	-16.94759000
121.69999295	0.00000000	-61.66338000	-16.20325000
121.89999294	0.00000000	-63.15207000	-15.78494000
122.09999293	0.00000000	-63.93946000	-15.36663000
122.29999292	0.00000000	-63.61958000	-14.62844000
122.49999290	0.00000000	-63.24434000	-14.25320000
122.69999289	0.00000000	-62.77681000	-14.21014000
122.89999288	0.00000000	-61.62032000	-14.21014000
123.09999287	0.00000000	-60.12549000	-14.21014000
123.29999286	0.00000000	-58.96899000	-14.21014000
123.49999284	0.00000000	-58.54454000	-14.25320000
123.69999283	0.00000000	-58.50147000	-14.62844000
123.89999282	0.00000000	-58.54454000	-15.36663000
124.09999281	0.00000000	-58.91978000	-15.74188000
124.29999280	0.00000000	-59.70718000	-15.78494000
124.49999279	0.00000000	-60.45767000	-15.78494000
124.69999277	0.00000000	-61.28814000	-15.78494000
124.89999276	0.00000000	-62.03863000	-15.78494000
125.09999275	0.00000000	-62.82603000	-15.74188000
125.29999274	0.00000000	-63.15207000	-15.36663000
125.49999273	0.00000000	-62.82603000	-14.62844000
125.69999271	0.00000000	-62.03863000	-14.25320000
125.89999270	0.00000000	-61.24508000	-14.21014000
126.09999269	0.00000000	-60.08243000	-14.21014000
126.29999268	0.00000000	-58.96899000	-14.21014000
126.49999267	0.00000000	-58.54454000	-14.21014000
126.69999265	0.00000000	-58.50147000	-14.25320000
126.89999264	0.00000000	-58.54454000	-14.62844000
127.09999263	0.00000000	-58.96899000	-15.36663000
127.29999262	0.00000000	-60.12549000	-15.74188000
127.49999261	0.00000000	-61.62032000	-15.78494000
127.69999260	0.00000000	-62.77681000	-15.78494000
127.89999258	0.00000000	-63.20127000	-15.74188000
128.09999257	0.00000000	-63.20127000	-15.36663000
128.29999256	0.00000000	-62.77681000	-14.62844000
128.49999255	0.00000000	-61.62032000	-14.25320000
128.69999254	0.00000000	-60.12549000	-14.21014000
128.89999252	0.00000000	-58.96899000	-14.21014000
129.09999251	0.00000000	-58.54454000	-14.25320000
129.29999250	0.00000000	-58.54454000	-14.62844000
129.49999249	0.00000000	-58.96899000	-15.36663000
129.69999248	0.00000000	-60.08243000	-15.74188000
129.89999246	0.00000000	-61.19586000	-15.78494000
130.09999245	0.00000000	-61.66338000	-15.78494000
130.29999244	0.00000000	-62.08169000	-15.74188000
130.49999243	0.00000000	-62.77681000	-15.36663000
130.69999242	0.00000000	-62.73376000	-14.62844000
130.89999241	0.00000000	-61.66338000	-14.25320000
131.09999239	0.00000000	-60.50073000	-14.21014000
131.29999238	0.00000000	-59.70718000	-14.25320000
131.49999237	0.00000000	-58.91978000	-14.62844000
131.69999236	0.00000000	-58.59375000	-15.36663000
131.89999235	0.00000000	-58.91978000	-15.74188000
132.09999233	0.00000000	-59.66412000	-15.82800000
132.29999232	0.00000000	-60.08243000	-16.16018000
132.49999231	0.00000000	-60.50073000	-16.52928000
132.69999230	0.00000000	-61.24508000	-16.11712000
132.89999229	0.00000000	-61.62032000	-15.40969000
133.09999227	0.00000000	-61.66338000	-14.62844000
133.29999226	0.00000000	-61.62032000	-14.25320000
133.49999225	0.00000000	-61.24508000	-14.16708000
133.69999224	0.00000000	-60.54995000	-13.83489000
133.89999223	0.00000000	-60.54995000	-13.46580000
134.09999222	0.00000000	-61.19586000	-13.87795000
134.29999220	0.00000000	-61.19586000	-14.58538000
134.49999219	0.00000000	-60.50073000	-15.40969000
134.69999218	0.00000000	-60.12549000	-16.16018000
134.89999217	0.00000000	-60.08243000	-16.94759000
135.09999216	0.00000000	-60.08243000	-17.27362000
135.29999214	0.00000000	-60.08243000	-16.94759000
135.49999213	0.00000000	-60.08243000	-16.16018000
135.69999212	0.00000000	-60.08243000	-15.40969000
135.89999211	0.00000000	-60.12549000	-14.58538000
136.09999210	0.00000000	-60.50073000	-13.83489000
136.29999208	0.00000000	-61.24508000	-13.09670000
136.49999207	0.00000000	-61.62032000	-13.04749000
136.69999206	0.00000000	-61.66338000	-13.41658000
136.89999205	0.00000000	-61.62032000	-13.42274000
137.09999204	0.00000000	-61.24508000	-13.87795000
137.29999203	0.00000000	-60.45767000	-14.58538000
137.49999201	0.00000000	-59.70718000	-15.36663000
137.69999200	0.00000000	-58.96899000	-15.78494000
137.89999199	0.00000000	-58.91978000	-16.16018000
138.09999198	0.00000000	-59.28888000	-16.52928000
138.29999197	0.00000000	-59.29502000	-16.16018000
138.49999195	0.00000000	-59.75024000	-15.78494000
138.69999194	0.00000000	-60.45767000	-15.36663000
138.89999193	0.00000000	-61.24508000	-14.62844000
139.09999192	0.00000000	-61.62032000	-14.21014000
139.29999191	0.00000000	-61.62032000	-13.83489000
139.49999189	0.00000000	-61.24508000	-13.46580000
139.69999188	0.00000000	-60.50073000	-13.83489000
139.89999187	0.00000000	-60.08243000	-14.16708000
140.09999186	0.00000000	-59.70718000	-14.25320000
140.29999185	0.00000000	-59.33809000	-14.62844000
140.49999184	0.00000000	-59.70718000	-15.36663000
140.69999182	0.00000000	-60.03937000	-15.74188000
140.89999181	0.00000000	-60.08243000	-15.82800000
141.09999180	0.00000000	-60.12549000	-16.16018000
141.29999179	0.00000000	-60.45767000	-16.52928000
141.49999178	0.00000000	-60.86983000	-16.11712000
141.69999176	0.00000000	-60.83292000	-15.40969000
141.89999175	0.00000000	-60.86983000	-14.62844000
142.09999174	0.00000000	-60.45767000	-14.21014000
142.29999173	0.00000000	-60.08243000	-13.79183000
142.49999172	0.00000000	-59.70718000	-13.09670000
142.69999170	0.00000000	-59.33809000	-13.09670000
142.89999169	0.00000000	-59.70718000	-13.83489000
143.09999168	0.00000000	-60.03937000	-14.58538000
143.29999167	0.00000000	-60.12549000	-15.40969000
143.49999166	0.00000000	-60.45767000	-16.11712000
143.69999165	0.00000000	-60.82677000	-16.52928000
143.89999163	0.00000000	-60.45767000	-16.16018000
144.09999162	0.00000000	-60.12549000	-15.82800000
144.29999161	0.00000000	-60.08243000	-15.74188000
144.49999160	0.00000000	-60.08243000	-15.36663000
144.69999159	0.00000000	-60.08243000	-14.62844000
144.89999157	0.00000000	-60.08243000	-14.21014000
145.09999156	0.00000000	-60.08243000	-13.83489000
145.29999155	0.00000000	-60.08243000	-13.46580000
145.49999154	0.00000000	-60.08243000	-13.83489000
145.69999153	0.00000000	-60.12549000	-14.21014000
145.89999151	0.00000000	-60.45767000	-14.62844000
146.09999150	0.00000000	-60.82677000	-15.36663000
146.29999149	0.00000000	-60.45767000	-15.74188000
146.49999148	0.00000000	-60.12549000	-15.78494000
146.69999147	0.00000000	-60.08243000	-15.78494000
146.89999146	0.00000000	-60.03937000	-15.74188000
147.09999144	0.00000000	-59.70718000	-15.40969000
147.29999143	0.00000000	-59.33809000	-15.00369000
147.49999142	0.00000000	-59.70718000	-14.99139000
147.69999141	0.00000000	-60.03937000	-14.58538000
147.89999140	0.00000000	-60.08243000	-14.25320000
148.09999138	0.00000000	-60.12549000	-14.21014000
148.29999137	0.00000000	-60.45767000	-14.21014000
148.49999136	0.00000000	-60.86983000	-14.25320000
148.69999135	0.00000000	-60.83292000	-14.62844000
148.89999134	0.00000000	-60.86983000	-15.36663000
149.09999132	0.00000000	-60.45767000	-15.74188000
149.29999131	0.00000000	-60.12549000	-15.78494000
149.49999130	0.00000000	-60.08243000	-15.78494000
149.69999129	0.00000000	-60.08243000	-15.74188000
149.89999128	0.00000000	-60.08243000	-15.36663000
150.09999127	0.00000000	-60.08243000	-14.62844000
150.29999125	0.00000000	-60.08243000	-14.25320000
150.49999124	0.00000000	-60.08243000	-14.21014000
150.69999123	0.00000000	-60.08243000	-14.21014000
150.89999122	0.00000000	-60.08243000	-14.21014000
151.09999121	0.00000000	-60.08243000	-14.21014000
151.29999119	0.00000000	-60.08243000	-14.21014000
151.49999118	0.00000000	-60.08243000	-14.25320000
151.69999117	0.00000000	-60.08243000	-14.62844000
151.89999116	0.00000000	-60.08243000	-15.36663000
152.09999115	0.00000000	-60.08243000	-15.69267000
152.29999113	0.00000000	-60.03937000	-15.40969000
152.49999112	0.00000000	-59.70718000	-15.04675000
152.69999111	0.00000000	-59.29502000	-15.36663000
152.89999110	0.00000000	-59.28888000	-15.32357000
153.09999109	0.00000000	-58.91978000	-14.62844000
153.29999108	0.00000000	-58.96899000	-14.25320000
153.49999106	0.00000000	-59.66412000	-14.21014000
153.69999105	0.00000000	-60.08243000	-14.21014000
153.89999104	0.00000000	-60.45767000	-14.21014000
154.09999103	0.00000000	-60.86983000	-14.21014000
154.29999102	0.00000000	-60.87598000	-14.21014000
154.49999100	0.00000000	-61.28814000	-14.21014000
154.69999099	0.00000000	-61.57111000	-14.21014000
154.89999098	0.00000000	-61.24508000	-14.25320000
155.09999097	0.00000000	-60.50073000	-14.62844000
155.29999096	0.00000000	-60.08243000	-15.36663000
155.49999094	0.00000000	-59.66412000	-15.74188000
155.69999093	0.00000000	-58.91978000	-15.74188000
155.89999092	0.00000000	-58.59375000	-15.36663000
156.09999091	0.00000000	-58.91978000	-14.62844000
156.29999090	0.00000000	-59.66412000	-14.25320000
156.49999089	0.00000000	-60.03937000	-14.21014000
156.69999087	0.00000000	-60.12549000	-14.21014000
156.89999086	0.00000000	-60.50073000	-14.21014000
157.09999085	0.00000000	-61.19586000	-14.21014000
157.29999084	0.00000000	-61.19586000	-14.21014000
157.49999083	0.00000000	-60.50073000	-14.21014000
157.69999081	0.00000000	-60.12549000	-14.25320000
157.89999080	0.00000000	-60.08243000	-14.62844000
158.09999079	0.00000000	-60.08243000	-15.36663000
158.29999078	0.00000000	-60.03937000	-15.74188000
158.49999077	0.00000000	-59.66412000	-15.78494000
158.69999075	0.00000000	-58.91978000	-15.78494000
158.89999074	0.00000000	-58.59375000	-15.74188000
159.09999073	0.00000000	-58.91978000	-15.36663000
159.29999072	0.00000000	-59.66412000	-14.62844000
159.49999071	0.00000000	-60.03937000	-14.25320000
159.69999070	0.00000000	-60.08243000	-14.21014000
159.89999068	0.00000000	-60.08243000	-14.21014000
160.09999067	0.00000000	-60.08243000	-14.21014000
160.29999066	0.00000000	-60.08243000	-14.21014000
160.49999065	0.00000000	-60.08243000	-14.25320000
160.69999064	0.00000000	-60.08243000	-14.62844000
160.89999062	0.00000000	-60.08243000	-15.32357000
161.09999061	0.00000000	-60.08243000	-15.36663000
161.29999060	0.00000000	-60.08243000	-15.04675000
161.49999059	0.00000000	-60.08243000	-15.40969000
161.69999058	0.00000000	-60.08243000	-15.69267000
161.89999056	0.00000000	-60.03937000	-15.36663000
162.09999055	0.00000000	-59.70718000	-14.62844000
162.29999054	0.00000000	-59.33809000	-14.25320000
162.49999053	0.00000000	-59.70718000	-14.21014000
162.69999052	0.00000000	-59.99015000	-14.21014000
162.89999051	0.00000000	-59.70718000	-14.21014000
163.09999049	0.00000000	-59.33809000	-14.21014000
163.29999048	0.00000000	-59.70718000	-14.21014000
163.49999047	0.00000000	-60.03937000	-14.25320000
163.69999046	0.00000000	-60.08243000	-14.58538000
163.89999045	0.00000000	-60.08243000	-14.94833000
164.09999043	0.00000000	-60.08243000	-14.62844000
164.29999042	0.00000000	-60.08243000	-14.62844000
164.49999041	0.00000000	-60.08243000	-14.99139000
164.69999040	0.00000000	-60.03937000	-15.00369000
164.89999039	0.00000000	-59.66412000	-15.40969000
165.09999037	0.00000000	-58.96899000	-15.69267000
165.29999036	0.00000000	-58.96899000	-15.40969000
165.49999035	0.00000000	-59.66412000	-15.00369000
165.69999034	0.00000000	-60.03937000	-14.99139000
165.89999033	0.00000000	-60.08243000	-14.58538000
166.09999032	0.00000000	-60.08243000	-14.25320000
166.29999030	0.00000000	-60.08243000	-14.21014000
166.49999029	0.00000000	-60.08243000	-14.21014000
166.69999028	0.00000000	-60.08243000	-14.21014000
166.89999027	0.00000000	-60.03937000	-14.21014000
167.09999026	0.00000000	-59.70718000	-14.21014000
167.29999024	0.00000000	-59.33809000	-14.21014000
167.49999023	0.00000000	-59.66412000	-14.21014000
167.69999022	0.00000000	-59.66412000	-14.25320000
167.89999021	0.00000000	-59.33809000	-14.62844000
168.09999020	0.00000000	-59.70718000	-15.36663000
168.29999018	0.00000000	-60.03937000	-15.69267000
168.49999017	0.00000000	-60.08243000	-15.40969000
168.69999016	0.00000000	-60.08243000	-15.04675000
168.89999015	0.00000000	-60.08243000	-15.40969000
169.09999014	0.00000000	-60.08243000	-15.74188000
169.29999013	0.00000000	-60.08243000	-15.74188000
169.49999011	0.00000000	-60.08243000	-15.36663000
169.69999010	0.00000000	-60.08243000	-14.67150000
169.89999009	0.00000000	-60.08243000	-14.62844000
170.09999008	0.00000000	-60.08243000	-14.94833000
170.29999007	0.00000000	-60.08243000	-14.58538000
170.49999005	0.00000000	-60.08243000	-14.25320000
170.69999004	0.00000000	-60.08243000	-14.21014000
170.89999003	0.00000000	-60.08243000	-14.21014000
171.09999002	0.00000000	-60.03937000	-14.25320000
171.29999001	0.00000000	-59.66412000	-14.58538000
171.49998999	0.00000000	-58.96899000	-14.99139000
171.69998998	0.00000000	-58.96899000	-14.95448000
171.89998997	0.00000000	-59.66412000	-14.99139000
172.09998996	0.00000000	-60.03937000	-14.58538000
172.29998995	0.00000000	-60.08243000	-14.25320000
172.49998994	0.00000000	-60.08243000	-14.21014000
172.69998992	0.00000000	-60.08243000	-14.21014000
172.89998991	0.00000000	-60.08243000	-14.21014000
173.09998990	0.00000000	-60.08243000	-14.21014000
173.29998989	0.00000000	-60.03937000	-14.21014000
173.49998988	0.00000000	-59.70718000	-14.25320000
173.69998986	0.00000000	-59.29502000	-14.58538000
173.89998985	0.00000000	-59.28888000	-14.94833000
174.09998984	0.00000000	-58.91978000	-14.58538000
174.29998983	0.00000000	-58.96899000	-14.25320000
174.49998982	0.00000000	-59.66412000	-14.21014000
174.69998980	0.00000000	-60.03937000	-14.21014000
174.89998979	0.00000000	-60.08243000	-14.21014000
175.09998978	0.00000000	-60.08243000	-14.21014000
175.29998977	0.00000000	-60.08243000	-14.21014000
175.49998976	0.00000000	-60.08243000	-14.21014000
175.69998975	0.00000000	-60.08243000	-14.21014000
175.89998973	0.00000000	-60.08243000	-14.21014000
176.09998972	0.00000000	-60.08243000	-14.21014000
176.29998971	0.00000000	-60.08243000	-14.21014000
176.49998970	0.00000000	-60.08243000	-14.21014000
176.69998969	0.00000000	-60.08243000	-14.21014000
176.89998967	0.00000000	-60.03937000	-14.21014000
177.09998966	0.00000000	-59.70718000	-14.25320000
177.29998965	0.00000000	-59.33809000	-14.58538000
177.49998964	0.00000000	-59.70718000	-14.99139000
177.69998963	0.00000000	-60.03937000	-15.00369000
177.89998961	0.00000000	-60.08243000	-15.40969000
178.09998960	0.00000000	-60.08243000	-15.69267000
178.29998959	0.00000000	-60.08243000	-15.40969000
178.49998958	0.00000000	-60.08243000	-15.00369000
178.69998957	0.00000000	-60.08243000	-14.99139000
178.89998956	0.00000000	-60.08243000	-14.58538000
179.09998954	0.00000000	-60.08243000	-14.25320000
179.29998953	0.00000000	-60.08243000	-14.21014000
179.49998952	0.00000000	-60.08243000	-14.25320000
179.69998951	0.00000000	-60.08243000	-14.62844000
179.89998950	0.00000000	-60.08243000	-15.36663000
180.09998948	0.00000000	-60.08243000	-15.74188000
180.29998947	0.00000000	-60.08243000	-15.74188000
180.49998946	0.00000000	-60.08243000	-15.36663000
180.69998945	0.00000000	-60.08243000	-14.62844000
180.89998944	0.00000000	-60.08243000	-14.25320000
181.09998942	0.00000000	-60.08243000	-14.21014000
181.29998941	0.00000000	-60.08243000	-14.21014000
181.49998940	0.00000000	-60.08243000	-14.21014000
181.69998939	0.00000000	-60.08243000	-14.21014000
181.89998938	0.00000000	-60.08243000	-14.21014000
182.09998937	0.00000000	-60.08243000	-14.21014000
182.29998935	0.00000000	-60.03937000	-14.21014000
182.49998934	0.00000000	-59.70718000	-14.21014000
182.69998933	0.00000000	-59.29502000	-14.21014000
182.89998932	0.00000000	-59.28888000	-14.21014000
183.09998931	0.00000000	-58.91978000	-14.25320000
183.29998929	0.00000000	-58.96899000	-14.58538000
183.49998928	0.00000000	-59.66412000	-14.94833000
183.69998927	0.00000000	-60.03937000	-14.58538000
183.89998926	0.00000000	-60.08243000	-14.25320000
184.09998925	0.00000000	-60.08243000	-14.21014000
184.29998923	0.00000000	-60.08243000	-14.21014000
184.49998922	0.00000000	-60.08243000	-14.21014000
184.69998921	0.00000000	-60.08243000	-14.21014000
184.89998920	0.00000000	-60.08243000	-14.21014000
185.09998919	0.00000000	-60.08243000	-14.21014000
185.29998918	0.00000000	-60.03937000	-14.21014000
185.49998916	0.00000000	-59.66412000	-14.21014000
185.69998915	0.00000000	-58.91978000	-14.21014000
185.89998914	0.00000000	-58.54454000	-14.21014000
186.09998913	0.00000000	-58.54454000	-14.25320000
186.29998912	0.00000000	-58.91978000	-14.62844000
186.49998910	0.00000000	-59.61491000	-15.36663000
186.69998909	0.00000000	-59.66412000	-15.69267000
186.89998908	0.00000000	-59.33809000	-15.36663000
187.09998907	0.00000000	-59.70718000	-14.62844000
187.29998906	0.00000000	-60.03937000	-14.21014000
187.49998904	0.00000000	-60.08243000	-13.83489000
187.69998903	0.00000000	-60.03937000	-13.46580000
187.89998902	0.00000000	-59.70718000	-13.83489000
188.09998901	0.00000000	-59.29502000	-14.16708000
188.29998900	0.00000000	-59.28888000	-14.21014000
188.49998899	0.00000000	-58.87672000	-14.21014000
188.69998897	0.00000000	-58.54454000	-14.25320000
188.89998896	0.00000000	-58.50147000	-14.62844000
189.09998895	0.00000000	-58.54454000	-15.32357000
189.29998894	0.00000000	-58.91978000	-15.36663000
189.49998893	0.00000000	-59.66412000	-15.00369000
189.69998891	0.00000000	-60.03937000	-14.99139000
189.89998890	0.00000000	-60.08243000	-14.58538000
190.09998889	0.00000000	-60.08243000	-14.25320000
190.29998888	0.00000000	-60.08243000	-14.21014000
190.49998887	0.00000000	-60.08243000	-14.21014000
190.69998885	0.00000000	-60.08243000	-14.21014000
190.89998884	0.00000000	-60.08243000	-14.21014000
191.09998883	0.00000000	-60.08243000	-14.21014000
191.29998882	0.00000000	-60.03937000	-14.21014000
191.49998881	0.00000000	-59.66412000	-14.21014000
191.69998880	0.00000000	-58.91978000	-14.21014000
191.89998878	0.00000000	-58.54454000	-14.21014000
192.09998877	0.00000000	-58.50147000	-14.21014000
192.29998876	0.00000000	-58.54454000	-14.25320000
192.49998875	0.00000000	-58.91978000	-14.62844000
192.69998874	0.00000000	-59.66412000	-15.32357000
192.89998872	0.00000000	-60.03937000	-15.36663000
193.09998871	0.00000000	-60.08243000	-15.00369000
193.29998870	0.00000000	-60.08243000	-14.99139000
193.49998869	0.00000000	-60.08243000	-14.58538000
193.69998868	0.00000000	-60.08243000	-14.25320000
193.89998866	0.00000000	-60.08243000	-14.21014000
194.09998865	0.00000000	-60.03937000	-14.21014000
194.29998864	0.00000000	-59.66412000	-14.21014000
194.49998863	0.00000000	-58.91978000	-14.21014000
194.69998862	0.00000000	-58.59375000	-14.21014000
194.89998861	0.00000000	-58.91978000	-14.25320000
195.09998859	0.00000000	-59.61491000	-14.58538000
195.29998858	0.00000000	-59.61491000	-14.94833000
195.49998857	0.00000000	-58.96899000	-14.58538000
195.69998856	0.00000000	-58.96899000	-14.25320000
195.89998855	0.00000000	-59.66412000	-14.21014000
196.09998853	0.00000000	-60.03937000	-14.21014000
