Time	Channel A	Channel B	Channel C
(us)	(V)	(mV)	(mV)

-4.59999956	0.00000000	-69.10678000	-18.11024000
-4.39999957	0.00000000	-69.10678000	-17.78420000
-4.19999958	0.00000000	-68.41166000	-17.83341000
-3.99999959	0.00000000	-68.03641000	-18.52854000
-3.79999960	0.00000000	-67.99335000	-18.90379000
-3.59999962	0.00000000	-67.99335000	-18.94685000
-3.39999963	0.00000000	-67.99335000	-18.94685000
-3.19999964	0.00000000	-67.99335000	-18.94685000
-2.99999965	0.00000000	-67.99335000	-18.94685000
-2.79999966	0.00000000	-67.99335000	-18.90379000
-2.59999968	0.00000000	-67.99335000	-18.52854000
-2.39999969	0.00000000	-67.99335000	-17.78420000
-2.19999970	0.00000000	-67.99335000	-17.40895000
-1.99999971	0.00000000	-67.99335000	-17.40895000
-1.79999972	0.00000000	-67.99335000	-17.78420000
-1.59999973	0.00000000	-67.99335000	-18.52854000
-1.39999975	0.00000000	-67.99335000	-18.90379000
-1.19999976	0.00000000	-67.99335000	-18.94685000
-0.99999977	0.00000000	-67.99335000	-18.94685000
-0.79999978	0.00000000	-67.99335000	-18.94685000
-0.59999979	0.00000000	-67.99335000	-18.94685000
-0.39999981	0.15871060	-67.99335000	-18.94685000
-0.19999982	0.47736220	-68.03641000	-18.90379000
0.00000017	0.79601380	-68.41166000	-18.57160000
0.20000016	0.95533960	-69.10678000	-18.15945000
0.40000015	0.95533960	-69.10678000	-18.19636000
0.60000013	0.63668800	-68.41166000	-18.15945000
0.80000012	-0.15871060	-68.03641000	-18.57160000
1.00000011	-1.11466500	-68.03641000	-18.85458000
1.20000010	-2.07062000	-68.36859000	-18.52854000
1.40000009	-2.70792300	-68.73769000	-17.78420000
1.60000008	-2.70792300	-68.36859000	-17.40895000
1.80000006	-1.91129400	-68.03641000	-17.36589000
2.00000005	-0.31803640	-67.99335000	-17.36589000
2.20000004	1.75196900	-67.99335000	-17.36589000
2.40000003	3.66326300	-67.99335000	-17.40895000
2.60000002	5.09719500	-67.99335000	-17.78420000
2.80000000	5.25652100	-67.99335000	-18.52854000
2.99999999	3.98191400	-67.99335000	-18.90379000
3.19999998	1.43331700	-67.99335000	-18.94685000
3.39999997	-2.07062000	-67.99335000	-18.94685000
3.59999996	-5.25652100	-67.99335000	-18.94685000
3.79999994	-7.48646600	-67.99335000	-18.90379000
3.99999993	-7.80511800	-67.99335000	-18.52854000
4.19999992	-6.37180100	-67.99335000	-17.78420000
4.39999991	-3.02657500	-67.99335000	-17.40895000
4.59999990	1.43331700	-67.99335000	-17.36589000
4.79999989	5.73449800	-67.99335000	-17.40895000
4.99999987	8.60174700	-67.99335000	-17.78420000
5.19999986	9.39837600	-67.99335000	-18.52854000
5.39999985	7.96444400	-67.99335000	-18.90379000
5.59999984	4.30056600	-67.99335000	-18.94685000
5.79999983	-0.31803640	-67.99335000	-18.94685000
5.99999981	-4.93786900	-67.99335000	-18.94685000
6.19999980	-8.28309500	-67.99335000	-18.90379000
6.39999979	-9.55770200	-67.99335000	-18.52854000
6.59999978	-8.28309500	-67.99335000	-17.78420000
6.79999977	-5.09719500	-67.99335000	-17.40895000
6.99999975	-0.95533960	-67.99335000	-17.36589000
7.19999974	3.18590100	-67.99335000	-17.40895000
7.39999973	6.37180100	-67.99335000	-17.78420000
7.59999972	7.80511800	-67.99335000	-18.52854000
7.79999971	7.00848900	-67.99335000	-18.90379000
7.99999970	4.77854300	-67.99335000	-18.94685000
8.19999968	1.59264300	-67.99335000	-18.94685000
8.39999967	-1.59264300	-67.99335000	-18.90379000
8.59999966	-3.98191400	-67.99335000	-18.52854000
8.79999965	-5.09719500	-67.99335000	-17.83341000
8.99999964	-4.77854300	-67.99335000	-17.78420000
9.19999962	-3.50393700	-67.99335000	-18.15330000
9.39999961	-1.59264300	-67.99335000	-18.11639000
9.59999960	0.47736220	-67.99335000	-18.15330000
9.79999959	1.75196900	-67.99335000	-17.74114000
9.99999958	2.54859700	-67.99335000	-17.40895000
10.19999956	2.38927200	-67.99335000	-17.36589000
10.39999955	1.91129400	-67.99335000	-17.40895000
10.59999954	0.95533960	-67.99335000	-17.74114000
10.79999953	0.00000000	-67.99335000	-18.15330000
10.99999952	-0.63668800	-67.99335000	-18.11639000
11.19999951	-0.95533960	-67.99335000	-18.15330000
11.39999949	-0.95533960	-67.99335000	-17.74114000
11.59999948	-0.79601380	-67.99335000	-17.45817000
11.79999947	-0.63668800	-67.99335000	-17.74114000
11.99999946	-0.31803640	-67.99335000	-18.15330000
12.19999945	-0.15871060	-67.99335000	-18.11639000
12.39999943	-0.15871060	-67.99335000	-18.15330000
12.59999942	0.00000000	-67.99335000	-17.78420000
12.79999941	0.00000000	-67.99335000	-17.78420000
12.99999940	0.00000000	-67.99335000	-18.11024000
13.19999939	0.15871060	-67.99335000	-17.74114000
13.39999937	0.00000000	-67.99335000	-17.40895000
13.59999936	0.00000000	-67.99335000	-17.36589000
13.79999935	0.00000000	-67.99335000	-17.36589000
13.99999934	0.00000000	-67.99335000	-17.36589000
14.19999933	-0.15871060	-67.99335000	-17.40895000
14.39999932	-0.15871060	-67.99335000	-17.74114000
14.59999930	-0.15871060	-67.99335000	-18.11024000
14.79999929	0.00000000	-67.99335000	-17.74114000
14.99999928	0.00000000	-67.99335000	-17.40895000
15.19999927	0.00000000	-67.99335000	-17.36589000
15.39999926	0.00000000	-67.99335000	-17.40895000
15.59999924	0.00000000	-67.99335000	-17.78420000
15.79999923	0.00000000	-67.99335000	-18.47933000
15.99999922	0.00000000	-67.99335000	-18.47933000
16.19999921	0.00000000	-67.99335000	-17.78420000
16.39999920	0.00000000	-67.99335000	-17.45817000
16.59999919	-0.15871060	-67.95029000	-17.74114000
16.79999917	0.00000000	-67.57505000	-18.15330000
16.99999916	0.00000000	-66.82455000	-18.11639000
17.19999915	0.00000000	-66.44931000	-18.15330000
17.39999914	0.00000000	-66.40624000	-17.74114000
17.59999913	0.00000000	-66.40624000	-17.40895000
17.79999911	0.00000000	-66.44931000	-17.36589000
17.99999910	0.00000000	-66.87376000	-17.36589000
18.19999909	0.00000000	-68.03641000	-17.36589000
18.39999908	0.00000000	-69.57431000	-17.36589000
18.59999907	0.00000000	-71.11221000	-17.36589000
18.79999905	0.00000000	-72.26870000	-17.40895000
18.99999904	0.00000000	-72.64394000	-17.78420000
19.19999903	0.00000000	-72.18258000	-18.47933000
19.39999902	0.00000000	-70.22637000	-18.47933000
19.59999901	0.00000000	-66.73843000	-17.78420000
19.79999900	0.00000000	-62.91216000	-17.40895000
19.99999898	0.00000000	-59.38730000	-17.36589000
20.19999897	0.00000000	-57.14812000	-17.36589000
20.39999896	0.00000000	-56.77903000	-17.36589000
20.59999895	0.00000000	-59.19045000	-17.36589000
20.79999894	0.00000000	-64.22243000	-17.36589000
20.99999892	0.00000000	-71.24138000	-17.40895000
21.19999891	0.00000000	-78.96776000	-17.78420000
21.39999890	0.00000000	-85.85753000	-18.52854000
21.59999889	0.00000000	-89.62229000	-18.90379000
21.79999888	0.00000000	-88.37352000	-18.94685000
21.99999886	0.00000000	-81.80979000	-18.94685000
22.19999885	0.00000000	-70.92765000	-18.94685000
22.39999884	0.00000000	-58.21850000	-18.94685000
22.59999883	0.00000000	-46.22293000	-18.90379000
22.79999882	0.00000000	-38.20743000	-18.52854000
22.99999881	0.00000000	-36.30659000	-17.78420000
23.19999879	0.00000000	-41.83686000	-17.40895000
23.39999878	0.00000000	-54.21998000	-17.32283000
23.59999877	0.00000000	-71.24138000	-16.94759000
23.79999876	0.00000000	-88.97637000	-16.20325000
23.99999875	0.00000000	-103.26030000	-15.87721000
24.19999873	0.00000000	-110.47610000	-16.25246000
24.39999872	0.00000000	-108.09550000	-17.40895000
24.59999871	0.00000000	-95.68159000	-18.90379000
24.79999870	0.00000000	-75.99655000	-20.15256000
24.99999869	0.00000000	-53.19881000	-21.32136000
25.19999867	0.00000000	-32.76944000	-22.80389000
25.39999866	0.00000000	-19.64813000	-23.12992000
25.59999865	0.00000000	-16.99680000	-22.01649000
25.79999864	0.00000000	-25.92889000	-20.01722000
25.99999863	0.00000000	-44.86343000	-16.85531000
26.19999862	0.00000000	-69.52509000	-12.67224000
26.39999860	0.00000000	-93.86073000	-8.82135800
26.59999859	0.00000000	-112.00790000	-6.48991100
26.79999858	0.00000000	-120.14640000	-5.79478300
26.99999857	0.00000000	-116.28940000	-7.79404500
27.19999856	0.00000000	-101.63020000	-12.85679000
27.39999854	0.00000000	-79.57676000	-19.78346000
27.59999853	0.00000000	-54.86589000	-27.54060000
27.79999852	0.00000000	-33.28002000	-34.00591000
27.99999851	0.00000000	-20.10950000	-37.48154000
28.19999850	0.00000000	-18.11024000	-36.65108000
28.39999848	0.00000000	-26.95620000	-31.58218000
28.59999847	0.00000000	-44.30979000	-22.66240000
28.79999846	0.00000000	-65.94488000	-11.46653000
28.99999845	0.00000000	-86.83562000	-0.63976370
29.19999844	0.00000000	-102.70050000	7.81250000
29.39999843	0.00000000	-110.10090000	11.57726000
29.59999841	0.00000000	-107.86790000	8.83366100
29.79999840	0.00000000	-97.48400000	-0.08612204
29.99999839	0.00000000	-81.61909000	-13.60728000
30.19999838	0.00000000	-63.84719000	-29.07234000
30.39999837	0.00000000	-47.98228000	-42.92569000
30.59999835	0.00000000	-37.46924000	-52.16535000
30.79999834	0.00000000	-33.93208000	-54.07849000
30.99999833	0.00000000	-37.33390000	-48.31446000
31.19999832	0.00000000	-46.63509000	-36.23277000
31.39999831	0.00000000	-59.34424000	-19.64198000
31.59999829	0.00000000	-72.92077000	-1.90083600
31.79999828	0.00000000	-84.14124000	12.37082000
31.99999827	0.00000000	-91.20325000	20.49705000
32.19999826	0.00000000	-93.11638000	20.49705000
32.39999825	0.00000000	-89.67150000	12.41388000
32.59999824	0.00000000	-81.57603000	-1.52559000
32.79999822	0.00000000	-71.19833000	-18.94685000
32.99999821	0.00000000	-61.10359000	-36.27584000
33.19999820	0.00000000	-53.33415000	-49.42790000
33.39999819	0.00000000	-49.05265000	-55.65329000
33.59999818	0.00000000	-49.05265000	-54.12155000
33.79999816	0.00000000	-53.24187000	-45.24483000
33.99999815	0.00000000	-60.21776000	-30.93627000
34.19999814	0.00000000	-68.27633000	-14.34547000
34.39999813	0.00000000	-75.62130000	1.11958700
34.59999812	0.00000000	-79.85973000	11.94636000
34.79999810	0.00000000	-80.73941000	16.22170000
34.99999809	0.00000000	-78.41412000	13.10900000
35.19999808	0.00000000	-73.80659000	3.11884800
35.39999807	0.00000000	-68.03641000	-11.14050000
35.59999806	0.00000000	-62.64148000	-26.19955000
35.79999805	0.00000000	-59.14739000	-38.92716000
35.99999803	0.00000000	-57.98474000	-46.22293000
36.19999802	0.00000000	-59.52263000	-46.27214000
36.39999801	0.00000000	-63.33661000	-39.39468000
36.59999800	0.00000000	-67.94415000	-27.90969000
36.79999799	0.00000000	-72.22563000	-15.18209000
36.99999797	0.00000000	-75.25220000	-4.35531500
37.19999796	0.00000000	-76.03960000	2.56520700
37.39999795	0.00000000	-74.13878000	3.72170300
37.59999794	0.00000000	-70.68774000	-1.24261800
37.79999793	0.00000000	-66.40624000	-10.40231000
37.99999791	0.00000000	-62.17396000	-21.13066000
38.19999790	0.00000000	-59.09818000	-29.95817000
38.39999789	0.00000000	-57.94168000	-34.55955000
38.59999788	0.00000000	-59.14739000	-33.81520000
38.79999787	0.00000000	-62.54921000	-27.68824000
38.99999786	0.00000000	-67.15059000	-18.52854000
39.19999784	0.00000000	-71.06299000	-8.95669300
39.39999783	0.00000000	-74.22490000	-2.07923200
39.59999782	0.00000000	-76.50713000	-0.12918310
39.79999781	0.00000000	-76.88238000	-3.19266700
39.99999780	0.00000000	-75.34448000	-10.48843000
40.19999778	0.00000000	-72.22563000	-20.10950000
40.39999777	0.00000000	-67.99335000	-29.26919000
40.59999776	0.00000000	-63.71186000	-35.39616000
40.79999775	0.00000000	-60.21776000	-36.14050000
40.99999774	0.00000000	-57.89247000	-31.63140000
41.19999772	0.00000000	-57.51722000	-23.54823000
41.39999771	0.00000000	-59.01205000	-14.30241000
41.59999770	0.00000000	-61.75566000	-5.84399600
41.79999769	0.00000000	-65.24360000	-0.46136810
41.99999768	0.00000000	-69.15600000	0.33218500
42.19999767	0.00000000	-72.60088000	-3.10654500
42.39999765	0.00000000	-74.96924000	-10.07013000
42.59999764	0.00000000	-75.71973000	-18.85458000
42.79999763	0.00000000	-74.96924000	-26.89468000
42.99999762	0.00000000	-72.64394000	-31.58218000
43.19999761	0.00000000	-69.57431000	-32.42495000
43.39999759	0.00000000	-66.49852000	-30.14272000
43.59999758	0.00000000	-64.17323000	-25.12918000
43.79999757	0.00000000	-63.33661000	-18.98991000
43.99999756	0.00000000	-63.28740000	-13.18282000
44.19999755	0.00000000	-63.66264000	-8.95669300
44.39999753	0.00000000	-64.40699000	-7.37573800
44.59999752	0.00000000	-64.78223000	-8.48917200
44.79999751	0.00000000	-64.82529000	-11.51575000
44.99999750	0.00000000	-64.86835000	-15.36663000
45.19999749	0.00000000	-65.24360000	-18.85458000
45.39999748	0.00000000	-66.07406000	-21.59203000
45.59999746	0.00000000	-67.29208000	-23.12992000
45.79999745	0.00000000	-69.66043000	-23.17298000
45.99999744	0.00000000	-72.69316000	-22.01649000
46.19999743	0.00000000	-75.38755000	-20.10950000
46.39999742	0.00000000	-76.88238000	-17.78420000
46.59999740	0.00000000	-76.41486000	-15.83415000
46.79999739	0.00000000	-73.29601000	-14.25320000
46.99999738	0.00000000	-67.90108000	-13.18282000
47.19999737	0.00000000	-61.71259000	-13.55807000
47.39999736	0.00000000	-55.93627000	-15.40969000
47.59999734	0.00000000	-52.12844000	-17.36589000
47.79999733	0.00000000	-51.75319000	-19.36516000
47.99999732	0.00000000	-54.82283000	-21.59203000
48.19999731	0.00000000	-60.68528000	-22.75467000
48.39999730	0.00000000	-68.45472000	-22.38558000
48.59999729	0.00000000	-76.92544000	-21.22293000
48.79999727	0.00000000	-83.76598000	-18.89764000
48.99999726	0.00000000	-86.46037000	-16.20325000
49.19999725	0.00000000	-84.18430000	-13.87795000
49.39999724	0.00000000	-77.99581000	-11.93405000
49.59999723	0.00000000	-69.10678000	-11.18356000
49.79999721	0.00000000	-59.47957000	-11.60187000
49.99999720	0.00000000	-51.79626000	-13.60113000
50.19999719	0.00000000	-47.89001000	-17.40895000
50.39999718	0.00000000	-48.67741000	-21.59203000
50.59999717	0.00000000	-53.70940000	-24.71087000
50.79999715	0.00000000	-62.17396000	-26.24262000
50.99999714	0.00000000	-71.80733000	-25.86737000
51.19999713	0.00000000	-79.81668000	-23.54823000
51.39999712	0.00000000	-84.08587000	-20.06029000
51.59999711	0.00000000	-82.97858000	-15.83415000
51.79999710	0.00000000	-78.03887000	-11.97711000
51.99999708	0.00000000	-70.68774000	-9.65182000
52.19999707	0.00000000	-62.59227000	-8.86441900
52.39999706	0.00000000	-56.07160000	-10.07013000
52.59999705	0.00000000	-52.58981000	-13.09670000
52.79999704	0.00000000	-53.37721000	-16.99065000
52.99999702	0.00000000	-57.94168000	-20.85384000
53.19999701	0.00000000	-64.87450000	-24.29257000
53.39999700	0.00000000	-72.13335000	-25.78125000
53.59999699	0.00000000	-77.52829000	-24.71087000
53.79999698	0.00000000	-79.48450000	-22.05955000
53.99999696	0.00000000	-77.95275000	-18.98991000
54.19999695	0.00000000	-73.33907000	-16.25246000
54.39999694	0.00000000	-66.82455000	-14.34547000
54.59999693	0.00000000	-60.72834000	-13.55807000
54.79999692	0.00000000	-56.82209000	-14.29626000
54.99999691	0.00000000	-56.02854000	-15.78494000
55.19999689	0.00000000	-57.94168000	-17.36589000
55.39999688	0.00000000	-62.21702000	-18.85458000
55.59999687	0.00000000	-67.94415000	-19.59892000
55.79999686	0.00000000	-73.29601000	-18.85458000
55.99999685	0.00000000	-76.41486000	-17.36589000
56.19999683	0.00000000	-76.83316000	-15.83415000
56.39999682	0.00000000	-74.92618000	-14.72072000
56.59999681	0.00000000	-71.06299000	-14.76378000
56.79999680	0.00000000	-66.45546000	-16.29552000
56.99999679	0.00000000	-62.21702000	-18.94685000
57.19999677	0.00000000	-59.52263000	-21.64124000
57.39999676	0.00000000	-59.09818000	-23.59129000
57.59999675	0.00000000	-60.59301000	-24.71087000
57.79999674	0.00000000	-63.33661000	-24.20029000
57.99999673	0.00000000	-66.78149000	-21.13066000
58.19999672	0.00000000	-70.22637000	-16.20325000
58.39999670	0.00000000	-72.13951000	-11.55881000
58.59999669	0.00000000	-72.22563000	-8.07086500
58.79999668	0.00000000	-71.11221000	-6.21924200
58.99999667	0.00000000	-69.53124000	-7.41879900
59.19999666	0.00000000	-67.57505000	-11.60187000
59.39999664	0.00000000	-65.29281000	-17.40895000
59.59999663	0.00000000	-63.75492000	-23.59129000
59.79999662	0.00000000	-63.33661000	-28.93701000
59.99999661	0.00000000	-63.71186000	-31.58218000
60.19999660	0.00000000	-64.86835000	-30.42569000
60.39999658	0.00000000	-66.36318000	-25.82431000
60.59999657	0.00000000	-67.52583000	-18.89764000
60.79999656	0.00000000	-67.95029000	-11.60187000
60.99999655	0.00000000	-67.95029000	-5.79478300
61.19999654	0.00000000	-67.57505000	-2.73129900
61.39999653	0.00000000	-66.82455000	-3.10039400
61.59999651	0.00000000	-66.44931000	-7.00049200
61.79999650	0.00000000	-66.40624000	-13.55807000
61.99999649	0.00000000	-66.44931000	-21.64124000
62.19999648	0.00000000	-66.87376000	-28.89395000
62.39999647	0.00000000	-67.99335000	-33.16314000
62.59999645	0.00000000	-69.10678000	-33.58144000
62.79999644	0.00000000	-69.48203000	-30.51796000
62.99999643	0.00000000	-69.10678000	-24.66166000
63.19999642	0.00000000	-67.94415000	-16.99065000
63.39999641	0.00000000	-66.45546000	-9.33193800
63.59999639	0.00000000	-65.24360000	-4.30610200
63.79999638	0.00000000	-64.45004000	-2.68208600
63.99999637	0.00000000	-63.71186000	-4.21998000
64.19999636	0.00000000	-63.75492000	-8.48917200
64.39999635	0.00000000	-64.86835000	-14.62844000
64.59999634	0.00000000	-66.40624000	-21.17372000
64.79999632	0.00000000	-67.94415000	-26.24262000
64.99999631	0.00000000	-69.10678000	-29.35531000
65.19999630	0.00000000	-69.48203000	-30.14272000
65.39999629	0.00000000	-69.10678000	-28.19882000
65.59999628	0.00000000	-67.94415000	-24.37869000
65.79999626	0.00000000	-66.45546000	-19.36516000
65.99999625	0.00000000	-65.29281000	-14.72072000
66.19999624	0.00000000	-64.91756000	-11.18356000
66.39999623	0.00000000	-65.29281000	-8.82135800
66.59999622	0.00000000	-66.45546000	-8.07086500
66.79999620	0.00000000	-67.94415000	-8.77214500
66.99999619	0.00000000	-69.10678000	-10.72219000
67.19999618	0.00000000	-69.48203000	-13.09055000
67.39999617	0.00000000	-69.10678000	-16.20325000
67.59999616	0.00000000	-67.90108000	-19.68504000
67.79999615	0.00000000	-65.98794000	-22.43479000
67.99999613	0.00000000	-63.66264000	-24.79700000
68.19999612	0.00000000	-61.79872000	-26.28568000
68.39999611	0.00000000	-61.05437000	-26.32874000
68.59999610	0.00000000	-62.21702000	-25.12918000
68.79999609	0.00000000	-64.91756000	-22.75467000
68.99999607	0.00000000	-68.41166000	-18.90379000
69.19999606	0.00000000	-72.22563000	-14.62844000
69.39999605	0.00000000	-74.92618000	-10.72219000
69.59999604	0.00000000	-75.71973000	-7.28346400
69.79999603	0.00000000	-74.92618000	-5.79478300
69.99999601	0.00000000	-72.13951000	-6.95743000
70.19999600	0.00000000	-67.52583000	-10.40231000
70.39999599	0.00000000	-62.17396000	-15.41585000
70.59999598	0.00000000	-57.94168000	-20.43553000
70.79999597	0.00000000	-55.93627000	-24.75394000
70.99999596	0.00000000	-55.98548000	-27.78051000
71.19999594	0.00000000	-58.35999000	-28.56176000
71.39999593	0.00000000	-63.33661000	-26.66092000
71.59999592	0.00000000	-69.10678000	-23.17298000
71.79999591	0.00000000	-74.18184000	-18.52854000
71.99999590	0.00000000	-78.03887000	-13.55807000
72.19999588	0.00000000	-79.53371000	-10.07013000
72.39999587	0.00000000	-77.99581000	-8.48917200
72.59999586	0.00000000	-73.80659000	-8.86441900
72.79999585	0.00000000	-68.36859000	-11.14050000
72.99999584	0.00000000	-62.96136000	-14.21014000
73.19999582	0.00000000	-58.31693000	-17.32283000
73.39999581	0.00000000	-56.02854000	-20.01722000
73.59999580	0.00000000	-56.31151000	-21.54897000
73.79999579	0.00000000	-58.67987000	-21.59203000
73.99999578	0.00000000	-62.54921000	-20.47859000
74.19999577	0.00000000	-67.57505000	-18.98991000
74.39999575	0.00000000	-72.13951000	-17.83341000
74.59999574	0.00000000	-74.87697000	-17.45817000
74.79999573	0.00000000	-75.30142000	-17.78420000
74.99999572	0.00000000	-73.80659000	-18.57160000
75.19999571	0.00000000	-71.11221000	-19.27903000
75.39999569	0.00000000	-68.03641000	-19.64198000
75.59999568	0.00000000	-65.29281000	-18.85458000
75.79999567	0.00000000	-63.33661000	-17.32283000
75.99999566	0.00000000	-62.17396000	-15.36663000
76.19999565	0.00000000	-62.17396000	-13.09055000
76.39999563	0.00000000	-63.28740000	-11.55881000
76.59999562	0.00000000	-64.78223000	-11.18356000
76.79999561	0.00000000	-65.93873000	-12.02018000
76.99999560	0.00000000	-66.36318000	-14.76378000
77.19999559	0.00000000	-66.40624000	-18.94685000
77.39999558	0.00000000	-66.40624000	-23.17298000
77.59999556	0.00000000	-66.40624000	-26.24262000
77.79999555	0.00000000	-66.44931000	-27.39911000
77.99999554	0.00000000	-66.87376000	-26.24262000
78.19999553	0.00000000	-67.99335000	-23.12992000
78.39999552	0.00000000	-69.10678000	-18.47933000
78.59999550	0.00000000	-69.48203000	-13.13976000
78.79999549	0.00000000	-69.10678000	-8.90747900
78.99999548	0.00000000	-67.94415000	-6.90821800
79.19999547	0.00000000	-66.40624000	-6.90821800
79.39999546	0.00000000	-64.82529000	-8.90747900
79.59999544	0.00000000	-63.28740000	-13.13976000
79.79999543	0.00000000	-62.13090000	-18.47933000
79.99999542	0.00000000	-61.79872000	-23.12992000
80.19999541	0.00000000	-62.59227000	-26.28568000
80.39999540	0.00000000	-64.91756000	-27.82357000
80.59999539	0.00000000	-67.94415000	-27.44832000
80.79999537	0.00000000	-70.64468000	-25.12918000
80.99999536	0.00000000	-72.18258000	-21.64124000
81.19999535	0.00000000	-72.22563000	-17.36589000
81.39999534	0.00000000	-71.06299000	-13.13976000
81.59999533	0.00000000	-69.10678000	-10.07013000
81.79999531	0.00000000	-66.40624000	-8.86441900
81.99999530	0.00000000	-63.71186000	-9.55954600
82.19999529	0.00000000	-61.79872000	-11.09744000
82.39999528	0.00000000	-61.01131000	-13.09055000
82.59999527	0.00000000	-61.79872000	-15.83415000
82.79999525	0.00000000	-63.66264000	-18.89764000
82.99999524	0.00000000	-65.98794000	-21.64124000
83.19999523	0.00000000	-67.90108000	-23.59129000
83.39999522	0.00000000	-69.10678000	-24.75394000
83.59999521	0.00000000	-69.53124000	-24.75394000
83.79999520	0.00000000	-69.48203000	-23.59129000
83.99999518	0.00000000	-68.73154000	-21.59203000
84.19999517	0.00000000	-67.24901000	-18.47933000
84.39999516	0.00000000	-66.44931000	-14.67150000
84.59999515	0.00000000	-65.98794000	-11.55881000
84.79999514	0.00000000	-65.24360000	-9.60875900
84.99999512	0.00000000	-64.91756000	-8.82135800
85.19999511	0.00000000	-65.20053000	-9.65182000
85.39999510	0.00000000	-65.56963000	-11.97711000
85.59999509	0.00000000	-65.20053000	-15.87721000
85.79999508	0.00000000	-64.86835000	-20.43553000
85.99999506	0.00000000	-64.82529000	-24.33563000
86.19999505	0.00000000	-64.86835000	-26.61786000
86.39999504	0.00000000	-65.29281000	-26.98080000
86.59999503	0.00000000	-66.45546000	-24.66781000
86.79999502	0.00000000	-67.94415000	-20.47859000
86.99999501	0.00000000	-69.10678000	-15.83415000
87.19999499	0.00000000	-69.48203000	-11.55881000
87.39999498	0.00000000	-69.10678000	-8.48917200
87.59999497	0.00000000	-67.94415000	-7.37573800
87.79999496	0.00000000	-66.40624000	-8.90747900
87.99999495	0.00000000	-64.86835000	-12.72146000
88.19999493	0.00000000	-63.71186000	-17.36589000
88.39999492	0.00000000	-63.28740000	-22.01033000
88.59999491	0.00000000	-63.28740000	-25.82431000
88.79999490	0.00000000	-63.71186000	-27.35605000
88.99999489	0.00000000	-64.86835000	-26.19955000
89.19999487	0.00000000	-66.40624000	-22.75467000
89.39999486	0.00000000	-67.94415000	-17.74114000
89.59999485	0.00000000	-69.06373000	-12.76452000
89.79999484	0.00000000	-69.10678000	-8.90747900
89.99999483	0.00000000	-68.36859000	-7.37573800
90.19999482	0.00000000	-67.57505000	-8.53223400
90.39999480	0.00000000	-66.40624000	-12.02018000
90.59999479	0.00000000	-65.29281000	-17.36589000
90.79999478	0.00000000	-64.86835000	-22.71161000
90.99999477	0.00000000	-64.82529000	-26.19955000
91.19999476	0.00000000	-64.82529000	-27.35605000
91.39999474	0.00000000	-64.86835000	-25.82431000
91.59999473	0.00000000	-65.20053000	-21.96727000
91.79999472	0.00000000	-65.56963000	-16.99065000
91.99999471	0.00000000	-65.20053000	-11.97711000
92.19999470	0.00000000	-64.86835000	-8.53223400
92.39999468	0.00000000	-64.86835000	-7.37573800
92.59999467	0.00000000	-65.24360000	-8.90747900
92.79999466	0.00000000	-66.03100000	-12.76452000
92.99999465	0.00000000	-66.82455000	-17.74114000
93.19999464	0.00000000	-67.99335000	-22.71161000
93.39999463	0.00000000	-69.10678000	-25.77510000
93.59999461	0.00000000	-69.48203000	-26.24262000
93.79999460	0.00000000	-69.06373000	-24.66166000
93.99999459	0.00000000	-67.52583000	-21.17372000
94.19999458	0.00000000	-65.24360000	-16.25246000
94.39999457	0.00000000	-63.28740000	-12.06939000
94.59999455	0.00000000	-61.70644000	-10.07013000
94.79999454	0.00000000	-60.59301000	-10.02707000
94.99999453	0.00000000	-60.63607000	-11.65108000
95.19999452	0.00000000	-62.17396000	-15.08981000
95.39999451	0.00000000	-64.87450000	-19.64198000
95.59999449	0.00000000	-67.94415000	-23.08686000
95.79999448	0.00000000	-70.68774000	-24.66781000
95.99999447	0.00000000	-72.60088000	-24.29257000
96.19999446	0.00000000	-73.38828000	-22.01649000
96.39999445	0.00000000	-72.55782000	-18.94685000
96.59999444	0.00000000	-70.26943000	-15.83415000
96.79999442	0.00000000	-66.73843000	-13.13976000
96.99999441	0.00000000	-62.91216000	-11.60187000
97.19999440	0.00000000	-59.43036000	-11.60187000
97.39999439	0.00000000	-57.51722000	-13.09055000
97.59999438	0.00000000	-57.47416000	-15.40969000
97.79999436	0.00000000	-59.05511000	-17.69808000
97.99999435	0.00000000	-62.17396000	-19.64198000
98.19999434	0.00000000	-66.40624000	-20.43553000
98.39999433	0.00000000	-70.64468000	-20.48474000
98.59999432	0.00000000	-73.72047000	-20.06029000
98.79999430	0.00000000	-74.92618000	-18.94685000
98.99999429	0.00000000	-74.18184000	-17.83341000
99.19999428	0.00000000	-72.22563000	-17.36589000
99.39999427	0.00000000	-69.06373000	-16.94759000
99.59999426	0.00000000	-64.87450000	-16.20325000
99.79999425	0.00000000	-61.05437000	-15.82800000
99.99999423	0.00000000	-59.05511000	-15.74188000
100.19999422	0.00000000	-58.59375000	-15.40969000
100.39999421	0.00000000	-59.01205000	-15.00369000
100.59999420	0.00000000	-60.59301000	-15.04060000
100.79999419	0.00000000	-63.28740000	-15.04675000
100.99999417	0.00000000	-66.36318000	-15.87721000
101.19999416	0.00000000	-69.10678000	-17.36589000
101.39999415	0.00000000	-71.06299000	-18.94685000
101.59999414	0.00000000	-72.22563000	-20.47859000
101.79999413	0.00000000	-72.18258000	-21.59203000
101.99999411	0.00000000	-70.64468000	-21.54897000
102.19999410	0.00000000	-67.99335000	-20.01722000
102.39999409	0.00000000	-65.24360000	-17.32283000
102.59999408	0.00000000	-62.91216000	-14.25320000
102.79999407	0.00000000	-60.96825000	-11.55881000
102.99999406	0.00000000	-60.21776000	-10.02707000
103.19999404	0.00000000	-60.59301000	-10.02707000
103.39999403	0.00000000	-62.13090000	-11.60187000
103.59999402	0.00000000	-64.40699000	-14.62844000
103.79999401	0.00000000	-66.36318000	-18.11024000
103.99999400	0.00000000	-67.94415000	-20.81078000
104.19999398	0.00000000	-69.10678000	-22.75467000
104.39999397	0.00000000	-69.48203000	-23.08686000
104.59999396	0.00000000	-69.10678000	-21.59203000
104.79999395	0.00000000	-67.94415000	-18.89764000
104.99999394	0.00000000	-66.40624000	-15.83415000
105.19999392	0.00000000	-64.82529000	-13.13976000
105.39999391	0.00000000	-63.33661000	-11.60187000
105.59999390	0.00000000	-62.54921000	-11.55881000
105.79999389	0.00000000	-62.91216000	-12.72146000
105.99999388	0.00000000	-63.66264000	-14.67150000
106.19999387	0.00000000	-64.86835000	-17.36589000
106.39999385	0.00000000	-66.36318000	-20.01722000
106.59999384	0.00000000	-67.48277000	-21.54897000
106.79999383	0.00000000	-67.52583000	-21.59203000
106.99999382	0.00000000	-66.78149000	-20.43553000
107.19999381	0.00000000	-66.03100000	-18.52854000
107.39999379	0.00000000	-65.20053000	-16.25246000
107.59999378	0.00000000	-64.45004000	-14.72072000
107.79999377	0.00000000	-63.71186000	-14.30241000
107.99999376	0.00000000	-63.75492000	-14.67150000
108.19999375	0.00000000	-64.82529000	-15.83415000
108.39999374	0.00000000	-65.98794000	-17.36589000
108.59999372	0.00000000	-66.78149000	-18.90379000
108.79999371	0.00000000	-67.57505000	-20.06029000
108.99999370	0.00000000	-67.95029000	-20.43553000
109.19999369	0.00000000	-67.95029000	-20.06029000
109.39999368	0.00000000	-67.48277000	-18.90379000
109.59999366	0.00000000	-66.03100000	-17.36589000
109.79999365	0.00000000	-64.50541000	-15.78494000
109.99999364	0.00000000	-64.07480000	-14.29626000
110.19999363	0.00000000	-63.66264000	-13.55807000
110.39999362	0.00000000	-63.71186000	-14.29626000
110.59999360	0.00000000	-64.45004000	-15.78494000
110.79999359	0.00000000	-65.24360000	-17.32283000
110.99999358	0.00000000	-66.36318000	-18.52854000
111.19999357	0.00000000	-67.15059000	-19.32210000
111.39999356	0.00000000	-67.20596000	-20.06029000
111.59999355	0.00000000	-67.57505000	-20.06029000
111.79999353	0.00000000	-67.52583000	-19.32210000
111.99999352	0.00000000	-66.78149000	-18.52854000
112.19999351	0.00000000	-66.03100000	-17.36589000
112.39999350	0.00000000	-65.24360000	-16.25246000
112.59999349	0.00000000	-64.86835000	-15.82800000
112.79999347	0.00000000	-64.82529000	-15.78494000
112.99999346	0.00000000	-64.82529000	-15.78494000
113.19999345	0.00000000	-64.82529000	-15.82800000
113.39999344	0.00000000	-64.86835000	-16.20325000
113.59999343	0.00000000	-65.24360000	-16.94759000
113.79999341	0.00000000	-65.98794000	-17.32283000
113.99999340	0.00000000	-66.36318000	-17.36589000
114.19999339	0.00000000	-66.40624000	-17.36589000
114.39999338	0.00000000	-66.40624000	-17.40895000
114.59999337	0.00000000	-66.40624000	-17.78420000
114.79999336	0.00000000	-66.40624000	-18.52854000
114.99999334	0.00000000	-66.36318000	-18.85458000
115.19999333	0.00000000	-66.03100000	-18.52854000
115.39999332	0.00000000	-65.61884000	-17.78420000
115.59999331	0.00000000	-65.61269000	-17.36589000
115.79999330	0.00000000	-65.24360000	-16.94759000
115.99999328	0.00000000	-65.24360000	-16.16018000
116.19999327	0.00000000	-65.61269000	-15.40969000
116.39999326	0.00000000	-65.61884000	-14.62844000
116.59999325	0.00000000	-66.03100000	-14.30241000
116.79999324	0.00000000	-66.36318000	-14.62844000
116.99999322	0.00000000	-66.40624000	-15.40969000
117.19999321	0.00000000	-66.36318000	-16.20325000
117.39999320	0.00000000	-65.98794000	-17.36589000
117.59999319	0.00000000	-65.20053000	-18.47933000
117.79999318	0.00000000	-64.45004000	-18.90379000
117.99999317	0.00000000	-63.66264000	-18.94685000
118.19999315	0.00000000	-63.33661000	-18.90379000
118.39999314	0.00000000	-63.66264000	-18.47933000
118.59999313	0.00000000	-64.45004000	-17.36589000
118.79999312	0.00000000	-65.24360000	-16.25246000
118.99999311	0.00000000	-66.40624000	-15.78494000
119.19999309	0.00000000	-67.52583000	-15.40969000
119.39999308	0.00000000	-67.95029000	-15.04675000
119.59999307	0.00000000	-67.95029000	-15.40969000
119.79999306	0.00000000	-67.52583000	-15.74188000
119.99999305	0.00000000	-66.36318000	-15.82800000
120.19999303	0.00000000	-64.86835000	-16.20325000
120.39999302	0.00000000	-63.66264000	-16.99065000
120.59999301	0.00000000	-62.91216000	-17.74114000
120.79999300	0.00000000	-62.50000000	-18.52854000
120.99999299	0.00000000	-62.91216000	-18.85458000
121.19999298	0.00000000	-63.66264000	-18.57160000
121.39999296	0.00000000	-64.86835000	-18.15945000
121.59999295	0.00000000	-66.36318000	-18.15330000
121.79999294	0.00000000	-67.52583000	-17.74114000
121.99999293	0.00000000	-67.95029000	-17.36589000
122.19999292	0.00000000	-67.99335000	-16.94759000
122.39999290	0.00000000	-67.95029000	-16.20325000
122.59999289	0.00000000	-67.52583000	-15.82800000
122.79999288	0.00000000	-66.36318000	-15.78494000
122.99999287	0.00000000	-64.86835000	-15.82800000
123.19999286	0.00000000	-63.71186000	-16.20325000
123.39999284	0.00000000	-63.28740000	-16.94759000
123.59999283	0.00000000	-63.24434000	-17.32283000
123.79999282	0.00000000	-63.28740000	-17.40895000
123.99999281	0.00000000	-63.66264000	-17.78420000
124.19999280	0.00000000	-64.45004000	-18.52854000
124.39999279	0.00000000	-65.20053000	-18.85458000
124.59999277	0.00000000	-66.03100000	-18.52854000
124.79999276	0.00000000	-66.78149000	-17.78420000
124.99999275	0.00000000	-67.57505000	-17.36589000
125.19999274	0.00000000	-67.95029000	-16.94759000
125.39999273	0.00000000	-67.90108000	-16.20325000
125.59999271	0.00000000	-67.15059000	-15.82800000
125.79999270	0.00000000	-65.66806000	-15.78494000
125.99999269	0.00000000	-64.86835000	-15.78494000
126.19999268	0.00000000	-64.40699000	-15.78494000
126.39999267	0.00000000	-63.66264000	-15.82800000
126.59999265	0.00000000	-63.28740000	-16.20325000
126.79999264	0.00000000	-63.28740000	-16.94759000
126.99999263	0.00000000	-63.71186000	-17.32283000
127.19999262	0.00000000	-64.82529000	-17.36589000
127.39999261	0.00000000	-65.98794000	-17.36589000
127.59999260	0.00000000	-66.78149000	-17.36589000
127.79999258	0.00000000	-67.57505000	-17.36589000
127.99999257	0.00000000	-67.90108000	-17.32283000
128.19999256	0.00000000	-67.52583000	-16.94759000
128.39999255	0.00000000	-66.36318000	-16.20325000
128.59999254	0.00000000	-64.86835000	-15.82800000
128.79999252	0.00000000	-63.71186000	-15.78494000
128.99999251	0.00000000	-63.28740000	-15.82800000
129.19999250	0.00000000	-63.24434000	-16.20325000
129.39999249	0.00000000	-63.28740000	-16.94759000
129.59999248	0.00000000	-63.71186000	-17.32283000
129.79999246	0.00000000	-64.86835000	-17.36589000
129.99999245	0.00000000	-66.36318000	-17.36589000
130.19999244	0.00000000	-67.48277000	-17.36589000
130.39999243	0.00000000	-67.52583000	-17.32283000
130.59999242	0.00000000	-66.78149000	-16.99065000
130.79999241	0.00000000	-66.03100000	-16.57849000
130.99999239	0.00000000	-65.24360000	-16.57234000
131.19999238	0.00000000	-64.86835000	-16.20325000
131.39999237	0.00000000	-64.78223000	-16.25246000
131.59999236	0.00000000	-64.45004000	-16.94759000
131.79999235	0.00000000	-64.08095000	-17.32283000
131.99999233	0.00000000	-64.45004000	-17.40895000
132.19999232	0.00000000	-64.82529000	-17.78420000
132.39999231	0.00000000	-65.20053000	-18.47933000
132.59999230	0.00000000	-65.61269000	-18.47933000
132.79999229	0.00000000	-65.61884000	-17.74114000
132.99999227	0.00000000	-65.98794000	-16.99065000
133.19999226	0.00000000	-65.93873000	-16.20325000
133.39999225	0.00000000	-65.24360000	-15.82800000
133.59999224	0.00000000	-64.86835000	-15.78494000
133.79999223	0.00000000	-64.82529000	-15.78494000
133.99999222	0.00000000	-64.82529000	-15.82800000
134.19999220	0.00000000	-64.82529000	-16.20325000
134.39999219	0.00000000	-64.82529000	-16.94759000
134.59999218	0.00000000	-64.82529000	-17.36589000
134.79999217	0.00000000	-64.82529000	-17.78420000
134.99999216	0.00000000	-64.82529000	-18.52854000
135.19999214	0.00000000	-64.82529000	-18.85458000
135.39999213	0.00000000	-64.82529000	-18.52854000
135.59999212	0.00000000	-64.82529000	-17.74114000
135.79999211	0.00000000	-64.86835000	-16.99065000
135.99999210	0.00000000	-65.24360000	-16.20325000
136.19999208	0.00000000	-65.98794000	-15.78494000
136.39999207	0.00000000	-66.36318000	-15.40969000
136.59999206	0.00000000	-66.40624000	-15.04675000
136.79999205	0.00000000	-66.36318000	-15.45891000
136.99999204	0.00000000	-65.98794000	-16.16018000
137.19999203	0.00000000	-65.24360000	-16.94759000
137.39999201	0.00000000	-64.82529000	-17.32283000
137.59999200	0.00000000	-64.40699000	-17.40895000
137.79999199	0.00000000	-63.66264000	-17.78420000
137.99999198	0.00000000	-63.33661000	-18.52854000
138.19999197	0.00000000	-63.71186000	-18.90379000
138.39999195	0.00000000	-64.82529000	-18.90379000
138.59999194	0.00000000	-65.89567000	-18.47933000
138.79999193	0.00000000	-65.98794000	-17.36589000
138.99999192	0.00000000	-65.66190000	-16.25246000
139.19999191	0.00000000	-66.03100000	-15.82800000
139.39999189	0.00000000	-66.31397000	-15.78494000
139.59999188	0.00000000	-65.98794000	-15.78494000
139.79999187	0.00000000	-65.20053000	-15.78494000
139.99999186	0.00000000	-64.49311000	-15.82800000
140.19999185	0.00000000	-64.08095000	-16.20325000
140.39999184	0.00000000	-64.45004000	-16.94759000
140.59999182	0.00000000	-64.78223000	-17.36589000
140.79999181	0.00000000	-64.82529000	-17.78420000
140.99999180	0.00000000	-64.86835000	-18.47933000
141.19999179	0.00000000	-65.24360000	-18.52854000
141.39999178	0.00000000	-65.98794000	-18.15945000
141.59999176	0.00000000	-66.31397000	-18.11024000
141.79999175	0.00000000	-65.98794000	-17.32283000
141.99999174	0.00000000	-65.24360000	-16.20325000
142.19999173	0.00000000	-64.86835000	-15.45891000
142.39999172	0.00000000	-64.82529000	-15.04675000
142.59999170	0.00000000	-64.82529000	-15.40969000
142.79999169	0.00000000	-64.82529000	-15.78494000
142.99999168	0.00000000	-64.82529000	-16.20325000
143.19999167	0.00000000	-64.82529000	-16.99065000
143.39999166	0.00000000	-64.86835000	-17.74114000
143.59999165	0.00000000	-65.20053000	-18.52854000
143.79999163	0.00000000	-65.56963000	-18.85458000
143.99999162	0.00000000	-65.20053000	-18.52854000
144.19999161	0.00000000	-64.86835000	-17.74114000
144.39999160	0.00000000	-64.78223000	-16.99065000
144.59999159	0.00000000	-64.45004000	-16.20325000
144.79999157	0.00000000	-64.08095000	-15.82800000
144.99999156	0.00000000	-64.45004000	-15.78494000
145.19999155	0.00000000	-64.78223000	-15.78494000
145.39999154	0.00000000	-64.82529000	-15.78494000
145.59999153	0.00000000	-64.82529000	-15.82800000
145.79999151	0.00000000	-64.82529000	-16.20325000
145.99999150	0.00000000	-64.82529000	-16.99065000
146.19999149	0.00000000	-64.82529000	-17.74114000
146.39999148	0.00000000	-64.82529000	-18.47933000
146.59999147	0.00000000	-64.78223000	-18.47933000
146.79999146	0.00000000	-64.40699000	-17.78420000
146.99999144	0.00000000	-63.66264000	-17.36589000
147.19999143	0.00000000	-63.28740000	-16.94759000
147.39999142	0.00000000	-63.33661000	-16.20325000
147.59999141	0.00000000	-64.03790000	-15.82800000
147.79999140	0.00000000	-65.14517000	-15.78494000
147.99999138	0.00000000	-65.20053000	-15.82800000
148.19999137	0.00000000	-65.29281000	-16.20325000
148.39999136	0.00000000	-65.93873000	-16.94759000
148.59999135	0.00000000	-65.93873000	-17.32283000
148.79999134	0.00000000	-65.24360000	-17.36589000
148.99999132	0.00000000	-64.86835000	-17.40895000
149.19999131	0.00000000	-64.82529000	-17.74114000
149.39999130	0.00000000	-64.82529000	-18.11024000
149.59999129	0.00000000	-64.78223000	-17.74114000
149.79999128	0.00000000	-64.45004000	-17.40895000
149.99999127	0.00000000	-64.08095000	-17.32283000
150.19999125	0.00000000	-64.45004000	-16.94759000
150.39999124	0.00000000	-64.78223000	-16.20325000
150.59999123	0.00000000	-64.82529000	-15.82800000
150.79999122	0.00000000	-64.82529000	-15.78494000
150.99999121	0.00000000	-64.82529000	-15.78494000
151.19999119	0.00000000	-64.82529000	-15.82800000
151.39999118	0.00000000	-64.82529000	-16.20325000
151.59999117	0.00000000	-64.82529000	-16.94759000
151.79999116	0.00000000	-64.82529000	-17.32283000
151.99999115	0.00000000	-64.82529000	-17.36589000
152.19999113	0.00000000	-64.82529000	-17.36589000
152.39999112	0.00000000	-64.78223000	-17.32283000
152.59999111	0.00000000	-64.40699000	-16.94759000
152.79999110	0.00000000	-63.66264000	-16.20325000
152.99999109	0.00000000	-63.28740000	-15.82800000
153.19999108	0.00000000	-63.28740000	-15.78494000
153.39999106	0.00000000	-63.66264000	-15.78494000
153.59999105	0.00000000	-64.40699000	-15.78494000
153.79999104	0.00000000	-64.82529000	-15.78494000
153.99999103	0.00000000	-65.24360000	-15.78494000
154.19999102	0.00000000	-65.98794000	-15.78494000
154.39999100	0.00000000	-66.31397000	-15.82800000
154.59999099	0.00000000	-65.98794000	-16.20325000
154.79999098	0.00000000	-65.24360000	-16.89837000
154.99999097	0.00000000	-64.82529000	-16.89837000
155.19999096	0.00000000	-64.40699000	-16.25246000
155.39999094	0.00000000	-63.66264000	-16.25246000
155.59999093	0.00000000	-63.28740000	-16.94759000
155.79999092	0.00000000	-63.24434000	-17.32283000
155.99999091	0.00000000	-63.28740000	-17.32283000
156.19999090	0.00000000	-63.66264000	-16.94759000
156.39999089	0.00000000	-64.40699000	-16.20325000
156.59999087	0.00000000	-64.78223000	-15.82800000
156.79999086	0.00000000	-64.82529000	-15.78494000
156.99999085	0.00000000	-64.82529000	-15.78494000
157.19999084	0.00000000	-64.86835000	-15.82800000
157.39999083	0.00000000	-65.20053000	-16.16018000
157.59999081	0.00000000	-65.56963000	-16.57234000
157.79999080	0.00000000	-65.20053000	-16.57849000
157.99999079	0.00000000	-64.86835000	-16.99065000
158.19999078	0.00000000	-64.78223000	-17.32283000
158.39999077	0.00000000	-64.40699000	-17.36589000
158.59999075	0.00000000	-63.66264000	-17.36589000
158.79999074	0.00000000	-63.33661000	-17.36589000
158.99999073	0.00000000	-63.66264000	-17.32283000
159.19999072	0.00000000	-64.40699000	-16.94759000
159.39999071	0.00000000	-64.78223000	-16.20325000
159.59999070	0.00000000	-64.82529000	-15.82800000
159.79999068	0.00000000	-64.82529000	-15.78494000
159.99999067	0.00000000	-64.82529000	-15.78494000
160.19999066	0.00000000	-64.86835000	-15.82800000
160.39999065	0.00000000	-65.20053000	-16.20325000
160.59999064	0.00000000	-65.56963000	-16.94759000
160.79999062	0.00000000	-65.20053000	-17.32283000
160.99999061	0.00000000	-64.86835000	-17.36589000
161.19999060	0.00000000	-64.82529000	-17.36589000
161.39999059	0.00000000	-64.82529000	-17.36589000
161.59999058	0.00000000	-64.78223000	-17.36589000
161.79999056	0.00000000	-64.45004000	-17.32283000
161.99999055	0.00000000	-64.08095000	-16.94759000
162.19999054	0.00000000	-64.45004000	-16.20325000
162.39999053	0.00000000	-64.78223000	-15.82800000
162.59999052	0.00000000	-64.82529000	-15.78494000
162.79999051	0.00000000	-64.82529000	-15.78494000
162.99999049	0.00000000	-64.82529000	-15.78494000
163.19999048	0.00000000	-64.82529000	-15.78494000
163.39999047	0.00000000	-64.82529000	-15.78494000
163.59999046	0.00000000	-64.82529000	-15.82800000
163.79999045	0.00000000	-64.82529000	-16.16018000
163.99999043	0.00000000	-64.82529000	-16.52928000
164.19999042	0.00000000	-64.82529000	-16.20325000
164.39999041	0.00000000	-64.78223000	-16.25246000
164.59999040	0.00000000	-64.40699000	-16.89837000
164.79999039	0.00000000	-63.66264000	-16.89837000
164.99999037	0.00000000	-63.28740000	-16.20325000
165.19999036	0.00000000	-63.28740000	-15.82800000
165.39999035	0.00000000	-63.66264000	-15.78494000
165.59999034	0.00000000	-64.40699000	-15.82800000
165.79999033	0.00000000	-64.78223000	-16.16018000
165.99999032	0.00000000	-64.82529000	-16.52928000
166.19999030	0.00000000	-64.82529000	-16.16018000
166.39999029	0.00000000	-64.82529000	-15.82800000
166.59999028	0.00000000	-64.82529000	-15.78494000
166.79999027	0.00000000	-64.82529000	-15.82800000
166.99999026	0.00000000	-64.78223000	-16.20325000
167.19999024	0.00000000	-64.45004000	-16.94759000
167.39999023	0.00000000	-64.08095000	-17.32283000
167.59999022	0.00000000	-64.45004000	-17.36589000
167.79999021	0.00000000	-64.78223000	-17.36589000
167.99999020	0.00000000	-64.78223000	-17.32283000
168.19999018	0.00000000	-64.40699000	-16.94759000
168.39999017	0.00000000	-63.71186000	-16.25246000
168.59999016	0.00000000	-63.71186000	-16.20325000
168.79999015	0.00000000	-64.40699000	-16.52928000
168.99999014	0.00000000	-64.78223000	-16.20325000
169.19999013	0.00000000	-64.82529000	-16.25246000
169.39999011	0.00000000	-64.82529000	-16.89837000
169.59999010	0.00000000	-64.82529000	-16.94759000
169.79999009	0.00000000	-64.82529000	-16.62155000
169.99999008	0.00000000	-64.82529000	-16.99065000
170.19999007	0.00000000	-64.78223000	-17.27362000
170.39999005	0.00000000	-64.40699000	-16.94759000
170.59999004	0.00000000	-63.71186000	-16.25246000
170.79999003	0.00000000	-63.66264000	-16.25246000
170.99999002	0.00000000	-64.03174000	-16.94759000
171.19999001	0.00000000	-63.99483000	-17.32283000
171.39998999	0.00000000	-64.07480000	-17.36589000
171.59998998	0.00000000	-64.03790000	-17.36589000
171.79998997	0.00000000	-64.45004000	-17.36589000
171.99998996	0.00000000	-64.78223000	-17.36589000
172.19998995	0.00000000	-64.82529000	-17.36589000
172.39998994	0.00000000	-64.82529000	-17.36589000
172.59998992	0.00000000	-64.82529000	-17.36589000
172.79998991	0.00000000	-64.82529000	-17.32283000
172.99998990	0.00000000	-64.82529000	-16.99065000
173.19998989	0.00000000	-64.82529000	-16.57849000
173.39998988	0.00000000	-64.82529000	-16.57234000
173.59998986	0.00000000	-64.82529000	-16.20325000
173.79998985	0.00000000	-64.82529000	-16.25246000
173.99998984	0.00000000	-64.82529000	-16.94759000
174.19998983	0.00000000	-64.82529000	-17.32283000
174.39998982	0.00000000	-64.78223000	-17.32283000
174.59998980	0.00000000	-64.45004000	-16.99065000
174.79998979	0.00000000	-64.08095000	-16.62155000
174.99998978	0.00000000	-64.45004000	-16.99065000
175.19998977	0.00000000	-64.78223000	-17.27362000
175.39998976	0.00000000	-64.82529000	-16.94759000
175.59998975	0.00000000	-64.82529000	-16.25246000
175.79998973	0.00000000	-64.82529000	-16.25246000
175.99998972	0.00000000	-64.82529000	-16.94759000
176.19998971	0.00000000	-64.82529000	-17.27362000
176.39998970	0.00000000	-64.82529000	-16.94759000
176.59998969	0.00000000	-64.82529000	-16.20325000
176.79998967	0.00000000	-64.82529000	-15.82800000
176.99998966	0.00000000	-64.82529000	-15.82800000
177.19998965	0.00000000	-64.82529000	-16.16018000
177.39998964	0.00000000	-64.82529000	-16.52928000
177.59998963	0.00000000	-64.78223000	-16.16018000
177.79998961	0.00000000	-64.40699000	-15.82800000
177.99998960	0.00000000	-63.71186000	-15.82800000
178.19998959	0.00000000	-63.71186000	-16.16018000
178.39998958	0.00000000	-64.40699000	-16.52928000
178.59998957	0.00000000	-64.78223000	-16.16018000
178.79998956	0.00000000	-64.82529000	-15.82800000
178.99998954	0.00000000	-64.82529000	-15.78494000
179.19998953	0.00000000	-64.82529000	-15.82800000
179.39998952	0.00000000	-64.82529000	-16.16018000
179.59998951	0.00000000	-64.78223000	-16.57234000
179.79998950	0.00000000	-64.45004000	-16.57849000
179.99998948	0.00000000	-64.03790000	-16.99065000
180.19998947	0.00000000	-64.07480000	-17.32283000
180.39998946	0.00000000	-64.03790000	-17.32283000
180.59998945	0.00000000	-64.45004000	-16.99065000
180.79998944	0.00000000	-64.78223000	-16.57849000
180.99998942	0.00000000	-64.82529000	-16.57234000
181.19998941	0.00000000	-64.82529000	-16.16018000
181.39998940	0.00000000	-64.82529000	-15.82800000
181.59998939	0.00000000	-64.82529000	-15.78494000
181.79998938	0.00000000	-64.82529000	-15.78494000
181.99998937	0.00000000	-64.78223000	-15.78494000
182.19998935	0.00000000	-64.40699000	-15.78494000
182.39998934	0.00000000	-63.66264000	-15.82800000
182.59998933	0.00000000	-63.28740000	-16.20325000
182.79998932	0.00000000	-63.24434000	-16.94759000
182.99998931	0.00000000	-63.24434000	-17.32283000
183.19998929	0.00000000	-63.24434000	-17.36589000
183.39998928	0.00000000	-63.28740000	-17.36589000
183.59998927	0.00000000	-63.66264000	-17.32283000
183.79998926	0.00000000	-64.40699000	-16.94759000
183.99998925	0.00000000	-64.78223000	-16.20325000
184.19998923	0.00000000	-64.82529000	-15.82800000
184.39998922	0.00000000	-64.82529000	-15.78494000
184.59998921	0.00000000	-64.82529000	-15.78494000
184.79998920	0.00000000	-64.82529000	-15.78494000
184.99998919	0.00000000	-64.78223000	-15.78494000
185.19998918	0.00000000	-64.40699000	-15.78494000
185.39998916	0.00000000	-63.66264000	-15.82800000
185.59998915	0.00000000	-63.28740000	-16.20325000
185.79998914	0.00000000	-63.24434000	-16.94759000
185.99998913	0.00000000	-63.24434000	-17.32283000
186.19998912	0.00000000	-63.24434000	-17.36589000
186.39998910	0.00000000	-63.28740000	-17.36589000
186.59998909	0.00000000	-63.66264000	-17.36589000
186.79998908	0.00000000	-64.40699000	-17.32283000
186.99998907	0.00000000	-64.78223000	-16.94759000
187.19998906	0.00000000	-64.82529000	-16.20325000
187.39998904	0.00000000	-64.82529000	-15.82800000
187.59998903	0.00000000	-64.78223000	-15.78494000
187.79998902	0.00000000	-64.45004000	-15.78494000
187.99998901	0.00000000	-64.03790000	-15.78494000
188.19998900	0.00000000	-64.03174000	-15.82800000
188.39998899	0.00000000	-63.61958000	-16.20325000
188.59998897	0.00000000	-63.28740000	-16.94759000
188.79998896	0.00000000	-63.24434000	-17.32283000
188.99998895	0.00000000	-63.24434000	-17.36589000
189.19998894	0.00000000	-63.24434000	-17.36589000
189.39998893	0.00000000	-63.24434000	-17.36589000
189.59998891	0.00000000	-63.24434000	-17.32283000
189.79998890	0.00000000	-63.28740000	-16.94759000
189.99998889	0.00000000	-63.66264000	-16.20325000
190.19998888	0.00000000	-64.40699000	-15.82800000
190.39998887	0.00000000	-64.78223000	-15.78494000
190.59998885	0.00000000	-64.78223000	-15.78494000
190.79998884	0.00000000	-64.40699000	-15.78494000
190.99998883	0.00000000	-63.66264000	-15.78494000
191.19998882	0.00000000	-63.28740000	-15.78494000
191.39998881	0.00000000	-63.24434000	-15.78494000
191.59998880	0.00000000	-63.24434000	-15.78494000
191.79998878	0.00000000	-63.24434000	-15.82800000
191.99998877	0.00000000	-63.24434000	-16.20325000
192.19998876	0.00000000	-63.24434000	-16.94759000
192.39998875	0.00000000	-63.28740000	-17.32283000
192.59998874	0.00000000	-63.66264000	-17.36589000
192.79998872	0.00000000	-64.35777000	-17.32283000
192.99998871	0.00000000	-64.40699000	-16.99065000
193.19998870	0.00000000	-64.08095000	-16.57849000
193.39998869	0.00000000	-64.45004000	-16.57234000
193.59998868	0.00000000	-64.73302000	-16.16018000
193.79998866	0.00000000	-64.40699000	-15.82800000
193.99998865	0.00000000	-63.66264000	-15.78494000
194.19998864	0.00000000	-63.28740000	-15.78494000
194.39998863	0.00000000	-63.24434000	-15.78494000
194.59998862	0.00000000	-63.24434000	-15.78494000
194.79998861	0.00000000	-63.24434000	-15.78494000
194.99998859	0.00000000	-63.24434000	-15.78494000
195.19998858	0.00000000	-63.24434000	-15.82800000
195.39998857	0.00000000	-63.24434000	-16.16018000
195.59998856	0.00000000	-63.28740000	-16.57234000
195.79998855	0.00000000	-63.66264000	-16.53543000
195.99998853	0.00000000	-64.40699000	-16.61540000
