Time	Channel A	Channel B	Channel C
(us)	(V)	(mV)	(mV)

-4.53333289	0.00000000	31.61909000	3.15575800
-4.33333290	0.00000000	31.61909000	3.15575800
-4.13333291	0.00000000	31.61909000	3.15575800
-3.93333293	0.00000000	31.61909000	3.15575800
-3.73333294	0.00000000	31.61909000	3.15575800
-3.53333295	0.00000000	31.61909000	3.15575800
-3.33333296	0.00000000	31.61909000	3.15575800
-3.13333297	0.00000000	31.61909000	3.15575800
-2.93333299	0.00000000	31.61909000	3.15575800
-2.73333300	0.00000000	31.61909000	3.15575800
-2.53333301	0.00000000	31.61909000	3.15575800
-2.33333302	0.00000000	31.61909000	3.15575800
-2.13333303	0.00000000	31.61909000	3.15575800
-1.93333304	0.00000000	31.61909000	3.19881900
-1.73333306	0.00000000	31.61909000	3.53100400
-1.53333307	0.00000000	31.61909000	3.90009800
-1.33333308	0.00000000	31.61909000	3.53100400
-1.13333309	0.00000000	31.61909000	3.19881900
-0.93333310	0.00000000	31.61909000	3.15575800
-0.73333312	0.00000000	31.61909000	3.15575800
-0.53333313	0.00000000	31.61909000	3.15575800
-0.33333314	0.15871060	31.61909000	3.15575800
-0.13333315	0.47736220	31.61909000	3.15575800
0.06666684	0.95533960	31.61909000	3.15575800
0.26666682	0.95533960	31.61909000	3.15575800
0.46666681	0.95533960	31.61909000	3.15575800
0.66666680	0.47736220	31.61909000	3.15575800
0.86666679	-0.15871060	31.61909000	3.15575800
1.06666678	-1.27399100	31.61909000	3.15575800
1.26666677	-2.07062000	31.61909000	3.15575800
1.46666675	-2.70792300	31.61909000	3.15575800
1.66666674	-2.70792300	31.61909000	3.19881900
1.86666673	-1.75196900	31.61909000	3.53100400
2.06666672	0.00000000	31.61909000	3.90009800
2.26666671	2.07062000	31.61909000	3.53100400
2.46666669	3.98191400	31.61909000	3.19881900
2.66666668	5.09719500	31.61909000	3.15575800
2.86666667	5.25652100	31.61909000	3.11269700
3.06666666	3.66326300	31.61909000	2.78051200
3.26666665	0.95533960	31.61909000	2.41141700
3.46666663	-2.38927200	31.61909000	2.78051200
3.66666662	-5.57517200	31.61909000	3.11269700
3.86666661	-7.64579200	31.61909000	3.19881900
4.06666660	-7.80511800	31.61909000	3.57406500
4.26666659	-6.05315000	31.61909000	4.31840500
4.46666658	-2.38927200	31.61909000	4.69365100
4.66666656	1.91129400	31.61909000	4.69365100
4.86666655	6.05315000	31.61909000	4.31840500
5.06666654	8.92039900	31.61909000	3.57406500
5.26666653	9.39837600	31.61909000	3.15575800
5.46666652	7.64579200	31.57603000	2.73745100
5.66666650	3.82258900	31.24384000	1.99311000
5.86666649	-0.95533960	30.87475000	1.66707700
6.06666648	-5.41584600	31.24384000	1.99311000
6.26666647	-8.60174700	31.57603000	2.73745100
6.46666646	-9.39837600	31.61909000	3.11269700
6.66666644	-8.12377000	31.61909000	3.19881900
6.86666643	-4.61921700	31.61909000	3.57406500
7.06666642	-0.31803640	31.61909000	4.26919300
7.26666641	3.82258900	31.61909000	4.26919300
7.46666640	6.69045300	31.61909000	3.57406500
7.66666639	7.80511800	31.61909000	3.19881900
7.86666637	6.84916400	31.61909000	3.15575800
8.06666636	4.45989200	31.61909000	3.15575800
8.26666635	1.11466500	31.61909000	3.15575800
8.46666634	-1.91129400	31.61909000	3.15575800
8.66666633	-4.30056600	31.61909000	3.15575800
8.86666631	-5.09719500	31.61909000	3.15575800
9.06666630	-4.77854300	31.61909000	3.15575800
9.26666629	-3.18590100	31.61909000	3.15575800
9.46666628	-1.27399100	31.61909000	3.15575800
9.66666627	0.63668800	31.61909000	3.15575800
9.86666625	1.91129400	31.61909000	3.15575800
10.06666624	2.54859700	31.61909000	3.15575800
10.26666623	2.38927200	31.61909000	3.15575800
10.46666622	1.75196900	31.61909000	3.15575800
10.66666621	0.79601380	31.61909000	3.15575800
10.86666620	0.00000000	31.61909000	3.15575800
11.06666618	-0.63668800	31.61909000	3.15575800
11.26666617	-0.95533960	31.61909000	3.15575800
11.46666616	-0.95533960	31.61909000	3.15575800
11.66666615	-0.79601380	31.61909000	3.15575800
11.86666614	-0.47736220	31.61909000	3.15575800
12.06666612	-0.15871060	31.61909000	3.15575800
12.26666611	-0.15871060	31.61909000	3.15575800
12.46666610	0.00000000	31.61909000	3.15575800
12.66666609	0.00000000	31.61909000	3.15575800
12.86666608	0.00000000	31.61909000	3.15575800
13.06666606	0.00000000	31.61909000	3.15575800
13.26666605	0.15871060	31.61909000	3.15575800
13.46666604	0.00000000	31.61909000	3.15575800
13.66666603	0.00000000	31.61909000	3.15575800
13.86666602	0.00000000	31.61909000	3.15575800
14.06666601	0.00000000	31.61909000	3.15575800
14.26666599	-0.15871060	31.61909000	3.15575800
14.46666598	-0.15871060	31.61909000	3.15575800
14.66666597	0.00000000	31.61909000	3.15575800
14.86666596	0.00000000	31.61909000	3.15575800
15.06666595	0.00000000	31.61909000	3.15575800
15.26666593	0.00000000	31.61909000	3.15575800
15.46666592	0.00000000	31.61909000	3.15575800
15.66666591	0.00000000	31.61909000	3.15575800
15.86666590	0.00000000	31.61909000	3.15575800
16.06666589	0.00000000	31.61909000	3.15575800
16.26666587	0.00000000	31.61909000	3.15575800
16.46666586	0.00000000	31.61909000	3.15575800
16.66666585	-0.15871060	31.61909000	3.15575800
16.86666584	0.00000000	31.66215000	3.15575800
17.06666583	0.00000000	32.03740000	3.15575800
17.26666582	0.00000000	32.78174000	3.15575800
17.46666580	0.00000000	33.15699000	3.15575800
17.66666579	0.00000000	33.15699000	3.15575800
17.86666578	0.00000000	32.78174000	3.15575800
18.06666577	0.00000000	31.99434000	3.15575800
18.26666576	0.00000000	31.15157000	3.15575800
18.46666574	0.00000000	29.61983000	3.15575800
18.66666573	0.00000000	27.71284000	3.15575800
18.86666572	0.00000000	26.59326000	3.15575800
19.06666571	0.00000000	26.18110000	3.15575800
19.26666570	0.00000000	27.05462000	3.15575800
19.46666568	0.00000000	29.34301000	3.15575800
19.66666567	0.00000000	32.87401000	3.15575800
19.86666566	0.00000000	36.74335000	3.15575800
20.06666565	0.00000000	40.60039000	3.15575800
20.26666564	0.00000000	43.20866000	3.15575800
20.46666563	0.00000000	43.16560000	3.15575800
20.66666561	0.00000000	40.04675000	3.15575800
20.86666560	0.00000000	34.23351000	3.15575800
21.06666559	0.00000000	26.83317000	3.15575800
21.26666558	0.00000000	19.10679000	3.15575800
21.46666557	0.00000000	12.59842000	3.15575800
21.66666555	0.00000000	9.61491000	3.15575800
21.86666554	0.00000000	11.57111000	3.15575800
22.06666553	0.00000000	18.59006000	3.15575800
22.26666552	0.00000000	29.43528000	3.15575800
22.46666551	0.00000000	42.22441000	3.15575800
22.66666549	0.00000000	54.14001000	3.15575800
22.86666548	0.00000000	62.14320000	3.15575800
23.06666547	0.00000000	63.25664000	3.19881900
23.26666546	0.00000000	56.65600000	3.57406500
23.46666545	-0.15871060	43.81151000	4.31840500
23.66666544	0.00000000	26.41486000	4.69365100
23.86666542	0.00000000	8.35998900	4.73671200
24.06666541	0.00000000	-5.13041300	4.73671200
24.26666540	0.00000000	-10.94365000	4.69365100
24.46666539	0.00000000	-7.69562000	4.26919300
24.66666538	0.00000000	5.10580700	3.06348400
24.86666536	0.00000000	25.52288000	1.20570900
25.06666535	0.00000000	47.90846000	-0.69512790
25.26666534	0.00000000	67.26746000	-1.48253000
25.46666533	0.00000000	79.54601000	-1.53174200
25.66666532	0.00000000	81.03469000	-1.02116100
25.86666530	0.00000000	70.94611000	0.92888770
26.06666529	0.00000000	51.25492000	4.40452700
26.26666528	0.00000000	26.18110000	8.26771600
26.46666527	0.00000000	2.26377900	12.11860000
26.66666526	0.00000000	-15.13287000	14.72072000
26.86666525	0.00000000	-22.06570000	14.72072000
27.06666523	0.00000000	-16.67077000	11.98327000
27.26666522	0.00000000	-0.52288380	6.92052100
27.46666521	0.00000000	22.31791000	-0.09227362
27.66666520	0.00000000	46.65354000	-7.75713500
27.86666519	0.00000000	67.54428000	-14.25935000
28.06666517	0.00000000	79.87819000	-17.28592000
28.26666516	0.00000000	81.12696000	-15.74803000
28.46666515	0.00000000	71.45053000	-9.89788300
28.66666514	0.00000000	53.34645000	-0.60285430
28.86666513	0.00000000	30.96703000	10.67913000
29.06666511	0.00000000	10.12549000	21.78888000
29.26666510	0.00000000	-4.66904500	30.19193000
29.46666509	0.00000000	-10.94365000	32.47416000
29.66666508	0.00000000	-8.24926100	28.29724000
29.86666507	0.00000000	2.54675200	18.90994000
30.06666506	0.00000000	19.14985000	5.38877900
30.26666504	0.00000000	37.26009000	-9.70718500
30.46666503	0.00000000	52.79281000	-22.81619000
30.66666502	0.00000000	62.51845000	-31.63755000
30.86666501	0.00000000	65.30511000	-33.08317000
31.06666500	0.00000000	61.07283000	-26.20571000
31.26666498	0.00000000	51.07037000	-13.05979000
31.46666497	0.00000000	37.89985000	3.57406500
31.66666496	0.00000000	24.36024000	20.57702000
31.86666495	0.00000000	13.10285000	34.09818000
32.06666494	0.00000000	6.49606300	41.44316000
32.26666492	0.00000000	5.29035400	41.02485000
32.46666491	0.00000000	9.52263600	32.52337000
32.66666490	0.00000000	17.98720000	17.83957000
32.86666489	0.00000000	28.41412000	0.04306102
33.06666488	0.00000000	38.50886000	-17.28592000
33.26666487	0.00000000	46.27829000	-30.01353000
33.46666485	0.00000000	50.51673000	-35.12549000
33.66666484	0.00000000	50.14148000	-32.47416000
33.86666483	0.00000000	45.16486000	-23.13607000
34.06666482	0.00000000	37.53075000	-8.45841400
34.26666481	0.00000000	29.38607000	8.54453700
34.46666479	0.00000000	22.77928000	23.92962000
34.66666478	0.00000000	18.49778000	34.42421000
34.86666477	0.00000000	17.38435000	37.50000000
35.06666476	0.00000000	20.03568000	33.30462000
35.26666475	0.00000000	25.38755000	22.48400000
35.46666473	0.00000000	31.53297000	7.89247000
35.66666472	0.00000000	36.92790000	-6.83439900
35.86666471	0.00000000	40.00369000	-18.77460000
36.06666470	0.00000000	40.08981000	-25.31988000
36.26666469	0.00000000	37.77067000	-24.58169000
36.46666468	0.00000000	33.90133000	-17.32899000
36.66666466	0.00000000	28.92470000	-5.80708600
36.86666465	0.00000000	24.73548000	6.92052100
37.06666464	0.00000000	22.73007000	17.70423000
37.26666463	0.00000000	22.73007000	24.24951000
37.46666462	0.00000000	24.68627000	24.62475000
37.66666460	0.00000000	28.54946000	18.95300000
37.86666459	0.00000000	33.15699000	9.38730200
38.06666458	0.00000000	37.39542000	-0.97810030
38.26666457	0.00000000	40.08981000	-9.43036400
38.46666456	0.00000000	40.46506000	-13.61343000
38.66666454	0.00000000	38.60113000	-12.12475000
38.86666453	0.00000000	35.11319000	-5.67175200
39.06666452	0.00000000	31.20078000	3.15575800
39.26666451	0.00000000	26.91929000	11.98942000
39.46666450	0.00000000	23.10531000	18.44242000
39.66666449	0.00000000	21.19833000	19.98031000
39.86666447	0.00000000	21.52436000	16.16634000
40.06666446	0.00000000	23.80659000	8.50147600
40.26666445	0.00000000	26.91929000	-1.11343500
40.46666444	0.00000000	30.50566000	-9.89788300
40.66666443	0.00000000	34.73794000	-15.28666000
40.86666441	0.00000000	38.55807000	-15.61270000
41.06666440	0.00000000	40.51427000	-10.68528000
41.26666439	0.00000000	40.55733000	-1.86392700
41.46666438	0.00000000	38.97638000	7.71407400
41.66666437	0.00000000	35.90059000	15.84030000
41.86666435	0.00000000	31.99434000	20.44168000
42.06666434	0.00000000	28.12500000	20.48474000
42.26666433	0.00000000	24.64321000	16.25861000
42.46666432	0.00000000	22.73007000	8.96284400
42.66666431	0.00000000	22.68701000	0.51058070
42.86666430	0.00000000	24.22490000	-6.78518600
43.06666428	0.00000000	26.87623000	-11.06053000
43.26666427	0.00000000	29.61983000	-11.52190000
43.46666426	0.00000000	31.99434000	-8.82750900
43.66666425	0.00000000	34.27657000	-3.80782500
43.86666424	0.00000000	35.43922000	2.69439000
44.06666422	0.00000000	35.16240000	8.45226300
44.26666421	0.00000000	34.78716000	11.98942000
44.46666420	0.00000000	34.36884000	13.18898000
44.66666419	0.00000000	33.61835000	12.03248000
44.86666418	0.00000000	33.24311000	9.00590400
45.06666416	0.00000000	33.15699000	5.15501900
45.26666415	0.00000000	32.73252000	1.66707700
45.46666414	0.00000000	31.57603000	-1.07037400
45.66666413	0.00000000	29.99508000	-2.60211600
45.86666412	0.00000000	27.98966000	-2.60211600
46.06666411	0.00000000	25.29527000	-1.11343500
46.26666409	0.00000000	22.68701000	1.20570900
46.46666408	0.00000000	21.57357000	3.48179100
46.66666407	0.00000000	22.73007000	5.47490100
46.86666406	0.00000000	25.84892000	6.64370100
47.06666405	0.00000000	30.54872000	7.42495000
47.26666403	0.00000000	36.36811000	7.33882900
47.46666402	0.00000000	42.09522000	5.80093500
47.66666401	0.00000000	45.90305000	3.15575800
47.86666400	0.00000000	46.27829000	0.51058070
48.06666399	0.00000000	43.16560000	-1.06422200
48.26666397	0.00000000	36.92790000	-1.48253000
48.46666396	0.00000000	28.45718000	-1.11343500
48.66666395	0.00000000	20.03568000	0.09227362
48.86666394	0.00000000	14.22244000	2.04232300
49.06666393	0.00000000	12.30930000	4.73671200
49.26666392	0.00000000	14.64075000	7.43110200
49.46666390	0.00000000	21.19833000	9.33809000
49.66666389	0.00000000	30.03814000	10.07628000
49.86666388	0.00000000	38.97638000	8.91978400
50.06666387	0.00000000	46.27829000	6.22539300
50.26666386	0.00000000	50.09227000	2.73745100
50.46666384	0.00000000	48.93578000	-1.11343500
50.66666383	0.00000000	43.16560000	-4.18307100
50.86666382	0.00000000	34.31963000	-5.71481200
51.06666381	0.00000000	24.69242000	-5.29650500
51.26666380	0.00000000	17.00910000	-2.64517700
51.46666379	0.00000000	13.15207000	1.20570900
51.66666377	0.00000000	14.30856000	5.11195900
51.86666376	0.00000000	19.99262000	8.96284400
52.06666375	0.00000000	28.03888000	11.61417000
52.26666374	0.00000000	35.81446000	12.03248000
52.46666373	0.00000000	41.95989000	10.49459000
52.66666371	0.00000000	45.02337000	7.38188900
52.86666370	0.00000000	43.49163000	3.20497000
53.06666369	0.00000000	38.55192000	-0.64591530
53.26666368	0.00000000	31.57603000	-2.97736200
53.46666367	0.00000000	24.36024000	-3.80782500
53.66666365	0.00000000	19.34055000	-3.02042300
53.86666364	0.00000000	18.17175000	-1.11343500
54.06666363	0.00000000	20.41092000	1.58095500
54.26666362	0.00000000	25.43061000	4.26919300
54.46666361	0.00000000	31.57603000	6.17618100
54.66666360	0.00000000	37.34621000	6.96358300
54.86666358	0.00000000	41.16019000	6.22539300
55.06666357	0.00000000	41.58464000	4.73671200
55.26666356	0.00000000	38.93332000	3.19881900
55.46666355	0.00000000	34.31963000	2.04232300
55.66666354	0.00000000	28.92470000	1.66707700
55.86666352	0.00000000	24.26796000	2.04232300
56.06666351	0.00000000	21.19833000	3.19881900
56.26666350	0.00000000	20.45399000	4.68750000
56.46666349	0.00000000	22.77928000	5.80093500
56.66666348	0.00000000	27.34375000	5.75787400
56.86666346	0.00000000	32.68946000	4.22613100
57.06666345	0.00000000	36.92790000	1.53174200
57.26666344	0.00000000	38.93332000	-1.48868100
57.46666343	0.00000000	38.97638000	-3.76476400
57.66666342	0.00000000	37.39542000	-4.14000900
57.86666341	0.00000000	34.31963000	-2.60211600
58.06666339	0.00000000	30.50566000	0.51058070
58.26666338	0.00000000	27.38681000	4.77977300
58.46666337	0.00000000	25.43061000	9.33809000
58.66666336	0.00000000	24.68627000	12.81988000
58.86666335	0.00000000	25.80585000	13.93947000
59.06666333	0.00000000	28.08194000	12.77067000
59.26666332	0.00000000	30.41338000	8.82750900
59.46666331	0.00000000	32.73868000	2.73745100
59.66666330	0.00000000	34.23351000	-3.80782500
59.86666329	0.00000000	34.27657000	-8.74138700
60.06666327	0.00000000	33.15699000	-10.68528000
60.26666326	0.00000000	31.61909000	-8.78444900
60.46666325	0.00000000	30.08120000	-4.18307100
60.66666324	0.00000000	28.92470000	2.04232300
60.86666323	0.00000000	28.54946000	8.96284400
61.06666322	0.00000000	28.87549000	14.72687000
61.26666320	0.00000000	29.66289000	17.79035000
61.46666319	0.00000000	30.41338000	17.37205000
61.66666318	0.00000000	31.20078000	13.14591000
61.86666317	0.00000000	31.52682000	6.22539300
62.06666316	0.00000000	31.20078000	-1.48868100
62.26666314	0.00000000	30.41338000	-8.40920300
62.46666313	0.00000000	29.66289000	-12.63533000
62.66666312	0.00000000	28.87549000	-13.01058000
62.86666311	0.00000000	28.50024000	-9.56569900
63.06666310	0.00000000	28.50024000	-3.02042300
63.26666308	0.00000000	28.92470000	4.64443900
63.46666307	0.00000000	30.08120000	11.61417000
63.66666306	0.00000000	31.57603000	16.25861000
63.86666305	0.00000000	32.73252000	17.83957000
64.06666304	0.00000000	33.10777000	16.25861000
64.26666303	0.00000000	32.73252000	11.65723000
64.46666301	0.00000000	31.61909000	5.15501900
64.66666300	0.00000000	30.45644000	-1.06422200
64.86666299	0.00000000	29.61983000	-6.13312000
65.06666298	0.00000000	28.50024000	-9.56569900
65.26666297	0.00000000	27.80512000	-9.94094400
65.46666295	0.00000000	28.50024000	-7.33882900
65.66666294	0.00000000	29.61983000	-3.11269700
65.86666293	0.00000000	30.45644000	1.57480300
66.06666292	0.00000000	31.61909000	6.21924200
66.26666291	0.00000000	32.64640000	10.07628000
66.46666289	0.00000000	32.31422000	12.03248000
66.66666288	0.00000000	30.83169000	12.11860000
66.86666287	0.00000000	29.66289000	10.96211000
67.06666286	0.00000000	28.50024000	9.00590400
67.26666285	0.00000000	27.80512000	6.26845500
67.46666284	0.00000000	28.54946000	3.15575800
67.66666282	0.00000000	30.03814000	0.04306102
67.86666281	0.00000000	31.66215000	-2.69439000
68.06666280	0.00000000	33.57529000	-4.64443900
68.26666279	0.00000000	35.43922000	-5.80093500
68.46666278	0.00000000	35.76525000	-5.75787400
68.66666276	0.00000000	34.27657000	-4.22613100
68.86666275	0.00000000	31.53297000	-1.48868100
69.06666274	0.00000000	28.08194000	2.04232300
69.26666273	0.00000000	24.60015000	6.31151500
69.46666272	0.00000000	22.31176000	10.49459000
69.66666270	0.00000000	21.52436000	13.23819000
69.86666269	0.00000000	22.73007000	13.98253000
70.06666268	0.00000000	25.84892000	12.81988000
70.26666267	0.00000000	30.45644000	9.29502900
70.46666266	0.00000000	35.48228000	4.31840500
70.66666265	0.00000000	39.35162000	-1.11343500
70.86666263	0.00000000	41.67076000	-5.71481200
71.06666262	0.00000000	41.58464000	-8.40920300
71.26666261	0.00000000	38.50886000	-8.40920300
71.46666260	0.00000000	33.15699000	-5.75787400
71.66666259	0.00000000	27.38681000	-1.53174200
71.86666257	0.00000000	22.64394000	3.11269700
72.06666256	0.00000000	19.19906000	7.38188900
72.26666255	0.00000000	17.71038000	10.45152000
72.46666254	0.00000000	19.61737000	11.65723000
72.66666253	0.00000000	23.80659000	10.86983000
72.86666251	0.00000000	28.87549000	8.58759800
73.06666250	0.00000000	34.31963000	5.11195900
73.26666249	0.00000000	38.88410000	1.71013800
73.46666248	0.00000000	41.20940000	-0.64591530
73.66666247	0.00000000	40.51427000	-1.43946800
73.86666246	0.00000000	37.81373000	-1.11343500
74.06666244	0.00000000	33.94439000	0.04306102
74.26666243	0.00000000	29.29995000	1.57480300
74.46666242	0.00000000	25.43061000	3.06348400
74.66666241	0.00000000	22.68701000	3.80782500
74.86666240	0.00000000	21.57357000	3.06348400
75.06666238	0.00000000	22.68701000	1.62401600
75.26666237	0.00000000	25.33834000	0.46136810
75.46666236	0.00000000	28.45718000	0.13533460
75.66666235	0.00000000	31.53297000	0.87967510
75.86666234	0.00000000	33.85827000	2.82972400
76.06666232	0.00000000	34.65182000	5.11195900
76.26666231	0.00000000	34.31963000	7.47416300
76.46666230	0.00000000	33.15699000	9.29502900
76.66666229	0.00000000	31.66215000	9.65797200
76.86666228	0.00000000	30.45644000	7.71407400
77.06666227	0.00000000	29.70595000	4.26919300
77.26666225	0.00000000	29.29380000	0.00000000
77.46666224	0.00000000	29.66289000	-4.18307100
77.66666223	0.00000000	29.99508000	-6.87746000
77.86666222	0.00000000	29.99508000	-7.29576700
78.06666221	0.00000000	29.61983000	-5.71481200
78.26666219	0.00000000	28.83243000	-2.18380900
78.46666218	0.00000000	28.08194000	3.15575800
78.66666217	0.00000000	27.34375000	8.54453700
78.86666216	0.00000000	27.38681000	12.45079000
79.06666215	0.00000000	28.54946000	14.72072000
79.26666213	0.00000000	30.41338000	14.30241000
79.46666212	0.00000000	32.40649000	10.91289000
79.66666211	0.00000000	33.95054000	6.31151500
79.86666210	0.00000000	35.48228000	1.62401600
80.06666209	0.00000000	35.76525000	-2.64517700
80.26666208	0.00000000	34.27657000	-5.75787400
80.46666206	0.00000000	31.57603000	-7.29576700
80.66666205	0.00000000	28.54946000	-6.87746000
80.86666204	0.00000000	26.18110000	-4.22613100
81.06666203	0.00000000	25.01230000	-0.37524600
81.26666202	0.00000000	24.64321000	3.48794300
81.46666200	0.00000000	25.80585000	7.01279500
81.66666199	0.00000000	28.08194000	9.33809000
81.86666198	0.00000000	30.41338000	10.53765000
82.06666197	0.00000000	32.73868000	10.49459000
82.26666196	0.00000000	34.27657000	9.00590400
82.46666194	0.00000000	34.65182000	6.68676100
82.66666193	0.00000000	33.90133000	4.31840500
82.86666192	0.00000000	31.99434000	1.53174200
83.06666191	0.00000000	30.08120000	-1.48868100
83.26666190	0.00000000	28.50024000	-3.80782500
83.46666189	0.00000000	27.34375000	-4.60137700
83.66666187	0.00000000	26.96850000	-4.26919300
83.86666186	0.00000000	27.34375000	-3.06348400
84.06666185	0.00000000	28.45718000	-1.07037400
84.26666184	0.00000000	29.57062000	2.04232300
84.46666183	0.00000000	29.99508000	5.85014700
84.66666181	0.00000000	30.03814000	8.96284400
84.86666180	0.00000000	30.03814000	10.91289000
85.06666179	0.00000000	30.03814000	11.65723000
85.26666178	0.00000000	30.08120000	10.45152000
85.46666177	0.00000000	30.45644000	7.38188900
85.66666175	0.00000000	31.20078000	3.11269700
85.86666174	0.00000000	31.57603000	-1.48868100
86.06666173	0.00000000	31.57603000	-5.33956700
86.26666172	0.00000000	31.20078000	-7.24655500
86.46666171	0.00000000	30.41338000	-6.92052100
86.66666170	0.00000000	29.61983000	-4.55831700
86.86666168	0.00000000	28.45718000	-0.69512790
87.06666167	0.00000000	27.34375000	4.31840500
87.26666166	0.00000000	26.96850000	8.87672100
87.46666165	0.00000000	27.34375000	11.61417000
87.66666164	0.00000000	28.50024000	12.03248000
87.86666162	0.00000000	30.03814000	10.45152000
88.06666161	0.00000000	31.57603000	6.96358300
88.26666160	0.00000000	32.73252000	1.99311000
88.46666159	0.00000000	33.10777000	-2.60211600
88.66666158	0.00000000	32.78174000	-5.71481200
88.86666156	0.00000000	31.95128000	-6.87130900
89.06666155	0.00000000	30.82554000	-5.67175200
89.26666154	0.00000000	29.25074000	-2.22687000
89.46666153	0.00000000	28.12500000	2.78051200
89.66666152	0.00000000	27.34375000	7.75713500
89.86666151	0.00000000	27.34375000	11.61417000
90.06666149	0.00000000	28.08194000	13.10285000
90.26666148	0.00000000	28.87549000	11.61417000
90.46666147	0.00000000	30.03814000	7.75713500
90.66666146	0.00000000	31.15157000	2.73745100
90.86666145	0.00000000	31.57603000	-2.60211600
91.06666143	0.00000000	31.57603000	-6.40994000
91.26666142	0.00000000	31.20078000	-7.20349400
91.46666141	0.00000000	30.45644000	-5.33956700
91.66666140	0.00000000	30.08120000	-1.43946800
91.86666139	0.00000000	30.03814000	3.53100400
92.06666137	0.00000000	30.08120000	8.54453700
92.26666136	0.00000000	30.45644000	11.98942000
92.46666135	0.00000000	31.15157000	13.10285000
92.66666134	0.00000000	31.10851000	11.18971000
92.86666133	0.00000000	30.03814000	6.64370100
93.06666132	0.00000000	28.87549000	1.66707700
93.26666130	0.00000000	28.08194000	-2.64517700
93.46666129	0.00000000	27.29453000	-5.67175200
93.66666128	0.00000000	26.96850000	-6.40994000
93.86666127	0.00000000	27.34375000	-4.14000900
94.06666126	0.00000000	28.54946000	0.04306102
94.26666124	0.00000000	30.45644000	4.64443900
94.46666123	0.00000000	32.78174000	8.50147600
94.66666122	0.00000000	34.69488000	10.40846000
94.86666121	0.00000000	35.85752000	10.07628000
95.06666120	0.00000000	35.81446000	7.75713500
95.26666118	0.00000000	34.27657000	4.31840500
95.46666117	0.00000000	31.57603000	0.46751960
95.66666116	0.00000000	28.45718000	-2.60211600
95.86666115	0.00000000	25.38755000	-4.14000900
96.06666114	0.00000000	23.06225000	-3.76476400
96.26666113	0.00000000	22.31176000	-1.48868100
96.46666111	0.00000000	23.10531000	1.58095500
96.66666110	0.00000000	25.80585000	4.68750000
96.86666109	0.00000000	29.61983000	7.33882900
97.06666108	0.00000000	33.15699000	8.50147600
97.26666107	0.00000000	36.27584000	7.75713500
97.46666105	0.00000000	38.50886000	5.89320800
97.66666104	0.00000000	38.50886000	3.57406500
97.86666103	0.00000000	36.23277000	1.62401600
98.06666102	0.00000000	32.73868000	0.04306102
98.26666101	0.00000000	28.50024000	-1.06422200
98.46666099	0.00000000	24.64321000	-1.06422200
98.66666098	0.00000000	22.26870000	0.04306102
98.86666097	0.00000000	21.10605000	1.53174200
99.06666096	0.00000000	21.52436000	2.68823800
99.26666095	0.00000000	23.84965000	3.11269700
99.46666094	0.00000000	27.29453000	3.19881900
99.66666092	0.00000000	31.15772000	3.57406500
99.86666091	0.00000000	34.27657000	4.31840500
100.06666090	0.00000000	36.27584000	4.69365100
100.26666089	0.00000000	37.39542000	4.73671200
100.46666088	0.00000000	36.97712000	4.73671200
100.66666086	0.00000000	34.69488000	4.69365100
100.86666085	0.00000000	31.61909000	4.26919300
101.06666084	0.00000000	28.50024000	3.11269700
101.26666083	0.00000000	25.76279000	1.57480300
101.46666082	0.00000000	23.84965000	0.04306102
101.66666080	0.00000000	23.06225000	-1.11343500
101.86666079	0.00000000	23.84965000	-1.48253000
102.06666078	0.00000000	25.71358000	-1.06422200
102.26666077	0.00000000	28.08194000	0.51058070
102.46666076	0.00000000	30.37032000	3.15575800
102.66666075	0.00000000	32.36343000	5.85014700
102.86666073	0.00000000	33.53223000	7.80019600
103.06666072	0.00000000	34.31963000	8.91978400
103.26666071	0.00000000	34.27657000	8.54453700
103.46666070	0.00000000	33.11393000	6.60063900
103.66666069	0.00000000	31.20078000	3.94315900
103.86666067	0.00000000	28.87549000	0.79355310
104.06666066	0.00000000	26.96850000	-1.86392700
104.26666065	0.00000000	25.76279000	-3.80782500
104.46666064	0.00000000	25.38755000	-4.14000900
104.66666063	0.00000000	25.76279000	-2.64517700
104.86666061	0.00000000	26.91929000	0.04306102
105.06666060	0.00000000	28.45718000	3.11269700
105.26666059	0.00000000	30.03814000	5.80093500
105.46666058	0.00000000	31.57603000	7.38188900
105.66666057	0.00000000	32.68946000	7.75713500
105.86666056	0.00000000	32.68946000	6.96358300
106.06666054	0.00000000	31.57603000	4.68750000
106.26666053	0.00000000	30.08120000	2.04232300
106.46666052	0.00000000	28.87549000	0.09227362
106.66666051	0.00000000	28.12500000	-1.06422200
106.86666050	0.00000000	27.71284000	-1.06422200
107.06666048	0.00000000	28.12500000	0.04306102
107.26666047	0.00000000	28.87549000	1.62401600
107.46666046	0.00000000	30.03814000	3.53100400
107.66666045	0.00000000	31.15157000	5.43184000
107.86666044	0.00000000	31.52682000	6.17618100
108.06666042	0.00000000	31.20078000	5.85014700
108.26666041	0.00000000	30.41338000	4.64443900
108.46666040	0.00000000	29.61983000	2.78051200
108.66666039	0.00000000	28.45718000	0.83661410
108.86666038	0.00000000	27.34375000	-0.28297240
109.06666037	0.00000000	26.96850000	-0.69512790
109.26666035	0.00000000	27.29453000	0.09227362
109.46666034	0.00000000	28.08194000	1.57480300
109.66666033	0.00000000	28.87549000	3.15575800
109.86666032	0.00000000	30.08120000	4.68750000
110.06666031	0.00000000	31.52682000	5.85014700
110.26666029	0.00000000	32.31422000	6.21924200
110.46666028	0.00000000	31.95128000	5.85014700
110.66666027	0.00000000	31.20078000	4.64443900
110.86666026	0.00000000	30.03814000	2.78051200
111.06666025	0.00000000	28.87549000	0.83661410
111.26666023	0.00000000	28.08194000	-0.28297240
111.46666022	0.00000000	27.34375000	-0.73818890
111.66666021	0.00000000	27.34375000	-0.32603340
111.86666020	0.00000000	28.08194000	0.41830710
112.06666019	0.00000000	28.83243000	1.57480300
112.26666018	0.00000000	29.61983000	2.73745100
112.46666016	0.00000000	29.99508000	3.53100400
112.66666015	0.00000000	30.03814000	4.31840500
112.86666014	0.00000000	30.03814000	4.69365100
113.06666013	0.00000000	30.03814000	4.69365100
113.26666012	0.00000000	30.03814000	4.31840500
113.46666010	0.00000000	29.99508000	3.57406500
113.66666009	0.00000000	29.61983000	3.19881900
113.86666008	0.00000000	28.87549000	3.11269700
114.06666007	0.00000000	28.50024000	2.73745100
114.26666006	0.00000000	28.45718000	1.99311000
114.46666004	0.00000000	28.45718000	1.57480300
114.66666003	0.00000000	28.45718000	1.15649600
114.86666002	0.00000000	28.45718000	0.46136810
115.06666001	0.00000000	28.50024000	0.46136810
115.26666000	0.00000000	28.87549000	1.15649600
115.46665999	0.00000000	29.61983000	1.57480300
115.66665997	0.00000000	29.99508000	1.99311000
115.86665996	0.00000000	30.03814000	2.78051200
116.06665995	0.00000000	30.03814000	3.53100400
116.26665994	0.00000000	29.99508000	4.31840500
116.46665993	0.00000000	29.61983000	4.69365100
116.66665991	0.00000000	28.87549000	4.69365100
116.86665990	0.00000000	28.50024000	4.31840500
117.06665989	0.00000000	28.45718000	3.53100400
117.26665988	0.00000000	28.50024000	2.73745100
117.46665987	0.00000000	28.87549000	1.57480300
117.66665985	0.00000000	29.66289000	0.46136810
117.86665984	0.00000000	30.41338000	0.04306102
118.06665983	0.00000000	31.15157000	0.04306102
118.26665982	0.00000000	31.15157000	0.41830710
118.46665981	0.00000000	30.45644000	1.19955700
118.66665980	0.00000000	30.03814000	1.95004900
118.86665978	0.00000000	29.57062000	2.73745100
119.06665977	0.00000000	28.45718000	3.19881900
119.26665976	0.00000000	27.34375000	3.94931100
119.46665975	0.00000000	26.91929000	5.05659400
119.66665974	0.00000000	26.91929000	5.01968500
119.86665972	0.00000000	27.34375000	4.36146600
120.06665971	0.00000000	28.50024000	3.53100400
120.26665970	0.00000000	29.99508000	2.78051200
120.46665969	0.00000000	31.20078000	1.99311000
120.66665968	0.00000000	31.95128000	1.61786400
120.86665966	0.00000000	32.36343000	1.57480300
121.06665965	0.00000000	31.95128000	1.57480300
121.26665964	0.00000000	31.20078000	1.57480300
121.46665963	0.00000000	29.99508000	1.57480300
121.66665962	0.00000000	28.50024000	1.57480300
121.86665961	0.00000000	27.29453000	1.61786400
122.06665959	0.00000000	26.54404000	1.99311000
122.26665958	0.00000000	26.13189000	2.73745100
122.46665957	0.00000000	26.54404000	3.11269700
122.66665956	0.00000000	27.29453000	3.15575800
122.86665955	0.00000000	28.50024000	3.15575800
123.06665953	0.00000000	29.99508000	3.15575800
123.26665952	0.00000000	31.15157000	3.15575800
123.46665951	0.00000000	31.57603000	3.11269700
123.66665950	0.00000000	31.61909000	2.73745100
123.86665949	0.00000000	31.57603000	1.99311000
124.06665947	0.00000000	31.20078000	1.61786400
124.26665946	0.00000000	30.37032000	1.57480300
124.46665945	0.00000000	29.24459000	1.57480300
124.66665944	0.00000000	27.71284000	1.57480300
124.86665943	0.00000000	26.96850000	1.61786400
125.06665942	0.00000000	26.87623000	1.99311000
125.26665940	0.00000000	26.87623000	2.73745100
125.46665939	0.00000000	26.91929000	3.11269700
125.66665938	0.00000000	27.34375000	3.19881900
125.86665937	0.00000000	28.45718000	3.53100400
126.06665936	0.00000000	29.61983000	3.90009800
126.26665934	0.00000000	30.41338000	3.53100400
126.46665933	0.00000000	31.20078000	3.19881900
126.66665932	0.00000000	31.52682000	3.11269700
126.86665931	0.00000000	31.20078000	2.73745100
127.06665930	0.00000000	30.41338000	1.99311000
127.26665928	0.00000000	29.61983000	1.61786400
127.46665927	0.00000000	28.45718000	1.57480300
127.66665926	0.00000000	27.34375000	1.57480300
127.86665925	0.00000000	26.91929000	1.61786400
128.06665924	0.00000000	26.91929000	1.99311000
128.26665923	0.00000000	27.29453000	2.73745100
128.46665921	0.00000000	28.08194000	3.11269700
128.66665920	0.00000000	28.83243000	3.15575800
128.86665919	0.00000000	29.66289000	3.15575800
129.06665918	0.00000000	30.41338000	3.11269700
129.26665917	0.00000000	31.15157000	2.73745100
129.46665915	0.00000000	31.15157000	1.99311000
129.66665914	0.00000000	30.41338000	1.61786400
129.86665913	0.00000000	29.61983000	1.57480300
130.06665912	0.00000000	28.45718000	1.57480300
130.26665911	0.00000000	27.34375000	1.61786400
130.46665909	0.00000000	26.96850000	1.99311000
130.66665908	0.00000000	27.29453000	2.73745100
130.86665907	0.00000000	28.08194000	3.11269700
131.06665906	0.00000000	28.83243000	3.15575800
131.26665905	0.00000000	29.61983000	3.11269700
131.46665904	0.00000000	29.99508000	2.73745100
131.66665902	0.00000000	30.03814000	1.99311000
131.86665901	0.00000000	30.03814000	1.61786400
132.06665900	0.00000000	29.99508000	1.53174200
132.26665899	0.00000000	29.61983000	1.19955700
132.46665898	0.00000000	28.87549000	0.83661410
132.66665896	0.00000000	28.50024000	1.24877000
132.86665895	0.00000000	28.45718000	1.95004900
133.06665894	0.00000000	28.45718000	2.73745100
133.26665893	0.00000000	28.45718000	3.11269700
133.46665892	0.00000000	28.50024000	3.19881900
133.66665890	0.00000000	28.83243000	3.53100400
133.86665889	0.00000000	29.20152000	3.90009800
134.06665888	0.00000000	28.83243000	3.53100400
134.26665887	0.00000000	28.50024000	3.15575800
134.46665886	0.00000000	28.45718000	2.73745100
134.66665885	0.00000000	28.50024000	1.95004900
134.86665883	0.00000000	28.87549000	1.19955700
135.06665882	0.00000000	29.61983000	0.41830710
135.26665881	0.00000000	29.99508000	0.09227362
135.46665880	0.00000000	30.03814000	0.41830710
135.66665879	0.00000000	29.99508000	1.19955700
135.86665877	0.00000000	29.61983000	1.95004900
136.06665876	0.00000000	28.83243000	2.73745100
136.26665875	0.00000000	28.08194000	3.15575800
136.46665874	0.00000000	27.34375000	3.53100400
136.66665873	0.00000000	27.34375000	3.90009800
136.86665871	0.00000000	28.03888000	3.48794300
137.06665870	0.00000000	28.41412000	2.78051200
137.26665869	0.00000000	28.50024000	1.99311000
137.46665868	0.00000000	28.87549000	1.61786400
137.66665867	0.00000000	29.61983000	1.53174200
137.86665866	0.00000000	29.99508000	1.19955700
138.06665864	0.00000000	30.03814000	0.83661410
138.26665863	0.00000000	29.99508000	1.19955700
138.46665862	0.00000000	29.61983000	1.53174200
138.66665861	0.00000000	28.83243000	1.61786400
138.86665860	0.00000000	28.08194000	1.99311000
139.06665858	0.00000000	27.34375000	2.73745100
139.26665857	0.00000000	27.34375000	3.11269700
139.46665856	0.00000000	28.03888000	3.15575800
139.66665855	0.00000000	28.45718000	3.15575800
139.86665854	0.00000000	28.87549000	3.15575800
140.06665852	0.00000000	29.61983000	3.11269700
140.26665851	0.00000000	29.99508000	2.73745100
140.46665850	0.00000000	30.03814000	1.99311000
140.66665849	0.00000000	29.99508000	1.57480300
140.86665848	0.00000000	29.61983000	1.15649600
141.06665847	0.00000000	28.87549000	0.46136810
141.26665845	0.00000000	28.50024000	0.46136810
141.46665844	0.00000000	28.45718000	1.15649600
141.66665843	0.00000000	28.45718000	1.57480300
141.86665842	0.00000000	28.50024000	2.04232300
142.06665841	0.00000000	28.87549000	3.15575800
142.26665839	0.00000000	29.61983000	4.26919300
142.46665838	0.00000000	29.99508000	4.64443900
142.66665837	0.00000000	29.99508000	4.31840500
142.86665836	0.00000000	29.61983000	3.53100400
143.06665835	0.00000000	28.87549000	2.78051200
143.26665834	0.00000000	28.50024000	1.95004900
143.46665832	0.00000000	28.45718000	1.19955700
143.66665831	0.00000000	28.45718000	0.41830710
143.86665830	0.00000000	28.45718000	0.09227362
144.06665829	0.00000000	28.45718000	0.41830710
144.26665828	0.00000000	28.45718000	1.19955700
144.46665826	0.00000000	28.45718000	1.95004900
144.66665825	0.00000000	28.45718000	2.73745100
144.86665824	0.00000000	28.45718000	3.11269700
145.06665823	0.00000000	28.50024000	3.15575800
145.26665822	0.00000000	28.83243000	3.15575800
145.46665820	0.00000000	29.20152000	3.15575800
145.66665819	0.00000000	28.83243000	3.11269700
145.86665818	0.00000000	28.50024000	2.73745100
146.06665817	0.00000000	28.45718000	1.95004900
146.26665816	0.00000000	28.45718000	1.24877000
146.46665815	0.00000000	28.45718000	0.83661410
146.66665813	0.00000000	28.45718000	1.19955700
146.86665812	0.00000000	28.50024000	1.53174200
147.06665811	0.00000000	28.87549000	1.61786400
147.26665810	0.00000000	29.61983000	1.99311000
147.46665809	0.00000000	29.94586000	2.73745100
147.66665807	0.00000000	29.61983000	3.11269700
147.86665806	0.00000000	28.87549000	3.15575800
148.06665805	0.00000000	28.50024000	3.15575800
148.26665804	0.00000000	28.45718000	3.11269700
148.46665803	0.00000000	28.45718000	2.73745100
148.66665801	0.00000000	28.45718000	1.99311000
148.86665800	0.00000000	28.45718000	1.61786400
149.06665799	0.00000000	28.45718000	1.57480300
149.26665798	0.00000000	28.45718000	1.57480300
149.46665797	0.00000000	28.50024000	1.57480300
149.66665796	0.00000000	28.87549000	1.57480300
149.86665794	0.00000000	29.61983000	1.61786400
150.06665793	0.00000000	29.99508000	1.99311000
150.26665792	0.00000000	29.99508000	2.78051200
150.46665791	0.00000000	29.61983000	3.48794300
150.66665790	0.00000000	28.87549000	3.90009800
150.86665788	0.00000000	28.50024000	3.53100400
151.06665787	0.00000000	28.45718000	3.15575800
151.26665786	0.00000000	28.45718000	2.73745100
151.46665785	0.00000000	28.45718000	1.99311000
151.66665784	0.00000000	28.45718000	1.61786400
151.86665782	0.00000000	28.45718000	1.57480300
152.06665781	0.00000000	28.45718000	1.57480300
152.26665780	0.00000000	28.45718000	1.57480300
152.46665779	0.00000000	28.50024000	1.57480300
152.66665778	0.00000000	28.87549000	1.57480300
152.86665777	0.00000000	29.61983000	1.61786400
153.06665775	0.00000000	29.99508000	1.95004900
153.26665774	0.00000000	29.99508000	2.36220500
153.46665773	0.00000000	29.61983000	2.36835600
153.66665772	0.00000000	28.83243000	2.78051200
153.86665771	0.00000000	28.08194000	3.11269700
154.06665769	0.00000000	27.29453000	3.15575800
154.26665768	0.00000000	26.91929000	3.15575800
154.46665767	0.00000000	26.87623000	3.15575800
154.66665766	0.00000000	26.91929000	3.15575800
154.86665765	0.00000000	27.29453000	3.11269700
155.06665763	0.00000000	28.03888000	2.73745100
155.26665762	0.00000000	28.45718000	1.99311000
155.46665761	0.00000000	28.87549000	1.61786400
155.66665760	0.00000000	29.61983000	1.57480300
155.86665759	0.00000000	29.94586000	1.57480300
156.06665758	0.00000000	29.61983000	1.61786400
156.26665756	0.00000000	28.87549000	1.99311000
156.46665755	0.00000000	28.50024000	2.73745100
156.66665754	0.00000000	28.41412000	3.11269700
156.86665753	0.00000000	28.03888000	3.15575800
157.06665752	0.00000000	27.29453000	3.15575800
157.26665750	0.00000000	26.91929000	3.15575800
157.46665749	0.00000000	26.87623000	3.11269700
157.66665748	0.00000000	26.91929000	2.73745100
157.86665747	0.00000000	27.29453000	1.99311000
158.06665746	0.00000000	28.08194000	1.61786400
158.26665744	0.00000000	28.78937000	1.57480300
158.46665743	0.00000000	29.20152000	1.57480300
158.66665742	0.00000000	28.83243000	1.57480300
158.86665741	0.00000000	28.50024000	1.61786400
159.06665740	0.00000000	28.45718000	1.99311000
159.26665739	0.00000000	28.45718000	2.73745100
159.46665737	0.00000000	28.45718000	3.11269700
159.66665736	0.00000000	28.45718000	3.15575800
159.86665735	0.00000000	28.41412000	3.15575800
160.06665734	0.00000000	28.08194000	3.15575800
160.26665733	0.00000000	27.71284000	3.15575800
160.46665731	0.00000000	28.08194000	3.11269700
160.66665730	0.00000000	28.41412000	2.73745100
160.86665729	0.00000000	28.45718000	1.99311000
161.06665728	0.00000000	28.45718000	1.61786400
161.26665727	0.00000000	28.45718000	1.57480300
161.46665725	0.00000000	28.45718000	1.57480300
161.66665724	0.00000000	28.45718000	1.57480300
161.86665723	0.00000000	28.45718000	1.61786400
162.06665722	0.00000000	28.45718000	1.99311000
162.26665721	0.00000000	28.45718000	2.73745100
162.46665720	0.00000000	28.45718000	3.06348400
162.66665718	0.00000000	28.45718000	2.78051200
162.86665717	0.00000000	28.41412000	2.41141700
163.06665716	0.00000000	28.03888000	2.73745100
163.26665715	0.00000000	27.29453000	2.68823800
163.46665714	0.00000000	26.91929000	1.99311000
163.66665712	0.00000000	26.87623000	1.61786400
163.86665711	0.00000000	26.91929000	1.57480300
164.06665710	0.00000000	27.29453000	1.61786400
164.26665709	0.00000000	28.08194000	1.95004900
164.46665708	0.00000000	28.78937000	2.36220500
164.66665706	0.00000000	29.20152000	2.32529500
164.86665705	0.00000000	28.83243000	2.36220500
165.06665704	0.00000000	28.50024000	1.95004900
165.26665703	0.00000000	28.45718000	1.61786400
165.46665702	0.00000000	28.45718000	1.57480300
165.66665701	0.00000000	28.45718000	1.61786400
165.86665699	0.00000000	28.45718000	1.99311000
166.06665698	0.00000000	28.41412000	2.68823800
166.26665697	0.00000000	28.03888000	2.68823800
166.46665696	0.00000000	27.29453000	1.99311000
166.66665695	0.00000000	26.96850000	1.61786400
166.86665693	0.00000000	27.29453000	1.57480300
167.06665692	0.00000000	28.03888000	1.57480300
167.26665691	0.00000000	28.41412000	1.57480300
167.46665690	0.00000000	28.45718000	1.57480300
167.66665689	0.00000000	28.45718000	1.57480300
167.86665687	0.00000000	28.45718000	1.57480300
168.06665686	0.00000000	28.45718000	1.57480300
168.26665685	0.00000000	28.45718000	1.57480300
168.46665684	0.00000000	28.45718000	1.57480300
168.66665683	0.00000000	28.45718000	1.57480300
168.86665682	0.00000000	28.41412000	1.57480300
169.06665680	0.00000000	28.03888000	1.57480300
169.26665679	0.00000000	27.34375000	1.57480300
169.46665678	0.00000000	27.34375000	1.61786400
169.66665677	0.00000000	28.03888000	1.95004900
169.86665676	0.00000000	28.41412000	2.31914400
170.06665674	0.00000000	28.45718000	1.95004900
170.26665673	0.00000000	28.45718000	1.61786400
170.46665672	0.00000000	28.45718000	1.57480300
170.66665671	0.00000000	28.45718000	1.57480300
170.86665670	0.00000000	28.45718000	1.57480300
171.06665668	0.00000000	28.45718000	1.57480300
171.26665667	0.00000000	28.45718000	1.57480300
171.46665666	0.00000000	28.45718000	1.57480300
171.66665665	0.00000000	28.45718000	1.57480300
171.86665664	0.00000000	28.45718000	1.57480300
172.06665663	0.00000000	28.45718000	1.57480300
172.26665661	0.00000000	28.45718000	1.57480300
172.46665660	0.00000000	28.45718000	1.57480300
172.66665659	0.00000000	28.45718000	1.61786400
172.86665658	0.00000000	28.45718000	1.95004900
173.06665657	0.00000000	28.45718000	2.31914400
173.26665655	0.00000000	28.45718000	1.95004900
173.46665654	0.00000000	28.45718000	1.61786400
173.66665653	0.00000000	28.45718000	1.57480300
173.86665652	0.00000000	28.45718000	1.57480300
174.06665651	0.00000000	28.45718000	1.57480300
174.26665649	0.00000000	28.45718000	1.57480300
174.46665648	0.00000000	28.45718000	1.57480300
174.66665647	0.00000000	28.45718000	1.61786400
174.86665646	0.00000000	28.50024000	1.99311000
175.06665645	0.00000000	28.83243000	2.68823800
175.26665644	0.00000000	29.20152000	2.68823800
175.46665642	0.00000000	28.83243000	1.99311000
175.66665641	0.00000000	28.50024000	1.61786400
175.86665640	0.00000000	28.45718000	1.57480300
176.06665639	0.00000000	28.45718000	1.57480300
176.26665638	0.00000000	28.41412000	1.57480300
176.46665636	0.00000000	28.08194000	1.57480300
176.66665635	0.00000000	27.71284000	1.57480300
176.86665634	0.00000000	28.03888000	1.57480300
177.06665633	0.00000000	28.03888000	1.57480300
177.26665632	0.00000000	27.71284000	1.57480300
177.46665630	0.00000000	28.08194000	1.57480300
177.66665629	0.00000000	28.41412000	1.57480300
177.86665628	0.00000000	28.41412000	1.57480300
178.06665627	0.00000000	28.03888000	1.57480300
178.26665626	0.00000000	27.34375000	1.57480300
178.46665625	0.00000000	27.34375000	1.57480300
178.66665623	0.00000000	28.03888000	1.57480300
178.86665622	0.00000000	28.36491000	1.57480300
179.06665621	0.00000000	28.08194000	1.57480300
179.26665620	0.00000000	27.71284000	1.61786400
179.46665619	0.00000000	28.08194000	1.95004900
179.66665617	0.00000000	28.41412000	2.31914400
179.86665616	0.00000000	28.45718000	1.95004900
180.06665615	0.00000000	28.45718000	1.61786400
180.26665614	0.00000000	28.45718000	1.57480300
180.46665613	0.00000000	28.41412000	1.57480300
180.66665611	0.00000000	28.08194000	1.57480300
180.86665610	0.00000000	27.71284000	1.61786400
181.06665609	0.00000000	28.03888000	1.95004900
181.26665608	0.00000000	28.03888000	2.36220500
181.46665607	0.00000000	27.66978000	2.32529500
181.66665606	0.00000000	27.70669000	2.40526600
181.86665604	0.00000000	27.66978000	2.36835600
182.06665603	0.00000000	28.08194000	2.78051200
182.26665602	0.00000000	28.41412000	3.06348400
182.46665601	0.00000000	28.45718000	2.73745100
182.66665600	0.00000000	28.45718000	1.99311000
182.86665598	0.00000000	28.45718000	1.61786400
183.06665597	0.00000000	28.45718000	1.57480300
183.26665596	0.00000000	28.45718000	1.57480300
183.46665595	0.00000000	28.41412000	1.57480300
183.66665594	0.00000000	28.03888000	1.57480300
183.86665592	0.00000000	27.34375000	1.57480300
184.06665591	0.00000000	27.34375000	1.61786400
184.26665590	0.00000000	28.03888000	1.99311000
184.46665589	0.00000000	28.41412000	2.73745100
184.66665588	0.00000000	28.45718000	3.06348400
184.86665587	0.00000000	28.45718000	2.78051200
185.06665585	0.00000000	28.45718000	2.41141700
185.26665584	0.00000000	28.45718000	2.78051200
185.46665583	0.00000000	28.45718000	3.06348400
185.66665582	0.00000000	28.45718000	2.73745100
185.86665581	0.00000000	28.45718000	1.95004900
186.06665579	0.00000000	28.45718000	1.24877000
186.26665578	0.00000000	28.45718000	0.79355310
186.46665577	0.00000000	28.41412000	0.83046260
186.66665576	0.00000000	28.08194000	0.79355310
186.86665575	0.00000000	27.66978000	1.19955700
187.06665573	0.00000000	27.66363000	1.57480300
187.26665572	0.00000000	27.25147000	1.99311000
187.46665571	0.00000000	26.91929000	2.73745100
187.66665570	0.00000000	26.87623000	3.11269700
187.86665569	0.00000000	26.87623000	3.15575800
188.06665568	0.00000000	26.91929000	3.11269700
188.26665566	0.00000000	27.29453000	2.73745100
188.46665565	0.00000000	28.03888000	1.99311000
188.66665564	0.00000000	28.41412000	1.61786400
188.86665563	0.00000000	28.45718000	1.57480300
189.06665562	0.00000000	28.45718000	1.57480300
189.26665560	0.00000000	28.45718000	1.57480300
189.46665559	0.00000000	28.45718000	1.57480300
189.66665558	0.00000000	28.45718000	1.57480300
189.86665557	0.00000000	28.41412000	1.57480300
190.06665556	0.00000000	28.03888000	1.57480300
190.26665554	0.00000000	27.29453000	1.57480300
190.46665553	0.00000000	26.91929000	1.57480300
190.66665552	0.00000000	26.91929000	1.57480300
190.86665551	0.00000000	27.25147000	1.61786400
191.06665550	0.00000000	27.66363000	1.95004900
191.26665549	0.00000000	27.66978000	2.31914400
191.46665547	0.00000000	28.08194000	1.95004900
191.66665546	0.00000000	28.41412000	1.61786400
191.86665545	0.00000000	28.45718000	1.57480300
192.06665544	0.00000000	28.45718000	1.57480300
192.26665543	0.00000000	28.45718000	1.57480300
192.46665541	0.00000000	28.41412000	1.57480300
192.66665540	0.00000000	28.03888000	1.57480300
192.86665539	0.00000000	27.29453000	1.57480300
193.06665538	0.00000000	26.91929000	1.57480300
193.26665537	0.00000000	26.87623000	1.57480300
193.46665535	0.00000000	26.87623000	1.57480300
193.66665534	0.00000000	26.91929000	1.57480300
193.86665533	0.00000000	27.29453000	1.61786400
194.06665532	0.00000000	28.03888000	1.99311000
194.26665531	0.00000000	28.41412000	2.73745100
194.46665530	0.00000000	28.41412000	3.06348400
194.66665528	0.00000000	28.08194000	2.78051200
194.86665527	0.00000000	27.71284000	2.36835600
195.06665526	0.00000000	28.08194000	2.36220500
195.26665525	0.00000000	28.41412000	1.95004900
195.46665524	0.00000000	28.41412000	1.61786400
195.66665522	0.00000000	28.03888000	1.57480300
195.86665521	0.00000000	27.29453000	1.57480300
196.06665520	0.00000000	26.91929000	1.57480300
