Time	Channel A	Channel B	Channel C
(us)	(V)	(mV)	(mV)

-4.49999956	0.00000000	11.10974000	1.61786400
-4.29999957	0.00000000	11.06668000	1.95004900
-4.09999958	0.00000000	11.06668000	2.31914400
-3.89999959	0.00000000	11.06668000	1.95004900
-3.69999960	0.00000000	11.06668000	1.61786400
-3.49999962	0.00000000	11.06668000	1.57480300
-3.29999963	0.00000000	11.10974000	1.57480300
-3.09999964	0.00000000	11.44193000	1.57480300
-2.89999965	0.00000000	11.85408000	1.57480300
-2.69999966	0.00000000	11.81717000	1.61786400
-2.49999968	0.00000000	11.85408000	1.95004900
-2.29999969	0.00000000	11.44193000	2.31914400
-2.09999970	0.00000000	11.10974000	1.95004900
-1.89999971	0.00000000	11.06668000	1.61786400
-1.69999972	0.00000000	11.06668000	1.57480300
-1.49999973	0.00000000	11.10974000	1.57480300
-1.29999975	0.00000000	11.44193000	1.57480300
-1.09999976	0.00000000	11.81102000	1.57480300
-0.89999977	0.00000000	11.44193000	1.61786400
-0.69999978	0.00000000	11.10974000	1.95004900
-0.49999979	0.00000000	11.06668000	2.31914400
-0.29999981	0.15871060	11.06668000	1.95004900
-0.09999982	0.63668800	11.06668000	1.61786400
0.10000017	0.95533960	11.06668000	1.57480300
0.30000016	0.95533960	11.06668000	1.57480300
0.50000015	0.95533960	11.06668000	1.57480300
0.70000013	0.47736220	11.06668000	1.57480300
0.90000012	-0.31803640	11.06668000	1.57480300
1.10000011	-1.27399100	11.06668000	1.57480300
1.30000010	-2.22994600	11.06668000	1.57480300
1.50000009	-2.70792300	11.06668000	1.57480300
1.70000008	-2.54859700	11.10974000	1.57480300
1.90000006	-1.59264300	11.44193000	1.61786400
2.10000005	0.15871060	11.81102000	1.95004900
2.30000004	2.22994600	11.44193000	2.31914400
2.50000003	4.14124000	11.10974000	1.95004900
2.70000002	5.25652100	11.06668000	1.61786400
2.90000000	4.93786900	11.06668000	1.57480300
3.09999999	3.34522600	11.06668000	1.57480300
3.29999998	0.47736220	11.06668000	1.57480300
3.49999997	-2.86724900	11.06668000	1.57480300
3.69999996	-6.05315000	11.06668000	1.57480300
3.89999994	-7.80511800	11.06668000	1.57480300
4.09999993	-7.64579200	11.06668000	1.61786400
4.29999992	-5.57517200	11.06668000	1.99311000
4.49999991	-1.91129400	11.06668000	2.73745100
4.69999990	2.54859700	11.06668000	3.06348400
4.89999989	6.53112700	11.06668000	2.73745100
5.09999987	9.07972400	11.06668000	1.99311000
5.29999986	9.23905000	11.06668000	1.57480300
5.49999985	7.16781500	11.06668000	1.19955700
5.69999984	3.18590100	11.06668000	0.79355310
5.89999983	-1.59264300	11.06668000	0.83046260
6.09999981	-6.05315000	11.10974000	0.79355310
6.29999980	-8.76107300	11.44193000	1.19955700
6.49999979	-9.39837600	11.81102000	1.57480300
6.69999978	-7.64579200	11.44193000	1.99311000
6.89999977	-4.14124000	11.10974000	2.73745100
7.09999975	0.31803640	11.06668000	3.06348400
7.29999974	4.30056600	11.06668000	2.73745100
7.49999973	7.00848900	11.06668000	1.99311000
7.69999972	7.80511800	11.06668000	1.61786400
7.89999971	6.53112700	11.06668000	1.57480300
8.09999970	3.98191400	11.06668000	1.57480300
8.29999968	0.63668800	11.06668000	1.57480300
8.49999967	-2.38927200	11.06668000	1.57480300
8.69999966	-4.45989200	11.10974000	1.57480300
8.89999965	-5.25652100	11.48499000	1.57480300
9.09999964	-4.61921700	12.18012000	1.57480300
9.29999962	-3.02657500	12.18012000	1.57480300
9.49999961	-1.11466500	11.48499000	1.57480300
9.69999960	0.79601380	11.10974000	1.57480300
9.89999959	2.07062000	11.06668000	1.57480300
10.09999958	2.54859700	11.06668000	1.57480300
10.29999956	2.22994600	11.06668000	1.57480300
10.49999955	1.59264300	11.06668000	1.57480300
10.69999954	0.63668800	11.06668000	1.57480300
10.89999953	-0.15871060	11.06668000	1.57480300
11.09999952	-0.63668800	11.06668000	1.57480300
11.29999951	-0.95533960	11.06668000	1.57480300
11.49999949	-0.95533960	11.06668000	1.57480300
11.69999948	-0.79601380	11.06668000	1.57480300
11.89999947	-0.47736220	11.10974000	1.57480300
12.09999946	-0.15871060	11.44193000	1.57480300
12.29999945	-0.15871060	11.81102000	1.57480300
12.49999943	-0.15871060	11.44193000	1.57480300
12.69999942	0.00000000	11.10974000	1.57480300
12.89999941	0.00000000	11.06668000	1.57480300
13.09999940	0.00000000	11.06668000	1.57480300
13.29999939	0.00000000	11.06668000	1.57480300
13.49999937	0.00000000	11.06668000	1.57480300
13.69999936	0.00000000	11.06668000	1.57480300
13.89999935	0.00000000	11.06668000	1.57480300
14.09999934	-0.15871060	11.06668000	1.57480300
14.29999933	-0.15871060	11.06668000	1.57480300
14.49999932	-0.15871060	11.06668000	1.57480300
14.69999930	-0.15871060	11.06668000	1.57480300
14.89999929	0.00000000	11.06668000	1.57480300
15.09999928	0.00000000	11.06668000	1.57480300
15.29999927	0.00000000	11.06668000	1.57480300
15.49999926	0.00000000	11.06668000	1.57480300
15.69999924	0.00000000	11.06668000	1.57480300
15.89999923	0.00000000	11.06668000	1.57480300
16.09999922	0.00000000	11.06668000	1.57480300
16.29999921	0.00000000	11.06668000	1.57480300
16.49999920	-0.15871060	11.06668000	1.57480300
16.69999919	-0.15871060	11.10974000	1.57480300
16.89999917	-0.15871060	11.48499000	1.57480300
17.09999916	0.00000000	12.22933000	1.57480300
17.29999915	0.00000000	12.64764000	1.57480300
17.49999914	0.00000000	13.02288000	1.57480300
17.69999913	0.00000000	13.39198000	1.57480300
17.89999911	0.00000000	12.97982000	1.57480300
18.09999910	0.00000000	12.22933000	1.57480300
18.29999909	0.00000000	11.02362000	1.57480300
18.49999908	0.00000000	9.48572700	1.57480300
18.69999907	0.00000000	7.90477300	1.57480300
18.89999905	0.00000000	6.41609200	1.57480300
19.09999904	0.00000000	5.71481200	1.57480300
19.29999903	0.00000000	6.87746000	1.57480300
19.49999902	0.00000000	9.57800100	1.57480300
19.69999901	0.00000000	13.06594000	1.57480300
19.89999900	0.00000000	16.97219000	1.57480300
20.09999898	0.00000000	20.41708000	1.57480300
20.29999897	0.00000000	22.65010000	1.57480300
20.49999896	0.00000000	22.23179000	1.57480300
20.69999895	0.00000000	18.74385000	1.57480300
20.89999894	0.00000000	13.25664000	1.57480300
21.09999892	0.00000000	5.85629900	1.57480300
21.29999891	0.00000000	-2.14074800	1.57480300
21.49999890	0.00000000	-7.86786400	1.57480300
21.69999889	0.00000000	-9.40575800	1.57480300
21.89999888	0.00000000	-6.19463500	1.57480300
22.09999886	0.00000000	1.90083600	1.57480300
22.29999885	0.00000000	13.52731000	1.57480300
22.49999884	0.00000000	25.49212000	1.57480300
22.69999883	0.00000000	35.99901000	1.57480300
22.89999882	0.00000000	42.38435000	1.61786400
23.09999881	0.00000000	42.32898000	1.99311000
23.29999879	0.00000000	34.52264000	2.73745100
23.49999878	0.00000000	20.60777000	3.11269700
23.69999877	0.00000000	3.16190900	3.15575800
23.89999876	0.00000000	-14.14862000	3.15575800
24.09999875	0.00000000	-26.84547000	3.11269700
24.29999873	0.00000000	-31.40994000	2.73745100
24.49999872	0.00000000	-26.29183000	1.95004900
24.69999871	0.00000000	-11.58957000	1.15649600
24.89999870	0.00000000	9.62106200	-0.04306102
25.09999869	0.00000000	32.00049000	-1.53174200
25.29999867	0.00000000	50.56594000	-2.68823800
25.49999866	0.00000000	60.90059000	-3.02042300
25.69999865	0.00000000	60.10703000	-2.22687000
25.89999864	0.00000000	47.73007000	0.13533460
26.09999863	0.00000000	26.88238000	3.62327700
26.29999862	0.00000000	2.09153500	7.84940900
26.49999860	0.00000000	-21.36442000	11.65723000
26.69999859	0.00000000	-37.59227000	13.56422000
26.89999858	0.00000000	-42.21210000	13.14591000
27.09999857	0.00000000	-34.94094000	9.99015700
27.29999856	0.00000000	-17.13213000	4.18307100
27.49999854	0.00000000	6.74212600	-3.15575800
27.69999853	0.00000000	31.12082000	-10.49459000
27.89999852	0.00000000	50.43061000	-16.25861000
28.09999851	0.00000000	60.52534000	-18.86688000
28.29999850	0.00000000	59.40575000	-16.86762000
28.49999848	0.00000000	47.86540000	-9.89788300
28.69999847	0.00000000	28.93085000	0.51058070
28.89999846	0.00000000	6.92052100	12.11860000
29.09999845	0.00000000	-13.17052000	22.52707000
29.29999844	0.00000000	-26.75935000	29.45374000
29.49999843	0.00000000	-31.50221000	30.94242000
29.69999841	0.00000000	-27.26993000	26.24877000
29.89999840	0.00000000	-15.30512000	15.74803000
30.09999839	0.00000000	1.67322800	1.11343500
30.29999838	0.00000000	19.44513000	-14.30856000
30.49999837	0.00000000	34.19045000	-26.66708000
30.69999835	0.00000000	43.12869000	-33.58760000
30.89999834	0.00000000	44.75270000	-33.16929000
31.09999833	0.00000000	39.35777000	-25.04306000
31.29999832	0.00000000	28.55561000	-11.10359000
31.49999831	0.00000000	14.64690000	6.26845500
31.69999829	0.00000000	1.10728300	23.22835000
31.89999828	0.00000000	-9.40575800	35.58686000
32.09999827	0.00000000	-15.16978000	41.02485000
32.29999826	0.00000000	-14.84375000	38.28740000
32.49999825	0.00000000	-8.75369100	27.87278000
32.69999824	0.00000000	0.51058070	12.03248000
32.89999822	0.00000000	11.02362000	-5.75787400
33.09999821	0.00000000	21.06914000	-21.97342000
33.29999820	0.00000000	28.37721000	-33.16929000
33.49999819	0.00000000	31.16388000	-36.70644000
33.69999818	0.00000000	29.25689000	-32.47416000
33.89999816	0.00000000	23.85581000	-21.64739000
34.09999815	0.00000000	15.76649000	-6.18233200
34.29999814	0.00000000	7.34498000	10.45152000
34.49999813	0.00000000	1.06422200	25.08612000
34.69999812	0.00000000	-2.38065900	34.37500000
34.89999810	0.00000000	-2.41756900	35.96210000
35.09999809	0.00000000	1.43331700	30.56717000
35.29999808	0.00000000	7.11737200	18.95300000
35.49999807	0.00000000	13.34276000	3.62327700
35.69999806	0.00000000	18.32554000	-11.01132000
35.89999805	0.00000000	21.02608000	-21.51206000
36.09999803	0.00000000	20.65084000	-26.15649000
36.29999802	0.00000000	17.25517000	-24.24951000
36.49999801	0.00000000	12.64764000	-16.16634000
36.69999800	0.00000000	7.99704600	-4.26919300
36.89999799	0.00000000	4.13385800	8.40920300
37.09999797	0.00000000	2.22687000	18.39936000
37.29999796	0.00000000	2.60211600	23.04995000
37.49999795	0.00000000	5.33956700	21.55512000
37.69999794	0.00000000	9.90403500	14.67766000
37.89999793	0.00000000	14.92372000	4.73671200
38.09999791	0.00000000	18.74385000	-5.25344500
38.29999790	0.00000000	20.73696000	-12.54921000
38.49999789	0.00000000	20.32480000	-15.24360000
38.69999788	0.00000000	18.04257000	-12.54921000
38.89999787	0.00000000	14.13632000	-5.29650500
39.09999786	0.00000000	9.52879000	4.22613100
39.29999784	0.00000000	5.25344500	12.68455000
39.49999783	0.00000000	2.17765700	17.66117000
39.69999782	0.00000000	1.02116100	18.07332000
39.89999781	0.00000000	2.13459600	13.42889000
40.09999780	0.00000000	4.83513700	5.38262700
40.29999778	0.00000000	8.37229300	-4.22613100
40.49999777	0.00000000	12.64764000	-12.59227000
40.69999776	0.00000000	16.87992000	-16.81841000
40.89999775	0.00000000	19.95571000	-15.70497000
41.09999774	0.00000000	21.16142000	-9.94094400
41.29999772	0.00000000	20.37401000	-1.11343500
41.49999771	0.00000000	18.08563000	8.50147600
41.69999770	0.00000000	14.56078000	16.16634000
41.89999769	0.00000000	10.69144000	20.02337000
42.09999768	0.00000000	6.79133800	18.90994000
42.29999767	0.00000000	3.75861200	13.56422000
42.49999765	0.00000000	2.55290300	5.85014700
42.69999764	0.00000000	3.29724400	-2.64517700
42.89999763	0.00000000	5.21038300	-9.89788300
43.09999762	0.00000000	7.90477300	-13.74877000
43.29999761	0.00000000	10.59916000	-13.05364000
43.49999759	0.00000000	12.60458000	-8.91978400
43.69999758	0.00000000	14.13632000	-3.11269700
43.89999757	0.00000000	14.92372000	3.06963600
44.09999756	0.00000000	14.56078000	8.45226300
44.29999755	0.00000000	13.85334000	11.56496000
44.49999753	0.00000000	13.06594000	11.98327000
44.69999752	0.00000000	12.69070000	10.07628000
44.89999751	0.00000000	12.69070000	6.26845500
45.09999750	0.00000000	13.02288000	2.04232300
45.29999749	0.00000000	13.29970000	-1.44562000
45.49999748	0.00000000	12.09400000	-3.80782500
45.69999746	0.00000000	9.48572700	-4.60137700
45.89999745	0.00000000	6.74212600	-4.22613100
46.09999744	0.00000000	4.36761800	-2.64517700
46.29999743	0.00000000	2.09153500	0.00000000
46.49999742	0.00000000	1.02116100	2.69439000
46.69999740	0.00000000	2.26993100	4.64443900
46.89999739	0.00000000	6.09005900	5.85014700
47.09999738	0.00000000	11.89715000	6.17618100
47.29999737	0.00000000	17.67347000	5.43184000
47.49999736	0.00000000	22.74237000	3.48179100
47.69999734	0.00000000	25.71973000	1.20570900
47.89999733	0.00000000	25.34449000	-1.15649600
48.09999732	0.00000000	21.44439000	-3.02042300
48.29999731	0.00000000	14.88066000	-3.80782500
48.49999730	0.00000000	6.74212600	-3.02042300
48.69999729	0.00000000	-0.93503930	-1.11343500
48.89999727	0.00000000	-6.32997000	1.58095500
49.09999726	0.00000000	-7.82480200	4.31840500
49.29999725	0.00000000	-4.70595500	6.64370100
49.49999724	0.00000000	2.60211600	8.54453700
49.69999723	0.00000000	12.22933000	8.87672100
49.89999721	0.00000000	21.44439000	7.33882900
50.09999720	0.00000000	28.04503000	4.26919300
50.29999719	0.00000000	30.32726000	0.41830710
50.49999718	0.00000000	28.00197000	-3.06348400
50.69999717	0.00000000	21.06914000	-5.75787400
50.89999715	0.00000000	11.48499000	-6.92052100
51.09999714	0.00000000	2.22687000	-6.09005900
51.29999713	0.00000000	-4.70595500	-3.43257800
51.49999712	0.00000000	-7.35728300	0.83046260
51.69999711	0.00000000	-4.70595500	5.01968500
51.89999710	0.00000000	2.13459600	8.54453700
52.09999708	0.00000000	10.59916000	10.45152000
52.29999707	0.00000000	18.32554000	10.45152000
52.49999706	0.00000000	23.72047000	8.50147600
52.69999705	0.00000000	25.25836000	4.69365100
52.89999704	0.00000000	22.60704000	0.46751960
53.09999702	0.00000000	16.83686000	-3.02042300
53.29999701	0.00000000	9.52879000	-5.33956700
53.49999700	0.00000000	2.60211600	-5.71481200
53.69999699	0.00000000	-1.96235200	-4.22613100
53.89999698	0.00000000	-2.74975400	-1.53174200
54.09999696	0.00000000	0.68897630	1.53174200
54.29999695	0.00000000	6.79133800	4.22613100
54.49999694	0.00000000	13.71801000	5.75787400
54.69999693	0.00000000	19.48819000	5.75787400
54.89999692	0.00000000	22.55782000	4.26919300
55.09999691	0.00000000	22.18258000	1.99311000
55.29999689	0.00000000	18.37475000	0.13533460
55.49999688	0.00000000	12.64764000	-0.69512790
55.69999687	0.00000000	6.87746000	-0.28297240
55.89999686	0.00000000	2.60211600	0.83661410
56.09999685	0.00000000	0.64591530	2.78051200
56.29999683	0.00000000	1.02116100	4.60137700
56.49999682	0.00000000	3.75861200	5.38262700
56.69999681	0.00000000	8.32308000	4.60137700
56.89999680	0.00000000	13.34276000	2.69439000
57.09999679	0.00000000	17.16289000	-0.04306102
57.29999677	0.00000000	19.15600000	-3.06348400
57.49999676	0.00000000	18.74385000	-5.33956700
57.69999675	0.00000000	16.50467000	-5.67175200
57.89999674	0.00000000	12.97982000	-3.76476400
58.09999673	0.00000000	9.15354300	0.09227362
58.29999672	0.00000000	5.71481200	4.73671200
58.49999670	0.00000000	4.18307100	9.33809000
58.69999669	0.00000000	4.83513700	12.72761000
58.89999668	0.00000000	6.36687900	13.10285000
59.09999667	0.00000000	8.32308000	10.40846000
59.29999666	0.00000000	10.64838000	5.38262700
59.49999664	0.00000000	12.55536000	-1.15649600
59.69999663	0.00000000	13.71801000	-7.29576700
59.89999662	0.00000000	13.76107000	-11.52190000
60.09999661	0.00000000	13.02288000	-12.63533000
60.29999660	0.00000000	12.22933000	-9.94094400
60.49999658	0.00000000	11.06668000	-4.18307100
60.69999657	0.00000000	9.95324800	3.11269700
60.89999656	0.00000000	9.52879000	10.07628000
61.09999655	0.00000000	9.52879000	15.05290000
61.29999654	0.00000000	9.95324800	16.99680000
61.49999653	0.00000000	11.02362000	15.00984000
61.69999651	0.00000000	11.76181000	9.65797200
61.89999650	0.00000000	11.39887000	1.95004900
62.09999649	0.00000000	10.69144000	-5.71481200
62.29999648	0.00000000	9.86097400	-11.52190000
62.49999647	0.00000000	9.11048200	-14.21629000
62.69999645	0.00000000	8.37229300	-13.10285000
62.89999644	0.00000000	8.37229300	-8.87672100
63.09999643	0.00000000	9.11048200	-2.64517700
63.29999642	0.00000000	9.90403500	4.69365100
63.49999641	0.00000000	11.06668000	11.61417000
63.69999639	0.00000000	12.18012000	16.21555000
63.89999638	0.00000000	12.64764000	17.37205000
64.09999637	0.00000000	12.97982000	14.67766000
64.29999636	0.00000000	12.92446000	8.96284400
64.49999635	0.00000000	11.44193000	2.04232300
64.69999634	0.00000000	9.95324800	-4.18307100
64.89999632	0.00000000	9.11048200	-8.82750900
65.09999631	0.00000000	8.37229300	-11.18971000
65.29999630	0.00000000	8.41535400	-10.77756000
65.49999629	0.00000000	9.48572700	-8.12622900
65.69999628	0.00000000	10.64838000	-3.48794300
65.89999626	0.00000000	11.44193000	1.48868100
66.09999625	0.00000000	12.18012000	5.80093500
66.29999624	0.00000000	12.13706000	8.91978400
66.49999623	0.00000000	11.06668000	10.53765000
66.69999622	0.00000000	9.90403500	10.91289000
66.89999620	0.00000000	9.06742000	10.11934000
67.09999619	0.00000000	7.94783400	7.80019600
67.29999618	0.00000000	7.29576700	4.73671200
67.49999617	0.00000000	8.41535400	1.58095500
67.69999616	0.00000000	10.69144000	-1.53174200
67.89999615	0.00000000	13.02288000	-4.26919300
68.09999613	0.00000000	15.29897000	-6.22539300
68.29999612	0.00000000	16.41855000	-7.33882900
68.49999611	0.00000000	15.67421000	-6.92052100
68.69999610	0.00000000	13.71801000	-4.64443900
68.89999609	0.00000000	10.59916000	-1.53174200
69.09999607	0.00000000	6.74212600	2.04232300
69.29999606	0.00000000	3.29724400	6.26845500
69.49999605	0.00000000	0.97194880	10.07628000
69.69999604	0.00000000	0.68897630	12.03248000
69.89999603	0.00000000	2.97736200	12.03248000
70.09999601	0.00000000	7.62180000	10.07628000
70.29999600	0.00000000	12.97982000	6.17618100
70.49999599	0.00000000	18.04257000	1.19955700
70.69999598	0.00000000	21.48745000	-3.85703700
70.89999597	0.00000000	22.65010000	-7.67101300
71.09999596	0.00000000	21.11220000	-9.61491000
71.29999594	0.00000000	17.21210000	-8.87057000
71.49999593	0.00000000	11.81102000	-6.17618100
71.69999592	0.00000000	5.62869100	-2.27608300
71.89999591	0.00000000	0.64591530	2.73745100
72.09999590	0.00000000	-2.09768700	7.29576700
72.29999588	0.00000000	-2.09768700	10.03322000
72.49999587	0.00000000	0.59670270	10.45152000
72.69999586	0.00000000	5.25344500	8.96284400
72.89999585	0.00000000	11.06668000	6.26845500
73.09999584	0.00000000	16.83686000	3.15575800
73.29999582	0.00000000	21.06914000	0.09227362
73.49999581	0.00000000	22.60704000	-2.22687000
73.69999580	0.00000000	21.11220000	-2.97736200
73.89999579	0.00000000	17.25517000	-2.27608300
74.09999578	0.00000000	12.27239000	-0.41830710
74.29999577	0.00000000	7.25270600	1.06422200
74.49999575	0.00000000	3.75861200	1.53174200
74.69999574	0.00000000	2.13459600	1.53174200
74.89999573	0.00000000	2.13459600	1.11343500
75.09999572	0.00000000	3.71555100	0.00000000
75.29999571	0.00000000	6.79133800	-1.06422200
75.49999569	0.00000000	10.59916000	-1.06422200
75.69999568	0.00000000	13.67495000	0.09227362
75.89999567	0.00000000	15.25591000	1.99311000
76.09999566	0.00000000	15.29897000	4.36146600
76.29999565	0.00000000	14.18553000	6.60063900
76.49999563	0.00000000	12.64764000	8.12622900
76.69999562	0.00000000	11.10974000	7.66486200
76.89999561	0.00000000	9.95324800	5.38262700
77.09999560	0.00000000	9.52879000	1.53174200
77.29999559	0.00000000	9.48572700	-2.69439000
77.49999558	0.00000000	9.52879000	-6.17618100
77.69999556	0.00000000	9.86097400	-8.45226300
77.89999555	0.00000000	10.18086000	-8.45226300
78.09999554	0.00000000	9.44266700	-6.13312000
78.29999553	0.00000000	8.32308000	-2.27608300
78.49999552	0.00000000	7.57258800	2.78051200
78.69999550	0.00000000	7.20964500	7.75713500
78.89999549	0.00000000	7.99704600	11.61417000
79.09999548	0.00000000	9.48572700	13.10285000
79.29999547	0.00000000	11.10974000	11.61417000
79.49999546	0.00000000	13.02288000	7.80019600
79.69999544	0.00000000	14.92372000	3.15575800
79.89999543	0.00000000	15.63115000	-1.53174200
80.09999542	0.00000000	14.92372000	-5.75787400
80.29999541	0.00000000	12.97982000	-8.45226300
80.49999540	0.00000000	10.64838000	-8.87672100
80.69999539	0.00000000	7.94783400	-7.33882900
80.89999537	0.00000000	5.67175200	-4.26919300
81.09999536	0.00000000	4.87819900	-0.41830710
81.29999535	0.00000000	5.25344500	3.06348400
81.49999534	0.00000000	6.83439900	5.85014700
81.69999533	0.00000000	9.48572700	7.80019600
81.89999531	0.00000000	12.18012000	8.96284400
82.09999530	0.00000000	14.13632000	8.91978400
82.29999529	0.00000000	15.29897000	7.38188900
82.49999528	0.00000000	15.29897000	4.68750000
82.69999527	0.00000000	14.13632000	1.62401600
82.89999525	0.00000000	12.22933000	-1.11343500
83.09999524	0.00000000	9.90403500	-3.11269700
83.29999523	0.00000000	7.99704600	-4.68750000
83.49999522	0.00000000	6.83439900	-5.80093500
83.69999521	0.00000000	6.83439900	-5.75787400
83.89999520	0.00000000	7.94783400	-4.22613100
84.09999518	0.00000000	9.44266700	-1.48868100
84.29999517	0.00000000	10.59916000	1.99311000
84.49999516	0.00000000	11.02362000	5.85014700
84.69999515	0.00000000	11.06668000	8.91978400
84.89999514	0.00000000	11.06668000	10.45152000
85.09999512	0.00000000	11.06668000	10.07628000
85.29999511	0.00000000	11.06668000	7.75713500
85.49999510	0.00000000	11.06668000	4.26919300
85.69999509	0.00000000	11.06668000	0.00000000
85.89999508	0.00000000	11.06668000	-4.22613100
86.09999506	0.00000000	11.06668000	-7.29576700
86.29999505	0.00000000	11.02362000	-8.45226300
86.49999504	0.00000000	10.59916000	-7.29576700
86.69999503	0.00000000	9.48572700	-4.22613100
86.89999502	0.00000000	8.37229300	0.04306102
87.09999501	0.00000000	7.94783400	4.64443900
87.29999499	0.00000000	7.90477300	8.50147600
87.49999498	0.00000000	7.94783400	10.45152000
87.69999497	0.00000000	8.37229300	10.45152000
87.89999496	0.00000000	9.52879000	8.45226300
88.09999495	0.00000000	11.02362000	4.22613100
88.29999493	0.00000000	12.18012000	-1.11343500
88.49999492	0.00000000	12.60458000	-5.71481200
88.69999491	0.00000000	12.60458000	-8.40920300
88.89999490	0.00000000	12.18012000	-8.40920300
89.09999489	0.00000000	11.02362000	-5.75787400
89.29999487	0.00000000	9.52879000	-1.53174200
89.49999486	0.00000000	8.37229300	3.11269700
89.69999485	0.00000000	7.94783400	7.33882900
89.89999484	0.00000000	7.94783400	10.03322000
90.09999483	0.00000000	8.37229300	10.40846000
90.29999482	0.00000000	9.48572700	8.45226300
90.49999480	0.00000000	10.59916000	4.22613100
90.69999479	0.00000000	11.02362000	-1.11343500
90.89999478	0.00000000	11.06668000	-5.71481200
91.09999477	0.00000000	11.06668000	-8.40920300
91.29999476	0.00000000	11.06668000	-8.40920300
91.49999474	0.00000000	11.06668000	-5.71481200
91.69999473	0.00000000	11.06668000	-1.11343500
91.89999472	0.00000000	11.06668000	4.27534400
92.09999471	0.00000000	11.06668000	8.82750900
92.29999470	0.00000000	11.06668000	11.14665000
92.49999468	0.00000000	11.02362000	10.40846000
92.69999467	0.00000000	10.64838000	7.38188900
92.89999466	0.00000000	9.86097400	3.11269700
93.09999465	0.00000000	9.06742000	-1.48868100
93.29999464	0.00000000	7.90477300	-5.33956700
93.49999463	0.00000000	6.83439900	-7.24655500
93.69999461	0.00000000	6.83439900	-6.87746000
93.89999460	0.00000000	7.94783400	-4.18307100
94.09999459	0.00000000	9.52879000	0.00000000
94.29999458	0.00000000	11.48499000	4.22613100
94.49999457	0.00000000	13.76107000	7.33882900
94.69999455	0.00000000	15.29897000	8.87672100
94.89999454	0.00000000	15.71727000	8.45226300
95.09999453	0.00000000	15.29897000	5.75787400
95.29999452	0.00000000	13.71801000	1.62401600
95.49999451	0.00000000	11.02362000	-2.22687000
95.69999449	0.00000000	7.90477300	-4.55831700
95.89999448	0.00000000	4.83513700	-5.33956700
96.09999447	0.00000000	2.55290300	-4.18307100
96.29999446	0.00000000	2.22687000	-1.53174200
96.49999445	0.00000000	4.09079700	1.53174200
96.69999444	0.00000000	7.57258800	4.22613100
96.89999442	0.00000000	11.44193000	5.80093500
97.09999441	0.00000000	15.29897000	6.17618100
97.29999440	0.00000000	17.99951000	5.43184000
97.49999439	0.00000000	18.79306000	3.48179100
97.69999438	0.00000000	18.04257000	1.20570900
97.89999436	0.00000000	15.67421000	-1.07037400
98.09999435	0.00000000	12.18012000	-2.22687000
98.29999434	0.00000000	7.94783400	-1.90698800
98.49999433	0.00000000	4.13385800	-1.19955700
98.69999432	0.00000000	2.13459600	-0.37524600
98.89999430	0.00000000	1.71628900	0.37524600
99.09999429	0.00000000	2.55290300	1.15649600
99.29999428	0.00000000	5.25344500	1.53174200
99.49999427	0.00000000	9.06742000	1.61786400
99.69999426	0.00000000	12.55536000	1.99311000
99.89999425	0.00000000	15.34203000	2.73745100
100.09999423	0.00000000	17.25517000	3.11269700
100.29999422	0.00000000	17.99951000	3.15575800
100.49999421	0.00000000	16.83686000	3.15575800
100.69999420	0.00000000	14.18553000	3.11269700
100.89999419	0.00000000	11.06668000	2.68823800
101.09999417	0.00000000	7.94783400	1.53174200
101.29999416	0.00000000	5.25344500	0.00000000
101.49999415	0.00000000	3.71555100	-1.53174200
101.69999414	0.00000000	3.62942900	-2.68823800
101.89999413	0.00000000	4.45989200	-3.02042300
102.09999411	0.00000000	6.04699800	-2.22687000
102.29999410	0.00000000	9.11048200	0.04306102
102.49999409	0.00000000	12.09400000	2.73745100
102.69999408	0.00000000	13.76107000	5.06274600
102.89999407	0.00000000	14.56078000	6.96358300
103.09999406	0.00000000	14.92372000	7.33882900
103.29999404	0.00000000	14.13632000	6.22539300
103.49999403	0.00000000	12.60458000	4.26919300
103.69999402	0.00000000	10.64838000	1.53174200
103.89999401	0.00000000	8.37229300	-1.53174200
104.09999400	0.00000000	6.79133800	-4.18307100
104.29999398	0.00000000	5.99163300	-5.33956700
104.49999397	0.00000000	5.62869100	-4.60137700
104.69999396	0.00000000	6.41609200	-2.69439000
104.89999395	0.00000000	7.90477300	0.04306102
105.09999394	0.00000000	9.48572700	3.06348400
105.29999392	0.00000000	11.02362000	5.38262700
105.49999391	0.00000000	12.18012000	6.17618100
105.69999390	0.00000000	12.55536000	5.85014700
105.89999389	0.00000000	12.18012000	4.64443900
106.09999388	0.00000000	11.02362000	2.69439000
106.29999387	0.00000000	9.52879000	0.04306102
106.49999385	0.00000000	8.37229300	-2.22687000
106.69999384	0.00000000	7.94783400	-3.02042300
106.89999383	0.00000000	7.94783400	-2.68823800
107.09999382	0.00000000	8.37229300	-1.48868100
107.29999381	0.00000000	9.52879000	0.41830710
107.49999379	0.00000000	11.02362000	2.69439000
107.69999378	0.00000000	12.13706000	4.22613100
107.89999377	0.00000000	12.18012000	4.64443900
108.09999376	0.00000000	11.44193000	4.22613100
108.29999375	0.00000000	10.64838000	2.69439000
108.49999374	0.00000000	9.48572700	0.46751960
108.69999372	0.00000000	8.37229300	-1.06422200
108.89999371	0.00000000	7.94783400	-1.53174200
109.09999370	0.00000000	7.94783400	-1.53174200
109.29999369	0.00000000	8.37229300	-1.11343500
109.49999368	0.00000000	9.48572700	0.04306102
109.69999366	0.00000000	10.64838000	1.57480300
109.89999365	0.00000000	11.44193000	3.11269700
110.09999364	0.00000000	12.18012000	4.26919300
110.29999363	0.00000000	12.18012000	4.64443900
110.49999362	0.00000000	11.48499000	4.26919300
110.69999360	0.00000000	11.06668000	3.06348400
110.89999359	0.00000000	10.59916000	1.20570900
111.09999358	0.00000000	9.48572700	-0.69512790
111.29999357	0.00000000	8.37229300	-1.48253000
111.49999356	0.00000000	7.94783400	-1.53174200
111.69999355	0.00000000	7.94783400	-1.15649600
111.89999353	0.00000000	8.32308000	-0.37524600
112.09999352	0.00000000	9.11048200	0.37524600
112.29999351	0.00000000	9.86097400	1.19955700
112.49999350	0.00000000	10.64838000	1.95004900
112.69999349	0.00000000	11.02362000	2.73745100
112.89999347	0.00000000	11.02362000	3.06348400
113.09999346	0.00000000	10.64838000	2.73745100
113.29999345	0.00000000	9.90403500	1.99311000
113.49999344	0.00000000	9.52879000	1.61786400
113.69999343	0.00000000	9.48572700	1.53174200
113.89999341	0.00000000	9.48572700	1.15649600
114.09999340	0.00000000	9.48572700	0.41830710
114.29999339	0.00000000	9.48572700	0.04306102
114.49999338	0.00000000	9.48572700	-0.04306102
114.69999337	0.00000000	9.48572700	-0.37524600
114.89999336	0.00000000	9.48572700	-0.73818890
115.09999334	0.00000000	9.48572700	-0.37524600
115.29999333	0.00000000	9.52879000	-0.04306102
115.49999332	0.00000000	9.86097400	0.04306102
115.69999331	0.00000000	10.23007000	0.46136810
115.89999330	0.00000000	9.86097400	1.57480300
116.09999328	0.00000000	9.52879000	2.68823800
116.29999327	0.00000000	9.48572700	3.11269700
116.49999326	0.00000000	9.48572700	3.15575800
116.69999325	0.00000000	9.48572700	3.11269700
116.89999324	0.00000000	9.48572700	2.73745100
117.09999322	0.00000000	9.48572700	1.95004900
117.29999321	0.00000000	9.52879000	1.19955700
117.49999320	0.00000000	9.90403500	0.37524600
117.69999319	0.00000000	10.64838000	-0.37524600
117.89999318	0.00000000	11.02362000	-1.11343500
118.09999317	0.00000000	11.06668000	-1.11343500
118.29999315	0.00000000	11.06668000	-0.37524600
118.49999314	0.00000000	11.02362000	0.37524600
118.69999313	0.00000000	10.59916000	1.19955700
118.89999312	0.00000000	9.48572700	1.99311000
119.09999311	0.00000000	8.37229300	3.11269700
119.29999309	0.00000000	7.94783400	3.85088600
119.49999308	0.00000000	7.90477300	3.53100400
119.69999307	0.00000000	7.94783400	3.15575800
119.89999306	0.00000000	8.37229300	2.73745100
120.09999305	0.00000000	9.52879000	1.99311000
120.29999303	0.00000000	11.06668000	1.57480300
120.49999302	0.00000000	12.55536000	1.15649600
120.69999301	0.00000000	13.34276000	0.41830710
120.89999300	0.00000000	12.97982000	0.04306102
121.09999299	0.00000000	12.22933000	0.00000000
121.29999298	0.00000000	11.02362000	0.00000000
121.49999296	0.00000000	9.48572700	0.00000000
121.69999295	0.00000000	7.94783400	0.04306102
121.89999294	0.00000000	6.79133800	0.41830710
122.09999293	0.00000000	6.41609200	1.15649600
122.29999292	0.00000000	6.74212600	1.53174200
122.49999290	0.00000000	7.52952700	1.57480300
122.69999289	0.00000000	8.32308000	1.61786400
122.89999288	0.00000000	9.48572700	1.95004900
123.09999287	0.00000000	10.64838000	2.31914400
123.29999286	0.00000000	11.44193000	1.95004900
123.49999284	0.00000000	12.18012000	1.57480300
123.69999283	0.00000000	12.18012000	1.15649600
123.89999282	0.00000000	11.44193000	0.41830710
124.09999281	0.00000000	10.69144000	0.04306102
124.29999280	0.00000000	9.86097400	0.00000000
124.49999279	0.00000000	9.11048200	0.00000000
124.69999277	0.00000000	8.32308000	0.00000000
124.89999276	0.00000000	7.94783400	0.04306102
125.09999275	0.00000000	7.90477300	0.41830710
125.29999274	0.00000000	7.90477300	1.15649600
125.49999273	0.00000000	7.94783400	1.53174200
125.69999271	0.00000000	8.37229300	1.57480300
125.89999270	0.00000000	9.48572700	1.57480300
126.09999269	0.00000000	10.59916000	1.57480300
126.29999268	0.00000000	11.02362000	1.57480300
126.49999267	0.00000000	11.06668000	1.57480300
126.69999265	0.00000000	11.06668000	1.53174200
126.89999264	0.00000000	11.02362000	1.15649600
127.09999263	0.00000000	10.59916000	0.41830710
127.29999262	0.00000000	9.48572700	0.04306102
127.49999261	0.00000000	8.32308000	0.00000000
127.69999260	0.00000000	7.57258800	0.00000000
127.89999258	0.00000000	7.16043300	0.04306102
128.09999257	0.00000000	7.57258800	0.41830710
128.29999256	0.00000000	8.32308000	1.15649600
128.49999255	0.00000000	9.48572700	1.53174200
128.69999254	0.00000000	10.59916000	1.57480300
128.89999252	0.00000000	11.02362000	1.57480300
129.09999251	0.00000000	11.06668000	1.57480300
129.29999250	0.00000000	11.02362000	1.57480300
129.49999249	0.00000000	10.64838000	1.53174200
129.69999248	0.00000000	9.86097400	1.15649600
129.89999246	0.00000000	9.11048200	0.41830710
130.09999245	0.00000000	8.32308000	0.04306102
130.29999244	0.00000000	7.94783400	0.04306102
130.49999243	0.00000000	7.94783400	0.41830710
130.69999242	0.00000000	8.32308000	1.15649600
130.89999241	0.00000000	9.11048200	1.53174200
131.09999239	0.00000000	9.86097400	1.57480300
131.29999238	0.00000000	10.64838000	1.57480300
131.49999237	0.00000000	11.02362000	1.53174200
131.69999236	0.00000000	11.02362000	1.15649600
131.89999235	0.00000000	10.64838000	0.41830710
132.09999233	0.00000000	9.90403500	0.04306102
132.29999232	0.00000000	9.48572700	0.00000000
132.49999231	0.00000000	9.11048200	0.00000000
132.69999230	0.00000000	8.74138700	0.04306102
132.89999229	0.00000000	9.11048200	0.41830710
133.09999227	0.00000000	9.44266700	1.19955700
133.29999226	0.00000000	9.48572700	1.95004900
133.49999225	0.00000000	9.48572700	2.73745100
133.69999224	0.00000000	9.44266700	3.06348400
133.89999223	0.00000000	9.11048200	2.73745100
134.09999222	0.00000000	8.74138700	1.99311000
134.29999220	0.00000000	9.11048200	1.57480300
134.49999219	0.00000000	9.44266700	1.15649600
134.69999218	0.00000000	9.48572700	0.37524600
134.89999217	0.00000000	9.48572700	-0.32603340
135.09999216	0.00000000	9.52879000	-0.73818890
135.29999214	0.00000000	9.86097400	-0.37524600
135.49999213	0.00000000	10.23007000	0.00000000
135.69999212	0.00000000	9.86097400	0.41830710
135.89999211	0.00000000	9.48572700	1.15649600
136.09999210	0.00000000	9.06742000	1.57480300
136.29999208	0.00000000	8.32308000	1.99311000
136.49999207	0.00000000	7.94783400	2.68823800
136.69999206	0.00000000	7.90477300	2.68823800
136.89999205	0.00000000	7.94783400	1.95004900
137.09999204	0.00000000	8.32308000	1.19955700
137.29999203	0.00000000	9.11048200	0.41830710
137.49999201	0.00000000	9.86097400	0.04306102
137.69999200	0.00000000	10.64838000	0.00000000
137.89999199	0.00000000	11.02362000	0.00000000
138.09999198	0.00000000	11.02362000	0.00000000
138.29999197	0.00000000	10.64838000	0.00000000
138.49999195	0.00000000	9.86097400	0.04306102
138.69999194	0.00000000	9.11048200	0.41830710
138.89999193	0.00000000	8.32308000	1.15649600
139.09999192	0.00000000	7.94783400	1.57480300
139.29999191	0.00000000	7.90477300	1.99311000
139.49999189	0.00000000	7.94783400	2.68823800
139.69999188	0.00000000	8.32308000	2.68823800
139.89999187	0.00000000	9.11048200	1.99311000
140.09999186	0.00000000	9.86097400	1.57480300
140.29999185	0.00000000	10.64838000	1.15649600
140.49999184	0.00000000	10.97441000	0.41830710
140.69999182	0.00000000	10.64838000	0.04306102
140.89999181	0.00000000	9.90403500	0.00000000
141.09999180	0.00000000	9.52879000	0.00000000
141.29999179	0.00000000	9.44266700	0.00000000
141.49999178	0.00000000	9.11048200	0.04306102
141.69999176	0.00000000	8.74138700	0.41830710
141.89999175	0.00000000	9.11048200	1.19955700
142.09999174	0.00000000	9.48572700	1.95004900
142.29999173	0.00000000	9.86097400	2.73745100
142.49999172	0.00000000	10.23007000	3.06348400
142.69999170	0.00000000	9.86097400	2.73745100
142.89999169	0.00000000	9.52879000	1.95004900
143.09999168	0.00000000	9.48572700	1.19955700
143.29999167	0.00000000	9.48572700	0.41830710
143.49999166	0.00000000	9.48572700	0.04306102
143.69999165	0.00000000	9.44266700	0.00000000
143.89999163	0.00000000	9.11048200	0.04306102
144.09999162	0.00000000	8.74138700	0.41830710
144.29999161	0.00000000	9.11048200	1.15649600
144.49999160	0.00000000	9.48572700	1.53174200
144.69999159	0.00000000	9.86097400	1.61786400
144.89999157	0.00000000	10.23007000	1.95004900
145.09999156	0.00000000	9.86097400	2.31914400
145.29999155	0.00000000	9.52879000	1.95004900
145.49999154	0.00000000	9.44266700	1.57480300
145.69999153	0.00000000	9.06742000	1.15649600
145.89999151	0.00000000	8.32308000	0.41830710
146.09999150	0.00000000	7.99704600	0.04306102
146.29999149	0.00000000	8.32308000	0.00000000
146.49999148	0.00000000	9.06742000	0.00000000
146.69999147	0.00000000	9.44266700	0.00000000
146.89999146	0.00000000	9.48572700	0.04306102
147.09999144	0.00000000	9.52879000	0.41830710
147.29999143	0.00000000	9.86097400	1.15649600
147.49999142	0.00000000	10.23007000	1.57480300
147.69999141	0.00000000	9.86097400	1.95004900
147.89999140	0.00000000	9.48572700	2.31914400
148.09999138	0.00000000	9.06742000	1.95004900
148.29999137	0.00000000	8.32308000	1.61786400
148.49999136	0.00000000	7.99704600	1.53174200
148.69999135	0.00000000	8.32308000	1.15649600
148.89999134	0.00000000	9.06742000	0.41830710
149.09999132	0.00000000	9.44266700	0.04306102
149.29999131	0.00000000	9.48572700	0.04306102
149.49999130	0.00000000	9.48572700	0.37524600
149.69999129	0.00000000	9.48572700	0.78124990
149.89999128	0.00000000	9.48572700	0.79355310
150.09999127	0.00000000	9.48572700	1.19955700
150.29999125	0.00000000	9.48572700	1.53174200
150.49999124	0.00000000	9.48572700	1.57480300
150.69999123	0.00000000	9.44266700	1.57480300
150.89999122	0.00000000	9.11048200	1.57480300
151.09999121	0.00000000	8.69832600	1.57480300
151.29999119	0.00000000	8.69217500	1.53174200
151.49999118	0.00000000	8.32308000	1.15649600
151.69999117	0.00000000	8.37229300	0.41830710
151.89999116	0.00000000	9.06742000	0.04306102
152.09999115	0.00000000	9.44266700	0.00000000
152.29999113	0.00000000	9.48572700	0.00000000
152.49999112	0.00000000	9.48572700	0.00000000
152.69999111	0.00000000	9.48572700	0.04306102
152.89999110	0.00000000	9.48572700	0.41830710
153.09999109	0.00000000	9.48572700	1.15649600
153.29999108	0.00000000	9.48572700	1.53174200
153.49999106	0.00000000	9.48572700	1.57480300
153.69999105	0.00000000	9.48572700	1.57480300
153.89999104	0.00000000	9.44266700	1.57480300
154.09999103	0.00000000	9.06742000	1.57480300
154.29999102	0.00000000	8.32308000	1.57480300
154.49999100	0.00000000	7.99704600	1.57480300
154.69999099	0.00000000	8.32308000	1.53174200
154.89999098	0.00000000	9.06742000	1.15649600
155.09999097	0.00000000	9.44266700	0.41830710
155.29999096	0.00000000	9.48572700	0.04306102
155.49999094	0.00000000	9.48572700	0.00000000
155.69999093	0.00000000	9.48572700	0.04306102
155.89999092	0.00000000	9.48572700	0.41830710
156.09999091	0.00000000	9.48572700	1.15649600
156.29999090	0.00000000	9.48572700	1.53174200
156.49999089	0.00000000	9.44266700	1.57480300
156.69999087	0.00000000	9.06742000	1.57480300
156.89999086	0.00000000	8.32308000	1.57480300
157.09999085	0.00000000	7.94783400	1.57480300
157.29999084	0.00000000	7.90477300	1.57480300
157.49999083	0.00000000	7.94783400	1.53174200
157.69999081	0.00000000	8.32308000	1.15649600
157.89999080	0.00000000	9.06742000	0.41830710
158.09999079	0.00000000	9.44266700	0.04306102
158.29999078	0.00000000	9.48572700	0.00000000
158.49999077	0.00000000	9.48572700	0.00000000
158.69999075	0.00000000	9.48572700	0.00000000
158.89999074	0.00000000	9.48572700	0.04306102
159.09999073	0.00000000	9.48572700	0.41830710
159.29999072	0.00000000	9.48572700	1.15649600
159.49999071	0.00000000	9.44266700	1.53174200
159.69999070	0.00000000	9.06742000	1.57480300
159.89999068	0.00000000	8.37229300	1.57480300
160.09999067	0.00000000	8.32308000	1.57480300
160.29999066	0.00000000	8.64911400	1.57480300
160.49999065	0.00000000	8.32308000	1.53174200
160.69999064	0.00000000	8.37229300	1.15649600
160.89999062	0.00000000	9.06742000	0.41830710
161.09999061	0.00000000	9.44266700	0.04306102
161.29999060	0.00000000	9.48572700	0.00000000
161.49999059	0.00000000	9.48572700	0.00000000
161.69999058	0.00000000	9.48572700	0.00000000
161.89999056	0.00000000	9.48572700	0.04306102
162.09999055	0.00000000	9.48572700	0.41830710
162.29999054	0.00000000	9.48572700	1.15649600
162.49999053	0.00000000	9.48572700	1.53174200
162.69999052	0.00000000	9.48572700	1.57480300
162.89999051	0.00000000	9.44266700	1.57480300
163.09999049	0.00000000	9.06742000	1.57480300
163.29999048	0.00000000	8.32308000	1.53174200
163.49999047	0.00000000	7.94783400	1.15649600
163.69999046	0.00000000	7.90477300	0.41830710
163.89999045	0.00000000	7.90477300	0.04306102
164.09999043	0.00000000	7.94783400	0.00000000
164.29999042	0.00000000	8.32308000	0.00000000
164.49999041	0.00000000	9.06742000	0.00000000
164.69999040	0.00000000	9.44266700	0.00000000
164.89999039	0.00000000	9.48572700	0.00000000
165.09999037	0.00000000	9.48572700	0.00000000
165.29999036	0.00000000	9.48572700	0.04306102
165.49999035	0.00000000	9.48572700	0.41830710
165.69999034	0.00000000	9.44266700	1.15649600
165.89999033	0.00000000	9.11048200	1.53174200
166.09999032	0.00000000	8.69832600	1.53174200
166.29999030	0.00000000	8.69217500	1.19955700
166.49999029	0.00000000	8.32308000	0.83661410
166.69999028	0.00000000	8.32308000	1.19955700
166.89999027	0.00000000	8.69217500	1.53174200
167.09999026	0.00000000	8.69832600	1.53174200
167.29999024	0.00000000	9.11048200	1.15649600
167.49999023	0.00000000	9.44266700	0.41830710
167.69999022	0.00000000	9.48572700	0.04306102
167.89999021	0.00000000	9.48572700	0.00000000
168.09999020	0.00000000	9.48572700	0.00000000
168.29999018	0.00000000	9.48572700	0.04306102
168.49999017	0.00000000	9.48572700	0.37524600
168.69999016	0.00000000	9.48572700	0.78124990
168.89999015	0.00000000	9.48572700	0.74434050
169.09999014	0.00000000	9.48572700	0.78124990
169.29999013	0.00000000	9.44266700	0.37524600
169.49999011	0.00000000	9.11048200	0.09227362
169.69999010	0.00000000	8.69832600	0.37524600
169.89999009	0.00000000	8.69217500	0.78124990
170.09999008	0.00000000	8.32308000	0.74434050
170.29999007	0.00000000	8.37229300	0.78124990
170.49999005	0.00000000	9.06742000	0.37524600
170.69999004	0.00000000	9.44266700	0.09227362
170.89999003	0.00000000	9.48572700	0.37524600
171.09999002	0.00000000	9.48572700	0.73818890
171.29999001	0.00000000	9.48572700	0.41830710
171.49998999	0.00000000	9.48572700	0.41830710
171.69998998	0.00000000	9.48572700	0.73818890
171.89998997	0.00000000	9.48572700	0.37524600
172.09998996	0.00000000	9.48572700	0.09227362
172.29998995	0.00000000	9.48572700	0.37524600
172.49998994	0.00000000	9.44266700	0.78124990
172.69998992	0.00000000	9.06742000	0.74434050
172.89998991	0.00000000	8.37229300	0.83046260
173.09998990	0.00000000	8.37229300	0.79355310
173.29998989	0.00000000	9.06742000	1.19955700
173.49998988	0.00000000	9.44266700	1.48253000
173.69998986	0.00000000	9.48572700	1.15649600
173.89998985	0.00000000	9.48572700	0.41830710
174.09998984	0.00000000	9.48572700	0.04306102
174.29998983	0.00000000	9.48572700	0.00000000
174.49998982	0.00000000	9.48572700	0.04306102
174.69998980	0.00000000	9.48572700	0.37524600
174.89998979	0.00000000	9.48572700	0.73818890
175.09998978	0.00000000	9.48572700	0.37524600
175.29998977	0.00000000	9.44266700	0.04306102
175.49998976	0.00000000	9.11048200	0.04306102
175.69998975	0.00000000	8.74138700	0.37524600
175.89998973	0.00000000	9.11048200	0.78124990
176.09998972	0.00000000	9.44266700	0.79355310
176.29998971	0.00000000	9.48572700	1.19955700
176.49998970	0.00000000	9.48572700	1.48253000
176.69998969	0.00000000	9.48572700	1.15649600
176.89998967	0.00000000	9.48572700	0.41830710
177.09998966	0.00000000	9.48572700	0.04306102
177.29998965	0.00000000	9.48572700	0.00000000
177.49998964	0.00000000	9.48572700	0.00000000
177.69998963	0.00000000	9.44266700	0.00000000
177.89998961	0.00000000	9.06742000	0.00000000
178.09998960	0.00000000	8.32308000	0.00000000
178.29998959	0.00000000	7.99704600	0.00000000
178.49998958	0.00000000	8.32308000	0.04306102
178.69998957	0.00000000	9.01820900	0.37524600
178.89998956	0.00000000	9.06742000	0.78124990
179.09998954	0.00000000	8.74138700	0.74434050
179.29998953	0.00000000	9.11048200	0.78124990
179.49998952	0.00000000	9.44266700	0.37524600
179.69998951	0.00000000	9.48572700	0.04306102
179.89998950	0.00000000	9.48572700	0.00000000
180.09998948	0.00000000	9.48572700	0.00000000
180.29998947	0.00000000	9.48572700	0.04306102
180.49998946	0.00000000	9.44266700	0.37524600
180.69998945	0.00000000	9.06742000	0.78124990
180.89998944	0.00000000	8.32308000	0.79355310
181.09998942	0.00000000	7.94783400	1.15649600
181.29998941	0.00000000	7.94783400	1.15649600
181.49998940	0.00000000	8.32308000	0.83661410
181.69998939	0.00000000	9.06742000	1.15649600
181.89998938	0.00000000	9.44266700	1.15649600
182.09998937	0.00000000	9.48572700	0.83661410
182.29998935	0.00000000	9.44266700	1.15649600
182.49998934	0.00000000	9.11048200	1.11343500
182.69998933	0.00000000	8.74138700	0.41830710
182.89998932	0.00000000	9.11048200	0.04306102
183.09998931	0.00000000	9.44266700	0.00000000
183.29998929	0.00000000	9.48572700	0.00000000
183.49998928	0.00000000	9.48572700	0.00000000
183.69998927	0.00000000	9.44266700	0.00000000
183.89998926	0.00000000	9.06742000	0.04306102
184.09998925	0.00000000	8.32308000	0.41830710
184.29998923	0.00000000	7.94783400	1.15649600
184.49998922	0.00000000	7.90477300	1.53174200
184.69998921	0.00000000	7.90477300	1.57480300
184.89998920	0.00000000	7.94783400	1.57480300
185.09998919	0.00000000	8.32308000	1.57480300
185.29998918	0.00000000	9.06742000	1.57480300
185.49998916	0.00000000	9.44266700	1.53174200
185.69998915	0.00000000	9.48572700	1.15649600
185.89998914	0.00000000	9.48572700	0.41830710
186.09998913	0.00000000	9.48572700	0.04306102
186.29998912	0.00000000	9.48572700	0.00000000
186.49998910	0.00000000	9.44266700	0.00000000
186.69998909	0.00000000	9.06742000	0.00000000
186.89998908	0.00000000	8.37229300	0.04306102
187.09998907	0.00000000	8.32308000	0.41830710
187.29998906	0.00000000	8.64911400	1.15649600
187.49998904	0.00000000	8.28001900	1.53174200
187.69998903	0.00000000	7.94783400	1.57480300
187.89998902	0.00000000	7.94783400	1.57480300
188.09998901	0.00000000	8.28001900	1.53174200
188.29998900	0.00000000	8.69217500	1.15649600
188.49998899	0.00000000	8.69832600	0.41830710
188.69998897	0.00000000	9.11048200	0.04306102
188.89998896	0.00000000	9.44266700	0.00000000
189.09998895	0.00000000	9.44266700	0.00000000
189.29998894	0.00000000	9.11048200	0.00000000
189.49998893	0.00000000	8.74138700	0.00000000
189.69998891	0.00000000	9.06742000	0.04306102
189.89998890	0.00000000	9.01820900	0.37524600
190.09998889	0.00000000	8.32308000	0.78124990
190.29998888	0.00000000	7.94783400	0.79355310
190.49998887	0.00000000	7.90477300	1.19955700
190.69998885	0.00000000	7.90477300	1.53174200
190.89998884	0.00000000	7.94783400	1.53174200
191.09998883	0.00000000	8.32308000	1.19955700
191.29998882	0.00000000	9.06742000	0.79355310
191.49998881	0.00000000	9.44266700	0.83046260
191.69998880	0.00000000	9.48572700	0.74434050
191.89998878	0.00000000	9.48572700	0.78124990
192.09998877	0.00000000	9.48572700	0.37524600
192.29998876	0.00000000	9.44266700	0.04306102
192.49998875	0.00000000	9.06742000	0.00000000
192.69998874	0.00000000	8.37229300	0.04306102
192.89998872	0.00000000	8.32308000	0.37524600
193.09998871	0.00000000	8.64911400	0.78124990
193.29998870	0.00000000	8.32308000	0.79355310
193.49998869	0.00000000	8.32308000	1.15649600
193.69998868	0.00000000	8.64911400	1.11343500
193.89998866	0.00000000	8.28001900	0.41830710
194.09998865	0.00000000	7.94783400	0.04306102
194.29998864	0.00000000	7.94783400	0.04306102
194.49998863	0.00000000	8.28001900	0.37524600
194.69998862	0.00000000	8.69217500	0.73818890
194.89998861	0.00000000	8.69832600	0.37524600
195.09998859	0.00000000	9.06742000	0.04306102
195.29998858	0.00000000	9.01820900	0.00000000
195.49998857	0.00000000	8.32308000	0.00000000
195.69998856	0.00000000	7.99704600	0.00000000
195.89998855	0.00000000	8.28001900	0.00000000
196.09998853	0.00000000	8.64911400	0.00000000
