Time	Channel A	Channel B	Channel C
(us)	(V)	(mV)	(mV)

-4.59999956	0.00000000	23.71432000	14.21014000
-4.39999957	0.00000000	23.71432000	14.21014000
-4.19999958	0.00000000	23.67126000	14.21014000
-3.99999959	0.00000000	23.33907000	14.21014000
-3.79999960	0.00000000	22.96998000	14.21014000
-3.59999962	0.00000000	23.33907000	14.21014000
-3.39999963	0.00000000	23.67126000	14.21014000
-3.19999964	0.00000000	23.71432000	14.21014000
-2.99999965	0.00000000	23.71432000	14.21014000
-2.79999966	0.00000000	23.71432000	14.21014000
-2.59999968	0.00000000	23.71432000	14.21014000
-2.39999969	0.00000000	23.71432000	14.21014000
-2.19999970	0.00000000	23.71432000	14.21014000
-1.99999971	0.00000000	23.71432000	14.21014000
-1.79999972	0.00000000	23.71432000	14.21014000
-1.59999973	0.00000000	23.67126000	14.21014000
-1.39999975	0.00000000	23.33907000	14.21014000
-1.19999976	0.00000000	22.96998000	14.21014000
-0.99999977	0.00000000	23.33907000	14.21014000
-0.79999978	0.00000000	23.67126000	14.21014000
-0.59999979	0.00000000	23.71432000	14.21014000
-0.39999981	0.00000000	23.71432000	14.21014000
-0.19999982	0.47736220	23.71432000	14.21014000
0.00000017	0.79601380	23.71432000	14.21014000
0.20000016	0.95533960	23.71432000	14.21014000
0.40000015	0.95533960	23.71432000	14.21014000
0.60000013	0.63668800	23.71432000	14.21014000
0.80000012	0.00000000	23.71432000	14.21014000
1.00000011	-0.79601380	23.71432000	14.21014000
1.20000010	-1.91129400	23.71432000	14.21014000
1.40000009	-2.54859700	23.71432000	14.21014000
1.60000008	-2.70792300	23.71432000	14.21014000
1.80000006	-2.22994600	23.71432000	14.21014000
2.00000005	-0.79601380	23.71432000	14.21014000
2.20000004	1.27399100	23.71432000	14.21014000
2.40000003	3.34522600	23.71432000	14.21014000
2.60000002	4.93786900	23.71432000	14.21014000
2.80000000	5.41584600	23.71432000	14.21014000
2.99999999	4.45989200	23.71432000	14.16708000
3.19999998	2.07062000	23.71432000	13.83489000
3.39999997	-1.27399100	23.71432000	13.46580000
3.59999996	-4.61921700	23.71432000	13.83489000
3.79999994	-7.00848900	23.71432000	14.21014000
3.99999993	-7.96444400	23.71432000	14.62844000
4.19999992	-6.84916400	23.71432000	15.36663000
4.39999991	-3.82258900	23.71432000	15.74188000
4.59999990	0.31803640	23.71432000	15.74188000
4.79999989	4.77854300	23.71432000	15.36663000
4.99999987	7.96444400	23.71432000	14.62844000
5.19999986	9.39837600	23.71432000	14.25320000
5.39999985	8.44242100	23.71432000	14.16708000
5.59999984	5.25652100	23.71432000	13.83489000
5.79999983	0.95533960	23.71432000	13.46580000
5.99999981	-3.82258900	23.71432000	13.83489000
6.19999980	-7.64579200	23.71432000	14.21014000
6.39999979	-9.39837600	23.71432000	14.62844000
6.59999978	-8.76107300	23.71432000	15.36663000
6.79999977	-6.05315000	23.71432000	15.74188000
6.99999975	-2.07062000	23.71432000	15.78494000
7.19999974	2.22994600	23.71432000	15.78494000
7.39999973	5.89382400	23.75738000	15.74188000
7.59999972	7.64579200	24.08957000	15.36663000
7.79999971	7.48646600	24.45866000	14.62844000
7.99999970	5.41584600	24.08957000	14.25320000
8.19999968	2.38927200	23.75738000	14.21014000
8.39999967	-0.95533960	23.71432000	14.21014000
8.59999966	-3.50393700	23.71432000	14.21014000
8.79999965	-5.09719500	23.75738000	14.21014000
8.99999964	-5.09719500	24.08957000	14.25320000
9.19999962	-3.98191400	24.45866000	14.58538000
9.39999961	-2.07062000	24.08957000	14.99139000
9.59999960	0.00000000	23.75738000	14.95448000
9.79999959	1.59264300	23.71432000	14.99139000
9.99999958	2.38927200	23.71432000	14.58538000
10.19999956	2.54859700	23.71432000	14.25320000
10.39999955	1.91129400	23.71432000	14.21014000
10.59999954	1.11466500	23.71432000	14.21014000
10.79999953	0.31803640	23.71432000	14.21014000
10.99999952	-0.47736220	23.71432000	14.21014000
11.19999951	-0.79601380	23.71432000	14.21014000
11.39999949	-0.95533960	23.71432000	14.21014000
11.59999948	-0.95533960	23.71432000	14.21014000
11.79999947	-0.63668800	23.71432000	14.21014000
11.99999946	-0.31803640	23.71432000	14.21014000
12.19999945	-0.15871060	23.71432000	14.21014000
12.39999943	-0.15871060	23.71432000	14.21014000
12.59999942	0.00000000	23.71432000	14.21014000
12.79999941	0.00000000	23.71432000	14.21014000
12.99999940	0.00000000	23.71432000	14.21014000
13.19999939	0.00000000	23.71432000	14.21014000
13.39999937	0.00000000	23.71432000	14.21014000
13.59999936	0.00000000	23.75738000	14.21014000
13.79999935	0.00000000	24.08957000	14.21014000
13.99999934	-0.15871060	24.45866000	14.21014000
14.19999933	-0.15871060	24.08957000	14.21014000
14.39999932	-0.15871060	23.75738000	14.21014000
14.59999930	-0.15871060	23.71432000	14.21014000
14.79999929	0.00000000	23.71432000	14.21014000
14.99999928	0.00000000	23.71432000	14.21014000
15.19999927	0.00000000	23.71432000	14.21014000
15.39999926	0.00000000	23.71432000	14.21014000
15.59999924	0.00000000	23.71432000	14.21014000
15.79999923	0.00000000	23.71432000	14.21014000
15.99999922	0.00000000	23.71432000	14.21014000
16.19999921	0.00000000	23.71432000	14.21014000
16.39999920	-0.15871060	23.75738000	14.21014000
16.59999919	-0.15871060	24.13263000	14.21014000
16.79999917	-0.15871060	24.87697000	14.21014000
16.99999916	0.00000000	25.25221000	14.21014000
17.19999915	0.00000000	25.33834000	14.21014000
17.39999914	0.00000000	25.67052000	14.21014000
17.59999913	0.00000000	26.03961000	14.21014000
17.79999911	0.00000000	25.62746000	14.21014000
17.99999910	0.00000000	24.87697000	14.21014000
18.19999909	0.00000000	23.67126000	14.21014000
18.39999908	0.00000000	22.13336000	14.21014000
18.59999907	0.00000000	20.59547000	14.25320000
18.79999905	0.00000000	19.43897000	14.62844000
18.99999904	0.00000000	19.06373000	15.32357000
19.19999903	0.00000000	19.48204000	15.32357000
19.39999902	0.00000000	21.10605000	14.67150000
19.59999901	0.00000000	24.22490000	14.67150000
19.79999900	0.00000000	28.45718000	15.36663000
19.99999898	0.00000000	32.68946000	15.74188000
20.19999897	0.00000000	35.72219000	15.78494000
20.39999896	0.00000000	36.50959000	15.74188000
20.59999895	0.00000000	34.51648000	15.40969000
20.79999894	0.00000000	30.17962000	15.04675000
20.99999892	0.00000000	23.20374000	15.40969000
21.19999891	0.00000000	15.15748000	15.74188000
21.39999890	0.00000000	8.59375000	15.78494000
21.59999889	0.00000000	4.73671200	15.78494000
21.79999888	0.00000000	4.87204700	15.78494000
21.99999886	0.00000000	9.94094400	15.78494000
22.19999885	0.00000000	19.66043000	15.78494000
22.39999884	0.00000000	31.99434000	15.78494000
22.59999883	0.00000000	44.37131000	15.78494000
22.79999882	0.00000000	53.54330000	15.78494000
22.99999881	0.00000000	56.98203000	15.78494000
23.19999879	0.00000000	53.03272000	15.82800000
23.39999878	0.00000000	42.14444000	16.20325000
23.59999877	0.00000000	25.90428000	16.94759000
23.79999876	0.00000000	7.76328700	17.32283000
23.99999875	0.00000000	-7.64025500	17.36589000
24.19999873	0.00000000	-16.84916000	17.32283000
24.39999872	0.00000000	-16.71383000	16.89837000
24.59999871	0.00000000	-6.29306100	15.69882000
24.79999870	0.00000000	12.22318000	13.79183000
24.99999869	0.00000000	34.27657000	11.51575000
25.19999867	0.00000000	55.16732000	9.98400600
25.39999866	0.00000000	70.52164000	9.56569900
25.59999865	0.00000000	75.87352000	9.98400600
25.79999864	0.00000000	69.27288000	11.60187000
25.99999863	0.00000000	52.28223000	14.67150000
26.19999862	0.00000000	28.37106000	18.57160000
26.39999860	0.00000000	3.66633800	22.38558000
26.59999859	0.00000000	-16.06176000	25.44906000
26.79999858	0.00000000	-26.85162000	26.15034000
26.99999857	0.00000000	-25.68897000	24.24335000
27.19999856	0.00000000	-12.99213000	19.93110000
27.39999854	0.00000000	7.85556000	13.69956000
27.59999853	0.00000000	32.27116000	6.36072800
27.79999852	0.00000000	54.98893000	-0.55979330
27.99999851	0.00000000	70.84769000	-5.11195900
28.19999850	0.00000000	75.51058000	-5.81323800
28.39999848	0.00000000	69.03297000	-1.49483300
28.59999847	0.00000000	53.16806000	7.33267600
28.79999846	0.00000000	31.61909000	18.57160000
28.99999845	0.00000000	9.94094400	29.82283000
29.19999844	0.00000000	-7.12967500	39.39468000
29.39999843	0.00000000	-16.84916000	44.31594000
29.59999841	0.00000000	-17.22441000	42.36589000
29.79999840	0.00000000	-8.42765700	34.27657000
29.99999839	0.00000000	6.96973400	21.45669000
30.19999838	0.00000000	24.78469000	6.40378900
30.39999837	0.00000000	41.44931000	-7.85556000
30.59999835	0.00000000	53.86319000	-17.84572000
30.79999834	0.00000000	59.30733000	-20.95841000
30.99999833	0.00000000	57.44340000	-16.68922000
31.19999832	0.00000000	48.97884000	-5.81323800
31.39999831	0.00000000	36.23277000	10.07013000
31.59999829	0.00000000	22.31176000	27.78051000
31.79999828	0.00000000	9.89788300	43.20251000
31.99999827	0.00000000	1.75319900	52.49754000
32.19999826	0.00000000	-1.03346500	54.07849000
32.39999825	0.00000000	1.66092500	47.84694000
32.59999824	0.00000000	9.01205700	34.70103000
32.79999822	0.00000000	19.43897000	17.36589000
32.99999821	0.00000000	30.60408000	-0.04921259
33.19999820	0.00000000	39.49311000	-13.98868000
33.39999819	0.00000000	44.23597000	-22.12106000
33.59999818	0.00000000	44.65428000	-22.44709000
33.79999816	0.00000000	41.16019000	-14.77608000
33.99999815	0.00000000	34.23351000	-0.89197830
34.19999814	0.00000000	25.76279000	15.69882000
34.39999813	0.00000000	18.03642000	31.58834000
34.59999812	0.00000000	12.64149000	43.57775000
34.79999810	0.00000000	11.06053000	49.37868000
34.99999809	0.00000000	13.33661000	47.80388000
35.19999808	0.00000000	18.31939000	38.97638000
35.39999807	0.00000000	24.87697000	25.12918000
35.59999806	0.00000000	30.97933000	10.07013000
35.79999805	0.00000000	34.88558000	-3.07578700
35.99999803	0.00000000	35.67913000	-11.52805000
36.19999802	0.00000000	33.80905000	-13.10900000
36.39999801	0.00000000	29.95201000	-7.76943800
36.59999800	0.00000000	25.33834000	2.59596400
36.79999799	0.00000000	21.06299000	15.32357000
36.99999797	0.00000000	18.03642000	27.22072000
37.19999796	0.00000000	17.24902000	35.30389000
37.39999795	0.00000000	19.14985000	37.26009000
37.59999794	0.00000000	22.60088000	33.12008000
37.79999793	0.00000000	26.87623000	24.66781000
37.99999791	0.00000000	31.10851000	14.30241000
38.19999790	0.00000000	34.18430000	4.77362200
38.39999789	0.00000000	35.34695000	-0.60900590
38.59999788	0.00000000	34.18430000	-0.28912400
38.79999787	0.00000000	31.10851000	4.68134800
38.99999786	0.00000000	26.83317000	13.13976000
39.19999784	0.00000000	22.22564000	22.66240000
39.39999783	0.00000000	18.36245000	29.95817000
39.59999782	0.00000000	16.40625000	32.98474000
39.79999781	0.00000000	16.36319000	30.70251000
39.99999780	0.00000000	17.94414000	23.41289000
40.19999778	0.00000000	21.06299000	13.87795000
40.39999777	0.00000000	25.29527000	4.63828700
40.59999776	0.00000000	29.57062000	-1.49483300
40.79999775	0.00000000	33.06471000	-3.02657500
40.99999774	0.00000000	35.39001000	0.46136810
41.19999772	0.00000000	35.76525000	8.49532500
41.39999771	0.00000000	34.27657000	18.43627000
41.59999770	0.00000000	31.53297000	27.31299000
41.79999769	0.00000000	28.03888000	33.07701000
41.99999768	0.00000000	24.13263000	34.23351000
42.19999767	0.00000000	20.68774000	30.46875000
42.39999765	0.00000000	18.36245000	23.59129000
42.59999764	0.00000000	17.94414000	15.78494000
42.79999763	0.00000000	19.06373000	8.07086500
42.99999762	0.00000000	21.01993000	1.99311000
43.19999761	0.00000000	23.75738000	0.03690945
43.39999759	0.00000000	26.78395000	2.26377900
43.59999758	0.00000000	29.15231000	7.24040300
43.79999757	0.00000000	30.32111000	13.79183000
43.99999756	0.00000000	30.73326000	19.93110000
44.19999755	0.00000000	29.99508000	24.20029000
44.39999753	0.00000000	28.92470000	25.78125000
44.59999752	0.00000000	28.50024000	24.66166000
44.79999751	0.00000000	28.45718000	21.64124000
44.99999750	0.00000000	28.45718000	17.74114000
45.19999749	0.00000000	28.41412000	13.87795000
45.39999748	0.00000000	27.94660000	10.40231000
45.59999746	0.00000000	26.36565000	8.48917200
45.79999745	0.00000000	23.67126000	8.44611200
45.99999744	0.00000000	20.59547000	9.98400600
46.19999743	0.00000000	17.94414000	12.62918000
46.39999742	0.00000000	16.78149000	15.32357000
46.59999740	0.00000000	17.56890000	17.32283000
46.79999739	0.00000000	19.94340000	18.90379000
46.99999738	0.00000000	24.26796000	20.01722000
47.19999737	0.00000000	30.03814000	19.97416000
47.39999736	0.00000000	35.85752000	18.47933000
47.59999734	0.00000000	40.42199000	16.16018000
47.79999733	0.00000000	42.27977000	13.83489000
47.99999732	0.00000000	39.91141000	11.51575000
48.19999731	0.00000000	33.80905000	10.02707000
48.39999730	0.00000000	25.67052000	9.98400600
48.59999729	0.00000000	17.52584000	11.14050000
48.79999727	0.00000000	10.59301000	13.13976000
48.99999726	0.00000000	6.82824800	16.20325000
49.19999725	0.00000000	7.98474400	19.64198000
49.39999724	0.00000000	13.75492000	21.92421000
49.59999723	0.00000000	22.64394000	22.75467000
49.79999721	0.00000000	32.64640000	21.96727000
49.99999720	0.00000000	41.11712000	20.01722000
50.19999719	0.00000000	45.72466000	16.90453000
50.39999718	0.00000000	45.34940000	13.04749000
50.59999717	0.00000000	39.99754000	9.60875900
50.79999715	0.00000000	31.48376000	7.28346400
50.99999714	0.00000000	21.89345000	6.95743000
51.19999713	0.00000000	13.43504000	8.86441900
51.39999712	0.00000000	9.19660400	12.72146000
51.59999711	0.00000000	9.52263600	17.32283000
51.79999710	0.00000000	14.17938000	21.54897000
51.99999708	0.00000000	22.22564000	24.29257000
52.19999707	0.00000000	31.02239000	25.03691000
52.39999706	0.00000000	37.99828000	23.91732000
52.59999705	0.00000000	41.49237000	20.81078000
52.79999704	0.00000000	41.11712000	16.99065000
52.99999702	0.00000000	36.88484000	13.09670000
53.19999701	0.00000000	29.99508000	10.07013000
53.39999700	0.00000000	22.68701000	8.86441900
53.59999699	0.00000000	16.91683000	9.60875900
53.79999698	0.00000000	14.22244000	11.51575000
53.99999696	0.00000000	15.33587000	14.25320000
54.19999695	0.00000000	19.56816000	17.27977000
54.39999694	0.00000000	25.71358000	19.55585000
54.59999693	0.00000000	32.22810000	20.01722000
54.79999692	0.00000000	36.83563000	19.27903000
54.99999691	0.00000000	38.42273000	18.11024000
55.19999689	0.00000000	36.88484000	16.20325000
55.39999688	0.00000000	32.64640000	14.72072000
55.59999687	0.00000000	26.87623000	14.30241000
55.79999686	0.00000000	21.14911000	14.72072000
55.99999685	0.00000000	17.29208000	16.25246000
56.19999683	0.00000000	16.49852000	18.47933000
56.39999682	0.00000000	18.41166000	19.97416000
56.59999681	0.00000000	22.60088000	19.97416000
56.79999680	0.00000000	27.62057000	18.43627000
56.99999679	0.00000000	31.85900000	15.74188000
57.19999677	0.00000000	34.97170000	12.67224000
57.39999676	0.00000000	35.72219000	9.98400600
57.59999675	0.00000000	34.23351000	8.48917200
57.79999674	0.00000000	31.10851000	8.90747900
57.99999673	0.00000000	26.91929000	11.64493000
58.19999672	0.00000000	23.10531000	16.20325000
58.39999670	0.00000000	21.14911000	21.22293000
58.59999669	0.00000000	21.06299000	25.03691000
58.79999668	0.00000000	22.17643000	26.93774000
58.99999667	0.00000000	23.75738000	25.77510000
59.19999666	0.00000000	25.71358000	21.92421000
59.39999664	0.00000000	27.98966000	16.48622000
59.59999663	0.00000000	29.52756000	9.98400600
59.79999662	0.00000000	29.90280000	4.63828700
59.99999661	0.00000000	29.24459000	2.30684000
60.19999660	0.00000000	28.08809000	3.05733300
60.39999658	0.00000000	27.66363000	6.95743000
60.59999657	0.00000000	26.83317000	13.13976000
60.79999656	0.00000000	25.80585000	20.47859000
60.99999655	0.00000000	25.80585000	27.31299000
61.19999654	0.00000000	26.87623000	31.16388000
61.39999653	0.00000000	27.98966000	30.80093000
61.59999651	0.00000000	28.36491000	26.98080000
61.79999650	0.00000000	28.03888000	20.34941000
61.99999649	0.00000000	27.29453000	12.30315000
62.19999648	0.00000000	26.87623000	4.63828700
62.39999647	0.00000000	26.45792000	0.03690945
62.59999645	0.00000000	25.71358000	-0.42445860
62.79999644	0.00000000	25.33834000	2.63902500
62.99999643	0.00000000	25.33834000	8.44611200
63.19999642	0.00000000	25.76279000	15.78494000
63.39999641	0.00000000	26.91929000	23.12992000
63.59999639	0.00000000	28.41412000	28.89395000
63.79999638	0.00000000	29.57062000	31.58218000
63.99999637	0.00000000	29.94586000	30.46875000
64.19999636	0.00000000	29.57062000	26.24262000
64.39999635	0.00000000	28.41412000	20.06029000
64.59999634	0.00000000	26.91929000	13.13976000
64.79999632	0.00000000	25.71358000	7.33267600
64.99999631	0.00000000	24.96309000	3.79552100
65.19999630	0.00000000	24.55093000	2.63902500
65.39999629	0.00000000	25.01230000	4.21998000
65.59999628	0.00000000	26.08883000	8.40305000
65.79999626	0.00000000	27.62057000	13.79183000
65.99999625	0.00000000	28.36491000	18.81152000
66.19999624	0.00000000	28.45718000	22.75467000
66.39999623	0.00000000	28.41412000	25.12918000
66.59999622	0.00000000	27.98966000	26.28568000
66.79999620	0.00000000	26.83317000	25.86737000
66.99999619	0.00000000	25.38755000	23.59129000
67.19999618	0.00000000	24.64321000	20.52780000
67.39999617	0.00000000	25.38755000	17.36589000
67.59999616	0.00000000	26.91929000	14.25320000
67.79999615	0.00000000	28.87549000	11.51575000
67.99999613	0.00000000	31.20078000	9.55954600
68.19999612	0.00000000	33.06471000	8.35998900
68.39999611	0.00000000	33.80905000	8.02780400
68.59999610	0.00000000	32.60334000	8.82135800
68.79999609	0.00000000	29.57062000	11.18356000
68.99999607	0.00000000	25.71358000	14.67150000
69.19999606	0.00000000	22.22564000	18.94685000
69.39999605	0.00000000	19.52510000	23.17298000
69.59999604	0.00000000	18.41166000	26.28568000
69.79999603	0.00000000	19.56816000	27.77436000
69.99999601	0.00000000	22.68701000	26.98080000
70.19999600	0.00000000	27.34375000	23.54823000
70.39999599	0.00000000	32.68946000	18.90379000
70.59999598	0.00000000	36.97096000	13.83489000
70.79999597	0.00000000	39.30241000	8.86441900
70.99999596	0.00000000	39.62844000	5.80093500
71.19999594	0.00000000	36.88484000	5.37647600
71.39999593	0.00000000	31.53297000	7.28346400
71.59999592	0.00000000	25.38755000	11.14050000
71.79999591	0.00000000	19.94340000	15.74188000
71.99999590	0.00000000	16.45546000	20.01722000
72.19999588	0.00000000	15.29281000	23.12992000
72.39999587	0.00000000	16.83071000	24.71087000
72.59999586	0.00000000	20.68774000	24.66781000
72.79999585	0.00000000	25.76279000	22.75467000
72.99999584	0.00000000	31.53297000	19.32210000
73.19999582	0.00000000	36.50959000	15.87721000
73.39999581	0.00000000	38.88410000	13.13976000
73.59999580	0.00000000	38.88410000	11.60187000
73.79999579	0.00000000	36.55265000	11.55881000
73.99999578	0.00000000	31.95128000	12.67224000
74.19999577	0.00000000	26.96850000	14.21014000
74.39999575	0.00000000	22.64394000	15.74188000
74.59999574	0.00000000	19.56816000	16.85531000
74.79999573	0.00000000	18.41166000	16.85531000
74.99999572	0.00000000	19.52510000	15.74188000
75.19999571	0.00000000	22.22564000	14.29626000
75.39999569	0.00000000	25.71358000	13.55807000
75.59999568	0.00000000	29.52756000	14.34547000
75.79999567	0.00000000	32.22810000	16.20325000
75.99999566	0.00000000	33.06471000	18.52854000
76.19999565	0.00000000	32.73252000	20.47859000
76.39999563	0.00000000	31.57603000	22.01649000
76.59999562	0.00000000	30.03814000	22.71161000
76.79999561	0.00000000	28.50024000	21.50590000
76.99999560	0.00000000	27.34375000	18.43627000
77.19999559	0.00000000	26.91929000	14.21014000
77.39999558	0.00000000	26.91929000	9.98400600
77.59999556	0.00000000	27.25147000	6.91437000
77.79999555	0.00000000	27.62057000	5.75172200
77.99999554	0.00000000	27.20841000	6.95743000
78.19999553	0.00000000	26.50098000	10.40231000
78.39999552	0.00000000	25.71358000	15.41585000
78.59999550	0.00000000	25.33834000	20.43553000
78.79999549	0.00000000	25.33834000	24.71087000
78.99999548	0.00000000	25.80585000	27.35605000
79.19999547	0.00000000	27.34375000	27.35605000
79.39999546	0.00000000	29.61983000	24.71087000
79.59999544	0.00000000	31.52682000	20.47859000
79.79999543	0.00000000	32.73252000	15.83415000
79.99999542	0.00000000	33.06471000	11.55881000
80.19999541	0.00000000	32.27116000	8.44611200
80.39999540	0.00000000	29.94586000	6.90821800
80.59999539	0.00000000	26.91929000	7.28346400
80.79999537	0.00000000	24.22490000	9.60875900
80.99999536	0.00000000	22.68701000	13.04749000
81.19999535	0.00000000	22.64394000	16.90453000
81.39999534	0.00000000	23.80659000	20.01722000
81.59999533	0.00000000	25.76279000	22.05955000
81.79999531	0.00000000	28.45718000	23.59129000
81.99999530	0.00000000	31.15157000	24.33563000
82.19999529	0.00000000	33.06471000	23.54823000
82.39999528	0.00000000	33.85211000	21.64124000
82.59999527	0.00000000	33.06471000	18.94685000
82.79999525	0.00000000	31.15157000	16.20325000
82.99999524	0.00000000	28.50024000	13.83489000
83.19999523	0.00000000	26.22416000	11.51575000
83.39999522	0.00000000	25.38755000	9.98400600
83.59999521	0.00000000	25.29527000	9.56569900
83.79999520	0.00000000	25.38755000	10.02707000
83.99999518	0.00000000	26.13189000	11.97711000
84.19999517	0.00000000	27.66363000	15.40969000
84.39999516	0.00000000	28.78937000	18.89764000
84.59999515	0.00000000	29.57062000	22.01649000
84.79999514	0.00000000	29.57062000	24.33563000
84.99999512	0.00000000	28.87549000	25.08612000
85.19999511	0.00000000	28.54946000	24.29257000
85.39999510	0.00000000	28.87549000	21.54897000
85.59999509	0.00000000	29.61983000	17.36589000
85.79999508	0.00000000	29.99508000	13.09670000
85.99999506	0.00000000	30.03814000	9.60875900
86.19999505	0.00000000	29.99508000	7.28346400
86.39999504	0.00000000	29.57062000	6.95743000
86.59999503	0.00000000	28.45718000	8.86441900
86.79999502	0.00000000	27.29453000	12.72146000
86.99999501	0.00000000	26.50098000	17.32283000
87.19999499	0.00000000	25.76279000	21.59203000
87.39999498	0.00000000	25.80585000	24.71087000
87.59999497	0.00000000	26.91929000	26.19955000
87.79999496	0.00000000	28.45718000	25.39985000
87.99999495	0.00000000	29.99508000	21.96727000
88.19999493	0.00000000	31.15157000	17.36589000
88.39999492	0.00000000	31.57603000	12.72146000
88.59999491	0.00000000	31.57603000	8.90747900
88.79999490	0.00000000	31.15157000	7.37573800
88.99999489	0.00000000	29.99508000	8.53223400
89.19999487	0.00000000	28.50024000	11.97711000
89.39999486	0.00000000	27.34375000	16.99065000
89.59999485	0.00000000	26.91929000	21.92421000
89.79999484	0.00000000	26.87623000	25.44906000
89.99999483	0.00000000	26.91929000	26.56865000
90.19999482	0.00000000	27.34375000	25.44906000
90.39999480	0.00000000	28.45718000	21.92421000
90.59999479	0.00000000	29.57062000	16.99065000
90.79999478	0.00000000	29.99508000	11.97711000
90.99999477	0.00000000	30.03814000	8.48917200
91.19999476	0.00000000	29.99508000	6.95743000
91.39999474	0.00000000	29.66289000	7.79404500
91.59999473	0.00000000	29.29380000	11.64493000
91.79999472	0.00000000	29.61983000	17.27362000
91.99999471	0.00000000	29.61983000	22.29331000
92.19999470	0.00000000	29.29380000	25.03691000
92.39999468	0.00000000	29.61983000	25.82431000
92.59999467	0.00000000	29.57062000	24.24335000
92.79999466	0.00000000	28.83243000	20.43553000
92.99999465	0.00000000	28.03888000	15.78494000
93.19999464	0.00000000	26.87623000	11.18356000
93.39999463	0.00000000	25.76279000	7.75098400
93.59999461	0.00000000	25.38755000	7.00049200
93.79999460	0.00000000	25.76279000	8.86441900
93.99999459	0.00000000	26.91929000	12.72146000
94.19999458	0.00000000	28.50024000	17.27362000
94.39999457	0.00000000	30.45644000	21.17372000
94.59999455	0.00000000	32.73868000	23.45595000
94.79999454	0.00000000	34.23351000	23.86811000
94.99999453	0.00000000	34.23351000	21.92421000
95.19999452	0.00000000	32.68946000	18.52854000
95.39999451	0.00000000	29.99508000	14.67150000
95.59999449	0.00000000	26.91929000	11.60187000
95.79999448	0.00000000	24.18184000	10.02707000
95.99999447	0.00000000	22.26870000	10.07013000
96.19999446	0.00000000	21.48130000	11.97711000
96.39999445	0.00000000	22.31176000	15.40969000
96.59999444	0.00000000	24.60015000	18.85458000
96.79999442	0.00000000	28.12500000	21.54897000
96.99999441	0.00000000	31.95128000	22.71161000
97.19999440	0.00000000	35.43922000	21.96727000
97.39999439	0.00000000	37.35236000	20.10950000
97.59999438	0.00000000	37.39542000	17.78420000
97.79999436	0.00000000	35.81446000	15.87721000
97.99999435	0.00000000	32.73868000	14.67150000
98.19999434	0.00000000	28.87549000	14.30241000
98.39999433	0.00000000	25.38755000	14.62844000
98.59999432	0.00000000	22.64394000	15.40969000
98.79999430	0.00000000	21.14911000	16.16018000
98.99999429	0.00000000	21.52436000	16.99065000
99.19999428	0.00000000	23.80659000	17.74114000
99.39999427	0.00000000	26.91929000	18.52854000
99.59999426	0.00000000	30.41338000	18.90379000
99.79999425	0.00000000	33.90133000	18.98991000
99.99999423	0.00000000	36.18971000	19.36516000
100.19999422	0.00000000	37.02018000	20.10950000
100.39999421	0.00000000	36.23277000	20.48474000
100.59999420	0.00000000	34.31963000	20.48474000
100.79999419	0.00000000	31.57603000	20.06029000
100.99999417	0.00000000	28.50024000	18.85458000
101.19999416	0.00000000	25.80585000	16.99065000
101.39999415	0.00000000	24.22490000	15.04675000
101.59999414	0.00000000	23.80659000	13.87795000
101.79999413	0.00000000	24.18184000	13.09670000
101.99999411	0.00000000	25.38755000	13.18282000
102.19999410	0.00000000	27.29453000	14.72072000
102.39999409	0.00000000	29.66289000	17.36589000
102.59999408	0.00000000	31.95128000	20.06029000
102.79999407	0.00000000	33.90133000	22.01649000
102.99999406	0.00000000	34.65182000	23.17298000
103.19999404	0.00000000	34.31963000	23.12992000
103.39999403	0.00000000	33.11393000	21.59203000
103.59999402	0.00000000	31.20078000	18.89764000
103.79999401	0.00000000	28.87549000	15.83415000
103.99999400	0.00000000	26.96850000	13.09055000
104.19999398	0.00000000	25.76279000	11.18356000
104.39999397	0.00000000	25.38755000	10.44537000
104.59999396	0.00000000	25.76279000	11.60187000
104.79999395	0.00000000	26.91929000	14.25320000
104.99999394	0.00000000	28.45718000	17.32283000
105.19999392	0.00000000	30.03814000	20.01722000
105.39999391	0.00000000	31.52682000	21.59203000
105.59999390	0.00000000	32.31422000	21.96727000
105.79999389	0.00000000	31.95128000	21.17372000
105.99999388	0.00000000	31.20078000	18.89764000
106.19999387	0.00000000	29.99508000	16.25246000
106.39999385	0.00000000	28.50024000	14.29626000
106.59999384	0.00000000	27.34375000	13.09670000
106.79999383	0.00000000	26.96850000	12.72146000
106.99999382	0.00000000	27.34375000	13.13976000
107.19999381	0.00000000	28.45718000	14.67150000
107.39999379	0.00000000	29.61983000	16.94759000
107.59999378	0.00000000	30.41338000	18.85458000
107.79999377	0.00000000	31.20078000	20.01722000
107.99999376	0.00000000	31.52682000	20.01722000
108.19999375	0.00000000	31.15157000	18.90379000
108.39999374	0.00000000	29.99508000	17.36589000
108.59999372	0.00000000	28.50024000	15.83415000
108.79999371	0.00000000	27.34375000	14.67150000
108.99999370	0.00000000	26.96850000	14.25320000
109.19999369	0.00000000	27.34375000	14.30241000
109.39999368	0.00000000	28.45718000	15.08981000
109.59999366	0.00000000	29.61983000	16.99065000
109.79999365	0.00000000	30.41338000	18.85458000
109.99999364	0.00000000	31.20078000	20.06029000
110.19999363	0.00000000	31.57603000	20.43553000
110.39999362	0.00000000	31.57603000	20.06029000
110.59999360	0.00000000	31.15157000	18.90379000
110.79999359	0.00000000	30.03814000	17.36589000
110.99999358	0.00000000	28.92470000	15.83415000
111.19999357	0.00000000	28.50024000	14.67150000
111.39999356	0.00000000	28.45718000	14.25320000
111.59999355	0.00000000	28.45718000	14.25320000
111.79999353	0.00000000	28.50024000	14.67150000
111.99999352	0.00000000	28.87549000	15.83415000
112.19999351	0.00000000	29.66289000	17.32283000
112.39999350	0.00000000	30.41338000	18.47933000
112.59999349	0.00000000	31.20078000	18.90379000
112.79999347	0.00000000	31.57603000	18.94685000
112.99999346	0.00000000	31.57603000	18.94685000
113.19999345	0.00000000	31.24384000	18.90379000
113.39999344	0.00000000	30.83169000	18.52854000
113.59999343	0.00000000	30.82554000	17.78420000
113.79999341	0.00000000	30.41338000	17.40895000
113.99999340	0.00000000	30.08120000	17.36589000
114.19999339	0.00000000	30.03814000	17.32283000
114.39999338	0.00000000	30.03814000	16.94759000
114.59999337	0.00000000	30.03814000	16.20325000
114.79999336	0.00000000	30.03814000	15.82800000
114.99999334	0.00000000	30.08120000	15.82800000
115.19999333	0.00000000	30.41338000	16.20325000
115.39999332	0.00000000	30.78248000	16.94759000
115.59999331	0.00000000	30.41338000	17.36589000
115.79999330	0.00000000	30.08120000	17.78420000
115.99999328	0.00000000	30.03814000	18.57160000
116.19999327	0.00000000	30.03814000	19.27903000
116.39999326	0.00000000	30.03814000	19.73425000
116.59999325	0.00000000	30.03814000	19.69734000
116.79999324	0.00000000	30.03814000	19.73425000
116.99999322	0.00000000	30.03814000	19.27903000
117.19999321	0.00000000	30.03814000	18.52854000
117.39999320	0.00000000	30.08120000	17.36589000
117.59999319	0.00000000	30.45644000	16.25246000
117.79999318	0.00000000	31.20078000	15.82800000
117.99999317	0.00000000	31.57603000	15.78494000
118.19999315	0.00000000	31.61909000	15.82800000
118.39999314	0.00000000	31.57603000	16.20325000
118.59999313	0.00000000	31.20078000	16.99065000
118.79999312	0.00000000	30.41338000	17.74114000
118.99999311	0.00000000	29.61983000	18.52854000
119.19999309	0.00000000	28.50024000	18.90379000
119.39999308	0.00000000	27.76206000	18.94685000
119.59999307	0.00000000	28.12500000	18.90379000
119.79999306	0.00000000	28.83243000	18.52854000
119.99999305	0.00000000	29.66289000	17.78420000
120.19999303	0.00000000	30.45644000	17.40895000
120.39999302	0.00000000	31.61909000	17.32283000
120.59999301	0.00000000	32.73252000	16.94759000
120.79999300	0.00000000	33.10777000	16.20325000
120.99999299	0.00000000	32.78174000	15.82800000
121.19999298	0.00000000	31.99434000	15.78494000
121.39999296	0.00000000	31.20078000	15.78494000
121.59999295	0.00000000	29.99508000	15.82800000
121.79999294	0.00000000	28.50024000	16.20325000
121.99999293	0.00000000	27.38681000	16.94759000
122.19999292	0.00000000	27.34375000	17.32283000
122.39999290	0.00000000	28.08194000	17.40895000
122.59999289	0.00000000	28.87549000	17.78420000
122.79999288	0.00000000	30.03814000	18.52854000
122.99999287	0.00000000	31.20078000	18.85458000
123.19999286	0.00000000	31.99434000	18.52854000
123.39999284	0.00000000	32.78174000	17.78420000
123.59999283	0.00000000	33.10777000	17.36589000
123.79999282	0.00000000	32.73252000	16.94759000
123.99999281	0.00000000	31.66215000	16.20325000
124.19999280	0.00000000	30.87475000	15.82800000
124.39999279	0.00000000	30.78248000	15.78494000
124.59999277	0.00000000	29.94586000	15.82800000
124.79999276	0.00000000	28.54946000	16.16018000
124.99999275	0.00000000	27.76206000	16.57234000
125.19999274	0.00000000	28.08194000	16.57849000
125.39999273	0.00000000	28.45718000	17.03371000
125.59999271	0.00000000	28.87549000	17.74114000
125.79999270	0.00000000	29.66289000	18.52854000
125.99999269	0.00000000	30.45644000	18.90379000
126.19999268	0.00000000	31.61909000	18.90379000
126.39999267	0.00000000	32.73252000	18.52854000
126.59999265	0.00000000	33.10777000	17.78420000
126.79999264	0.00000000	32.78174000	17.40895000
126.99999263	0.00000000	31.99434000	17.36589000
127.19999262	0.00000000	31.20078000	17.36589000
127.39999261	0.00000000	30.03814000	17.32283000
127.59999260	0.00000000	28.92470000	16.99065000
127.79999258	0.00000000	28.50024000	16.62155000
127.99999257	0.00000000	28.50024000	17.03371000
128.19999256	0.00000000	28.87549000	17.74114000
128.39999255	0.00000000	29.66289000	18.52854000
128.59999254	0.00000000	30.45644000	18.90379000
128.79999252	0.00000000	31.61909000	18.94685000
128.99999251	0.00000000	32.73252000	18.94685000
129.19999250	0.00000000	33.10777000	18.90379000
129.39999249	0.00000000	32.78174000	18.52854000
129.59999248	0.00000000	31.99434000	17.78420000
129.79999246	0.00000000	31.24384000	17.40895000
129.99999245	0.00000000	30.41338000	17.36589000
130.19999244	0.00000000	29.66289000	17.36589000
130.39999243	0.00000000	28.92470000	17.40895000
130.59999242	0.00000000	28.96776000	17.78420000
130.79999241	0.00000000	30.03814000	18.52854000
130.99999239	0.00000000	31.20078000	18.90379000
131.19999238	0.00000000	31.99434000	18.94685000
131.39999237	0.00000000	32.78174000	18.90379000
131.59999236	0.00000000	33.10777000	18.52854000
131.79999235	0.00000000	32.78174000	17.78420000
131.99999233	0.00000000	32.03740000	17.36589000
132.19999232	0.00000000	31.61909000	16.99065000
132.39999231	0.00000000	31.20078000	16.62155000
132.59999230	0.00000000	30.45644000	16.99065000
132.79999229	0.00000000	30.08120000	17.36589000
132.99999227	0.00000000	30.08120000	17.78420000
133.19999226	0.00000000	30.45644000	18.52854000
133.39999225	0.00000000	31.20078000	18.94685000
133.59999224	0.00000000	31.57603000	19.32210000
133.79999223	0.00000000	31.61909000	19.69119000
133.99999222	0.00000000	31.61909000	19.27903000
134.19999220	0.00000000	31.61909000	18.57160000
134.39999219	0.00000000	31.61909000	17.74114000
134.59999218	0.00000000	31.61909000	16.99065000
134.79999217	0.00000000	31.66215000	16.20325000
134.99999216	0.00000000	31.99434000	15.82800000
135.19999214	0.00000000	32.36343000	15.82800000
135.39999213	0.00000000	31.99434000	16.20325000
135.59999212	0.00000000	31.61909000	16.94759000
135.79999211	0.00000000	31.24384000	17.36589000
135.99999210	0.00000000	30.83169000	17.78420000
136.19999208	0.00000000	30.82554000	18.52854000
136.39999207	0.00000000	30.41338000	18.90379000
136.59999206	0.00000000	30.08120000	18.94685000
136.79999205	0.00000000	30.03814000	18.90379000
136.99999204	0.00000000	30.08120000	18.52854000
137.19999203	0.00000000	30.45644000	17.74114000
137.39999201	0.00000000	31.20078000	16.99065000
137.59999200	0.00000000	31.61909000	16.20325000
137.79999199	0.00000000	31.99434000	15.82800000
137.99999198	0.00000000	32.36343000	15.78494000
138.19999197	0.00000000	31.99434000	15.78494000
138.39999195	0.00000000	31.61909000	15.82800000
138.59999194	0.00000000	31.20078000	16.20325000
138.79999193	0.00000000	30.45644000	16.99065000
138.99999192	0.00000000	30.08120000	17.74114000
139.19999191	0.00000000	30.03814000	18.52854000
139.39999189	0.00000000	30.08120000	18.90379000
139.59999188	0.00000000	30.45644000	18.94685000
139.79999187	0.00000000	31.20078000	18.94685000
139.99999186	0.00000000	31.57603000	18.90379000
140.19999185	0.00000000	31.61909000	18.52854000
140.39999184	0.00000000	31.61909000	17.74114000
140.59999182	0.00000000	31.61909000	16.99065000
140.79999181	0.00000000	31.61909000	16.20325000
140.99999180	0.00000000	31.57603000	15.82800000
141.19999179	0.00000000	31.24384000	15.82800000
141.39999178	0.00000000	30.83169000	16.20325000
141.59999176	0.00000000	30.86860000	16.99065000
141.79999175	0.00000000	30.83169000	17.74114000
141.99999174	0.00000000	31.24384000	18.57160000
142.19999173	0.00000000	31.57603000	19.27903000
142.39999172	0.00000000	31.61909000	19.69119000
142.59999170	0.00000000	31.61909000	19.32210000
142.79999169	0.00000000	31.61909000	18.98991000
142.99999168	0.00000000	31.61909000	18.90379000
143.19999167	0.00000000	31.61909000	18.52854000
143.39999166	0.00000000	31.61909000	17.74114000
143.59999165	0.00000000	31.61909000	17.03371000
143.79999163	0.00000000	31.61909000	16.62155000
143.99999162	0.00000000	31.61909000	17.03371000
144.19999161	0.00000000	31.61909000	17.74114000
144.39999160	0.00000000	31.66215000	18.52854000
144.59999159	0.00000000	31.99434000	18.90379000
144.79999157	0.00000000	32.36343000	18.94685000
144.99999156	0.00000000	31.99434000	18.94685000
145.19999155	0.00000000	31.66215000	18.94685000
145.39999154	0.00000000	31.61909000	18.94685000
145.59999153	0.00000000	31.61909000	18.90379000
145.79999151	0.00000000	31.61909000	18.52854000
145.99999150	0.00000000	31.61909000	17.78420000
146.19999149	0.00000000	31.61909000	17.40895000
146.39999148	0.00000000	31.61909000	17.36589000
146.59999147	0.00000000	31.66215000	17.36589000
146.79999146	0.00000000	31.99434000	17.40895000
146.99999144	0.00000000	32.36343000	17.78420000
147.19999143	0.00000000	32.03740000	18.52854000
147.39999142	0.00000000	32.03740000	18.90379000
147.59999141	0.00000000	32.36343000	18.94685000
147.79999140	0.00000000	31.99434000	18.94685000
147.99999138	0.00000000	31.66215000	18.94685000
148.19999137	0.00000000	31.61909000	18.94685000
148.39999136	0.00000000	31.61909000	18.90379000
148.59999135	0.00000000	31.61909000	18.52854000
148.79999134	0.00000000	31.61909000	17.78420000
148.99999132	0.00000000	31.61909000	17.40895000
149.19999131	0.00000000	31.66215000	17.36589000
149.39999130	0.00000000	31.99434000	17.36589000
149.59999129	0.00000000	32.40649000	17.40895000
149.79999128	0.00000000	32.41265000	17.78420000
149.99999127	0.00000000	32.82480000	18.52854000
150.19999125	0.00000000	33.15699000	18.90379000
150.39999124	0.00000000	33.15699000	18.94685000
150.59999123	0.00000000	32.78174000	18.94685000
150.79999122	0.00000000	32.03740000	18.94685000
150.99999121	0.00000000	31.66215000	18.94685000
151.19999119	0.00000000	31.61909000	18.90379000
151.39999118	0.00000000	31.61909000	18.52854000
151.59999117	0.00000000	31.61909000	17.78420000
151.79999116	0.00000000	31.61909000	17.40895000
151.99999115	0.00000000	31.61909000	17.36589000
152.19999113	0.00000000	31.61909000	17.36589000
152.39999112	0.00000000	31.66215000	17.36589000
152.59999111	0.00000000	32.03740000	17.36589000
152.79999110	0.00000000	32.78174000	17.36589000
152.99999109	0.00000000	33.15699000	17.36589000
153.19999108	0.00000000	33.15699000	17.40895000
153.39999106	0.00000000	32.78174000	17.74114000
153.59999105	0.00000000	32.03740000	18.15330000
153.79999104	0.00000000	31.61909000	18.15945000
153.99999103	0.00000000	31.20078000	18.52854000
154.19999102	0.00000000	30.50566000	18.47933000
154.39999100	0.00000000	30.50566000	17.78420000
154.59999099	0.00000000	31.20078000	17.40895000
154.79999098	0.00000000	31.57603000	17.36589000
154.99999097	0.00000000	31.61909000	17.36589000
155.19999096	0.00000000	31.66215000	17.36589000
155.39999094	0.00000000	32.03740000	17.36589000
155.59999093	0.00000000	32.78174000	17.36589000
155.79999092	0.00000000	33.10777000	17.36589000
155.99999091	0.00000000	32.82480000	17.40895000
156.19999090	0.00000000	32.41265000	17.74114000
156.39999089	0.00000000	32.36343000	18.15330000
156.59999087	0.00000000	31.61909000	18.15945000
156.79999086	0.00000000	30.92396000	18.57160000
156.99999085	0.00000000	31.24384000	18.90379000
157.19999084	0.00000000	31.57603000	18.94685000
157.39999083	0.00000000	31.61909000	18.94685000
157.59999081	0.00000000	31.61909000	18.85458000
157.79999080	0.00000000	31.66215000	18.19636000
157.99999079	0.00000000	32.03740000	17.42126000
158.19999078	0.00000000	32.78174000	17.77805000
158.39999077	0.00000000	33.15699000	17.69808000
158.59999075	0.00000000	33.20005000	17.40895000
158.79999074	0.00000000	33.20005000	17.40895000
158.99999073	0.00000000	33.20005000	17.78420000
159.19999072	0.00000000	33.20005000	18.52854000
159.39999071	0.00000000	33.15699000	18.90379000
159.59999070	0.00000000	32.78174000	18.98991000
159.79999068	0.00000000	32.03740000	19.32210000
159.99999067	0.00000000	31.66215000	19.73425000
160.19999066	0.00000000	31.61909000	19.69734000
160.39999065	0.00000000	31.61909000	19.73425000
160.59999064	0.00000000	31.61909000	19.32210000
160.79999062	0.00000000	31.66215000	18.94685000
160.99999061	0.00000000	32.03740000	18.52854000
161.19999060	0.00000000	32.78174000	17.83341000
161.39999059	0.00000000	33.15699000	17.83341000
161.59999058	0.00000000	33.20005000	18.52854000
161.79999056	0.00000000	33.20005000	18.90379000
161.99999055	0.00000000	33.20005000	18.94685000
162.19999054	0.00000000	33.20005000	18.94685000
162.39999053	0.00000000	33.20005000	18.94685000
162.59999052	0.00000000	33.20005000	18.94685000
162.79999051	0.00000000	33.20005000	18.94685000
162.99999049	0.00000000	33.15699000	18.94685000
163.19999048	0.00000000	32.78174000	18.94685000
163.39999047	0.00000000	32.03740000	18.94685000
163.59999046	0.00000000	31.66215000	18.94685000
163.79999045	0.00000000	31.61909000	18.94685000
163.99999043	0.00000000	31.66215000	18.94685000
164.19999042	0.00000000	32.03740000	18.94685000
164.39999041	0.00000000	32.78174000	18.90379000
164.59999040	0.00000000	33.15699000	18.57160000
164.79999039	0.00000000	33.20005000	18.15945000
164.99999037	0.00000000	33.20005000	18.19636000
165.19999036	0.00000000	33.20005000	18.11639000
165.39999035	0.00000000	33.20005000	18.19636000
165.59999034	0.00000000	33.15699000	18.15945000
165.79999033	0.00000000	32.78174000	18.57160000
165.99999032	0.00000000	32.03740000	18.90379000
166.19999030	0.00000000	31.66215000	18.94685000
166.39999029	0.00000000	31.61909000	18.90379000
166.59999028	0.00000000	31.61909000	18.57160000
166.79999027	0.00000000	31.61909000	18.15945000
166.99999026	0.00000000	31.66215000	18.15330000
167.19999024	0.00000000	32.03740000	17.74114000
167.39999023	0.00000000	32.78174000	17.40895000
167.59999022	0.00000000	33.15699000	17.36589000
167.79999021	0.00000000	33.20005000	17.36589000
167.99999020	0.00000000	33.20005000	17.36589000
168.19999018	0.00000000	33.20005000	17.36589000
168.39999017	0.00000000	33.20005000	17.36589000
168.59999016	0.00000000	33.20005000	17.36589000
168.79999015	0.00000000	33.20005000	17.36589000
168.99999014	0.00000000	33.15699000	17.36589000
169.19999013	0.00000000	32.78174000	17.36589000
169.39999011	0.00000000	32.08661000	17.36589000
169.59999010	0.00000000	32.03740000	17.40895000
169.79999009	0.00000000	32.40649000	17.74114000
169.99999008	0.00000000	32.41265000	18.15330000
170.19999007	0.00000000	32.82480000	18.11639000
170.39999005	0.00000000	33.15699000	18.15330000
170.59999004	0.00000000	33.20005000	17.74114000
170.79999003	0.00000000	33.20005000	17.45817000
170.99999002	0.00000000	33.20005000	17.74114000
171.19999001	0.00000000	33.20005000	18.11024000
171.39998999	0.00000000	33.20005000	17.74114000
171.59998998	0.00000000	33.20005000	17.40895000
171.79998997	0.00000000	33.20005000	17.40895000
171.99998996	0.00000000	33.20005000	17.78420000
172.19998995	0.00000000	33.20005000	18.52854000
172.39998994	0.00000000	33.20005000	18.90379000
172.59998992	0.00000000	33.20005000	18.94685000
172.79998991	0.00000000	33.20005000	18.94685000
172.99998990	0.00000000	33.20005000	18.94685000
173.19998989	0.00000000	33.20005000	18.94685000
173.39998988	0.00000000	33.20005000	18.94685000
173.59998986	0.00000000	33.20005000	18.94685000
173.79998985	0.00000000	33.20005000	18.94685000
173.99998984	0.00000000	33.20005000	18.94685000
174.19998983	0.00000000	33.24311000	18.94685000
174.39998982	0.00000000	33.57529000	18.90379000
174.59998980	0.00000000	33.94439000	18.57160000
174.79998979	0.00000000	33.57529000	18.20251000
174.99998978	0.00000000	33.24311000	18.57160000
175.19998977	0.00000000	33.20005000	18.90379000
175.39998976	0.00000000	33.20005000	18.94685000
175.59998975	0.00000000	33.20005000	18.94685000
175.79998973	0.00000000	33.20005000	18.94685000
175.99998972	0.00000000	33.20005000	18.94685000
176.19998971	0.00000000	33.20005000	18.94685000
176.39998970	0.00000000	33.20005000	18.94685000
176.59998969	0.00000000	33.20005000	18.94685000
176.79998967	0.00000000	33.24311000	18.94685000
176.99998966	0.00000000	33.57529000	18.90379000
177.19998965	0.00000000	33.98745000	18.57160000
177.39998964	0.00000000	33.95054000	18.25172000
177.59998963	0.00000000	33.98745000	18.94685000
177.79998961	0.00000000	33.57529000	19.64198000
177.99998960	0.00000000	33.24311000	19.32210000
178.19998959	0.00000000	33.20005000	18.98991000
178.39998958	0.00000000	33.20005000	18.94685000
178.59998957	0.00000000	33.20005000	18.94685000
178.79998956	0.00000000	33.20005000	18.94685000
178.99998954	0.00000000	33.24311000	18.98991000
179.19998953	0.00000000	33.57529000	19.32210000
179.39998952	0.00000000	33.94439000	19.69119000
179.59998951	0.00000000	33.57529000	19.32210000
179.79998950	0.00000000	33.24311000	18.98991000
179.99998948	0.00000000	33.24311000	18.94685000
180.19998947	0.00000000	33.57529000	18.94685000
180.39998946	0.00000000	33.94439000	18.94685000
180.59998945	0.00000000	33.57529000	18.94685000
180.79998944	0.00000000	33.24311000	18.94685000
180.99998942	0.00000000	33.20005000	18.94685000
181.19998941	0.00000000	33.20005000	18.94685000
181.39998940	0.00000000	33.20005000	18.94685000
181.59998939	0.00000000	33.20005000	18.94685000
181.79998938	0.00000000	33.20005000	18.94685000
181.99998937	0.00000000	33.20005000	18.94685000
182.19998935	0.00000000	33.20005000	18.94685000
182.39998934	0.00000000	33.20005000	18.94685000
182.59998933	0.00000000	33.24311000	18.94685000
182.79998932	0.00000000	33.57529000	18.90379000
182.99998931	0.00000000	33.94439000	18.52854000
183.19998929	0.00000000	33.57529000	17.78420000
183.39998928	0.00000000	33.24311000	17.40895000
183.59998927	0.00000000	33.20005000	17.40895000
183.79998926	0.00000000	33.20005000	17.78420000
183.99998925	0.00000000	33.20005000	18.52854000
184.19998923	0.00000000	33.20005000	18.90379000
184.39998922	0.00000000	33.20005000	18.94685000
184.59998921	0.00000000	33.20005000	18.94685000
184.79998920	0.00000000	33.20005000	18.94685000
184.99998919	0.00000000	33.20005000	18.94685000
185.19998918	0.00000000	33.20005000	18.94685000
185.39998916	0.00000000	33.24311000	18.94685000
185.59998915	0.00000000	33.61835000	18.90379000
185.79998914	0.00000000	34.36884000	18.52854000
185.99998913	0.00000000	34.69488000	17.78420000
186.19998912	0.00000000	34.36884000	17.40895000
186.39998910	0.00000000	33.61835000	17.40895000
186.59998909	0.00000000	33.24311000	17.78420000
186.79998908	0.00000000	33.20005000	18.52854000
186.99998907	0.00000000	33.20005000	18.90379000
187.19998906	0.00000000	33.20005000	18.94685000
187.39998904	0.00000000	33.20005000	18.94685000
187.59998903	0.00000000	33.20005000	18.94685000
187.79998902	0.00000000	33.20005000	18.94685000
187.99998901	0.00000000	33.24311000	18.94685000
188.19998900	0.00000000	33.61835000	18.94685000
188.39998899	0.00000000	34.31963000	18.94685000
188.59998897	0.00000000	34.36884000	18.94685000
188.79998896	0.00000000	34.04282000	18.94685000
188.99998895	0.00000000	34.41191000	18.94685000
189.19998894	0.00000000	34.74409000	18.94685000
189.39998893	0.00000000	34.78716000	18.94685000
189.59998891	0.00000000	34.74409000	18.94685000
189.79998890	0.00000000	34.36884000	18.94685000
189.99998889	0.00000000	33.61835000	18.94685000
190.19998888	0.00000000	33.29232000	18.94685000
190.39998887	0.00000000	33.57529000	18.98991000
190.59998885	0.00000000	33.98745000	19.32210000
190.79998884	0.00000000	33.99975000	19.77731000
190.99998883	0.00000000	34.41191000	20.07259000
191.19998882	0.00000000	34.74409000	20.47244000
191.39998881	0.00000000	34.78716000	19.69734000
191.59998880	0.00000000	34.78716000	19.03912000
191.79998878	0.00000000	34.78716000	18.98991000
191.99998877	0.00000000	34.78716000	19.36516000
192.19998876	0.00000000	34.78716000	20.06029000
192.39998875	0.00000000	34.78716000	20.06029000
192.59998874	0.00000000	34.78716000	19.36516000
192.79998872	0.00000000	34.78716000	18.98991000
192.99998871	0.00000000	34.74409000	18.94685000
193.19998870	0.00000000	34.41191000	18.94685000
193.39998869	0.00000000	34.04282000	18.98991000
193.59998868	0.00000000	34.41191000	19.36516000
193.79998866	0.00000000	34.74409000	20.10950000
193.99998865	0.00000000	34.78716000	20.48474000
194.19998864	0.00000000	34.78716000	20.52780000
194.39998863	0.00000000	34.78716000	20.48474000
194.59998862	0.00000000	34.78716000	20.10950000
194.79998861	0.00000000	34.78716000	19.36516000
194.99998859	0.00000000	34.78716000	18.98991000
195.19998858	0.00000000	34.78716000	18.94685000
195.39998857	0.00000000	34.78716000	18.94685000
195.59998856	0.00000000	34.78716000	18.94685000
195.79998855	0.00000000	34.78716000	18.94685000
195.99998853	0.00000000	34.78716000	18.94685000
