Time	Channel A	Channel B	Channel C
(us)	(V)	(mV)	(mV)

-4.49999956	0.00000000	-9.95324800	-7.93553100
-4.29999957	0.00000000	-9.90403500	-8.26771600
-4.09999958	0.00000000	-10.27313000	-8.63681000
-3.89999959	0.00000000	-10.23622000	-8.26771600
-3.69999960	0.00000000	-10.27313000	-7.93553100
-3.49999962	0.00000000	-9.90403500	-7.89247000
-3.29999963	0.00000000	-9.95324800	-7.89247000
-3.09999964	0.00000000	-10.64838000	-7.89247000
-2.89999965	0.00000000	-10.97441000	-7.89247000
-2.69999966	0.00000000	-10.69144000	-7.89247000
-2.49999968	0.00000000	-10.32234000	-7.89247000
-2.29999969	0.00000000	-10.64838000	-7.89247000
-2.09999970	0.00000000	-10.64838000	-7.89247000
-1.89999971	0.00000000	-10.27928000	-7.89247000
-1.69999972	0.00000000	-10.31619000	-7.89247000
-1.49999973	0.00000000	-10.23622000	-7.89247000
-1.29999975	0.00000000	-10.31619000	-7.89247000
-1.09999976	0.00000000	-10.27928000	-7.89247000
-0.89999977	0.00000000	-10.69144000	-7.89247000
-0.69999978	0.00000000	-10.97441000	-7.89247000
-0.49999979	0.00000000	-10.69144000	-7.89247000
-0.29999981	0.31803640	-10.27928000	-7.89247000
-0.09999982	0.63668800	-10.31619000	-7.89247000
0.10000017	0.95533960	-10.27928000	-7.89247000
0.30000016	0.95533960	-10.69144000	-7.89247000
0.50000015	0.79601380	-11.02362000	-7.89247000
0.70000013	0.15871060	-11.06668000	-7.89247000
0.90000012	-0.63668800	-11.06668000	-7.89247000
1.10000011	-1.59264300	-11.02362000	-7.89247000
1.30000010	-2.38927200	-10.69144000	-7.89247000
1.50000009	-2.86724900	-10.32234000	-7.89247000
1.70000008	-2.38927200	-10.64838000	-7.89247000
1.90000006	-1.11466500	-10.64838000	-7.89247000
2.10000005	0.79601380	-10.32234000	-7.89247000
2.30000004	2.86724900	-10.69144000	-7.93553100
2.50000003	4.61921700	-11.02362000	-8.31077700
2.70000002	5.25652100	-11.06668000	-9.05511800
2.90000000	4.61921700	-11.06668000	-9.43036400
3.09999999	2.70792300	-11.06668000	-9.47342500
3.29999998	-0.47736220	-11.06668000	-9.47342500
3.49999997	-3.82258900	-11.06668000	-9.43036400
3.69999996	-6.69045300	-11.02362000	-9.05511800
3.89999994	-7.96444400	-10.64838000	-8.31077700
4.09999993	-7.32714100	-9.90403500	-7.93553100
4.29999992	-4.77854300	-9.52879000	-7.89247000
4.49999991	-0.63668800	-9.48572700	-7.89247000
4.69999990	3.82258900	-9.52879000	-7.89247000
4.89999989	7.48646600	-9.90403500	-7.93553100
5.09999987	9.39837600	-10.64838000	-8.31077700
5.29999986	8.92039900	-11.02362000	-9.05511800
5.49999985	6.21247500	-11.06668000	-9.43036400
5.69999984	1.91129400	-11.06668000	-9.47342500
5.89999983	-2.86724900	-11.06668000	-9.47342500
6.09999981	-7.00848900	-11.06668000	-9.43036400
6.29999980	-9.23905000	-11.06668000	-9.05511800
6.49999979	-9.23905000	-11.02362000	-8.31077700
6.69999978	-6.84916400	-10.64838000	-7.93553100
6.89999977	-2.86724900	-9.90403500	-7.89247000
7.09999975	1.43331700	-9.52879000	-7.89247000
7.29999974	5.09719500	-9.52879000	-7.93553100
7.49999973	7.32714100	-9.90403500	-8.31077700
7.69999972	7.64579200	-10.64838000	-9.05511800
7.89999971	6.05315000	-11.02362000	-9.43036400
8.09999970	3.18590100	-11.06668000	-9.43036400
8.29999968	-0.15871060	-11.06668000	-9.09817800
8.49999967	-3.02657500	-11.06668000	-8.68602300
8.69999966	-4.77854300	-11.06668000	-8.72293300
8.89999965	-5.09719500	-11.06668000	-8.64296200
9.09999964	-4.30056600	-11.06668000	-8.67987200
9.29999962	-2.54859700	-11.02362000	-8.26771600
9.49999961	-0.47736220	-10.64838000	-7.93553100
9.69999960	1.27399100	-9.95324800	-7.89247000
9.89999959	2.22994600	-9.95324800	-7.89247000
10.09999958	2.54859700	-10.64838000	-7.89247000
10.29999956	2.07062000	-11.02362000	-7.89247000
10.49999955	1.27399100	-11.06668000	-7.89247000
10.69999954	0.47736220	-11.02362000	-7.93553100
10.89999953	-0.31803640	-10.69144000	-8.26771600
11.09999952	-0.79601380	-10.32234000	-8.67987200
11.29999951	-0.95533960	-10.64838000	-8.68602300
11.49999949	-0.95533960	-10.59916000	-9.05511800
11.69999948	-0.63668800	-9.95324800	-9.00590400
11.89999947	-0.47736220	-9.95324800	-8.31077700
12.09999946	-0.15871060	-10.64838000	-7.93553100
12.29999945	-0.15871060	-11.02362000	-7.89247000
12.49999943	0.00000000	-11.06668000	-7.89247000
12.69999942	0.00000000	-11.06668000	-7.93553100
12.89999941	0.00000000	-11.06668000	-8.26771600
13.09999940	0.00000000	-11.06668000	-8.63681000
13.29999939	0.00000000	-11.06668000	-8.26771600
13.49999937	0.00000000	-11.02362000	-7.98474400
13.69999936	0.00000000	-10.69144000	-8.26771600
13.89999935	-0.15871060	-10.27928000	-8.63681000
14.09999934	-0.15871060	-10.31619000	-8.26771600
14.29999933	-0.15871060	-10.27928000	-7.93553100
14.49999932	-0.15871060	-10.73450000	-7.93553100
14.69999930	0.00000000	-11.39887000	-8.26771600
14.89999929	0.00000000	-11.81102000	-8.63681000
15.09999928	0.00000000	-11.44193000	-8.26771600
15.29999927	0.00000000	-11.10974000	-7.93553100
15.49999926	0.00000000	-11.06668000	-7.89247000
15.69999924	0.00000000	-11.06668000	-7.89247000
15.89999923	0.00000000	-11.06668000	-7.89247000
16.09999922	0.00000000	-11.06668000	-7.93553100
16.29999921	-0.15871060	-11.06668000	-8.26771600
16.49999920	-0.15871060	-11.02362000	-8.67987200
16.69999919	-0.15871060	-10.64838000	-8.64296200
16.89999917	0.00000000	-9.90403500	-8.67987200
17.09999916	0.00000000	-9.48572700	-8.26771600
17.29999915	0.00000000	-9.11048200	-7.98474400
17.49999914	0.00000000	-8.74138700	-8.26771600
17.69999913	0.00000000	-9.11048200	-8.63681000
17.89999911	0.00000000	-9.48572700	-8.26771600
18.09999910	0.00000000	-9.95324800	-7.93553100
18.29999909	0.00000000	-11.10974000	-7.89247000
18.49999908	0.00000000	-12.64764000	-7.89247000
18.69999907	-0.15871060	-14.18553000	-7.89247000
18.89999905	-0.15871060	-15.29897000	-7.89247000
19.09999904	-0.15871060	-15.25591000	-7.93553100
19.29999903	0.00000000	-13.71801000	-8.26771600
19.49999902	0.00000000	-10.97441000	-8.63681000
19.69999901	0.00000000	-7.48646600	-8.26771600
19.89999900	0.00000000	-3.62942900	-7.93553100
20.09999898	0.00000000	-0.55364170	-7.93553100
20.29999897	0.00000000	0.93503930	-8.26771600
20.49999896	0.00000000	0.09842519	-8.67987200
20.69999895	0.00000000	-3.80782500	-8.64296200
20.89999894	0.00000000	-9.99630800	-8.67987200
21.09999892	0.00000000	-17.39050000	-8.26771600
21.29999891	0.00000000	-24.69857000	-7.98474400
21.49999890	0.00000000	-30.04429000	-8.31077700
21.69999889	0.00000000	-31.48991000	-9.00590400
21.89999888	0.00000000	-27.95275000	-9.05511800
22.09999886	0.00000000	-19.39591000	-8.72908400
22.29999885	0.00000000	-7.43725300	-9.05511800
22.49999884	0.00000000	5.30265700	-9.05511800
22.69999883	0.00000000	15.68036000	-8.68602300
22.89999882	0.00000000	21.03223000	-8.67987200
23.09999881	0.00000000	19.40822000	-8.22465500
23.29999879	0.00000000	10.47613000	-7.51722400
23.49999878	0.00000000	-4.26919300	-6.72982200
23.69999877	0.00000000	-22.04724000	-6.35457700
23.89999876	0.00000000	-38.98253000	-6.31151500
24.09999875	0.00000000	-50.47367000	-6.35457700
24.29999873	0.00000000	-53.13115000	-6.77903500
24.49999872	0.00000000	-45.73080000	-7.93553100
24.69999871	0.00000000	-29.49065000	-9.47342500
24.89999870	0.00000000	-7.86171200	-11.04823000
25.09999869	0.00000000	14.14862000	-12.58612000
25.29999867	0.00000000	31.50221000	-13.69956000
25.49999866	0.00000000	39.97293000	-13.65650000
25.69999865	0.00000000	37.18011000	-12.07554000
25.89999864	0.00000000	23.26525000	-9.00590400
26.09999863	0.00000000	0.89197830	-5.11195900
26.29999862	0.00000000	-24.18799000	-1.24877000
26.49999860	0.00000000	-46.24139000	2.18380900
26.69999859	0.00000000	-60.52534000	3.67249000
26.89999858	0.00000000	-63.60112000	2.51599400
27.09999857	0.00000000	-54.71210000	-1.06422200
27.29999856	0.00000000	-35.77140000	-7.28346400
27.49999854	0.00000000	-11.06668000	-15.36663000
27.69999853	0.00000000	13.59498000	-23.03765000
27.89999852	-0.15871060	32.15428000	-28.42643000
28.09999851	0.00000000	40.34818000	-29.91511000
28.29999850	0.00000000	37.31545000	-26.80241000
28.49999848	0.00000000	24.15108000	-19.42052000
28.69999847	0.00000000	3.67864200	-8.91978400
28.89999846	0.00000000	-19.44513000	3.02042300
29.09999845	0.00000000	-39.54232000	13.79798000
29.29999844	0.00000000	-52.01156000	20.30635000
29.49999843	0.00000000	-55.17347000	21.05069000
29.69999841	0.00000000	-48.98499000	15.15133000
29.89999840	0.00000000	-34.70103000	3.21112200
30.09999839	0.00000000	-15.80955000	-12.25394000
30.29999838	0.00000000	3.12500000	-27.68824000
30.49999837	0.00000000	17.87033000	-39.99754000
30.69999835	0.00000000	25.63976000	-45.76156000
30.89999834	0.00000000	25.30758000	-43.44242000
31.09999833	0.00000000	17.26132000	-33.77214000
31.29999832	0.00000000	4.18922200	-18.30093000
31.49999831	0.00000000	-10.55610000	-0.55364170
31.69999829	0.00000000	-24.14493000	15.70497000
31.89999828	0.00000000	-34.19045000	27.27608000
32.09999827	0.00000000	-38.47195000	31.50221000
32.29999826	0.00000000	-36.23893000	27.23302000
32.49999825	0.00000000	-28.93085000	15.28666000
32.69999824	-0.15871060	-18.46087000	-1.71013800
32.89999822	0.00000000	-6.87746000	-19.88189000
33.09999821	0.00000000	3.16806100	-35.72219000
33.29999820	0.00000000	9.35654400	-45.76156000
33.49999819	0.00000000	10.56225000	-47.71161000
33.69999818	0.00000000	6.74827700	-41.57849000
33.89999816	0.00000000	-0.55364170	-28.80167000
34.09999815	0.00000000	-9.44266700	-12.21087000
34.29999814	0.00000000	-17.90723000	4.78592500
34.49999813	0.00000000	-23.67741000	18.31324000
34.69999812	0.00000000	-25.30143000	25.69513000
34.89999810	0.00000000	-23.02534000	25.69513000
35.09999809	0.00000000	-18.04257000	18.35630000
35.29999808	0.00000000	-11.48499000	5.29650500
35.49999807	0.00000000	-5.33956700	-10.12549000
35.69999806	0.00000000	-1.10728300	-24.02190000
35.89999805	0.00000000	0.04921259	-33.67987000
36.09999803	0.00000000	-2.22687000	-36.79257000
36.29999802	0.00000000	-6.79133800	-32.98474000
36.49999801	0.00000000	-12.18012000	-23.78199000
36.69999800	0.00000000	-16.79380000	-11.47269000
36.89999799	0.00000000	-19.53125000	0.42445860
37.09999797	0.00000000	-19.90650000	8.92593500
37.29999796	0.00000000	-17.99951000	12.03863000
37.49999795	0.00000000	-14.13632000	9.38730200
37.69999794	0.00000000	-9.52879000	2.09153500
37.89999793	0.00000000	-5.25344500	-7.84940900
38.09999791	0.00000000	-2.17765700	-17.42126000
38.29999790	0.00000000	-1.06422200	-23.55438000
38.49999789	0.00000000	-2.55290300	-24.76009000
38.69999788	0.00000000	-5.99163300	-20.90305000
38.89999787	0.00000000	-9.86097400	-13.23819000
39.09999786	0.00000000	-13.76107000	-3.70939900
39.29999784	0.00000000	-16.87992000	4.27534400
39.49999783	0.00000000	-18.83612000	7.76328700
39.69999782	0.00000000	-19.58046000	6.27460600
39.89999781	0.00000000	-18.37475000	0.46751960
40.09999780	0.00000000	-15.34203000	-8.35998900
40.29999778	0.00000000	-11.48499000	-17.92569000
40.49999777	0.00000000	-7.99704600	-25.17839000
40.69999776	0.00000000	-5.21038300	-27.87278000
40.89999775	0.00000000	-3.25418300	-25.17839000
41.09999774	0.00000000	-2.13459600	-17.88263000
41.29999772	0.00000000	-2.55290300	-7.94168200
41.49999771	0.00000000	-4.83513700	1.67322800
41.69999770	0.00000000	-7.90477300	8.23080600
41.89999769	0.00000000	-11.06668000	10.54995000
42.09999768	0.00000000	-14.18553000	7.85556000
42.29999767	0.00000000	-16.87992000	0.97810030
42.49999765	0.00000000	-18.41781000	-7.84940900
42.69999764	0.00000000	-18.41781000	-16.35089000
42.89999763	0.00000000	-16.87992000	-22.48400000
43.09999762	0.00000000	-14.22859000	-24.85236000
43.29999761	0.00000000	-11.53420000	-22.95152000
43.49999759	0.00000000	-9.52879000	-17.97490000
43.69999758	0.00000000	-7.94783400	-11.04823000
43.89999757	0.00000000	-6.79133800	-4.17691900
44.09999756	0.00000000	-6.36687900	0.51673230
44.29999755	0.00000000	-6.32381900	2.50984200
44.49999753	0.00000000	-6.36687900	2.14074800
44.69999752	0.00000000	-6.74212600	-0.55364170
44.89999751	0.00000000	-7.48646600	-4.77977300
45.09999750	0.00000000	-7.90477300	-9.38115100
45.29999749	0.00000000	-8.41535400	-13.23819000
45.49999748	0.00000000	-9.99630800	-15.18824000
45.69999746	0.00000000	-12.69070000	-15.27436000
45.89999745	0.00000000	-15.76649000	-14.11786000
46.09999744	0.00000000	-18.46087000	-12.16781000
46.29999743	0.00000000	-19.99877000	-9.47342500
46.49999742	0.00000000	-19.99877000	-6.82209600
46.69999740	0.00000000	-18.32554000	-5.19808000
46.89999739	0.00000000	-14.41314000	-4.40452700
47.09999738	0.00000000	-8.28001900	-4.04158400
47.29999737	0.00000000	-2.09153500	-4.87204700
47.49999736	0.00000000	2.93430100	-6.77903500
47.69999734	0.00000000	5.91166300	-9.47342500
47.89999733	0.00000000	4.70595500	-12.11860000
48.09999732	0.00000000	-0.64591530	-13.69956000
48.29999731	0.00000000	-8.41535400	-14.11786000
48.49999730	0.00000000	-17.29823000	-13.69956000
48.69999729	0.00000000	-25.34449000	-12.11860000
48.89999727	0.00000000	-29.95817000	-9.42421200
49.09999726	0.00000000	-30.00123000	-6.36072800
49.29999725	0.00000000	-25.71973000	-3.66633800
49.49999724	0.00000000	-17.95029000	-2.08538400
49.69999723	0.00000000	-7.94783400	-1.75319900
49.89999721	0.00000000	1.67938000	-2.96505900
50.09999720	0.00000000	8.19389700	-6.40378900
50.29999719	0.00000000	10.14395000	-10.58686000
50.49999718	0.00000000	6.66215500	-14.07480000
50.69999717	0.00000000	-1.02116100	-16.43701000
50.89999715	0.00000000	-11.02362000	-17.14444000
51.09999714	0.00000000	-20.60162000	-16.01870000
51.29999713	0.00000000	-26.79626000	-12.91215000
51.49999712	0.00000000	-28.37721000	-9.09817800
51.69999711	0.00000000	-25.30143000	-5.15501900
51.89999710	0.00000000	-18.41781000	-1.75935000
52.09999708	0.00000000	-9.95324800	0.18454720
52.29999707	0.00000000	-2.22687000	-0.22145670
52.49999706	0.00000000	3.16806100	-2.50369100
52.69999705	0.00000000	4.66289300	-6.35457700
52.89999704	0.00000000	1.63016700	-10.53765000
53.09999702	0.00000000	-4.87819900	-13.65650000
53.29999701	0.00000000	-12.51230000	-15.23130000
53.49999700	0.00000000	-19.06988000	-15.23130000
53.69999699	0.00000000	-22.55782000	-13.69956000
53.89999698	0.00000000	-22.60704000	-11.00517000
54.09999696	0.00000000	-19.48819000	-7.93553100
54.29999695	0.00000000	-13.76107000	-5.29035400
54.49999694	0.00000000	-7.25270600	-4.12770700
54.69999693	0.00000000	-2.26993100	-4.87204700
54.89999692	0.00000000	0.09842519	-6.72982200
55.09999691	0.00000000	-0.68897630	-9.00590400
55.29999689	0.00000000	-4.13385800	-10.53765000
55.49999688	0.00000000	-9.57800100	-10.95595000
55.69999687	0.00000000	-15.63115000	-10.53765000
55.89999686	0.00000000	-20.23253000	-9.00590400
56.09999685	0.00000000	-21.40133000	-6.72982200
56.29999683	0.00000000	-19.58046000	-4.87204700
56.49999682	0.00000000	-15.67421000	-4.12770700
56.69999681	0.00000000	-10.69144000	-5.33341500
56.89999680	0.00000000	-5.67175200	-8.35998900
57.09999679	0.00000000	-2.26993100	-12.16166000
57.29999677	0.00000000	-1.43946800	-15.23130000
57.49999676	0.00000000	-3.34030500	-16.76919000
57.69999675	0.00000000	-6.74212600	-16.35089000
57.89999674	0.00000000	-10.64838000	-13.61343000
58.09999673	0.00000000	-14.13632000	-9.00590400
58.29999672	0.00000000	-16.83686000	-3.62327700
58.49999670	0.00000000	-17.95029000	0.97810030
58.69999669	0.00000000	-16.83686000	3.62942900
58.89999668	0.00000000	-14.18553000	3.21112200
59.09999667	0.00000000	-11.06668000	-0.59670270
59.29999666	0.00000000	-7.99704600	-6.40378900
59.49999664	0.00000000	-5.71481200	-12.96137000
59.69999663	0.00000000	-5.33956700	-19.08834000
59.89999662	0.00000000	-6.79133800	-22.53322000
60.09999661	0.00000000	-9.06742000	-22.53322000
60.29999660	0.00000000	-11.02362000	-19.04527000
60.49999658	0.00000000	-12.60458000	-12.49385000
60.69999657	0.00000000	-13.71801000	-4.82898600
60.89999656	0.00000000	-13.71801000	2.14074800
61.09999655	0.00000000	-12.60458000	6.69291300
61.29999654	0.00000000	-11.06668000	7.48031400
61.49999653	0.00000000	-9.52879000	4.00467500
61.69999651	0.00000000	-8.37229300	-2.50369100
61.89999650	0.00000000	-7.99704600	-10.58686000
62.09999649	0.00000000	-8.41535400	-17.92569000
62.29999648	0.00000000	-9.95324800	-22.95152000
62.49999647	0.00000000	-12.18012000	-24.85236000
62.69999645	0.00000000	-13.71801000	-22.52707000
62.89999644	0.00000000	-14.13632000	-16.81225000
63.09999643	0.00000000	-13.76107000	-9.51648500
63.29999642	0.00000000	-12.55536000	-2.55290300
63.49999641	0.00000000	-10.64838000	2.51599400
63.69999639	0.00000000	-8.37229300	5.24729300
63.89999638	0.00000000	-6.83439900	5.20423200
64.09999637	0.00000000	-6.41609200	2.14074800
64.29999636	0.00000000	-6.83439900	-3.24803100
64.49999635	0.00000000	-8.37229300	-9.42421200
64.69999634	0.00000000	-10.64838000	-15.23130000
64.89999632	0.00000000	-12.55536000	-19.46358000
65.09999631	0.00000000	-13.76107000	-21.04454000
65.29999630	0.00000000	-14.13632000	-19.92495000
65.49999629	0.00000000	-13.76107000	-16.85531000
65.69999628	0.00000000	-12.55536000	-12.58612000
65.89999626	0.00000000	-10.69144000	-7.98474400
66.09999625	0.00000000	-8.79060000	-4.08464600
66.29999624	0.00000000	-8.04010800	-1.71013800
66.49999623	0.00000000	-8.41535400	-0.46136810
66.69999622	0.00000000	-9.90403500	-0.13533460
66.89999620	0.00000000	-11.81102000	-0.87967510
67.09999619	0.00000000	-12.93061000	-2.82972400
67.29999618	0.00000000	-13.34276000	-5.15501900
67.49999617	0.00000000	-12.55536000	-7.93553100
67.69999616	0.00000000	-11.02362000	-11.04823000
67.89999615	0.00000000	-9.06742000	-14.16092000
68.09999613	0.00000000	-6.79133800	-16.85531000
68.29999612	0.00000000	-5.29650500	-18.39321000
68.49999611	0.00000000	-5.29650500	-18.35015000
68.69999610	0.00000000	-6.87746000	-16.39395000
68.89999609	0.00000000	-9.95324800	-12.49385000
69.09999607	0.00000000	-13.81028000	-7.51722400
69.29999606	0.00000000	-17.25517000	-2.46063000
69.49999605	0.00000000	-19.58046000	1.39640700
69.69999604	0.00000000	-19.86343000	3.71555100
69.89999603	0.00000000	-17.57505000	3.67249000
70.09999601	0.00000000	-12.93061000	0.93503930
70.29999600	0.00000000	-7.57258800	-4.04158400
70.49999599	0.00000000	-2.50984200	-10.21161000
70.69999598	0.00000000	0.89197830	-15.60654000
70.89999597	0.00000000	1.67938000	-19.50664000
71.09999596	0.00000000	-0.59670270	-20.99532000
71.29999594	0.00000000	-4.87819900	-19.50664000
71.49999593	0.00000000	-10.32234000	-15.64960000
71.69999592	0.00000000	-16.50467000	-10.62992000
71.89999591	0.00000000	-21.48745000	-5.24729300
72.09999590	0.00000000	-24.18799000	-1.06422200
72.29999588	0.00000000	-23.81275000	0.55979330
72.49999587	0.00000000	-20.32480000	-0.17839570
72.69999586	0.00000000	-14.92372000	-2.46063000
72.89999585	0.00000000	-8.37229300	-5.93626900
73.09999584	0.00000000	-2.60211600	-9.38115100
73.29999582	0.00000000	0.89197830	-12.07554000
73.49999581	0.00000000	1.67938000	-13.28125000
73.69999580	0.00000000	-0.64591530	-12.91215000
73.89999579	0.00000000	-5.21038300	-11.79257000
74.09999578	0.00000000	-10.64838000	-9.89173200
74.29999577	0.00000000	-15.67421000	-8.40305000
74.49999575	0.00000000	-19.53125000	-7.98474400
74.69999574	0.00000000	-21.06914000	-8.35998900
74.89999573	0.00000000	-19.99877000	-9.51648500
75.09999572	0.00000000	-17.29823000	-11.00517000
75.29999571	0.00000000	-13.81028000	-12.11860000
75.49999569	0.00000000	-9.95324800	-12.03248000
75.69999568	0.00000000	-6.87746000	-10.11934000
75.89999567	0.00000000	-5.29650500	-6.72982200
76.09999566	0.00000000	-5.25344500	-3.66633800
76.29999565	0.00000000	-6.41609200	-1.71013800
76.49999563	0.00000000	-8.28001900	-0.97194880
76.69999562	0.00000000	-10.23007000	-2.17765700
76.89999561	0.00000000	-11.39887000	-5.24729300
77.09999560	0.00000000	-12.18012000	-9.51648500
77.29999559	0.00000000	-12.18012000	-14.11786000
77.49999558	0.00000000	-11.48499000	-17.97490000
77.69999556	0.00000000	-11.10974000	-19.83883000
77.89999555	0.00000000	-11.06668000	-19.08834000
78.09999554	0.00000000	-11.10974000	-15.60654000
78.29999553	0.00000000	-11.53420000	-10.62992000
78.49999552	0.00000000	-12.60458000	-5.19808000
78.69999550	0.00000000	-13.29970000	-0.55364170
78.89999549	0.00000000	-12.55536000	2.51599400
79.09999548	0.00000000	-11.06668000	3.25418300
79.29999547	0.00000000	-9.48572700	0.93503930
79.49999546	0.00000000	-7.90477300	-3.62327700
79.69999544	0.00000000	-6.41609200	-9.00590400
79.89999543	0.00000000	-5.67175200	-13.65650000
80.09999542	0.00000000	-6.45915300	-16.81225000
80.29999541	0.00000000	-8.37229300	-18.35015000
80.49999540	0.00000000	-11.06668000	-17.97490000
80.69999539	0.00000000	-13.76107000	-15.69882000
80.89999537	0.00000000	-15.71727000	-12.58612000
81.09999536	0.00000000	-16.83686000	-9.09817800
81.29999535	0.00000000	-16.41855000	-5.61638700
81.49999534	0.00000000	-14.13632000	-3.29109200
81.69999533	0.00000000	-11.10974000	-2.04232300
81.89999531	0.00000000	-8.37229300	-1.66707700
82.09999530	0.00000000	-6.41609200	-2.08538400
82.29999529	0.00000000	-5.25344500	-3.61712600
82.49999528	0.00000000	-5.29650500	-5.93626900
82.69999527	0.00000000	-6.79133800	-8.26771600
82.89999525	0.00000000	-9.11048200	-10.67298000
83.09999524	0.00000000	-11.39887000	-12.95522000
83.29999523	0.00000000	-13.34276000	-14.94833000
83.49999522	0.00000000	-14.13632000	-16.02485000
83.69999521	0.00000000	-14.18553000	-16.06176000
83.89999520	0.00000000	-13.76107000	-14.45005000
84.09999518	0.00000000	-12.64764000	-11.79257000
84.29999517	0.00000000	-11.48499000	-8.26771600
84.49999516	0.00000000	-10.69144000	-4.82283400
84.69999515	0.00000000	-9.90403500	-2.08538400
84.89999514	0.00000000	-9.52879000	-0.55364170
85.09999512	0.00000000	-9.48572700	-0.59670270
85.29999511	0.00000000	-9.48572700	-2.54675200
85.49999510	0.00000000	-9.48572700	-6.35457700
85.69999509	0.00000000	-9.48572700	-10.58686000
85.89999508	0.00000000	-9.48572700	-14.11786000
86.09999506	0.00000000	-9.52879000	-16.81225000
86.29999505	0.00000000	-9.90403500	-17.92569000
86.49999504	0.00000000	-10.69144000	-16.76919000
86.69999503	0.00000000	-11.48499000	-13.69956000
86.89999502	0.00000000	-12.64764000	-9.43036400
87.09999501	-0.15871060	-13.76107000	-4.82898600
87.29999499	0.00000000	-14.13632000	-1.02116100
87.49999498	0.00000000	-13.71801000	0.55979330
87.69999497	0.00000000	-12.18012000	-0.17839570
87.89999496	0.00000000	-9.95324800	-2.54675200
88.09999495	0.00000000	-8.37229300	-6.77903500
88.29999493	0.00000000	-7.57258800	-11.70029000
88.49999492	0.00000000	-7.20964500	-15.18824000
88.69999491	0.00000000	-7.99704600	-16.76919000
88.89999490	0.00000000	-9.48572700	-16.35089000
89.09999489	0.00000000	-11.06668000	-13.65650000
89.29999487	0.00000000	-12.60458000	-9.47342500
89.49999486	0.00000000	-13.76107000	-5.24729300
89.69999485	0.00000000	-14.13632000	-2.12844500
89.89999484	0.00000000	-13.76107000	-0.59670270
90.09999483	0.00000000	-12.64764000	-1.01501000
90.29999482	0.00000000	-11.48499000	-3.70939900
90.49999480	0.00000000	-10.69144000	-7.89247000
90.69999479	0.00000000	-9.90403500	-12.11860000
90.89999478	0.00000000	-9.52879000	-15.23130000
91.09999477	0.00000000	-9.48572700	-16.71998000
91.29999476	0.00000000	-9.52879000	-15.92642000
91.49999474	0.00000000	-9.90403500	-12.49385000
91.69999473	0.00000000	-10.64838000	-7.93553100
91.89999472	0.00000000	-10.97441000	-3.66633800
92.09999471	0.00000000	-10.64838000	-0.59670270
92.29999470	0.00000000	-9.90403500	0.51673230
92.49999468	0.00000000	-9.57800100	-1.02116100
92.69999467	0.00000000	-9.90403500	-4.82898600
92.89999466	0.00000000	-10.69144000	-9.43036400
93.09999465	0.00000000	-11.48499000	-13.65650000
93.29999464	0.00000000	-12.64764000	-16.35089000
93.49999463	0.00000000	-13.71801000	-16.76919000
93.69999461	0.00000000	-13.71801000	-15.18824000
93.89999460	0.00000000	-12.60458000	-11.70029000
94.09999459	0.00000000	-11.02362000	-6.77903500
94.29999458	0.00000000	-9.06742000	-2.59596400
94.49999457	0.00000000	-6.79133800	-0.59670270
94.69999455	0.00000000	-5.29650500	-0.59670270
94.89999454	0.00000000	-5.25344500	-2.54675200
95.09999453	0.00000000	-6.41609200	-6.40378900
95.29999452	0.00000000	-8.37229300	-10.91289000
95.49999451	0.00000000	-11.10974000	-14.43775000
95.69999449	0.00000000	-14.18553000	-15.98179000
95.89999448	0.00000000	-16.87992000	-16.01870000
96.09999447	0.00000000	-18.37475000	-14.03174000
96.29999446	0.00000000	-17.99951000	-10.62992000
96.49999445	0.00000000	-15.67421000	-6.77903500
96.69999444	0.00000000	-12.22933000	-3.75246000
96.89999442	0.00000000	-8.37229300	-2.54675200
97.09999441	0.00000000	-5.25344500	-3.29109200
97.29999440	0.00000000	-3.25418300	-5.19808000
97.49999439	0.00000000	-2.17765700	-7.89247000
97.69999438	0.00000000	-2.97736200	-10.53765000
97.89999436	0.00000000	-6.04084600	-12.11860000
98.09999435	0.00000000	-9.86097400	-12.53691000
98.29999434	0.00000000	-13.81028000	-12.16166000
98.49999433	0.00000000	-17.25517000	-11.00517000
98.69999432	0.00000000	-19.53125000	-9.51648500
98.89999430	0.00000000	-19.53125000	-8.35998900
99.09999429	0.00000000	-17.29823000	-7.93553100
99.29999428	0.00000000	-14.18553000	-7.89247000
99.49999427	0.00000000	-10.64838000	-7.89247000
99.69999426	0.00000000	-6.83439900	-7.89247000
99.89999425	0.00000000	-4.13385800	-7.84940900
100.09999423	0.00000000	-3.29724400	-7.47416300
100.29999422	0.00000000	-3.67249000	-6.72982200
100.49999421	0.00000000	-5.25344500	-6.35457700
100.69999420	0.00000000	-7.94783400	-6.35457700
100.89999419	0.00000000	-11.02362000	-6.77903500
101.09999417	0.00000000	-13.76107000	-7.93553100
101.29999416	0.00000000	-15.71727000	-9.47342500
101.49999415	0.00000000	-16.87992000	-11.00517000
101.69999414	0.00000000	-16.87992000	-12.16166000
101.89999413	0.00000000	-15.71727000	-12.49385000
102.09999411	0.00000000	-13.81028000	-11.70029000
102.29999410	0.00000000	-11.48499000	-9.42421200
102.49999409	0.00000000	-9.52879000	-6.77903500
102.69999408	0.00000000	-7.94783400	-4.77977300
102.89999407	0.00000000	-6.79133800	-3.24803100
103.09999406	0.00000000	-6.41609200	-2.54675200
103.29999404	0.00000000	-6.83439900	-3.70939900
103.49999403	0.00000000	-8.37229300	-6.36072800
103.69999402	0.00000000	-10.64838000	-9.47342500
103.89999401	0.00000000	-12.60458000	-12.53691000
104.09999400	0.00000000	-14.18553000	-14.81299000
104.29999398	0.00000000	-15.29897000	-15.23130000
104.49999397	0.00000000	-15.29897000	-14.11786000
104.69999396	0.00000000	-14.18553000	-12.16781000
104.89999395	0.00000000	-12.64764000	-9.47342500
105.09999394	0.00000000	-11.06668000	-6.77903500
105.29999392	0.00000000	-9.52879000	-4.82283400
105.49999391	0.00000000	-8.41535400	-3.70939900
105.69999390	0.00000000	-8.37229300	-4.08464600
105.89999389	0.00000000	-9.11048200	-5.98548200
106.09999388	0.00000000	-9.90403500	-8.26771600
106.29999387	0.00000000	-11.06668000	-10.58686000
106.49999385	0.00000000	-12.18012000	-12.11860000
106.69999384	0.00000000	-12.55536000	-12.53691000
106.89999383	0.00000000	-12.22933000	-12.11860000
107.09999382	0.00000000	-11.48499000	-10.58686000
107.29999381	0.00000000	-11.06668000	-8.31077700
107.49999379	0.00000000	-10.64838000	-6.44685000
107.69999378	0.00000000	-9.90403500	-5.61638700
107.89999377	0.00000000	-9.57800100	-5.98548200
108.09999376	0.00000000	-9.95324800	-6.72982200
108.29999375	0.00000000	-11.06668000	-7.93553100
108.49999374	0.00000000	-12.18012000	-9.42421200
108.69999372	0.00000000	-12.60458000	-10.58686000
108.89999371	0.00000000	-12.60458000	-10.95595000
109.09999370	0.00000000	-12.22933000	-10.62992000
109.29999369	0.00000000	-11.44193000	-9.79945900
109.49999368	0.00000000	-10.64838000	-8.63681000
109.69999366	0.00000000	-9.48572700	-6.72982200
109.89999365	0.00000000	-8.41535400	-5.24729300
110.09999364	0.00000000	-8.37229300	-4.82898600
110.29999363	0.00000000	-9.11048200	-5.19808000
110.49999362	0.00000000	-9.90403500	-6.36072800
110.69999360	0.00000000	-11.06668000	-7.89247000
110.89999359	0.00000000	-12.22933000	-9.42421200
111.09999358	0.00000000	-12.97982000	-10.58686000
111.29999357	0.00000000	-13.39198000	-11.00517000
111.49999356	0.00000000	-12.97982000	-11.00517000
111.69999355	0.00000000	-12.27239000	-10.62992000
111.89999353	0.00000000	-11.44193000	-9.84867000
112.09999352	0.00000000	-10.69144000	-9.09817800
112.29999351	0.00000000	-9.90403500	-8.26771600
112.49999350	0.00000000	-9.52879000	-7.51722400
112.69999349	0.00000000	-9.52879000	-6.77903500
112.89999347	0.00000000	-9.90403500	-6.77903500
113.09999346	0.00000000	-10.64838000	-7.47416300
113.29999345	0.00000000	-11.02362000	-7.89247000
113.49999344	0.00000000	-11.06668000	-8.31077700
113.69999343	0.00000000	-11.06668000	-9.05511800
113.89999341	0.00000000	-11.06668000	-9.43036400
114.09999340	0.00000000	-11.06668000	-9.47342500
114.29999339	0.00000000	-11.06668000	-9.47342500
114.49999338	0.00000000	-11.06668000	-9.47342500
114.69999337	0.00000000	-11.06668000	-9.51648500
114.89999336	0.00000000	-11.02362000	-9.84867000
115.09999334	0.00000000	-10.69144000	-10.21161000
115.29999333	0.00000000	-10.32234000	-9.84867000
115.49999332	0.00000000	-10.69144000	-9.47342500
115.69999331	0.00000000	-11.02362000	-9.05511800
115.89999330	0.00000000	-11.10974000	-8.26771600
116.09999328	0.00000000	-11.48499000	-7.51722400
116.29999327	0.00000000	-12.18012000	-6.72982200
116.49999326	0.00000000	-12.18012000	-6.40378900
116.69999325	0.00000000	-11.48499000	-6.72982200
116.89999324	0.00000000	-11.10974000	-7.51722400
117.09999322	0.00000000	-11.02362000	-8.31077700
117.29999321	0.00000000	-10.64838000	-9.47342500
117.49999320	0.00000000	-9.90403500	-10.58686000
117.69999319	0.00000000	-9.52879000	-11.00517000
117.89999318	0.00000000	-9.48572700	-11.04823000
118.09999317	0.00000000	-9.52879000	-11.00517000
118.29999315	0.00000000	-9.90403500	-10.62992000
118.49999314	0.00000000	-10.69144000	-9.84867000
118.69999313	0.00000000	-11.44193000	-9.05511800
118.89999312	0.00000000	-12.22933000	-7.89247000
119.09999311	0.00000000	-12.64764000	-6.77903500
119.29999309	0.00000000	-13.02288000	-6.40378900
119.49999308	0.00000000	-13.34276000	-6.72982200
119.69999307	0.00000000	-12.60458000	-7.51722400
119.89999306	0.00000000	-11.44193000	-8.26771600
120.09999305	0.00000000	-10.31619000	-9.05511800
120.29999303	0.00000000	-9.11663300	-9.43036400
120.49999302	0.00000000	-8.73523500	-9.47342500
120.69999301	0.00000000	-8.32308000	-9.47342500
120.89999300	0.00000000	-8.37229300	-9.47342500
121.09999299	0.00000000	-9.11048200	-9.47342500
121.29999298	0.00000000	-9.90403500	-9.47342500
121.49999296	0.00000000	-11.10974000	-9.43036400
121.69999295	0.00000000	-12.55536000	-9.05511800
121.89999294	0.00000000	-13.39198000	-8.31077700
122.09999293	0.00000000	-13.39813000	-7.93553100
122.29999292	0.00000000	-13.43504000	-7.89247000
122.49999290	0.00000000	-12.97982000	-7.89247000
122.69999289	0.00000000	-12.22933000	-7.89247000
122.89999288	0.00000000	-11.06668000	-7.89247000
123.09999287	0.00000000	-9.95324800	-7.89247000
123.29999286	0.00000000	-9.52879000	-7.89247000
123.49999284	0.00000000	-9.48572700	-7.93553100
123.69999283	0.00000000	-9.48572700	-8.31077700
123.89999282	0.00000000	-9.52879000	-9.05511800
124.09999281	0.00000000	-9.90403500	-9.43036400
124.29999280	0.00000000	-10.69144000	-9.47342500
124.49999279	0.00000000	-11.44193000	-9.47342500
124.69999277	0.00000000	-12.22933000	-9.47342500
124.89999276	0.00000000	-12.60458000	-9.47342500
125.09999275	0.00000000	-12.64764000	-9.43036400
125.29999274	0.00000000	-12.64764000	-9.05511800
125.49999273	0.00000000	-12.60458000	-8.31077700
125.69999271	0.00000000	-12.22933000	-7.93553100
125.89999270	0.00000000	-11.44193000	-7.89247000
126.09999269	0.00000000	-10.64838000	-7.89247000
126.29999268	0.00000000	-9.48572700	-7.89247000
126.49999267	0.00000000	-8.41535400	-7.93553100
126.69999265	0.00000000	-8.37229300	-8.31077700
126.89999264	0.00000000	-9.11048200	-9.05511800
127.09999263	0.00000000	-9.90403500	-9.43036400
127.29999262	0.00000000	-11.10974000	-9.47342500
127.49999261	0.00000000	-12.60458000	-9.47342500
127.69999260	0.00000000	-13.71801000	-9.47342500
127.89999258	0.00000000	-13.76107000	-9.43036400
128.09999257	0.00000000	-13.02288000	-9.05511800
128.29999256	0.00000000	-12.22933000	-8.31077700
128.49999255	0.00000000	-11.06668000	-7.93553100
128.69999254	0.00000000	-9.90403500	-7.89247000
128.89999252	0.00000000	-9.15354300	-7.89247000
129.09999251	0.00000000	-8.74138700	-7.93553100
129.29999250	0.00000000	-9.15354300	-8.31077700
129.49999249	0.00000000	-9.90403500	-9.05511800
129.69999248	0.00000000	-11.06668000	-9.43036400
129.89999246	0.00000000	-12.18012000	-9.47342500
130.09999245	0.00000000	-12.60458000	-9.47342500
130.29999244	0.00000000	-12.64764000	-9.47342500
130.49999243	0.00000000	-12.60458000	-9.43036400
130.69999242	0.00000000	-12.18012000	-9.05511800
130.89999241	0.00000000	-11.06668000	-8.31077700
131.09999239	0.00000000	-9.95324800	-7.98474400
131.29999238	0.00000000	-9.52879000	-8.31077700
131.49999237	0.00000000	-9.48572700	-9.05511800
131.69999236	0.00000000	-9.52879000	-9.43036400
131.89999235	0.00000000	-9.90403500	-9.47342500
132.09999233	0.00000000	-10.69144000	-9.47342500
132.29999232	0.00000000	-11.44193000	-9.47342500
132.49999231	0.00000000	-12.18012000	-9.47342500
132.69999230	0.00000000	-12.18012000	-9.43036400
132.89999229	0.00000000	-11.48499000	-9.05511800
133.09999227	0.00000000	-11.10974000	-8.31077700
133.29999226	0.00000000	-11.06668000	-7.89247000
133.49999225	0.00000000	-11.06668000	-7.51722400
133.69999224	0.00000000	-11.06668000	-7.14812900
133.89999223	0.00000000	-11.06668000	-7.56028500
134.09999222	0.00000000	-11.06668000	-8.26771600
134.29999220	0.00000000	-11.06668000	-9.09817800
134.49999219	0.00000000	-11.06668000	-9.84867000
134.69999218	0.00000000	-11.06668000	-10.58686000
134.89999217	0.00000000	-11.02362000	-10.58686000
135.09999216	0.00000000	-10.64838000	-9.89173200
135.29999214	0.00000000	-9.95324800	-9.51648500
135.49999213	0.00000000	-9.95324800	-9.43036400
135.69999212	0.00000000	-10.64838000	-9.05511800
135.89999211	0.00000000	-11.06668000	-8.31077700
136.09999210	0.00000000	-11.48499000	-7.93553100
136.29999208	0.00000000	-12.22933000	-7.89247000
136.49999207	0.00000000	-12.60458000	-7.89247000
136.69999206	0.00000000	-12.60458000	-7.93553100
136.89999205	0.00000000	-12.22933000	-8.31077700
137.09999204	0.00000000	-11.44193000	-9.05511800
137.29999203	0.00000000	-10.69144000	-9.43036400
137.49999201	0.00000000	-9.90403500	-9.47342500
137.69999200	0.00000000	-9.52879000	-9.47342500
137.89999199	0.00000000	-9.48572700	-9.51648500
138.09999198	0.00000000	-9.52879000	-9.84867000
138.29999197	0.00000000	-9.90403500	-10.21161000
138.49999195	0.00000000	-10.69144000	-9.84867000
138.69999194	-0.15871060	-11.44193000	-9.47342500
138.89999193	0.00000000	-12.22933000	-9.05511800
139.09999192	0.00000000	-12.60458000	-8.31077700
139.29999191	0.00000000	-12.60458000	-7.89247000
139.49999189	0.00000000	-12.22933000	-7.51722400
139.69999188	0.00000000	-11.48499000	-7.14812900
139.89999187	0.00000000	-11.06668000	-7.51722400
140.09999186	0.00000000	-10.64838000	-7.89247000
140.29999185	0.00000000	-9.95324800	-8.31077700
140.49999184	0.00000000	-9.95324800	-9.05511800
140.69999182	0.00000000	-10.64838000	-9.47342500
140.89999181	0.00000000	-11.02362000	-9.84867000
141.09999180	0.00000000	-11.06668000	-10.21161000
141.29999179	0.00000000	-11.06668000	-9.84867000
141.49999178	0.00000000	-11.06668000	-9.47342500
141.69999176	0.00000000	-11.06668000	-9.05511800
141.89999175	0.00000000	-11.06668000	-8.26771600
142.09999174	0.00000000	-11.02362000	-7.51722400
142.29999173	0.00000000	-10.69144000	-6.77903500
142.49999172	0.00000000	-10.32234000	-6.77903500
142.69999170	0.00000000	-10.69144000	-7.51722400
142.89999169	0.00000000	-10.97441000	-8.26771600
143.09999168	0.00000000	-10.73450000	-9.09817800
143.29999167	0.00000000	-10.74680000	-9.84867000
143.49999166	0.00000000	-11.81102000	-10.62992000
143.69999165	0.00000000	-12.13706000	-10.95595000
143.89999163	0.00000000	-11.48499000	-10.62992000
144.09999162	0.00000000	-11.10974000	-9.84867000
144.29999161	0.00000000	-11.06668000	-9.09817800
144.49999160	0.00000000	-11.02362000	-8.31077700
144.69999159	0.00000000	-10.69144000	-7.93553100
144.89999157	0.00000000	-10.32234000	-7.89247000
145.09999156	0.00000000	-10.69144000	-7.89247000
145.29999155	0.00000000	-11.02362000	-7.93553100
145.49999154	0.00000000	-11.10974000	-8.31077700
145.69999153	0.00000000	-11.48499000	-9.05511800
145.89999151	0.00000000	-12.18012000	-9.43036400
146.09999150	0.00000000	-12.18012000	-9.51648500
146.29999149	0.00000000	-11.48499000	-9.84867000
146.49999148	0.00000000	-11.10974000	-10.21161000
146.69999147	0.00000000	-11.02362000	-9.84867000
146.89999146	0.00000000	-10.69144000	-9.47342500
147.09999144	0.00000000	-10.32234000	-9.05511800
147.29999143	0.00000000	-10.69144000	-8.31077700
147.49999142	0.00000000	-11.02362000	-7.93553100
147.69999141	0.00000000	-11.06668000	-7.89247000
147.89999140	0.00000000	-11.10974000	-7.89247000
148.09999138	0.00000000	-11.44193000	-7.89247000
148.29999137	0.00000000	-11.85408000	-7.93553100
148.49999136	0.00000000	-11.81717000	-8.31077700
148.69999135	0.00000000	-11.85408000	-9.05511800
148.89999134	0.00000000	-11.44193000	-9.43036400
149.09999132	0.00000000	-11.10974000	-9.47342500
149.29999131	0.00000000	-11.06668000	-9.47342500
149.49999130	0.00000000	-11.06668000	-9.47342500
149.69999129	0.00000000	-11.06668000	-9.43036400
149.89999128	0.00000000	-11.06668000	-9.05511800
150.09999127	0.00000000	-11.06668000	-8.31077700
150.29999125	0.00000000	-11.06668000	-7.93553100
150.49999124	0.00000000	-11.06668000	-7.89247000
150.69999123	0.00000000	-11.06668000	-7.89247000
150.89999122	0.00000000	-11.06668000	-7.89247000
151.09999121	0.00000000	-11.06668000	-7.89247000
151.29999119	0.00000000	-11.06668000	-7.89247000
151.49999118	0.00000000	-11.06668000	-7.93553100
151.69999117	0.00000000	-11.06668000	-8.35998900
151.89999116	0.00000000	-11.06668000	-9.42421200
152.09999115	0.00000000	-11.02362000	-10.16855000
152.29999113	0.00000000	-10.69144000	-9.84867000
152.49999112	0.00000000	-10.27928000	-9.51648500
152.69999111	0.00000000	-10.31619000	-9.47342500
152.89999110	0.00000000	-10.27928000	-9.43036400
153.09999109	0.00000000	-10.69144000	-9.05511800
153.29999108	0.00000000	-11.02362000	-8.31077700
153.49999106	0.00000000	-11.10974000	-7.93553100
153.69999105	0.00000000	-11.48499000	-7.89247000
153.89999104	0.00000000	-12.22933000	-7.89247000
154.09999103	0.00000000	-12.55536000	-7.89247000
154.29999102	0.00000000	-12.22933000	-7.93553100
154.49999100	0.00000000	-11.48499000	-8.31077700
154.69999099	0.00000000	-11.10974000	-9.05511800
154.89999098	0.00000000	-11.06668000	-9.43036400
155.09999097	0.00000000	-11.02362000	-9.47342500
155.29999096	0.00000000	-10.64838000	-9.47342500
155.49999094	0.00000000	-9.90403500	-9.47342500
155.69999093	0.00000000	-9.57800100	-9.47342500
155.89999092	0.00000000	-9.90403500	-9.43036400
156.09999091	0.00000000	-10.64838000	-9.05511800
156.29999090	0.00000000	-11.06668000	-8.31077700
156.49999089	0.00000000	-11.44193000	-7.93553100
156.69999087	0.00000000	-11.85408000	-7.89247000
156.89999086	0.00000000	-11.86024000	-7.89247000
157.09999085	0.00000000	-12.22933000	-7.89247000
157.29999084	0.00000000	-12.18012000	-7.89247000
157.49999083	0.00000000	-11.48499000	-7.93553100
157.69999081	0.00000000	-11.10974000	-8.31077700
157.89999080	0.00000000	-11.06668000	-9.05511800
158.09999079	0.00000000	-11.02362000	-9.43036400
158.29999078	0.00000000	-10.69144000	-9.47342500
158.49999077	0.00000000	-10.32234000	-9.47342500
158.69999075	0.00000000	-10.69144000	-9.47342500
158.89999074	0.00000000	-11.02362000	-9.43036400
159.09999073	0.00000000	-11.06668000	-9.05511800
159.29999072	0.00000000	-11.06668000	-8.31077700
159.49999071	0.00000000	-11.06668000	-7.93553100
159.69999070	0.00000000	-11.06668000	-7.89247000
159.89999068	0.00000000	-11.06668000	-7.89247000
160.09999067	0.00000000	-11.06668000	-7.89247000
160.29999066	0.00000000	-11.06668000	-7.93553100
160.49999065	0.00000000	-11.06668000	-8.31077700
160.69999064	0.00000000	-11.06668000	-9.05511800
160.89999062	0.00000000	-11.06668000	-9.43036400
161.09999061	0.00000000	-11.06668000	-9.47342500
161.29999060	0.00000000	-11.06668000	-9.47342500
161.49999059	0.00000000	-11.06668000	-9.47342500
161.69999058	0.00000000	-11.06668000	-9.47342500
161.89999056	0.00000000	-11.06668000	-9.43036400
162.09999055	0.00000000	-11.06668000	-9.05511800
162.29999054	0.00000000	-11.06668000	-8.31077700
162.49999053	0.00000000	-11.06668000	-7.93553100
162.69999052	0.00000000	-11.06668000	-7.89247000
162.89999051	0.00000000	-11.06668000	-7.89247000
163.09999049	0.00000000	-11.10974000	-7.89247000
163.29999048	0.00000000	-11.44193000	-7.89247000
163.49999047	0.00000000	-11.85408000	-7.93553100
163.69999046	0.00000000	-11.86024000	-8.31077700
163.89999045	0.00000000	-12.22933000	-9.05511800
164.09999043	0.00000000	-12.18012000	-9.38115100
164.29999042	0.00000000	-11.48499000	-9.09817800
164.49999041	0.00000000	-11.10974000	-8.72908400
164.69999040	0.00000000	-11.02362000	-9.09817800
164.89999039	0.00000000	-10.69144000	-9.43036400
165.09999037	0.00000000	-10.32234000	-9.43036400
165.29999036	0.00000000	-10.69144000	-9.05511800
165.49999035	0.00000000	-11.02362000	-8.31077700
165.69999034	0.00000000	-11.06668000	-7.98474400
165.89999033	0.00000000	-11.06668000	-8.26771600
166.09999032	0.00000000	-11.10974000	-8.63681000
166.29999030	0.00000000	-11.48499000	-8.31077700
166.49999029	0.00000000	-12.22933000	-8.31077700
166.69999028	0.00000000	-12.55536000	-8.67987200
166.89999027	0.00000000	-12.22933000	-8.68602300
167.09999026	0.00000000	-11.48499000	-9.09817800
167.29999024	0.00000000	-11.10974000	-9.43036400
167.49999023	0.00000000	-11.06668000	-9.47342500
167.69999022	0.00000000	-11.06668000	-9.47342500
167.89999021	0.00000000	-11.06668000	-9.47342500
168.09999020	0.00000000	-11.06668000	-9.47342500
168.29999018	0.00000000	-11.06668000	-9.47342500
168.49999017	0.00000000	-11.06668000	-9.47342500
168.69999016	0.00000000	-11.06668000	-9.47342500
168.89999015	0.00000000	-11.06668000	-9.47342500
169.09999014	0.00000000	-11.06668000	-9.43036400
169.29999013	0.00000000	-11.06668000	-9.09817800
169.49999011	0.00000000	-11.06668000	-8.72908400
169.69999010	0.00000000	-11.06668000	-9.09817800
169.89999009	0.00000000	-11.06668000	-9.43036400
170.09999008	0.00000000	-11.06668000	-9.47342500
170.29999007	0.00000000	-11.06668000	-9.47342500
170.49999005	0.00000000	-11.06668000	-9.47342500
170.69999004	0.00000000	-11.06668000	-9.47342500
170.89999003	0.00000000	-11.02362000	-9.43036400
171.09999002	0.00000000	-10.69144000	-9.09817800
171.29999001	0.00000000	-10.32234000	-8.72908400
171.49998999	0.00000000	-10.69144000	-9.05511800
171.69998998	0.00000000	-11.02362000	-9.05511800
171.89998997	0.00000000	-11.06668000	-8.72908400
172.09998996	0.00000000	-11.06668000	-9.09817800
172.29998995	0.00000000	-11.06668000	-9.43036400
172.49998994	0.00000000	-11.06668000	-9.47342500
172.69998992	0.00000000	-11.06668000	-9.47342500
172.89998991	0.00000000	-11.06668000	-9.47342500
173.09998990	0.00000000	-11.06668000	-9.47342500
173.29998989	0.00000000	-11.06668000	-9.43036400
173.49998988	0.00000000	-11.06668000	-9.09817800
173.69998986	0.00000000	-11.06668000	-8.72908400
173.89998985	0.00000000	-11.06668000	-9.09817800
174.09998984	0.00000000	-11.06668000	-9.43036400
174.29998983	0.00000000	-11.06668000	-9.47342500
174.49998982	0.00000000	-11.06668000	-9.47342500
174.69998980	0.00000000	-11.06668000	-9.47342500
174.89998979	0.00000000	-11.06668000	-9.47342500
175.09998978	0.00000000	-11.10974000	-9.47342500
175.29998977	0.00000000	-11.44193000	-9.47342500
175.49998976	0.00000000	-11.81102000	-9.43036400
175.69998975	0.00000000	-11.44193000	-9.05511800
175.89998973	0.00000000	-11.10974000	-8.31077700
176.09998972	0.00000000	-11.06668000	-7.98474400
176.29998971	0.00000000	-11.06668000	-8.26771600
176.49998970	0.00000000	-11.06668000	-8.67987200
176.69998969	0.00000000	-11.06668000	-8.68602300
176.89998967	0.00000000	-11.06668000	-9.09817800
177.09998966	0.00000000	-11.06668000	-9.43036400
177.29998965	0.00000000	-11.06668000	-9.47342500
177.49998964	0.00000000	-11.06668000	-9.47342500
177.69998963	0.00000000	-11.06668000	-9.47342500
177.89998961	0.00000000	-11.06668000	-9.47342500
178.09998960	0.00000000	-11.06668000	-9.47342500
178.29998959	0.00000000	-11.06668000	-9.43036400
178.49998958	0.00000000	-11.06668000	-9.05511800
178.69998957	0.00000000	-11.06668000	-8.31077700
178.89998956	0.00000000	-11.06668000	-7.98474400
179.09998954	0.00000000	-11.06668000	-8.31077700
179.29998953	0.00000000	-11.06668000	-9.05511800
179.49998952	0.00000000	-11.06668000	-9.43036400
179.69998951	0.00000000	-11.06668000	-9.47342500
179.89998950	0.00000000	-11.06668000	-9.47342500
180.09998948	0.00000000	-11.06668000	-9.47342500
180.29998947	0.00000000	-11.06668000	-9.47342500
180.49998946	0.00000000	-11.06668000	-9.47342500
180.69998945	0.00000000	-11.06668000	-9.43036400
180.89998944	0.00000000	-11.06668000	-9.05511800
181.09998942	0.00000000	-11.06668000	-8.35998900
181.29998941	0.00000000	-11.06668000	-8.31077700
181.49998940	0.00000000	-11.06668000	-8.63681000
181.69998939	0.00000000	-11.06668000	-8.26771600
181.89998938	0.00000000	-11.06668000	-7.93553100
182.09998937	0.00000000	-11.06668000	-7.93553100
182.29998935	0.00000000	-11.06668000	-8.31077700
182.49998934	0.00000000	-11.06668000	-9.05511800
182.69998933	0.00000000	-11.06668000	-9.43036400
182.89998932	0.00000000	-11.06668000	-9.47342500
183.09998931	0.00000000	-11.06668000	-9.47342500
183.29998929	0.00000000	-11.06668000	-9.47342500
183.49998928	0.00000000	-11.06668000	-9.47342500
183.69998927	0.00000000	-11.06668000	-9.47342500
183.89998926	0.00000000	-11.10974000	-9.47342500
184.09998925	0.00000000	-11.44193000	-9.43036400
184.29998923	0.00000000	-11.85408000	-9.05511800
184.49998922	0.00000000	-11.81717000	-8.31077700
184.69998921	0.00000000	-11.85408000	-7.93553100
184.89998920	0.00000000	-11.44193000	-7.89247000
185.09998919	0.00000000	-11.10974000	-7.89247000
185.29998918	0.00000000	-11.06668000	-7.93553100
185.49998916	0.00000000	-11.06668000	-8.31077700
185.69998915	0.00000000	-11.06668000	-9.05511800
185.89998914	0.00000000	-11.06668000	-9.43036400
186.09998913	0.00000000	-11.06668000	-9.47342500
186.29998912	0.00000000	-11.06668000	-9.47342500
186.49998910	0.00000000	-11.06668000	-9.47342500
186.69998909	0.00000000	-11.06668000	-9.43036400
186.89998908	0.00000000	-11.06668000	-9.09817800
187.09998907	0.00000000	-11.06668000	-8.68602300
187.29998906	0.00000000	-11.06668000	-8.67987200
187.49998904	0.00000000	-11.06668000	-8.26771600
187.69998903	0.00000000	-11.06668000	-7.93553100
187.89998902	0.00000000	-11.06668000	-7.89247000
188.09998901	0.00000000	-11.06668000	-7.93553100
188.29998900	0.00000000	-11.06668000	-8.31077700
188.49998899	0.00000000	-11.06668000	-9.05511800
188.69998897	0.00000000	-11.06668000	-9.43036400
188.89998896	0.00000000	-11.06668000	-9.47342500
189.09998895	0.00000000	-11.06668000	-9.47342500
189.29998894	0.00000000	-11.06668000	-9.47342500
189.49998893	0.00000000	-11.06668000	-9.47342500
189.69998891	0.00000000	-11.06668000	-9.47342500
189.89998890	0.00000000	-11.06668000	-9.47342500
190.09998889	0.00000000	-11.06668000	-9.43036400
190.29998888	0.00000000	-11.06668000	-9.05511800
190.49998887	0.00000000	-11.06668000	-8.31077700
190.69998885	0.00000000	-11.06668000	-7.93553100
190.89998884	0.00000000	-11.06668000	-7.93553100
191.09998883	0.00000000	-11.06668000	-8.31077700
191.29998882	0.00000000	-11.06668000	-9.05511800
191.49998881	0.00000000	-11.06668000	-9.43036400
191.69998880	0.00000000	-11.06668000	-9.47342500
191.89998878	0.00000000	-11.06668000	-9.47342500
192.09998877	0.00000000	-11.06668000	-9.47342500
192.29998876	0.00000000	-11.06668000	-9.47342500
192.49998875	0.00000000	-11.06668000	-9.47342500
192.69998874	0.00000000	-11.06668000	-9.43036400
192.89998872	0.00000000	-11.06668000	-9.09817800
193.09998871	0.00000000	-11.06668000	-8.72908400
193.29998870	0.00000000	-11.06668000	-9.09817800
193.49998869	0.00000000	-11.06668000	-9.43036400
193.69998868	0.00000000	-11.06668000	-9.43036400
193.89998866	0.00000000	-11.06668000	-9.05511800
194.09998865	0.00000000	-11.06668000	-8.31077700
194.29998864	0.00000000	-11.06668000	-7.93553100
194.49998863	0.00000000	-11.06668000	-7.93553100
194.69998862	0.00000000	-11.06668000	-8.26771600
194.89998861	0.00000000	-11.06668000	-8.63681000
195.09998859	0.00000000	-11.06668000	-8.31077700
195.29998858	0.00000000	-11.10974000	-8.35998900
195.49998857	0.00000000	-11.48499000	-9.05511800
195.69998856	0.00000000	-12.18012000	-9.43036400
195.89998855	0.00000000	-12.18012000	-9.47342500
196.09998853	0.00000000	-11.48499000	-9.47342500
