Time	Channel A	Channel B	Channel C
(us)	(V)	(mV)	(mV)

-4.49999956	0.00000000	-9.48572700	-7.89247000
-4.29999957	0.00000000	-9.48572700	-7.89247000
-4.09999958	0.00000000	-9.48572700	-7.89247000
-3.89999959	0.00000000	-9.48572700	-7.84940900
-3.69999960	0.00000000	-9.48572700	-7.51722400
-3.49999962	0.00000000	-9.48572700	-7.14812900
-3.29999963	0.00000000	-9.48572700	-7.51722400
-3.09999964	0.00000000	-9.48572700	-7.84940900
-2.89999965	0.00000000	-9.48572700	-7.89247000
-2.69999966	0.00000000	-9.48572700	-7.89247000
-2.49999968	0.00000000	-9.48572700	-7.89247000
-2.29999969	0.00000000	-9.48572700	-7.89247000
-2.09999970	0.00000000	-9.48572700	-7.89247000
-1.89999971	0.00000000	-9.48572700	-7.89247000
-1.69999972	0.00000000	-9.48572700	-7.89247000
-1.49999973	0.00000000	-9.48572700	-7.89247000
-1.29999975	0.00000000	-9.48572700	-7.89247000
-1.09999976	0.00000000	-9.48572700	-7.89247000
-0.89999977	0.00000000	-9.48572700	-7.89247000
-0.69999978	0.00000000	-9.48572700	-7.89247000
-0.49999979	0.00000000	-9.48572700	-7.89247000
-0.29999981	0.31803640	-9.48572700	-7.89247000
-0.09999982	0.63668800	-9.48572700	-7.89247000
0.10000017	0.95533960	-9.48572700	-7.89247000
0.30000016	0.95533960	-9.48572700	-7.89247000
0.50000015	0.79601380	-9.48572700	-7.89247000
0.70000013	0.15871060	-9.48572700	-7.89247000
0.90000012	-0.63668800	-9.48572700	-7.89247000
1.10000011	-1.59264300	-9.48572700	-7.89247000
1.30000010	-2.38927200	-9.48572700	-7.89247000
1.50000009	-2.86724900	-9.48572700	-7.89247000
1.70000008	-2.38927200	-9.48572700	-7.89247000
1.90000006	-1.11466500	-9.48572700	-7.84940900
2.10000005	0.79601380	-9.48572700	-7.51722400
2.30000004	3.02657500	-9.48572700	-7.14812900
2.50000003	4.61921700	-9.48572700	-7.51722400
2.70000002	5.41584600	-9.48572700	-7.84940900
2.90000000	4.61921700	-9.48572700	-7.89247000
3.09999999	2.54859700	-9.48572700	-7.89247000
3.29999998	-0.63668800	-9.48572700	-7.89247000
3.49999997	-3.98191400	-9.48572700	-7.89247000
3.69999996	-6.69045300	-9.48572700	-7.89247000
3.89999994	-7.96444400	-9.48572700	-7.84940900
4.09999993	-7.16781500	-9.48572700	-7.51722400
4.29999992	-4.45989200	-9.48572700	-7.10506800
4.49999991	-0.47736220	-9.48572700	-7.14197800
4.69999990	3.98191400	-9.48572700	-7.10506800
4.89999989	7.48646600	-9.48572700	-7.51722400
5.09999987	9.39837600	-9.48572700	-7.84940900
5.29999986	8.76107300	-9.48572700	-7.93553100
5.49999985	6.05315000	-9.48572700	-8.26771600
5.69999984	1.75196900	-9.48572700	-8.63681000
5.89999983	-3.02657500	-9.48572700	-8.26771600
6.09999981	-7.16781500	-9.48572700	-7.93553100
6.29999980	-9.23905000	-9.48572700	-7.89247000
6.49999979	-9.07972400	-9.48572700	-7.84940900
6.69999978	-6.69045300	-9.48572700	-7.51722400
6.89999977	-2.70792300	-9.48572700	-7.14812900
7.09999975	1.59264300	-9.48572700	-7.51722400
7.29999974	5.25652100	-9.48572700	-7.84940900
7.49999973	7.48646600	-9.48572700	-7.89247000
7.69999972	7.64579200	-9.48572700	-7.89247000
7.89999971	5.89382400	-9.48572700	-7.89247000
8.09999970	2.86724900	-9.48572700	-7.89247000
8.29999968	-0.31803640	-9.48572700	-7.89247000
8.49999967	-3.18590100	-9.48572700	-7.89247000
8.69999966	-4.93786900	-9.48572700	-7.89247000
8.89999965	-5.09719500	-9.48572700	-7.89247000
9.09999964	-4.14124000	-9.48572700	-7.89247000
9.29999962	-2.38927200	-9.48572700	-7.89247000
9.49999961	-0.47736220	-9.48572700	-7.89247000
9.69999960	1.27399100	-9.48572700	-7.89247000
9.89999959	2.22994600	-9.48572700	-7.89247000
10.09999958	2.54859700	-9.48572700	-7.89247000
10.29999956	2.07062000	-9.48572700	-7.89247000
10.49999955	1.27399100	-9.48572700	-7.89247000
10.69999954	0.47736220	-9.48572700	-7.89247000
10.89999953	-0.31803640	-9.48572700	-7.89247000
11.09999952	-0.79601380	-9.48572700	-7.89247000
11.29999951	-0.95533960	-9.48572700	-7.89247000
11.49999949	-0.95533960	-9.48572700	-7.89247000
11.69999948	-0.79601380	-9.48572700	-7.89247000
11.89999947	-0.31803640	-9.48572700	-7.89247000
12.09999946	-0.15871060	-9.48572700	-7.89247000
12.29999945	-0.15871060	-9.48572700	-7.89247000
12.49999943	-0.15871060	-9.48572700	-7.89247000
12.69999942	0.00000000	-9.48572700	-7.89247000
12.89999941	0.00000000	-9.48572700	-7.89247000
13.09999940	0.00000000	-9.48572700	-7.89247000
13.29999939	0.00000000	-9.48572700	-7.89247000
13.49999937	0.00000000	-9.48572700	-7.89247000
13.69999936	0.00000000	-9.48572700	-7.89247000
13.89999935	-0.15871060	-9.48572700	-7.89247000
14.09999934	-0.15871060	-9.48572700	-7.89247000
14.29999933	-0.15871060	-9.48572700	-7.89247000
14.49999932	-0.15871060	-9.48572700	-7.89247000
14.69999930	-0.15871060	-9.48572700	-7.89247000
14.89999929	0.00000000	-9.48572700	-7.89247000
15.09999928	0.00000000	-9.48572700	-7.89247000
15.29999927	0.00000000	-9.48572700	-7.89247000
15.49999926	0.00000000	-9.48572700	-7.89247000
15.69999924	0.00000000	-9.48572700	-7.89247000
15.89999923	0.00000000	-9.48572700	-7.89247000
16.09999922	0.00000000	-9.48572700	-7.89247000
16.29999921	-0.15871060	-9.48572700	-7.89247000
16.49999920	-0.15871060	-9.48572700	-7.89247000
16.69999919	-0.15871060	-9.44266700	-7.89247000
16.89999917	0.00000000	-9.06742000	-7.89247000
17.09999916	0.00000000	-8.32308000	-7.89247000
17.29999915	0.00000000	-7.94783400	-7.89247000
17.49999914	0.00000000	-7.90477300	-7.89247000
17.69999913	0.00000000	-7.94783400	-7.89247000
17.89999911	0.00000000	-8.37229300	-7.89247000
18.09999910	0.00000000	-9.52879000	-7.89247000
18.29999909	0.00000000	-11.06668000	-7.89247000
18.49999908	0.00000000	-12.64764000	-7.89247000
18.69999907	0.00000000	-14.13632000	-7.89247000
18.89999905	0.00000000	-14.92372000	-7.89247000
19.09999904	-0.15871060	-14.51156000	-7.89247000
19.29999903	0.00000000	-13.29970000	-7.89247000
19.49999902	0.00000000	-10.51304000	-7.89247000
19.69999901	0.00000000	-6.32381900	-7.89247000
19.89999900	0.00000000	-2.09153500	-7.89247000
20.09999898	0.00000000	0.98425190	-7.89247000
20.29999897	0.00000000	2.09768700	-7.89247000
20.49999896	0.00000000	0.55979330	-7.89247000
20.69999895	0.00000000	-3.38951800	-7.89247000
20.89999894	0.00000000	-9.25196800	-7.89247000
21.09999892	0.00000000	-17.01525000	-7.89247000
21.29999891	0.00000000	-24.60630000	-7.89247000
21.49999890	0.00000000	-29.62598000	-7.89247000
21.69999889	0.00000000	-30.32726000	-7.89247000
21.89999888	0.00000000	-26.42101000	-7.89247000
22.09999886	0.00000000	-17.81496000	-7.89247000
22.29999885	0.00000000	-5.85629900	-7.89247000
22.49999884	0.00000000	6.88361200	-7.89247000
22.69999883	0.00000000	17.26132000	-7.89247000
22.89999882	0.00000000	22.57013000	-7.89247000
23.09999881	0.00000000	20.56471000	-7.84940900
23.29999879	0.00000000	10.89444000	-7.47416300
23.49999878	0.00000000	-4.22613100	-6.72982200
23.69999877	0.00000000	-21.99803000	-6.35457700
23.89999876	0.00000000	-38.56422000	-6.31151500
24.09999875	0.00000000	-49.31717000	-6.35457700
24.29999873	0.00000000	-51.59325000	-6.77903500
24.49999872	0.00000000	-44.14985000	-7.93553100
24.69999871	0.00000000	-27.90969000	-9.47342500
24.89999870	0.00000000	-6.28075700	-11.04823000
25.09999869	0.00000000	15.72958000	-12.53691000
25.29999867	0.00000000	33.04010000	-13.32431000
25.49999866	0.00000000	41.08636000	-12.91215000
25.69999865	0.00000000	37.22933000	-11.70029000
25.89999864	-0.15871060	22.57013000	-8.91978400
26.09999863	0.00000000	0.47367120	-4.73671200
26.29999862	0.00000000	-24.60630000	-0.51058070
26.49999860	0.00000000	-46.98573000	2.55905500
26.69999859	0.00000000	-60.80831000	3.71555100
26.89999858	0.00000000	-62.80143000	2.51599400
27.09999857	0.00000000	-52.38681000	-1.01501000
27.29999856	0.00000000	-32.74483000	-6.86515700
27.49999854	0.00000000	-8.37229300	-14.21014000
27.69999853	0.00000000	15.21900000	-21.50590000
27.89999852	0.00000000	33.04010000	-26.89468000
28.09999851	0.00000000	41.46161000	-28.71555000
28.29999850	0.00000000	38.01673000	-25.96580000
28.49999848	0.00000000	23.45595000	-18.21481000
28.69999847	0.00000000	2.60826800	-7.43110200
28.89999846	0.00000000	-19.86343000	4.22613100
29.09999845	0.00000000	-39.58538000	14.59153000
29.29999844	0.00000000	-51.91929000	21.09375000
29.49999843	0.00000000	-54.37992000	21.37672000
29.69999841	0.00000000	-47.08415000	14.81914000
29.89999840	0.00000000	-32.79404000	2.46678100
30.09999839	0.00000000	-14.22859000	-12.62918000
30.29999838	0.00000000	4.28764700	-27.68824000
30.49999837	0.00000000	18.28863000	-39.62229000
30.69999835	0.00000000	25.68282000	-44.97416000
30.89999834	0.00000000	25.35679000	-42.64886000
31.09999833	0.00000000	17.63656000	-32.56643000
31.29999832	0.00000000	4.92741100	-16.72613000
31.49999831	0.00000000	-10.18086000	1.39640700
31.69999829	0.00000000	-24.09572000	17.98105000
31.89999828	0.00000000	-34.19045000	28.80782000
32.09999827	0.00000000	-38.47195000	31.96973000
32.29999826	0.00000000	-36.19587000	27.27608000
32.49999825	0.00000000	-28.51255000	15.28666000
32.69999824	0.00000000	-17.29823000	-1.71013800
32.89999822	0.00000000	-5.33956700	-19.83883000
33.09999821	0.00000000	4.70595500	-35.30389000
33.29999820	0.00000000	10.51919000	-44.59892000
33.49999819	0.00000000	10.98671000	-46.17987000
33.69999818	0.00000000	6.79749000	-39.99754000
33.89999816	0.00000000	-0.55364170	-27.26993000
34.09999815	0.00000000	-9.39345400	-11.05438000
34.29999814	0.00000000	-17.48893000	5.21038300
34.49999813	0.00000000	-22.55782000	18.35630000
34.69999812	0.00000000	-24.13878000	25.69513000
34.89999810	0.00000000	-22.18258000	25.69513000
35.09999809	0.00000000	-16.83686000	18.35630000
35.29999808	0.00000000	-9.95324800	5.29650500
35.49999807	0.00000000	-3.80782500	-10.12549000
35.69999806	0.00000000	0.09842519	-24.02190000
35.89999805	0.00000000	0.89197830	-33.67987000
36.09999803	0.00000000	-1.02116100	-36.74950000
36.29999802	0.00000000	-5.25344500	-32.60949000
36.49999801	0.00000000	-10.59916000	-22.99459000
36.69999800	0.00000000	-15.25591000	-10.67913000
36.89999799	0.00000000	-18.32554000	1.63016700
37.09999797	0.00000000	-19.06988000	10.45768000
37.29999796	0.00000000	-16.79380000	13.57037000
37.49999795	0.00000000	-12.60458000	10.54995000
37.69999794	0.00000000	-7.94783400	2.51599400
37.89999793	0.00000000	-3.71555100	-7.80634800
38.09999791	0.00000000	-1.02116100	-17.42126000
38.29999790	0.00000000	-0.59670270	-23.51132000
38.49999789	0.00000000	-2.13459600	-24.34178000
38.69999788	0.00000000	-5.25344500	-19.74655000
38.89999787	0.00000000	-9.48572700	-11.70029000
39.09999786	0.00000000	-13.71801000	-2.12844500
39.29999784	0.00000000	-16.83686000	5.85629900
39.49999783	0.00000000	-18.41781000	9.30118100
39.69999782	0.00000000	-18.41781000	7.43725300
39.89999781	0.00000000	-16.87992000	0.88582670
40.09999780	0.00000000	-14.18553000	-8.31077700
40.29999778	0.00000000	-11.02362000	-17.88263000
40.49999777	0.00000000	-7.52952700	-24.80315000
40.69999776	0.00000000	-4.04773600	-27.08538000
40.89999775	0.00000000	-1.75935000	-24.38484000
41.09999774	0.00000000	-0.97194880	-16.71998000
41.29999772	0.00000000	-2.09153500	-6.77903500
41.49999771	0.00000000	-4.41067900	2.46678100
41.69999770	0.00000000	-7.16043300	9.01205700
41.89999769	0.00000000	-10.64838000	10.92520000
42.09999768	0.00000000	-13.71801000	7.89862200
42.29999767	0.00000000	-15.67421000	1.02116100
42.49999765	0.00000000	-16.50467000	-7.47416300
42.69999764	0.00000000	-16.14173000	-15.56348000
42.89999763	0.00000000	-15.34203000	-21.73966000
43.09999762	0.00000000	-13.71801000	-24.02190000
43.29999761	0.00000000	-11.06668000	-22.20103000
43.49999759	0.00000000	-8.37229300	-17.18750000
43.69999758	0.00000000	-6.41609200	-10.67298000
43.89999757	0.00000000	-5.25344500	-4.08464600
44.09999756	0.00000000	-5.21038300	0.89197830
44.29999755	0.00000000	-5.90551100	3.25418300
44.49999753	0.00000000	-6.28075700	2.51599400
44.69999752	0.00000000	-6.32381900	-0.51058070
44.89999751	0.00000000	-6.36687900	-4.73671200
45.09999750	0.00000000	-6.79133800	-9.00590400
45.29999749	0.00000000	-7.99704600	-12.45079000
45.49999748	0.00000000	-9.95324800	-14.43775000
45.69999746	0.00000000	-12.69070000	-14.45005000
45.89999745	0.00000000	-15.76649000	-13.32431000
46.09999744	0.00000000	-18.46087000	-11.00517000
46.29999743	0.00000000	-19.95571000	-8.31077700
46.49999742	0.00000000	-19.53125000	-5.93626900
46.69999740	0.00000000	-16.79380000	-3.61712600
46.89999739	0.00000000	-12.13706000	-2.17150600
47.09999738	0.00000000	-6.32381900	-2.50369100
47.29999737	0.00000000	-0.51058070	-4.40452700
47.49999736	0.00000000	4.09694900	-6.68676100
47.69999734	0.00000000	6.37303100	-9.05511800
47.89999733	0.00000000	5.12426100	-11.00517000
48.09999732	0.00000000	0.09842519	-12.58612000
48.29999731	0.00000000	-7.99704600	-13.65650000
48.49999730	0.00000000	-16.83686000	-13.23819000
48.69999729	0.00000000	-24.18799000	-10.96211000
48.89999727	0.00000000	-28.42027000	-7.89247000
49.09999726	0.00000000	-28.42027000	-4.77977300
49.29999725	0.00000000	-24.09572000	-2.08538400
49.49999724	0.00000000	-15.99409000	-0.55364170
49.69999723	0.00000000	-5.62869100	-0.55364170
49.89999721	0.00000000	3.58636800	-2.12844500
50.09999720	0.00000000	9.40575800	-5.24729300
50.29999719	0.00000000	10.56225000	-9.43036400
50.49999718	0.00000000	6.70521600	-13.28125000
50.69999717	0.00000000	-1.02116100	-15.60654000
50.89999715	0.00000000	-11.02362000	-16.39395000
51.09999714	-0.15871060	-20.60162000	-15.18824000
51.29999713	0.00000000	-26.74705000	-12.11860000
51.49999712	0.00000000	-28.00197000	-7.89247000
51.69999711	0.00000000	-24.56324000	-3.66633800
51.89999710	0.00000000	-17.99951000	-0.59670270
52.09999708	0.00000000	-9.52879000	0.60285430
52.29999707	0.00000000	-1.48253000	-0.17839570
52.49999706	0.00000000	3.54330700	-2.50369100
52.69999705	0.00000000	4.70595500	-6.35457700
52.89999704	0.00000000	1.63016700	-10.53765000
53.09999702	0.00000000	-4.87819900	-13.65650000
53.29999701	0.00000000	-12.51230000	-15.18824000
53.49999700	0.00000000	-19.06988000	-14.81299000
53.69999699	0.00000000	-22.51476000	-12.53691000
53.89999698	0.00000000	-22.18258000	-9.51648500
54.09999696	0.00000000	-18.32554000	-6.77903500
54.29999695	0.00000000	-12.22933000	-4.87204700
54.49999694	0.00000000	-5.67175200	-4.08464600
54.69999693	0.00000000	-0.68897630	-4.82283400
54.89999692	0.00000000	1.63016700	-6.36072800
55.09999691	0.00000000	0.47367120	-8.26771600
55.29999689	0.00000000	-3.71555100	-10.11934000
55.49999688	0.00000000	-9.44266700	-10.49459000
55.69999687	0.00000000	-14.83760000	-9.38115100
55.89999686	0.00000000	-18.32554000	-7.47416300
56.09999685	0.00000000	-19.48819000	-5.19808000
56.29999683	0.00000000	-17.95029000	-3.70939900
56.49999682	0.00000000	-14.09326000	-3.66633800
56.69999681	0.00000000	-9.11048200	-4.87204700
56.89999680	0.00000000	-4.13385800	-7.19734200
57.09999679	0.00000000	-1.06422200	-10.67298000
57.29999677	0.00000000	-0.59670270	-14.03174000
57.49999676	0.00000000	-2.13459600	-15.97564000
57.69999675	0.00000000	-5.25344500	-15.51427000
57.89999674	0.00000000	-9.48572700	-12.86294000
58.09999673	0.00000000	-13.67495000	-8.22465500
58.29999672	0.00000000	-16.36934000	-3.24803100
58.49999670	0.00000000	-16.79380000	1.02116100
58.69999669	0.00000000	-15.29897000	3.62942900
58.89999668	0.00000000	-12.60458000	3.21112200
59.09999667	0.00000000	-9.52879000	-0.59670270
59.29999666	0.00000000	-6.83439900	-6.36072800
59.49999664	0.00000000	-5.25344500	-12.58612000
59.69999663	0.00000000	-4.87819900	-18.35015000
59.89999662	0.00000000	-5.67175200	-22.10876000
60.09999661	0.00000000	-7.94783400	-22.10876000
60.29999660	0.00000000	-10.55610000	-18.30093000
60.49999658	0.00000000	-12.13706000	-12.07554000
60.69999657	0.00000000	-12.55536000	-4.40452700
60.89999656	0.00000000	-12.18012000	2.87893700
61.09999655	0.00000000	-11.02362000	7.11737200
61.29999654	0.00000000	-9.48572700	7.89862200
61.49999653	0.00000000	-7.94783400	4.78592500
61.69999651	0.00000000	-6.83439900	-1.75935000
61.89999650	0.00000000	-6.83439900	-9.79945900
62.09999649	0.00000000	-7.94783400	-17.50738000
62.29999648	0.00000000	-9.48572700	-22.53322000
62.49999647	0.00000000	-11.06668000	-24.10802000
62.69999645	0.00000000	-12.55536000	-22.15797000
62.89999644	0.00000000	-13.34276000	-16.76919000
63.09999643	0.00000000	-12.93061000	-9.47342500
63.29999642	0.00000000	-11.81102000	-2.12844500
63.49999641	0.00000000	-9.86097400	3.67249000
63.69999639	0.00000000	-7.94783400	6.74212600
63.89999638	0.00000000	-6.41609200	6.36687900
64.09999637	0.00000000	-5.67175200	2.55905500
64.29999636	0.00000000	-6.41609200	-3.20497000
64.49999635	0.00000000	-7.94783400	-9.38115100
64.69999634	0.00000000	-9.86097400	-14.81299000
64.89999632	0.00000000	-11.81102000	-18.30093000
65.09999631	0.00000000	-12.93061000	-19.50664000
65.29999630	0.00000000	-13.34276000	-18.35015000
65.49999629	0.00000000	-12.55536000	-15.27436000
65.69999628	0.00000000	-11.06668000	-11.04823000
65.89999626	0.00000000	-9.48572700	-6.77903500
66.09999625	0.00000000	-7.99704600	-3.29109200
66.29999624	0.00000000	-7.25270600	-0.87967510
66.49999623	0.00000000	-7.99704600	0.28297240
66.69999622	0.00000000	-9.48572700	0.69512790
66.89999620	0.00000000	-11.02362000	-0.13533460
67.09999619	0.00000000	-12.18012000	-2.04232300
67.29999618	0.00000000	-12.55536000	-4.77977300
67.49999617	0.00000000	-12.13706000	-7.89247000
67.69999616	0.00000000	-10.55610000	-11.04823000
67.89999615	0.00000000	-7.94783400	-14.21014000
68.09999613	0.00000000	-5.62869100	-17.18750000
68.29999612	0.00000000	-4.50295200	-18.71309000
68.49999611	0.00000000	-4.50910400	-17.60581000
68.69999610	0.00000000	-6.50221400	-15.27436000
68.89999609	0.00000000	-9.90403500	-11.70029000
69.09999607	0.00000000	-13.81028000	-6.68676100
69.29999606	0.00000000	-17.25517000	-1.71013800
69.49999605	0.00000000	-19.53125000	2.18380900
69.69999604	0.00000000	-19.48819000	4.09079700
69.89999603	0.00000000	-16.79380000	3.71555100
70.09999601	0.00000000	-12.18012000	0.97810030
70.29999600	0.00000000	-6.74212600	-3.66633800
70.49999599	0.00000000	-1.75935000	-9.47342500
70.69999598	0.00000000	1.72244100	-15.23130000
70.89999597	0.00000000	2.47293300	-19.46358000
71.09999596	0.00000000	0.55979330	-20.99532000
71.29999594	0.00000000	-3.71555100	-19.46358000
71.49999593	0.00000000	-9.52879000	-15.28051000
71.69999592	0.00000000	-15.67421000	-9.89173200
71.89999591	0.00000000	-20.69390000	-4.82898600
72.09999590	0.00000000	-22.98228000	-0.59670270
72.29999588	0.00000000	-22.23179000	1.67322800
72.49999587	0.00000000	-18.37475000	0.97810030
72.69999586	0.00000000	-12.64764000	-1.66707700
72.89999585	0.00000000	-6.79133800	-5.15501900
73.09999584	0.00000000	-1.75935000	-8.96284400
73.29999582	0.00000000	1.72244100	-11.65723000
73.49999581	0.00000000	2.47293300	-12.49385000
73.69999580	0.00000000	0.55979330	-12.11860000
73.89999579	0.00000000	-3.71555100	-10.58686000
74.09999578	0.00000000	-9.44266700	-8.35383800
74.29999577	0.00000000	-14.83760000	-6.86515700
74.49999575	0.00000000	-18.37475000	-6.82209600
74.69999574	0.00000000	-19.90650000	-7.93553100
74.89999573	0.00000000	-19.15600000	-9.47342500
75.09999572	0.00000000	-16.09252000	-10.96211000
75.29999571	0.00000000	-12.27239000	-11.70029000
75.49999569	0.00000000	-8.37229300	-10.91289000
75.69999568	0.00000000	-5.29650500	-8.96284400
75.89999567	0.00000000	-3.75861200	-5.89320800
76.09999566	0.00000000	-4.09079700	-2.46063000
76.29999565	0.00000000	-5.94857300	-0.17839570
76.49999563	0.00000000	-7.86171200	0.55979330
76.69999562	0.00000000	-9.44266700	-1.02116100
76.89999561	0.00000000	-10.59916000	-4.82898600
77.09999560	0.00000000	-11.02362000	-9.47342500
77.29999559	0.00000000	-11.02362000	-14.11786000
77.49999558	0.00000000	-10.64838000	-17.93184000
77.69999556	0.00000000	-9.90403500	-19.46358000
77.89999555	0.00000000	-9.57800100	-18.30093000
78.09999554	0.00000000	-9.95324800	-14.81299000
78.29999553	0.00000000	-11.06668000	-9.42421200
78.49999552	0.00000000	-12.18012000	-3.66633800
78.69999550	0.00000000	-12.55536000	0.97810030
78.89999549	0.00000000	-12.18012000	3.67249000
79.09999548	0.00000000	-10.97441000	3.67249000
79.29999547	0.00000000	-9.06742000	1.02116100
79.49999546	0.00000000	-6.79133800	-3.24803100
79.69999544	0.00000000	-5.25344500	-8.26771600
79.89999543	0.00000000	-4.83513700	-13.28125000
80.09999542	0.00000000	-5.25344500	-16.72613000
80.29999541	0.00000000	-6.83439900	-17.97490000
80.49999540	0.00000000	-9.52879000	-17.23056000
80.69999539	0.00000000	-12.55536000	-15.27436000
80.89999537	0.00000000	-14.88066000	-12.16166000
81.09999536	0.00000000	-15.67421000	-8.31077700
81.29999535	0.00000000	-15.25591000	-4.87204700
81.49999534	0.00000000	-13.29970000	-2.46063000
81.69999533	0.00000000	-9.90403500	-1.29183100
81.89999531	0.00000000	-6.83439900	-0.87967510
82.09999530	0.00000000	-4.87819900	-1.66707700
82.29999529	0.00000000	-4.09079700	-3.19881900
82.49999528	0.00000000	-4.83513700	-5.15501900
82.69999527	0.00000000	-6.36687900	-7.51722400
82.89999525	0.00000000	-8.32308000	-9.84867000
83.09999524	0.00000000	-10.64838000	-12.21087000
83.29999523	0.00000000	-12.55536000	-14.11786000
83.49999522	0.00000000	-13.71801000	-15.27436000
83.69999521	0.00000000	-13.71801000	-15.23130000
83.89999520	0.00000000	-12.60458000	-13.65650000
84.09999518	0.00000000	-11.10974000	-10.58686000
84.29999517	0.00000000	-9.90403500	-6.72982200
84.49999516	0.00000000	-9.11048200	-3.24803100
84.69999515	0.00000000	-8.37229300	-0.51058070
84.89999514	0.00000000	-8.37229300	1.02116100
85.09999512	0.00000000	-9.06742000	0.97810030
85.29999511	0.00000000	-9.44266700	-0.97194880
85.49999510	0.00000000	-9.44266700	-4.82898600
85.69999509	0.00000000	-9.06742000	-9.43036400
85.89999508	0.00000000	-8.32308000	-13.69956000
86.09999506	0.00000000	-7.99704600	-16.76919000
86.29999505	0.00000000	-8.37229300	-17.88263000
86.49999504	0.00000000	-9.52879000	-16.35089000
86.69999503	0.00000000	-11.02362000	-12.53691000
86.89999502	0.00000000	-12.18012000	-7.93553100
87.09999501	0.00000000	-12.60458000	-3.66633800
87.29999499	0.00000000	-12.60458000	-0.55364170
87.49999498	0.00000000	-12.18012000	0.97810030
87.69999497	0.00000000	-11.02362000	0.55979330
87.89999496	0.00000000	-9.48572700	-2.12844500
88.09999495	0.00000000	-7.94783400	-6.35457700
88.29999493	0.00000000	-6.79133800	-10.95595000
88.49999492	0.00000000	-6.41609200	-14.81299000
88.69999491	0.00000000	-6.79133800	-16.67692000
88.89999490	0.00000000	-7.94783400	-15.97564000
89.09999489	0.00000000	-9.48572700	-12.91215000
89.29999487	0.00000000	-11.02362000	-9.05511800
89.49999486	0.00000000	-12.18012000	-4.77977300
89.69999485	0.00000000	-12.55536000	-1.02116100
89.89999484	0.00000000	-12.22933000	0.51673230
90.09999483	0.00000000	-11.44193000	-0.59670270
90.29999482	0.00000000	-10.69144000	-3.66633800
90.49999480	0.00000000	-9.86097400	-7.89247000
90.69999479	0.00000000	-9.11048200	-12.11860000
90.89999478	0.00000000	-8.32308000	-15.18824000
91.09999477	0.00000000	-7.99704600	-16.34473000
91.29999476	0.00000000	-8.32308000	-15.18824000
91.49999474	0.00000000	-9.06742000	-12.07554000
91.69999473	0.00000000	-9.44266700	-7.47416300
91.89999472	0.00000000	-9.48572700	-2.55290300
92.09999471	0.00000000	-9.48572700	0.51673230
92.29999470	0.00000000	-9.48572700	0.93503930
92.49999468	0.00000000	-9.48572700	-0.97194880
92.69999467	0.00000000	-9.52879000	-4.82898600
92.89999466	0.00000000	-9.95324800	-9.43036400
93.09999465	0.00000000	-11.10974000	-13.65650000
93.29999464	0.00000000	-12.55536000	-16.35089000
93.49999463	0.00000000	-13.34276000	-16.71998000
93.69999461	0.00000000	-12.97982000	-14.81299000
93.89999460	0.00000000	-12.18012000	-10.95595000
94.09999459	0.00000000	-10.59916000	-6.40378900
94.29999458	0.00000000	-8.32308000	-2.54675200
94.49999457	0.00000000	-6.41609200	-0.59670270
94.69999455	0.00000000	-5.21038300	-0.59670270
94.89999454	0.00000000	-4.87819900	-2.54675200
95.09999453	0.00000000	-5.67175200	-6.35457700
95.29999452	0.00000000	-7.99704600	-10.53765000
95.49999451	0.00000000	-11.06668000	-13.65650000
95.69999449	0.00000000	-14.13632000	-15.18824000
95.89999448	0.00000000	-16.46161000	-14.81299000
96.09999447	0.00000000	-17.25517000	-12.53691000
96.29999446	0.00000000	-16.83686000	-9.47342500
96.49999445	0.00000000	-14.88066000	-6.36072800
96.69999444	0.00000000	-11.39887000	-3.66633800
96.89999442	0.00000000	-7.57258800	-2.17150600
97.09999441	0.00000000	-4.04773600	-2.54675200
97.29999440	0.00000000	-1.75935000	-4.77977300
97.49999439	0.00000000	-0.97194880	-7.47416300
97.69999438	0.00000000	-2.17765700	-9.79945900
97.89999436	0.00000000	-5.25344500	-11.70029000
98.09999435	0.00000000	-9.48572700	-12.11860000
98.29999434	0.00000000	-13.71801000	-11.42347000
98.49999433	0.00000000	-16.83686000	-10.62992000
98.69999432	0.00000000	-18.41781000	-9.42421200
98.89999430	0.00000000	-18.37475000	-7.93553100
99.09999429	0.00000000	-16.46161000	-6.77903500
99.29999428	0.00000000	-13.02288000	-6.35457700
99.49999427	0.00000000	-9.52879000	-6.31151500
99.69999426	0.00000000	-6.36687900	-6.31151500
99.89999425	0.00000000	-3.67249000	-6.31151500
100.09999423	0.00000000	-2.17765700	-6.31151500
100.29999422	0.00000000	-2.55290300	-6.26845500
100.49999421	0.00000000	-4.78592500	-5.93626900
100.69999420	0.00000000	-7.48646600	-5.61638700
100.89999419	0.00000000	-9.90403500	-6.40378900
101.09999417	0.00000000	-12.64764000	-7.89247000
101.29999416	0.00000000	-15.25591000	-9.47342500
101.49999415	0.00000000	-16.41855000	-11.00517000
101.69999414	0.00000000	-15.76649000	-12.11860000
101.89999413	0.00000000	-14.56078000	-12.11860000
102.09999411	0.00000000	-12.96752000	-10.96211000
102.29999410	0.00000000	-10.27928000	-9.00590400
102.49999409	0.00000000	-7.99704600	-6.31151500
102.69999408	0.00000000	-6.36687900	-3.66633800
102.89999407	0.00000000	-5.25344500	-2.12844500
103.09999406	0.00000000	-5.25344500	-2.08538400
103.29999404	0.00000000	-6.36687900	-3.29109200
103.49999403	0.00000000	-7.90477300	-5.61638700
103.69999402	0.00000000	-9.48572700	-9.05511800
103.89999401	0.00000000	-11.06668000	-12.07554000
104.09999400	0.00000000	-12.60458000	-13.69956000
104.29999398	0.00000000	-13.71801000	-14.07480000
104.49999397	0.00000000	-13.71801000	-13.28125000
104.69999396	0.00000000	-12.60458000	-10.96211000
104.89999395	0.00000000	-11.06668000	-7.93553100
105.09999394	0.00000000	-9.52879000	-5.19808000
105.29999392	0.00000000	-8.32308000	-3.29109200
105.49999391	0.00000000	-7.57258800	-2.50369100
105.69999390	0.00000000	-7.20964500	-3.29109200
105.89999389	0.00000000	-7.94783400	-5.15501900
106.09999388	0.00000000	-9.06742000	-7.51722400
106.29999387	0.00000000	-9.86097400	-9.79945900
106.49999385	0.00000000	-10.64838000	-11.70029000
106.69999384	0.00000000	-11.02362000	-12.07554000
106.89999383	0.00000000	-11.02362000	-11.00517000
107.09999382	0.00000000	-10.64838000	-9.47342500
107.29999381	0.00000000	-9.86097400	-7.89247000
107.49999379	0.00000000	-9.11048200	-6.36072800
107.69999378	0.00000000	-8.37229300	-5.24729300
107.89999377	0.00000000	-8.37229300	-5.24729300
108.09999376	0.00000000	-9.11048200	-6.36072800
108.29999375	0.00000000	-9.90403500	-7.89247000
108.49999374	0.00000000	-11.06668000	-9.42421200
108.69999372	0.00000000	-12.18012000	-10.58686000
108.89999371	0.00000000	-12.55536000	-10.95595000
109.09999370	0.00000000	-12.18012000	-10.58686000
109.29999369	0.00000000	-11.06668000	-9.42421200
109.49999368	0.00000000	-9.90403500	-7.89247000
109.69999366	0.00000000	-9.11048200	-6.36072800
109.89999365	0.00000000	-8.32308000	-5.19808000
110.09999364	0.00000000	-7.99704600	-4.82898600
110.29999363	0.00000000	-8.32308000	-5.19808000
110.49999362	0.00000000	-9.11048200	-6.36072800
110.69999360	0.00000000	-9.86097400	-7.89247000
110.89999359	0.00000000	-10.69144000	-9.42421200
111.09999358	0.00000000	-11.44193000	-10.58686000
111.29999357	0.00000000	-12.18012000	-11.00517000
111.49999356	0.00000000	-12.18012000	-11.00517000
111.69999355	0.00000000	-11.44193000	-10.58686000
111.89999353	0.00000000	-10.69144000	-9.42421200
112.09999352	0.00000000	-9.90403500	-7.93553100
112.29999351	0.00000000	-9.48572700	-6.77903500
112.49999350	0.00000000	-9.11048200	-6.35457700
112.69999349	0.00000000	-8.74138700	-6.31151500
112.89999347	0.00000000	-9.11048200	-6.35457700
113.09999346	0.00000000	-9.48572700	-6.72982200
113.29999345	0.00000000	-9.90403500	-7.47416300
113.49999344	0.00000000	-10.64838000	-7.84940900
113.69999343	0.00000000	-11.02362000	-7.89247000
113.89999341	0.00000000	-11.02362000	-7.93553100
114.09999340	0.00000000	-10.69144000	-8.31077700
114.29999339	0.00000000	-10.27928000	-9.05511800
114.49999338	0.00000000	-10.27313000	-9.43036400
114.69999337	0.00000000	-9.86097400	-9.47342500
114.89999336	0.00000000	-9.52879000	-9.47342500
115.09999334	0.00000000	-9.48572700	-9.47342500
115.29999333	0.00000000	-9.48572700	-9.43036400
115.49999332	0.00000000	-9.48572700	-9.00590400
115.69999331	0.00000000	-9.48572700	-7.89247000
115.89999330	0.00000000	-9.52879000	-6.77903500
116.09999328	0.00000000	-9.90403500	-6.31151500
116.29999327	0.00000000	-10.64838000	-5.93626900
116.49999326	0.00000000	-11.02362000	-5.57332700
116.69999325	0.00000000	-11.06668000	-5.98548200
116.89999324	0.00000000	-11.02362000	-6.72982200
117.09999322	0.00000000	-10.64838000	-7.89247000
117.29999321	0.00000000	-9.86097400	-9.05511800
117.49999320	0.00000000	-9.11048200	-9.84867000
117.69999319	0.00000000	-8.32308000	-10.62992000
117.89999318	0.00000000	-7.94783400	-10.95595000
118.09999317	0.00000000	-7.94783400	-10.62992000
118.29999315	0.00000000	-8.32308000	-9.84867000
118.49999314	0.00000000	-9.11048200	-9.09817800
118.69999313	0.00000000	-9.90403500	-8.26771600
118.89999312	0.00000000	-11.06668000	-7.51722400
119.09999311	0.00000000	-12.18012000	-6.72982200
119.29999309	0.00000000	-12.55536000	-6.35457700
119.49999308	0.00000000	-12.22933000	-6.35457700
119.69999307	0.00000000	-11.44193000	-6.72982200
119.89999306	0.00000000	-10.64838000	-7.47416300
120.09999305	0.00000000	-9.48572700	-7.89247000
120.29999303	0.00000000	-8.32308000	-8.31077700
120.49999302	0.00000000	-7.52952700	-9.05511800
120.69999301	0.00000000	-6.79133800	-9.43036400
120.89999300	0.00000000	-6.83439900	-9.47342500
121.09999299	0.00000000	-7.94783400	-9.43036400
121.29999298	0.00000000	-9.44266700	-9.05511800
121.49999296	0.00000000	-10.64838000	-8.31077700
121.69999295	0.00000000	-11.44193000	-7.93553100
121.89999294	0.00000000	-12.22933000	-7.89247000
122.09999293	0.00000000	-12.60458000	-7.84940900
122.29999292	0.00000000	-12.60458000	-7.51722400
122.49999290	0.00000000	-12.18012000	-7.10506800
122.69999289	0.00000000	-11.06668000	-7.09891700
122.89999288	0.00000000	-9.90403500	-6.72982200
123.09999287	0.00000000	-9.11048200	-6.77903500
123.29999286	0.00000000	-8.32308000	-7.47416300
123.49999284	0.00000000	-7.94783400	-7.84940900
123.69999283	0.00000000	-7.90477300	-7.89247000
123.89999282	0.00000000	-7.94783400	-7.93553100
124.09999281	0.00000000	-8.37229300	-8.31077700
124.29999280	0.00000000	-9.48572700	-9.05511800
124.49999279	0.00000000	-10.64838000	-9.43036400
124.69999277	0.00000000	-11.44193000	-9.43036400
124.89999276	0.00000000	-12.22933000	-9.05511800
125.09999275	0.00000000	-12.60458000	-8.31077700
125.29999274	0.00000000	-12.60458000	-7.89247000
125.49999273	0.00000000	-12.18012000	-7.47416300
125.69999271	0.00000000	-11.06668000	-6.72982200
125.89999270	0.00000000	-9.90403500	-6.35457700
126.09999269	0.00000000	-9.11048200	-6.31151500
126.29999268	0.00000000	-8.32308000	-6.35457700
126.49999267	0.00000000	-7.94783400	-6.72982200
126.69999265	0.00000000	-7.94783400	-7.47416300
126.89999264	0.00000000	-8.37229300	-7.89247000
127.09999263	0.00000000	-9.52879000	-8.31077700
127.29999262	0.00000000	-11.02362000	-9.05511800
127.49999261	0.00000000	-12.18012000	-9.38115100
127.69999260	0.00000000	-12.60458000	-9.05511800
127.89999258	0.00000000	-12.60458000	-8.31077700
128.09999257	0.00000000	-12.18012000	-7.93553100
128.29999256	0.00000000	-11.06668000	-7.89247000
128.49999255	0.00000000	-9.90403500	-7.89247000
128.69999254	0.00000000	-9.11048200	-7.89247000
128.89999252	0.00000000	-8.32308000	-7.89247000
129.09999251	0.00000000	-7.94783400	-7.89247000
129.29999250	0.00000000	-7.94783400	-7.93553100
129.49999249	0.00000000	-8.37229300	-8.26771600
129.69999248	0.00000000	-9.48572700	-8.67987200
129.89999246	0.00000000	-10.64838000	-8.64296200
130.09999245	0.00000000	-11.44193000	-8.67987200
130.29999244	0.00000000	-12.18012000	-8.26771600
130.49999243	0.00000000	-12.18012000	-7.93553100
130.69999242	0.00000000	-11.44193000	-7.89247000
130.89999241	0.00000000	-10.64838000	-7.89247000
131.09999239	0.00000000	-9.48572700	-7.89247000
131.29999238	0.00000000	-8.37229300	-7.93553100
131.49999237	0.00000000	-7.99704600	-8.26771600
131.69999236	0.00000000	-8.32308000	-8.67987200
131.89999235	0.00000000	-9.11048200	-8.68602300
132.09999233	0.00000000	-9.86097400	-9.09817800
132.29999232	0.00000000	-10.64838000	-9.43036400
132.49999231	0.00000000	-11.02362000	-9.43036400
132.69999230	0.00000000	-11.06668000	-9.05511800
132.89999229	0.00000000	-11.06668000	-8.31077700
133.09999227	0.00000000	-11.02362000	-7.89247000
133.29999226	0.00000000	-10.64838000	-7.47416300
133.49999225	0.00000000	-9.90403500	-6.72982200
133.69999224	0.00000000	-9.52879000	-6.40378900
133.89999223	0.00000000	-9.52879000	-6.72982200
134.09999222	0.00000000	-9.86097400	-7.51722400
134.29999220	0.00000000	-10.23007000	-8.26771600
134.49999219	0.00000000	-9.86097400	-9.05511800
134.69999218	0.00000000	-9.52879000	-9.43036400
134.89999217	0.00000000	-9.48572700	-9.47342500
135.09999216	0.00000000	-9.48572700	-9.47342500
135.29999214	0.00000000	-9.48572700	-9.43036400
135.49999213	0.00000000	-9.48572700	-9.05511800
135.69999212	0.00000000	-9.52879000	-8.31077700
135.89999211	0.00000000	-9.90403500	-7.89247000
136.09999210	0.00000000	-10.64838000	-7.47416300
136.29999208	0.00000000	-11.02362000	-6.72982200
136.49999207	0.00000000	-11.06668000	-6.40378900
136.69999206	0.00000000	-11.06668000	-6.72982200
136.89999205	0.00000000	-11.02362000	-7.47416300
137.09999204	0.00000000	-10.64838000	-7.84940900
137.29999203	0.00000000	-9.86097400	-7.93553100
137.49999201	0.00000000	-9.11048200	-8.31077700
137.69999200	0.00000000	-8.37229300	-9.05511800
137.89999199	0.00000000	-8.37229300	-9.43036400
138.09999198	0.00000000	-9.06742000	-9.47342500
138.29999197	0.00000000	-9.48572700	-9.43036400
138.49999195	0.00000000	-9.90403500	-9.09817800
138.69999194	0.00000000	-10.64838000	-8.68602300
138.89999193	0.00000000	-11.02362000	-8.67987200
139.09999192	0.00000000	-11.06668000	-8.22465500
139.29999191	0.00000000	-11.02362000	-7.51722400
139.49999189	0.00000000	-10.64838000	-6.72982200
139.69999188	0.00000000	-9.90403500	-6.40378900
139.89999187	0.00000000	-9.52879000	-6.72982200
140.09999186	0.00000000	-9.48572700	-7.51722400
140.29999185	0.00000000	-9.48572700	-8.26771600
140.49999184	0.00000000	-9.48572700	-9.05511800
140.69999182	0.00000000	-9.52879000	-9.43036400
140.89999181	0.00000000	-9.90403500	-9.47342500
141.09999180	0.00000000	-10.64838000	-9.47342500
141.29999179	0.00000000	-11.02362000	-9.43036400
141.49999178	0.00000000	-11.06668000	-9.05511800
141.69999176	0.00000000	-11.02362000	-8.26771600
141.89999175	0.00000000	-10.64838000	-7.51722400
142.09999174	0.00000000	-9.90403500	-6.72982200
142.29999173	0.00000000	-9.52879000	-6.35457700
142.49999172	0.00000000	-9.48572700	-6.35457700
142.69999170	0.00000000	-9.48572700	-6.72982200
142.89999169	0.00000000	-9.52879000	-7.51722400
143.09999168	0.00000000	-9.90403500	-8.26771600
143.29999167	0.00000000	-10.64838000	-9.09817800
143.49999166	0.00000000	-11.02362000	-9.79945900
143.69999165	0.00000000	-11.02362000	-10.21161000
143.89999163	0.00000000	-10.64838000	-9.79945900
144.09999162	0.00000000	-9.90403500	-9.09817800
144.29999161	0.00000000	-9.52879000	-8.26771600
144.49999160	0.00000000	-9.48572700	-7.51722400
144.69999159	0.00000000	-9.48572700	-6.72982200
144.89999157	0.00000000	-9.48572700	-6.35457700
145.09999156	0.00000000	-9.48572700	-6.35457700
145.29999155	0.00000000	-9.52879000	-6.72982200
145.49999154	0.00000000	-9.90403500	-7.47416300
145.69999153	0.00000000	-10.64838000	-7.89247000
145.89999151	0.00000000	-11.02362000	-8.31077700
146.09999150	0.00000000	-11.06668000	-9.05511800
146.29999149	0.00000000	-11.02362000	-9.43036400
146.49999148	0.00000000	-10.64838000	-9.47342500
146.69999147	0.00000000	-9.90403500	-9.43036400
146.89999146	0.00000000	-9.52879000	-9.05511800
147.09999144	0.00000000	-9.48572700	-8.31077700
147.29999143	0.00000000	-9.48572700	-7.93553100
147.49999142	0.00000000	-9.52879000	-7.89247000
147.69999141	0.00000000	-9.86097400	-7.84940900
147.89999140	0.00000000	-10.27313000	-7.51722400
148.09999138	0.00000000	-10.27928000	-7.14812900
148.29999137	0.00000000	-10.69144000	-7.51722400
148.49999136	0.00000000	-11.02362000	-7.89247000
148.69999135	0.00000000	-11.02362000	-8.31077700
148.89999134	0.00000000	-10.64838000	-9.05511800
149.09999132	0.00000000	-9.90403500	-9.43036400
149.29999131	0.00000000	-9.52879000	-9.43036400
149.49999130	0.00000000	-9.48572700	-9.05511800
149.69999129	0.00000000	-9.48572700	-8.31077700
149.89999128	0.00000000	-9.48572700	-7.93553100
150.09999127	0.00000000	-9.48572700	-7.89247000
150.29999125	0.00000000	-9.48572700	-7.84940900
150.49999124	0.00000000	-9.52879000	-7.51722400
150.69999123	0.00000000	-9.90403500	-7.14812900
150.89999122	0.00000000	-10.64838000	-7.51722400
151.09999121	0.00000000	-11.02362000	-7.84940900
151.29999119	0.00000000	-11.02362000	-7.89247000
151.49999118	0.00000000	-10.69144000	-7.89247000
151.69999117	0.00000000	-10.27928000	-7.89247000
151.89999116	0.00000000	-10.27313000	-7.89247000
152.09999115	0.00000000	-9.86097400	-7.93553100
152.29999113	0.00000000	-9.52879000	-8.26771600
152.49999112	0.00000000	-9.48572700	-8.63681000
152.69999111	0.00000000	-9.48572700	-8.26771600
152.89999110	0.00000000	-9.48572700	-7.93553100
153.09999109	0.00000000	-9.48572700	-7.89247000
153.29999108	0.00000000	-9.52879000	-7.89247000
153.49999106	0.00000000	-9.90403500	-7.89247000
153.69999105	0.00000000	-10.64838000	-7.89247000
153.89999104	0.00000000	-11.02362000	-7.89247000
154.09999103	0.00000000	-11.06668000	-7.89247000
154.29999102	0.00000000	-11.06668000	-7.89247000
154.49999100	0.00000000	-11.02362000	-7.89247000
154.69999099	0.00000000	-10.64838000	-7.89247000
154.89999098	0.00000000	-9.90403500	-7.93553100
155.09999097	0.00000000	-9.52879000	-8.26771600
155.29999096	0.00000000	-9.48572700	-8.67987200
155.49999094	0.00000000	-9.48572700	-8.64296200
155.69999093	0.00000000	-9.48572700	-8.67987200
155.89999092	0.00000000	-9.48572700	-8.26771600
156.09999091	0.00000000	-9.52879000	-7.93553100
156.29999090	0.00000000	-9.90403500	-7.89247000
156.49999089	0.00000000	-10.64838000	-7.84940900
156.69999087	0.00000000	-11.02362000	-7.47416300
156.89999086	0.00000000	-11.06668000	-6.77903500
157.09999085	0.00000000	-11.06668000	-6.77903500
157.29999084	0.00000000	-11.06668000	-7.47416300
157.49999083	0.00000000	-11.06668000	-7.84940900
157.69999081	0.00000000	-11.02362000	-7.93553100
157.89999080	0.00000000	-10.64838000	-8.31077700
158.09999079	0.00000000	-9.90403500	-9.05511800
158.29999078	0.00000000	-9.52879000	-9.43036400
158.49999077	0.00000000	-9.48572700	-9.43036400
158.69999075	0.00000000	-9.48572700	-9.05511800
158.89999074	0.00000000	-9.48572700	-8.31077700
159.09999073	0.00000000	-9.52879000	-7.93553100
159.29999072	0.00000000	-9.86097400	-7.84940900
159.49999071	0.00000000	-10.27313000	-7.47416300
159.69999070	0.00000000	-10.27928000	-6.77903500
159.89999068	0.00000000	-10.69144000	-6.77903500
160.09999067	0.00000000	-11.02362000	-7.47416300
160.29999066	0.00000000	-11.06668000	-7.84940900
160.49999065	0.00000000	-11.06668000	-7.89247000
160.69999064	0.00000000	-11.02362000	-7.89247000
160.89999062	0.00000000	-10.64838000	-7.93553100
161.09999061	0.00000000	-9.90403500	-8.31077700
161.29999060	0.00000000	-9.52879000	-9.00590400
161.49999059	0.00000000	-9.48572700	-9.00590400
161.69999058	0.00000000	-9.48572700	-8.31077700
161.89999056	0.00000000	-9.48572700	-7.93553100
162.09999055	0.00000000	-9.48572700	-7.89247000
162.29999054	0.00000000	-9.48572700	-7.89247000
162.49999053	0.00000000	-9.52879000	-7.89247000
162.69999052	-0.15871060	-9.86097400	-7.89247000
162.89999051	0.00000000	-10.27313000	-7.89247000
163.09999049	0.00000000	-10.27928000	-7.89247000
163.29999048	0.00000000	-10.69144000	-7.89247000
163.49999047	0.00000000	-11.02362000	-7.89247000
163.69999046	0.00000000	-11.06668000	-7.89247000
163.89999045	0.00000000	-11.06668000	-7.89247000
164.09999043	0.00000000	-11.02362000	-7.89247000
164.29999042	0.00000000	-10.64838000	-7.89247000
164.49999041	0.00000000	-9.90403500	-7.93553100
164.69999040	0.00000000	-9.52879000	-8.26771600
164.89999039	0.00000000	-9.48572700	-8.67987200
165.09999037	0.00000000	-9.48572700	-8.64296200
165.29999036	0.00000000	-9.48572700	-8.67987200
165.49999035	0.00000000	-9.52879000	-8.26771600
165.69999034	0.00000000	-9.90403500	-7.93553100
165.89999033	0.00000000	-10.64838000	-7.89247000
166.09999032	0.00000000	-11.02362000	-7.89247000
166.29999030	0.00000000	-11.06668000	-7.89247000
166.49999029	0.00000000	-11.06668000	-7.89247000
166.69999028	0.00000000	-11.06668000	-7.89247000
166.89999027	0.00000000	-11.02362000	-7.89247000
167.09999026	0.00000000	-10.64838000	-7.89247000
167.29999024	0.00000000	-9.90403500	-7.89247000
167.49999023	0.00000000	-9.52879000	-7.89247000
167.69999022	0.00000000	-9.48572700	-7.89247000
167.89999021	0.00000000	-9.48572700	-7.89247000
168.09999020	0.00000000	-9.48572700	-7.89247000
168.29999018	0.00000000	-9.48572700	-7.89247000
168.49999017	0.00000000	-9.48572700	-7.89247000
168.69999016	0.00000000	-9.48572700	-7.89247000
168.89999015	0.00000000	-9.52879000	-7.89247000
169.09999014	0.00000000	-9.90403500	-7.89247000
169.29999013	0.00000000	-10.64838000	-7.89247000
169.49999011	0.00000000	-11.02362000	-7.89247000
169.69999010	0.00000000	-11.06668000	-7.89247000
169.89999009	0.00000000	-11.02362000	-7.89247000
170.09999008	0.00000000	-10.69144000	-7.89247000
170.29999007	0.00000000	-10.27928000	-7.89247000
170.49999005	0.00000000	-10.27313000	-7.89247000
170.69999004	0.00000000	-9.86097400	-7.89247000
170.89999003	0.00000000	-9.52879000	-7.89247000
171.09999002	0.00000000	-9.48572700	-7.89247000
171.29999001	0.00000000	-9.48572700	-7.89247000
171.49998999	0.00000000	-9.48572700	-7.89247000
171.69998998	0.00000000	-9.48572700	-7.89247000
171.89998997	0.00000000	-9.48572700	-7.89247000
172.09998996	0.00000000	-9.48572700	-7.89247000
172.29998995	0.00000000	-9.52879000	-7.89247000
172.49998994	0.00000000	-9.86097400	-7.89247000
172.69998992	0.00000000	-10.27313000	-7.89247000
172.89998991	0.00000000	-10.27928000	-7.89247000
173.09998990	0.00000000	-10.69144000	-7.89247000
173.29998989	0.00000000	-10.97441000	-7.89247000
173.49998988	0.00000000	-10.64838000	-7.89247000
173.69998986	0.00000000	-9.90403500	-7.89247000
173.89998985	0.00000000	-9.52879000	-7.89247000
174.09998984	0.00000000	-9.52879000	-7.89247000
174.29998983	0.00000000	-9.86097400	-7.89247000
174.49998982	0.00000000	-10.27313000	-7.89247000
174.69998980	0.00000000	-10.23622000	-7.89247000
174.89998979	0.00000000	-10.31619000	-7.89247000
175.09998978	0.00000000	-10.23622000	-7.89247000
175.29998977	0.00000000	-10.31619000	-7.89247000
175.49998976	0.00000000	-10.23622000	-7.89247000
175.69998975	0.00000000	-10.27313000	-7.89247000
175.89998973	0.00000000	-9.90403500	-7.89247000
176.09998972	0.00000000	-9.90403500	-7.89247000
176.29998971	0.00000000	-10.23007000	-7.89247000
176.49998970	0.00000000	-9.90403500	-7.89247000
176.69998969	0.00000000	-9.90403500	-7.89247000
176.89998967	0.00000000	-10.27313000	-7.89247000
177.09998966	0.00000000	-10.27928000	-7.89247000
177.29998965	0.00000000	-10.69144000	-7.89247000
177.49998964	0.00000000	-10.97441000	-7.89247000
177.69998963	0.00000000	-10.64838000	-7.89247000
177.89998961	0.00000000	-9.90403500	-7.89247000
178.09998960	0.00000000	-9.57800100	-7.89247000
178.29998959	0.00000000	-9.86097400	-7.89247000
178.49998958	0.00000000	-10.23007000	-7.89247000
178.69998957	0.00000000	-9.86097400	-7.89247000
178.89998956	0.00000000	-9.52879000	-7.89247000
179.09998954	0.00000000	-9.52879000	-7.89247000
179.29998953	0.00000000	-9.86097400	-7.89247000
179.49998952	0.00000000	-10.23007000	-7.89247000
179.69998951	0.00000000	-9.86097400	-7.89247000
179.89998950	0.00000000	-9.52879000	-7.89247000
180.09998948	0.00000000	-9.48572700	-7.89247000
180.29998947	0.00000000	-9.48572700	-7.89247000
180.49998946	0.00000000	-9.52879000	-7.89247000
180.69998945	0.00000000	-9.86097400	-7.89247000
180.89998944	0.00000000	-10.27313000	-7.89247000
181.09998942	0.00000000	-10.27928000	-7.89247000
181.29998941	0.00000000	-10.64838000	-7.89247000
181.49998940	0.00000000	-10.59916000	-7.89247000
181.69998939	0.00000000	-9.90403500	-7.89247000
181.89998938	0.00000000	-9.52879000	-7.89247000
182.09998937	0.00000000	-9.48572700	-7.89247000
182.29998935	0.00000000	-9.48572700	-7.89247000
182.49998934	0.00000000	-9.48572700	-7.89247000
182.69998933	0.00000000	-9.48572700	-7.89247000
182.89998932	0.00000000	-9.48572700	-7.93553100
183.09998931	0.00000000	-9.48572700	-8.31077700
183.29998929	0.00000000	-9.48572700	-9.05511800
183.49998928	0.00000000	-9.48572700	-9.38115100
183.69998927	0.00000000	-9.52879000	-9.05511800
183.89998926	0.00000000	-9.90403500	-8.31077700
184.09998925	0.00000000	-10.64838000	-7.93553100
184.29998923	0.00000000	-11.02362000	-7.89247000
184.49998922	0.00000000	-11.06668000	-7.84940900
184.69998921	0.00000000	-11.02362000	-7.51722400
184.89998920	0.00000000	-10.64838000	-7.14812900
185.09998919	0.00000000	-9.90403500	-7.51722400
185.29998918	0.00000000	-9.52879000	-7.84940900
185.49998916	0.00000000	-9.48572700	-7.93553100
185.69998915	0.00000000	-9.48572700	-8.31077700
185.89998914	0.00000000	-9.48572700	-9.05511800
186.09998913	0.00000000	-9.48572700	-9.43036400
186.29998912	0.00000000	-9.48572700	-9.43036400
186.49998910	0.00000000	-9.48572700	-9.05511800
186.69998909	0.00000000	-9.52879000	-8.31077700
186.89998908	0.00000000	-9.90403500	-7.93553100
187.09998907	0.00000000	-10.64838000	-7.89247000
187.29998906	0.00000000	-11.02362000	-7.89247000
187.49998904	0.00000000	-11.06668000	-7.89247000
187.69998903	0.00000000	-11.02362000	-7.89247000
187.89998902	0.00000000	-10.64838000	-7.89247000
188.09998901	0.00000000	-9.90403500	-7.89247000
188.29998900	0.00000000	-9.52879000	-7.89247000
188.49998899	0.00000000	-9.48572700	-7.93553100
188.69998897	0.00000000	-9.48572700	-8.31077700
188.89998896	0.00000000	-9.48572700	-9.00590400
189.09998895	0.00000000	-9.48572700	-9.05511800
189.29998894	0.00000000	-9.48572700	-8.68602300
189.49998893	0.00000000	-9.52879000	-8.67987200
189.69998891	0.00000000	-9.90403500	-8.26771600
189.89998890	0.00000000	-10.64838000	-7.93553100
190.09998889	0.00000000	-11.02362000	-7.89247000
190.29998888	0.00000000	-11.06668000	-7.89247000
190.49998887	0.00000000	-11.06668000	-7.89247000
190.69998885	0.00000000	-11.06668000	-7.89247000
190.89998884	0.00000000	-11.02362000	-7.89247000
191.09998883	0.00000000	-10.64838000	-7.89247000
191.29998882	0.00000000	-9.90403500	-7.89247000
191.49998881	0.00000000	-9.52879000	-7.89247000
191.69998880	0.00000000	-9.48572700	-7.89247000
191.89998878	0.00000000	-9.48572700	-7.89247000
192.09998877	0.00000000	-9.48572700	-7.89247000
192.29998876	0.00000000	-9.52879000	-7.89247000
192.49998875	0.00000000	-9.90403500	-7.89247000
192.69998874	0.00000000	-10.64838000	-7.89247000
192.89998872	0.00000000	-11.02362000	-7.89247000
193.09998871	0.00000000	-11.06668000	-7.89247000
193.29998870	0.00000000	-11.06668000	-7.89247000
193.49998869	0.00000000	-11.06668000	-7.89247000
193.69998868	0.00000000	-11.02362000	-7.89247000
193.89998866	0.00000000	-10.64838000	-7.89247000
194.09998865	0.00000000	-9.90403500	-7.89247000
194.29998864	0.00000000	-9.52879000	-7.89247000
194.49998863	0.00000000	-9.48572700	-7.89247000
194.69998862	0.00000000	-9.48572700	-7.89247000
194.89998861	0.00000000	-9.52879000	-7.89247000
195.09998859	0.00000000	-9.90403500	-7.89247000
195.29998858	0.00000000	-10.64838000	-7.89247000
195.49998857	0.00000000	-11.02362000	-7.89247000
195.69998856	0.00000000	-11.06668000	-7.89247000
195.89998855	0.00000000	-11.06668000	-7.89247000
196.09998853	0.00000000	-11.06668000	-7.89247000
