Time	Channel A	Channel B
(us)	(V)	(mV)

-4.49999956	0.00000000	-15.99409000
-4.29999957	0.00000000	-16.44316000
-4.09999958	0.00000000	-16.45546000
-3.89999959	0.00000000	-16.85531000
-3.69999960	0.00000000	-16.80610000
-3.49999962	0.00000000	-16.04331000
-3.29999963	0.00000000	-15.68036000
-3.09999964	0.00000000	-16.04331000
-2.89999965	0.00000000	-16.85531000
-2.69999966	0.00000000	-17.26747000
-2.49999968	0.00000000	-17.31668000
-2.29999969	0.00000000	-17.31668000
-2.09999970	0.00000000	-17.26747000
-1.89999971	0.00000000	-16.90453000
-1.69999972	0.00000000	-16.50467000
-1.49999973	0.00000000	-16.90453000
-1.29999975	0.00000000	-17.26747000
-1.09999976	0.00000000	-17.26747000
-0.89999977	0.00000000	-16.90453000
-0.69999978	0.00000000	-16.45546000
-0.49999979	0.00000000	-16.49237000
-0.29999981	0.35125490	-16.40625000
-0.09999982	0.70250980	-16.49237000
0.10000017	1.05376500	-16.45546000
0.30000016	0.87844490	-16.90453000
0.50000015	0.70250980	-17.26747000
0.70000013	0.00000000	-17.31668000
0.90000012	-0.87844490	-17.31668000
1.10000011	-1.93282500	-17.26747000
1.30000010	-2.63533500	-16.85531000
1.50000009	-2.81127000	-16.04331000
1.70000008	-2.10814500	-15.63115000
1.90000006	-0.70250980	-15.58194000
2.10000005	1.22970000	-15.58194000
2.30000004	3.33846000	-15.53273000
2.50000003	4.91941500	-15.21900000
2.70000002	5.27128500	-15.23130000
2.90000000	4.21690500	-16.44931000
3.09999999	1.93282500	-17.21826000
3.29999998	-1.40563500	-17.26747000
3.49999997	-4.74409400	-16.80610000
3.69999996	-7.20410900	-15.58194000
3.89999994	-7.90661900	-14.36393000
4.09999993	-6.67691900	-13.90256000
4.29999992	-3.68971500	-13.85334000
4.49999991	0.52657480	-13.85334000
4.69999990	4.91941500	-13.90256000
4.89999989	8.08255400	-14.36393000
5.09999987	9.31225400	-15.58194000
5.29999986	8.25849000	-16.80610000
5.49999985	5.09534900	-17.26747000
5.69999984	0.52657480	-17.31668000
5.89999983	-4.21690500	-17.26747000
6.09999981	-7.73129900	-16.80610000
6.29999980	-9.48818900	-15.63115000
6.49999979	-8.78567900	-14.76993000
6.69999978	-5.79847400	-14.71457000
6.89999977	-1.58095500	-14.26550000
7.09999975	2.63533500	-13.95177000
7.29999974	5.97379400	-14.31471000
7.49999973	7.55536400	-15.16978000
7.69999972	7.20410900	-15.99409000
7.89999971	5.09534900	-16.85531000
8.09999970	1.93282500	-17.26747000
8.29999968	-1.22970000	-17.31668000
8.49999967	-3.68971500	-17.26747000
8.69999966	-5.09534900	-16.85531000
8.89999965	-4.91941500	-16.04331000
9.09999964	-3.68971500	-15.68036000
9.29999962	-1.75689000	-15.99409000
9.49999961	0.17531990	-16.39395000
9.69999960	1.58095500	-16.04331000
9.89999959	2.45940000	-16.09252000
10.09999958	2.45940000	-16.85531000
10.29999956	1.75689000	-17.26747000
10.49999955	0.87844490	-17.31668000
10.69999954	0.00000000	-17.26747000
10.89999953	-0.70250980	-16.85531000
11.09999952	-0.87844490	-16.09252000
11.29999951	-0.87844490	-16.09252000
11.49999949	-0.70250980	-16.85531000
11.69999948	-0.52657480	-17.21826000
11.89999947	-0.17531990	-16.90453000
12.09999946	0.00000000	-16.50467000
12.29999945	0.00000000	-16.85531000
12.49999943	-0.17531990	-16.85531000
12.69999942	-0.17531990	-16.50467000
12.89999941	-0.17531990	-16.85531000
13.09999940	-0.17531990	-16.80610000
13.29999939	-0.17531990	-16.04331000
13.49999937	-0.17531990	-15.63115000
13.69999936	0.00000000	-15.58194000
13.89999935	0.00000000	-15.58194000
14.09999934	0.00000000	-15.58194000
14.29999933	0.00000000	-15.58194000
14.49999932	0.00000000	-15.58194000
14.69999930	0.00000000	-15.58194000
14.89999929	0.00000000	-15.58194000
15.09999928	0.00000000	-15.58194000
15.29999927	0.00000000	-15.58194000
15.49999926	0.00000000	-15.58194000
15.69999924	0.00000000	-15.58194000
15.89999923	-0.17531990	-15.58194000
16.09999922	-0.17531990	-15.58194000
16.29999921	-0.17531990	-15.58194000
16.49999920	-0.17531990	-15.58194000
16.69999919	0.00000000	-15.58194000
16.89999917	0.00000000	-15.58194000
17.09999916	0.00000000	-15.58194000
17.29999915	0.00000000	-15.53273000
17.49999914	0.00000000	-15.16978000
17.69999913	0.00000000	-14.76993000
17.89999911	0.00000000	-15.16978000
18.09999910	0.00000000	-15.53273000
18.29999909	0.00000000	-15.58194000
18.49999908	0.00000000	-15.58194000
18.69999907	0.00000000	-15.58194000
18.89999905	0.00000000	-15.53273000
19.09999904	0.00000000	-15.16978000
19.29999903	0.00000000	-14.72072000
19.49999902	0.00000000	-14.71457000
19.69999901	0.00000000	-14.31471000
19.89999900	0.00000000	-14.36393000
20.09999898	0.00000000	-15.12057000
20.29999897	0.00000000	-15.53273000
20.49999896	0.00000000	-15.58194000
20.69999895	0.00000000	-15.58194000
20.89999894	0.00000000	-15.58194000
21.09999892	0.00000000	-15.58194000
21.29999891	0.00000000	-15.53273000
21.49999890	0.00000000	-15.16978000
21.69999889	0.00000000	-14.76993000
21.89999888	0.00000000	-15.16978000
22.09999886	0.00000000	-15.53273000
22.29999885	0.00000000	-15.58194000
22.49999884	0.00000000	-15.58194000
22.69999883	0.00000000	-15.63115000
22.89999882	0.00000000	-16.04331000
23.09999881	0.00000000	-16.85531000
23.29999879	0.00000000	-17.26747000
23.49999878	0.00000000	-17.26747000
23.69999877	0.00000000	-16.85531000
23.89999876	0.00000000	-15.99409000
24.09999875	0.00000000	-15.16978000
24.29999873	0.00000000	-14.31471000
24.49999872	0.00000000	-13.85334000
24.69999871	0.00000000	-13.44119000
24.89999870	0.00000000	-13.04134000
25.09999869	0.00000000	-13.49040000
25.29999867	0.00000000	-14.31471000
25.49999866	0.00000000	-15.63115000
25.69999865	0.00000000	-17.36589000
25.89999864	0.00000000	-19.55585000
26.09999863	0.00000000	-22.45940000
26.29999862	0.00000000	-24.95694000
26.49999860	0.00000000	-25.77510000
26.69999859	0.00000000	-24.90772000
26.89999858	0.00000000	-21.85039000
27.09999857	0.00000000	-16.75689000
27.29999856	0.00000000	-10.39001000
27.49999854	0.00000000	-4.17076700
27.69999853	0.00000000	-0.35679130
27.89999852	0.00000000	-0.39370070
28.09999851	0.00000000	-3.81397600
28.29999850	0.00000000	-11.09744000
28.49999848	0.00000000	-20.78002000
28.69999847	0.00000000	-30.51181000
28.89999846	0.00000000	-38.05979000
29.09999845	0.00000000	-40.96333000
29.29999844	0.00000000	-37.91216000
29.49999843	0.00000000	-28.93701000
29.69999841	0.00000000	-14.97908000
29.89999840	0.00000000	0.61515740
30.09999839	0.00000000	13.71186000
30.29999838	0.00000000	21.30290000
30.49999837	0.00000000	21.25369000
30.69999835	0.00000000	13.10285000
30.89999834	0.00000000	-2.18380900
31.09999833	0.00000000	-22.00418000
31.29999832	0.00000000	-40.96333000
31.49999831	0.00000000	-54.10925000
31.69999829	0.00000000	-58.69832000
31.89999828	0.00000000	-53.14345000
32.09999827	0.00000000	-37.91216000
32.29999826	0.00000000	-16.75689000
32.49999825	0.00000000	5.71481200
32.69999824	0.00000000	24.71703000
32.89999822	0.00000000	35.67913000
33.09999821	0.00000000	35.62992000
33.29999820	0.00000000	24.16338000
33.49999819	0.00000000	3.42027500
33.69999818	0.00000000	-21.85654000
33.89999816	0.00000000	-45.14025000
34.09999815	0.00000000	-60.88828000
34.29999814	0.00000000	-66.79995000
34.49999813	0.00000000	-61.23892000
34.69999812	0.00000000	-44.73425000
34.89999810	0.00000000	-21.49360000
35.09999809	0.00000000	3.42027500
35.29999808	0.00000000	23.70202000
35.49999807	0.00000000	34.30733000
35.69999806	0.00000000	33.48302000
35.89999805	0.00000000	21.20448000
36.09999803	0.00000000	0.61515740
36.29999802	0.00000000	-22.71777000
36.49999801	0.00000000	-43.46702000
36.69999800	0.00000000	-57.82480000
36.89999799	0.00000000	-61.60187000
37.09999797	0.00000000	-54.10925000
37.29999796	0.00000000	-38.10900000
37.49999795	0.00000000	-17.82726000
37.69999794	0.00000000	1.59325800
37.89999793	0.00000000	15.60039000
38.09999791	0.00000000	21.10605000
38.29999790	0.00000000	17.38435000
38.49999789	0.00000000	5.56717500
38.69999788	0.00000000	-10.85138000
38.89999787	0.00000000	-27.71284000
39.09999786	0.00000000	-40.35433000
39.29999784	0.00000000	-45.49705000
39.49999783	0.00000000	-42.59350000
39.69999782	0.00000000	-32.96014000
39.89999781	0.00000000	-19.55585000
40.09999780	0.00000000	-6.91437000
40.29999778	-0.17531990	1.59325800
40.49999777	0.00000000	4.64443900
40.69999776	0.00000000	2.15305100
40.89999775	0.00000000	-4.57677100
41.09999774	0.00000000	-13.80413000
41.29999772	0.00000000	-22.61934000
41.49999771	0.00000000	-28.12500000
41.69999770	0.00000000	-29.49680000
41.89999769	0.00000000	-26.95005000
42.09999768	0.00000000	-21.54281000
42.29999767	0.00000000	-14.81914000
42.49999765	0.00000000	-9.36269600
42.69999764	0.00000000	-6.35457700
42.89999763	0.00000000	-6.30536400
43.09999762	0.00000000	-8.75369100
43.29999761	0.00000000	-12.11860000
43.49999759	-0.17531990	-15.48351000
43.69999758	0.00000000	-18.03026000
43.89999757	0.00000000	-18.84842000
44.09999756	0.00000000	-18.07948000
44.29999755	0.00000000	-16.09252000
44.49999753	0.00000000	-14.81914000
44.69999752	0.00000000	-14.76378000
44.89999751	0.00000000	-14.72072000
45.09999750	0.00000000	-15.21900000
45.29999749	0.00000000	-15.94488000
45.49999748	0.00000000	-16.39395000
45.69999746	0.00000000	-15.89567000
45.89999745	0.00000000	-14.66535000
46.09999744	0.00000000	-12.53076000
46.29999743	0.00000000	-10.48843000
46.49999742	0.00000000	-9.21505800
46.69999740	0.00000000	-9.26427100
46.89999739	0.00000000	-10.94980000
47.09999738	0.00000000	-13.90256000
47.29999737	0.00000000	-17.26747000
47.49999736	0.00000000	-20.26944000
47.69999734	0.00000000	-22.31176000
47.89999733	0.00000000	-22.71777000
48.09999732	0.00000000	-20.63238000
48.29999731	0.00000000	-17.31668000
48.49999730	0.00000000	-13.90256000
48.69999729	0.00000000	-10.90059000
48.89999727	0.00000000	-8.75369100
49.09999726	0.00000000	-7.48646600
49.29999725	0.00000000	-7.53567900
49.49999724	0.00000000	-9.21505800
49.69999723	0.00000000	-12.11860000
49.89999721	0.00000000	-15.07136000
50.09999720	0.00000000	-17.26747000
50.29999719	0.00000000	-18.99606000
50.49999718	0.00000000	-20.26944000
50.69999717	0.00000000	-20.68159000
50.89999715	0.00000000	-20.17101000
51.09999714	0.00000000	-18.07948000
51.29999713	0.00000000	-14.76993000
51.49999712	0.00000000	-12.21703000
51.69999711	0.00000000	-10.43922000
51.89999710	0.00000000	-9.21505800
52.09999708	0.00000000	-9.16584600
52.29999707	0.00000000	-9.97785300
52.49999706	0.00000000	-10.90059000
52.69999705	0.00000000	-12.62918000
52.89999704	0.00000000	-15.12057000
53.09999702	0.00000000	-17.26747000
53.29999701	0.00000000	-18.99606000
53.49999700	-0.17531990	-20.26944000
53.69999699	0.00000000	-20.63238000
53.89999698	0.00000000	-19.76501000
54.09999696	0.00000000	-17.26747000
54.29999695	0.00000000	-14.36393000
54.49999694	0.00000000	-12.16781000
54.69999693	0.00000000	-10.48843000
54.89999692	0.00000000	-9.67642700
55.09999691	0.00000000	-10.53765000
55.29999689	0.00000000	-12.57997000
55.49999688	0.00000000	-15.16978000
55.69999687	0.00000000	-17.67962000
55.89999686	0.00000000	-19.81422000
56.09999685	0.00000000	-20.58317000
56.29999683	0.00000000	-19.81422000
56.49999682	0.00000000	-17.67962000
56.69999681	0.00000000	-15.16978000
56.89999680	0.00000000	-12.62918000
57.09999679	-0.17531990	-10.94980000
57.29999677	0.00000000	-10.48843000
57.49999676	0.00000000	-10.94980000
57.69999675	0.00000000	-12.67840000
57.89999674	0.00000000	-15.58194000
58.09999673	0.00000000	-18.53469000
58.29999672	0.00000000	-20.63238000
58.49999670	0.00000000	-21.44439000
58.69999669	0.00000000	-20.17101000
58.89999668	0.00000000	-17.26747000
59.09999667	-0.17531990	-13.85334000
59.29999666	0.00000000	-10.48843000
59.49999664	0.00000000	-7.99089500
59.69999663	0.00000000	-7.58489100
59.89999662	0.00000000	-9.21505800
60.09999661	0.00000000	-12.16781000
60.29999660	0.00000000	-15.58194000
60.49999658	0.00000000	-18.94685000
60.69999657	0.00000000	-21.44439000
60.89999656	0.00000000	-21.89960000
61.09999655	0.00000000	-20.68159000
61.29999654	0.00000000	-18.48548000
61.49999653	0.00000000	-15.12057000
61.69999651	0.00000000	-11.35581000
61.89999650	0.00000000	-8.85211600
62.09999649	0.00000000	-7.94168200
62.29999648	-0.17531990	-8.80290300
62.49999647	0.00000000	-10.85138000
62.69999645	0.00000000	-13.44119000
62.89999644	0.00000000	-15.94488000
63.09999643	0.00000000	-18.12869000
63.29999642	0.00000000	-19.35900000
63.49999641	0.00000000	-19.80807000
63.69999639	0.00000000	-18.94685000
63.89999638	0.00000000	-17.36589000
64.09999637	0.00000000	-15.99409000
64.29999636	0.00000000	-14.71457000
64.49999635	0.00000000	-12.98597000
64.69999634	0.00000000	-11.70645000
64.89999632	0.00000000	-10.39001000
65.09999631	0.00000000	-9.21505800
65.29999630	0.00000000	-9.21505800
65.49999629	0.00000000	-10.48843000
65.69999628	0.00000000	-12.57997000
65.89999626	0.00000000	-15.12057000
66.09999625	0.00000000	-17.31668000
66.29999624	0.00000000	-19.45743000
66.49999623	0.00000000	-21.54281000
66.69999622	0.00000000	-22.31176000
66.89999620	0.00000000	-21.44439000
67.09999619	0.00000000	-18.48548000
67.29999618	0.00000000	-14.26550000
67.49999617	0.00000000	-10.07628000
67.69999616	0.00000000	-6.66830600
67.89999615	0.00000000	-5.43799200
68.09999613	0.00000000	-6.20693900
68.29999612	0.00000000	-8.75369100
68.49999611	0.00000000	-12.11860000
68.69999610	0.00000000	-15.68036000
68.89999609	0.00000000	-19.86343000
69.09999607	0.00000000	-23.98499000
69.29999606	0.00000000	-25.21530000
69.49999605	0.00000000	-23.63435000
69.69999604	0.00000000	-20.22022000
69.89999603	0.00000000	-15.58194000
70.09999601	0.00000000	-10.90059000
70.29999600	0.00000000	-7.12352300
70.49999599	0.00000000	-4.93971400
70.69999598	0.00000000	-4.92741100
70.89999597	0.00000000	-6.20693900
71.09999596	0.00000000	-9.21505800
71.29999594	0.00000000	-13.39198000
71.49999593	0.00000000	-17.21826000
71.69999592	0.00000000	-20.22022000
71.89999591	0.00000000	-21.89960000
72.09999590	0.00000000	-21.94882000
72.29999588	-0.17531990	-20.63238000
72.49999587	0.00000000	-18.07948000
72.69999586	0.00000000	-14.26550000
72.89999585	0.00000000	-10.53765000
73.09999584	0.00000000	-7.99089500
73.29999582	0.00000000	-7.53567900
73.49999581	0.00000000	-8.75369100
73.69999580	0.00000000	-10.90059000
73.89999579	0.00000000	-13.90256000
74.09999578	0.00000000	-17.26747000
74.29999577	0.00000000	-20.22022000
74.49999575	0.00000000	-21.89960000
74.69999574	0.00000000	-21.89960000
74.89999573	0.00000000	-20.17101000
75.09999572	0.00000000	-16.80610000
75.29999571	0.00000000	-12.57997000
75.49999569	0.00000000	-8.85211600
75.69999568	0.00000000	-6.71751900
75.89999567	0.00000000	-7.12352300
76.09999566	0.00000000	-9.16584600
76.29999565	0.00000000	-12.21703000
76.49999563	0.00000000	-15.99409000
76.69999562	0.00000000	-19.80807000
76.89999561	0.00000000	-22.26255000
77.09999560	0.00000000	-22.71777000
77.29999559	0.00000000	-20.58317000
77.49999558	0.00000000	-16.85531000
77.69999556	0.00000000	-12.53076000
77.89999555	0.00000000	-8.34153500
78.09999554	0.00000000	-4.93971400
78.29999553	0.00000000	-3.75861200
78.49999552	0.00000000	-4.98892600
78.69999550	0.00000000	-8.85211600
78.89999549	0.00000000	-14.26550000
79.09999548	0.00000000	-19.81422000
79.29999547	0.00000000	-23.99729000
79.49999546	0.00000000	-26.18110000
79.69999544	0.00000000	-25.67667000
79.89999543	0.00000000	-22.71777000
80.09999542	0.00000000	-17.21826000
80.29999541	0.00000000	-10.94980000
80.49999540	0.00000000	-5.80093500
80.69999539	0.00000000	-2.38681100
80.89999537	0.00000000	-1.16264800
81.09999536	0.00000000	-2.89739200
81.29999535	0.00000000	-7.48646600
81.49999534	0.00000000	-13.39198000
81.69999533	0.00000000	-18.99606000
81.89999531	0.00000000	-24.09572000
82.09999530	0.00000000	-27.81127000
82.29999529	0.00000000	-28.27264000
82.49999528	0.00000000	-25.72589000
82.69999527	0.00000000	-21.03223000
82.89999525	0.00000000	-14.31471000
83.09999524	0.00000000	-7.99089500
83.29999523	0.00000000	-3.66018700
83.49999522	0.00000000	-1.11343500
83.69999521	0.00000000	-1.16264800
83.89999520	0.00000000	-4.07234200
84.09999518	0.00000000	-8.70447700
84.29999517	0.00000000	-13.85334000
84.49999516	0.00000000	-18.99606000
84.69999515	0.00000000	-23.63435000
84.89999514	0.00000000	-26.54404000
85.09999512	-0.17531990	-26.59326000
85.29999511	0.00000000	-24.04650000
85.49999510	0.00000000	-19.81422000
85.69999509	0.00000000	-14.26550000
85.89999508	0.00000000	-8.75369100
86.09999506	0.00000000	-4.07234200
86.29999505	0.00000000	-1.16264800
86.49999504	0.00000000	-1.11343500
86.69999503	0.00000000	-3.61097400
86.89999502	0.00000000	-7.48646600
87.09999501	0.00000000	-12.57997000
87.29999499	0.00000000	-18.07948000
87.49999498	0.00000000	-22.31176000
87.69999497	0.00000000	-24.90772000
87.89999496	0.00000000	-25.31373000
88.09999495	0.00000000	-23.63435000
88.29999493	0.00000000	-20.22022000
88.49999492	0.00000000	-15.53273000
88.69999491	0.00000000	-10.48843000
88.89999490	0.00000000	-6.21309000
89.09999489	0.00000000	-3.66018700
89.29999487	0.00000000	-2.84817900
89.49999486	0.00000000	-4.57677100
89.69999485	0.00000000	-8.75369100
89.89999484	0.00000000	-13.80413000
90.09999483	0.00000000	-18.48548000
90.29999482	0.00000000	-21.89960000
90.49999480	0.00000000	-23.63435000
90.69999479	0.00000000	-23.63435000
90.89999478	0.00000000	-21.89960000
91.09999477	0.00000000	-18.48548000
91.29999476	0.00000000	-13.90256000
91.49999474	0.00000000	-9.72563900
91.69999473	0.00000000	-7.58489100
91.89999472	0.00000000	-7.43725300
92.09999471	0.00000000	-8.29232200
92.29999470	0.00000000	-9.62106200
92.49999468	0.00000000	-12.16781000
92.69999467	0.00000000	-15.07136000
92.89999466	0.00000000	-17.21826000
93.09999465	0.00000000	-18.53469000
93.29999464	0.00000000	-18.94685000
93.49999463	0.00000000	-18.53469000
93.69999461	0.00000000	-17.26747000
93.89999460	0.00000000	-15.58194000
94.09999459	0.00000000	-13.85334000
94.29999458	0.00000000	-12.21703000
94.49999457	0.00000000	-11.35581000
94.69999455	0.00000000	-11.70645000
94.89999454	0.00000000	-12.06939000
95.09999453	0.00000000	-12.16781000
95.29999452	0.00000000	-12.57997000
95.49999451	0.00000000	-13.39198000
95.69999449	0.00000000	-13.85334000
95.89999448	0.00000000	-14.31471000
96.09999447	0.00000000	-15.12057000
96.29999446	0.00000000	-15.53273000
96.49999445	0.00000000	-15.58194000
96.69999444	0.00000000	-15.58194000
96.89999442	0.00000000	-15.53273000
97.09999441	0.00000000	-15.12057000
97.29999440	0.00000000	-14.31471000
97.49999439	0.00000000	-13.85334000
97.69999438	0.00000000	-13.34276000
97.89999436	0.00000000	-12.16781000
98.09999435	0.00000000	-11.35581000
98.29999434	0.00000000	-11.75566000
98.49999433	0.00000000	-12.53076000
98.69999432	0.00000000	-13.44119000
98.89999430	0.00000000	-14.26550000
99.09999429	0.00000000	-15.12057000
99.29999428	0.00000000	-15.58194000
99.49999427	0.00000000	-15.99409000
99.69999426	0.00000000	-16.34473000
99.89999425	0.00000000	-15.53273000
100.09999423	0.00000000	-14.31471000
100.29999422	0.00000000	-13.39198000
100.49999421	0.00000000	-12.11860000
100.69999420	0.00000000	-10.94980000
100.89999419	0.00000000	-10.90059000
101.09999417	0.00000000	-11.70645000
101.29999416	0.00000000	-12.57997000
101.49999415	0.00000000	-13.85334000
101.69999414	0.00000000	-15.07136000
101.89999413	0.00000000	-15.58194000
102.09999411	0.00000000	-15.99409000
102.29999410	0.00000000	-16.39395000
102.49999409	0.00000000	-15.89567000
102.69999408	0.00000000	-14.71457000
102.89999407	0.00000000	-13.03519000
103.09999406	0.00000000	-12.21703000
103.29999404	0.00000000	-12.11860000
103.49999403	0.00000000	-12.11860000
103.69999402	0.00000000	-12.16781000
103.89999401	0.00000000	-12.62918000
104.09999400	0.00000000	-13.85334000
104.29999398	0.00000000	-15.07136000
104.49999397	0.00000000	-15.53273000
104.69999396	0.00000000	-15.58194000
104.89999395	0.00000000	-15.53273000
105.09999394	0.00000000	-15.12057000
105.29999392	0.00000000	-14.26550000
105.49999391	0.00000000	-13.44119000
105.69999390	0.00000000	-12.53076000
105.89999389	0.00000000	-11.75566000
106.09999388	0.00000000	-11.30659000
106.29999387	0.00000000	-11.75566000
106.49999385	0.00000000	-12.53076000
106.69999384	0.00000000	-13.44119000
106.89999383	0.00000000	-14.26550000
107.09999382	0.00000000	-15.16978000
107.29999381	0.00000000	-15.94488000
107.49999379	0.00000000	-16.39395000
107.69999378	0.00000000	-15.94488000
107.89999377	0.00000000	-15.12057000
108.09999376	0.00000000	-13.80413000
108.29999375	0.00000000	-12.16781000
108.49999374	0.00000000	-10.90059000
108.69999372	0.00000000	-10.48843000
108.89999371	0.00000000	-10.85138000
109.09999370	0.00000000	-11.70645000
109.29999369	0.00000000	-12.57997000
109.49999368	0.00000000	-13.90256000
109.69999366	0.00000000	-15.53273000
109.89999365	0.00000000	-16.80610000
110.09999364	0.00000000	-17.21826000
110.29999363	0.00000000	-16.80610000
110.49999362	0.00000000	-15.53273000
110.69999360	0.00000000	-13.85334000
110.89999359	0.00000000	-12.16781000
111.09999358	0.00000000	-10.90059000
111.29999357	0.00000000	-10.43922000
111.49999356	-0.17531990	-10.43922000
111.69999355	0.00000000	-10.90059000
111.89999353	0.00000000	-12.21703000
112.09999352	0.00000000	-14.26550000
112.29999351	0.00000000	-16.40010000
112.49999350	0.00000000	-17.63041000
112.69999349	0.00000000	-18.07948000
112.89999347	0.00000000	-17.21826000
113.09999346	0.00000000	-15.53273000
113.29999345	0.00000000	-13.39198000
113.49999344	0.00000000	-10.90059000
113.69999343	0.00000000	-9.21505800
113.89999341	0.00000000	-8.75369100
114.09999340	0.00000000	-9.21505800
114.29999339	0.00000000	-10.90059000
114.49999338	0.00000000	-13.39198000
114.69999337	0.00000000	-15.48351000
114.89999336	0.00000000	-16.80610000
115.09999334	0.00000000	-17.26747000
115.29999333	0.00000000	-17.21826000
115.49999332	0.00000000	-16.35089000
115.69999331	0.00000000	-14.26550000
115.89999330	0.00000000	-12.16781000
116.09999328	0.00000000	-10.43922000
116.29999327	0.00000000	-9.21505800
116.49999326	0.00000000	-9.21505800
116.69999325	0.00000000	-10.43922000
116.89999324	0.00000000	-12.11860000
117.09999322	0.00000000	-13.85334000
117.29999321	0.00000000	-15.53273000
117.49999320	0.00000000	-16.75689000
117.69999319	0.00000000	-16.75689000
117.89999318	0.00000000	-15.53273000
118.09999317	0.00000000	-13.80413000
118.29999315	0.00000000	-11.70645000
118.49999314	0.00000000	-9.62106200
118.69999313	0.00000000	-8.80290300
118.89999312	0.00000000	-9.11663300
119.09999311	-0.17531990	-9.97785300
119.29999309	0.00000000	-10.85138000
119.49999308	0.00000000	-12.21703000
119.69999307	0.00000000	-14.26550000
119.89999306	0.00000000	-16.30167000
120.09999305	0.00000000	-16.75689000
120.29999303	0.00000000	-15.99409000
120.49999302	0.00000000	-15.12057000
120.69999301	0.00000000	-13.85334000
120.89999300	0.00000000	-12.67840000
121.09999299	0.00000000	-12.57997000
121.29999298	0.00000000	-12.93061000
121.49999296	0.00000000	-12.57997000
121.69999295	0.00000000	-12.62918000
121.89999294	0.00000000	-13.39198000
122.09999293	0.00000000	-13.85334000
122.29999292	0.00000000	-14.31471000
122.49999290	0.00000000	-15.07136000
122.69999289	0.00000000	-15.07136000
122.89999288	0.00000000	-14.26550000
123.09999287	0.00000000	-13.44119000
123.29999286	0.00000000	-12.57997000
123.49999284	-0.17531990	-12.16781000
123.69999283	0.00000000	-12.11860000
123.89999282	0.00000000	-12.16781000
124.09999281	0.00000000	-12.57997000
124.29999280	0.00000000	-13.39198000
124.49999279	0.00000000	-13.80413000
124.69999277	0.00000000	-13.85334000
124.89999276	0.00000000	-13.85334000
125.09999275	0.00000000	-13.85334000
125.29999274	0.00000000	-13.85334000
125.49999273	0.00000000	-13.80413000
125.69999271	0.00000000	-13.34276000
125.89999270	-0.17531990	-12.11860000
126.09999269	0.00000000	-10.94980000
126.29999268	0.00000000	-10.90059000
126.49999267	0.00000000	-11.70645000
126.69999265	0.00000000	-12.57997000
126.89999264	0.00000000	-13.85334000
127.09999263	0.00000000	-15.07136000
127.29999262	0.00000000	-15.53273000
127.49999261	0.00000000	-15.53273000
127.69999260	0.00000000	-15.12057000
127.89999258	0.00000000	-14.26550000
128.09999257	0.00000000	-13.39198000
128.29999256	0.00000000	-12.11860000
128.49999255	0.00000000	-10.90059000
128.69999254	0.00000000	-10.48843000
128.89999252	0.00000000	-10.85138000
129.09999251	0.00000000	-11.70645000
129.29999250	0.00000000	-12.53076000
129.49999249	0.00000000	-13.44119000
129.69999248	0.00000000	-14.26550000
129.89999246	0.00000000	-15.12057000
130.09999245	0.00000000	-15.48351000
130.29999244	0.00000000	-15.07136000
130.49999243	0.00000000	-13.85334000
130.69999242	0.00000000	-12.62918000
130.89999241	0.00000000	-12.11860000
131.09999239	0.00000000	-11.65723000
131.29999238	0.00000000	-10.90059000
131.49999237	0.00000000	-10.94980000
131.69999236	0.00000000	-12.11860000
131.89999235	0.00000000	-13.39198000
132.09999233	0.00000000	-14.21629000
132.29999232	0.00000000	-14.66535000
132.49999231	0.00000000	-14.26550000
132.69999230	0.00000000	-13.85334000
132.89999229	0.00000000	-13.39198000
133.09999227	0.00000000	-12.57997000
133.29999226	0.00000000	-12.16781000
133.49999225	0.00000000	-12.16781000
133.69999224	0.00000000	-12.57997000
133.89999223	0.00000000	-13.39198000
134.09999222	0.00000000	-13.80413000
134.29999220	0.00000000	-13.85334000
134.49999219	0.00000000	-13.75492000
134.69999218	0.00000000	-12.98597000
134.89999217	0.00000000	-11.76796000
135.09999216	0.00000000	-11.70645000
135.29999214	0.00000000	-11.65723000
135.49999213	-0.17531990	-11.30659000
135.69999212	0.00000000	-11.70645000
135.89999211	0.00000000	-12.11860000
136.09999210	0.00000000	-12.57997000
136.29999208	0.00000000	-13.44119000
136.49999207	0.00000000	-14.26550000
136.69999206	0.00000000	-15.07136000
136.89999205	0.00000000	-15.07136000
137.09999204	0.00000000	-14.31471000
137.29999203	0.00000000	-13.85334000
137.49999201	0.00000000	-13.39198000
137.69999200	0.00000000	-12.53076000
137.89999199	0.00000000	-11.70645000
138.09999198	0.00000000	-10.85138000
138.29999197	0.00000000	-10.43922000
138.49999195	0.00000000	-10.43922000
138.69999194	0.00000000	-10.90059000
138.89999193	0.00000000	-12.11860000
139.09999192	0.00000000	-13.39198000
139.29999191	0.00000000	-14.26550000
139.49999189	0.00000000	-15.12057000
139.69999188	0.00000000	-15.48351000
139.89999187	0.00000000	-15.12057000
140.09999186	0.00000000	-14.26550000
140.29999185	0.00000000	-13.44119000
140.49999184	0.00000000	-12.57997000
140.69999182	0.00000000	-12.11860000
140.89999181	0.00000000	-11.70645000
141.09999180	0.00000000	-11.30659000
141.29999179	0.00000000	-11.70645000
141.49999178	0.00000000	-12.11860000
141.69999176	0.00000000	-12.57997000
141.89999175	0.00000000	-13.44119000
142.09999174	0.00000000	-14.21629000
142.29999173	0.00000000	-14.71457000
142.49999172	0.00000000	-14.67150000
142.69999170	0.00000000	-14.71457000
142.89999169	0.00000000	-14.21629000
143.09999168	0.00000000	-13.44119000
143.29999167	0.00000000	-12.57997000
143.49999166	0.00000000	-12.11860000
143.69999165	0.00000000	-11.65723000
143.89999163	0.00000000	-10.85138000
144.09999162	0.00000000	-10.48843000
144.29999161	0.00000000	-10.85138000
144.49999160	0.00000000	-11.70645000
144.69999159	0.00000000	-12.53076000
144.89999157	0.00000000	-13.39198000
145.09999156	0.00000000	-13.80413000
145.29999155	0.00000000	-13.90256000
145.49999154	0.00000000	-14.31471000
145.69999153	0.00000000	-15.07136000
145.89999151	0.00000000	-15.02214000
146.09999150	0.00000000	-13.85334000
146.29999149	0.00000000	-12.62918000
146.49999148	0.00000000	-12.11860000
146.69999147	0.00000000	-11.65723000
146.89999146	0.00000000	-10.90059000
147.09999144	0.00000000	-10.90059000
147.29999143	0.00000000	-11.70645000
147.49999142	0.00000000	-12.48154000
147.69999141	0.00000000	-12.97982000
147.89999140	0.00000000	-13.04134000
148.09999138	0.00000000	-13.85334000
148.29999137	0.00000000	-14.61614000
148.49999136	0.00000000	-14.26550000
148.69999135	0.00000000	-13.85334000
148.89999134	0.00000000	-13.39198000
149.09999132	-0.17531990	-12.57997000
149.29999131	0.00000000	-12.11860000
149.49999130	0.00000000	-11.70645000
149.69999129	0.00000000	-11.30659000
149.89999128	0.00000000	-11.70645000
150.09999127	0.00000000	-12.06939000
150.29999125	0.00000000	-12.16781000
150.49999124	0.00000000	-12.57997000
150.69999123	0.00000000	-13.39198000
150.89999122	0.00000000	-13.80413000
151.09999121	0.00000000	-13.90256000
151.29999119	0.00000000	-14.21629000
151.49999118	0.00000000	-14.20399000
151.69999117	0.00000000	-12.98597000
151.89999116	0.00000000	-12.21703000
152.09999115	0.00000000	-12.11860000
152.29999113	0.00000000	-12.11860000
152.49999112	0.00000000	-12.11860000
152.69999111	0.00000000	-12.11860000
152.89999110	0.00000000	-12.16781000
153.09999109	0.00000000	-12.57997000
153.29999108	0.00000000	-13.34276000
153.49999106	0.00000000	-13.34276000
153.69999105	0.00000000	-12.57997000
153.89999104	0.00000000	-12.16781000
154.09999103	0.00000000	-12.11860000
154.29999102	0.00000000	-12.11860000
154.49999100	0.00000000	-12.11860000
154.69999099	0.00000000	-12.11860000
154.89999098	0.00000000	-12.11860000
155.09999097	0.00000000	-12.16781000
155.29999096	0.00000000	-12.53076000
155.49999094	0.00000000	-12.93061000
155.69999093	0.00000000	-12.53076000
155.89999092	0.00000000	-12.16781000
156.09999091	0.00000000	-12.11860000
156.29999090	0.00000000	-12.11860000
156.49999089	0.00000000	-12.11860000
156.69999087	0.00000000	-12.11860000
156.89999086	0.00000000	-12.16781000
157.09999085	-0.17531990	-12.57997000
157.29999084	0.00000000	-13.39198000
157.49999083	0.00000000	-13.75492000
157.69999081	0.00000000	-13.39198000
157.89999080	0.00000000	-12.57997000
158.09999079	0.00000000	-12.16781000
158.29999078	0.00000000	-12.11860000
158.49999077	0.00000000	-12.11860000
158.69999075	0.00000000	-12.11860000
158.89999074	0.00000000	-12.11860000
159.09999073	0.00000000	-12.11860000
159.29999072	0.00000000	-12.11860000
159.49999071	0.00000000	-12.16781000
159.69999070	0.00000000	-12.53076000
159.89999068	0.00000000	-12.97982000
160.09999067	0.00000000	-12.94291000
160.29999066	0.00000000	-13.02903000
160.49999065	0.00000000	-12.94291000
160.69999064	0.00000000	-12.97982000
160.89999062	0.00000000	-12.53076000
161.09999061	0.00000000	-12.16781000
161.29999060	0.00000000	-12.11860000
161.49999059	0.00000000	-12.11860000
161.69999058	0.00000000	-12.11860000
161.89999056	0.00000000	-12.11860000
162.09999055	0.00000000	-12.11860000
162.29999054	0.00000000	-12.16781000
162.49999053	0.00000000	-12.57997000
162.69999052	0.00000000	-13.39198000
162.89999051	0.00000000	-13.75492000
163.09999049	0.00000000	-13.39198000
163.29999048	0.00000000	-12.57997000
163.49999047	0.00000000	-12.16781000
163.69999046	0.00000000	-12.11860000
163.89999045	0.00000000	-12.11860000
164.09999043	0.00000000	-12.11860000
164.29999042	0.00000000	-12.11860000
164.49999041	0.00000000	-12.11860000
164.69999040	0.00000000	-12.11860000
164.89999039	0.00000000	-12.11860000
165.09999037	0.00000000	-12.11860000
165.29999036	0.00000000	-12.11860000
165.49999035	0.00000000	-12.16781000
165.69999034	0.00000000	-12.53076000
165.89999033	0.00000000	-12.93061000
166.09999032	0.00000000	-12.53076000
166.29999030	0.00000000	-12.16781000
166.49999029	0.00000000	-12.11860000
166.69999028	0.00000000	-12.11860000
166.89999027	0.00000000	-12.11860000
167.09999026	0.00000000	-12.11860000
167.29999024	0.00000000	-12.11860000
167.49999023	0.00000000	-12.11860000
167.69999022	0.00000000	-12.11860000
167.89999021	0.00000000	-12.11860000
168.09999020	0.00000000	-12.11860000
168.29999018	0.00000000	-12.11860000
168.49999017	0.00000000	-12.11860000
168.69999016	0.00000000	-12.11860000
168.89999015	0.00000000	-12.11860000
169.09999014	0.00000000	-12.11860000
169.29999013	0.00000000	-12.11860000
169.49999011	0.00000000	-12.11860000
169.69999010	0.00000000	-12.11860000
169.89999009	0.00000000	-12.16781000
170.09999008	0.00000000	-12.57997000
170.29999007	0.00000000	-13.34276000
170.49999005	0.00000000	-13.34276000
170.69999004	0.00000000	-12.57997000
170.89999003	0.00000000	-12.16781000
171.09999002	0.00000000	-12.11860000
171.29999001	0.00000000	-12.11860000
171.49998999	0.00000000	-12.11860000
171.69998998	0.00000000	-12.11860000
171.89998997	0.00000000	-12.11860000
172.09998996	0.00000000	-12.11860000
172.29998995	0.00000000	-12.11860000
172.49998994	0.00000000	-12.11860000
172.69998992	0.00000000	-12.16781000
172.89998991	0.00000000	-12.53076000
173.09998990	0.00000000	-12.93061000
173.29998989	0.00000000	-12.53076000
173.49998988	0.00000000	-12.16781000
173.69998986	0.00000000	-12.11860000
173.89998985	0.00000000	-12.11860000
174.09998984	0.00000000	-12.11860000
174.29998983	0.00000000	-12.11860000
174.49998982	0.00000000	-12.06939000
174.69998980	0.00000000	-11.70645000
174.89998979	0.00000000	-11.30659000
175.09998978	0.00000000	-11.70645000
175.29998977	0.00000000	-12.06939000
175.49998976	0.00000000	-12.16781000
175.69998975	0.00000000	-12.53076000
175.89998973	0.00000000	-12.97982000
176.09998972	0.00000000	-12.94291000
176.29998971	0.00000000	-12.97982000
176.49998970	0.00000000	-12.53076000
176.69998969	0.00000000	-12.11860000
176.89998967	0.00000000	-11.65723000
177.09998966	0.00000000	-10.85138000
177.29998965	0.00000000	-10.43922000
177.49998964	0.00000000	-10.43922000
177.69998963	0.00000000	-10.85138000
177.89998961	0.00000000	-11.65723000
178.09998960	0.00000000	-12.06939000
178.29998959	0.00000000	-12.11860000
178.49998958	0.00000000	-12.11860000
178.69998957	0.00000000	-12.11860000
178.89998956	0.00000000	-12.06939000
179.09998954	0.00000000	-11.70645000
179.29998953	0.00000000	-11.30659000
179.49998952	0.00000000	-11.70645000
179.69998951	0.00000000	-12.06939000
179.89998950	0.00000000	-12.11860000
180.09998948	0.00000000	-12.11860000
180.29998947	0.00000000	-12.06939000
180.49998946	0.00000000	-11.70645000
180.69998945	0.00000000	-11.30659000
180.89998944	0.00000000	-11.70645000
181.09998942	0.00000000	-12.06939000
181.29998941	0.00000000	-12.11860000
181.49998940	0.00000000	-12.11860000
181.69998939	0.00000000	-12.11860000
181.89998938	0.00000000	-12.11860000
182.09998937	0.00000000	-12.11860000
182.29998935	0.00000000	-12.11860000
182.49998934	0.00000000	-12.11860000
182.69998933	0.00000000	-12.11860000
182.89998932	0.00000000	-12.11860000
183.09998931	0.00000000	-12.11860000
183.29998929	0.00000000	-12.11860000
183.49998928	0.00000000	-12.11860000
183.69998927	0.00000000	-12.11860000
183.89998926	0.00000000	-12.11860000
184.09998925	0.00000000	-12.16781000
184.29998923	0.00000000	-12.53076000
184.49998922	0.00000000	-12.93061000
184.69998921	0.00000000	-12.53076000
184.89998920	0.00000000	-12.16781000
185.09998919	0.00000000	-12.11860000
185.29998918	0.00000000	-12.11860000
185.49998916	0.00000000	-12.11860000
185.69998915	0.00000000	-12.11860000
185.89998914	0.00000000	-12.11860000
186.09998913	0.00000000	-12.06939000
186.29998912	0.00000000	-11.70645000
186.49998910	0.00000000	-11.30659000
186.69998909	-0.17531990	-11.70645000
186.89998908	0.00000000	-12.06939000
187.09998907	0.00000000	-12.11860000
187.29998906	0.00000000	-12.11860000
187.49998904	0.00000000	-12.16781000
187.69998903	0.00000000	-12.53076000
187.89998902	0.00000000	-12.93061000
188.09998901	0.00000000	-12.57997000
188.29998900	0.00000000	-12.57997000
188.49998899	0.00000000	-12.93061000
188.69998897	0.00000000	-12.53076000
188.89998896	0.00000000	-12.16781000
189.09998895	0.00000000	-12.11860000
189.29998894	0.00000000	-12.06939000
189.49998893	0.00000000	-11.65723000
189.69998891	0.00000000	-10.90059000
189.89998890	0.00000000	-10.90059000
190.09998889	0.00000000	-11.65723000
190.29998888	0.00000000	-12.11860000
190.49998887	0.00000000	-12.53076000
190.69998885	0.00000000	-12.93061000
190.89998884	0.00000000	-12.53076000
191.09998883	0.00000000	-12.16781000
191.29998882	0.00000000	-12.11860000
191.49998881	0.00000000	-12.11860000
191.69998880	0.00000000	-12.06939000
191.89998878	0.00000000	-11.65723000
192.09998877	0.00000000	-10.90059000
192.29998876	0.00000000	-10.85138000
192.49998875	0.00000000	-11.25123000
192.69998874	0.00000000	-11.25738000
192.89998872	0.00000000	-11.70645000
193.09998871	0.00000000	-12.06939000
193.29998870	0.00000000	-12.11860000
193.49998869	0.00000000	-12.11860000
193.69998868	0.00000000	-12.11860000
193.89998866	0.00000000	-12.11860000
194.09998865	0.00000000	-12.11860000
194.29998864	0.00000000	-12.06939000
194.49998863	0.00000000	-11.70645000
194.69998862	0.00000000	-11.30659000
194.89998861	0.00000000	-11.65723000
195.09998859	0.00000000	-11.65723000
195.29998858	0.00000000	-11.30659000
195.49998857	0.00000000	-11.70645000
195.69998856	0.00000000	-12.06939000
195.89998855	0.00000000	-12.11860000
196.09998853	0.00000000	-12.11860000
