Time	Channel A	Channel B	Channel C
(us)	(V)	(mV)	(mV)

-4.49999956	0.00000000	15.80955000	11.04823000
-4.29999957	0.00000000	15.80955000	11.04823000
-4.09999958	0.00000000	15.80955000	11.04823000
-3.89999959	0.00000000	15.80955000	11.00517000
-3.69999960	0.00000000	15.80955000	10.67298000
-3.49999962	0.00000000	15.80955000	10.31004000
-3.29999963	0.00000000	15.80955000	10.67298000
-3.09999964	0.00000000	15.80955000	11.00517000
-2.89999965	0.00000000	15.80955000	11.04823000
-2.69999966	0.00000000	15.80955000	11.00517000
-2.49999968	0.00000000	15.80955000	10.67298000
-2.29999969	0.00000000	15.80955000	10.26698000
-2.09999970	0.00000000	15.80955000	10.30389000
-1.89999971	0.00000000	15.80955000	10.26698000
-1.69999972	0.00000000	15.80955000	10.67298000
-1.49999973	0.00000000	15.80955000	10.95595000
-1.29999975	0.00000000	15.80955000	10.67298000
-1.09999976	0.00000000	15.80955000	10.31004000
-0.89999977	0.00000000	15.80955000	10.62992000
-0.69999978	0.00000000	15.80955000	10.62992000
-0.49999979	0.00000000	15.80955000	10.26698000
-0.29999981	0.31803640	15.80955000	10.25467000
-0.09999982	0.63668800	15.76649000	9.84867000
0.10000017	0.95533960	15.43430000	9.51648500
0.30000016	0.95533960	15.06521000	9.47342500
0.50000015	0.79601380	15.43430000	9.47342500
0.70000013	0.31803640	15.76649000	9.47342500
0.90000012	-0.63668800	15.80955000	9.47342500
1.10000011	-1.59264300	15.80955000	9.51648500
1.30000010	-2.38927200	15.80955000	9.89173200
1.50000009	-2.70792300	15.80955000	10.62992000
1.70000008	-2.38927200	15.80955000	11.00517000
1.90000006	-1.27399100	15.80955000	11.04823000
2.10000005	0.63668800	15.80955000	11.04823000
2.30000004	2.70792300	15.80955000	11.00517000
2.50000003	4.61921700	15.80955000	10.62992000
2.70000002	5.41584600	15.80955000	9.89173200
2.90000000	4.77854300	15.80955000	9.51648500
3.09999999	2.86724900	15.80955000	9.47342500
3.29999998	-0.31803640	15.80955000	9.47342500
3.49999997	-3.66326300	15.80955000	9.47342500
3.69999996	-6.53112700	15.80955000	9.51648500
3.89999994	-7.96444400	15.76649000	9.89173200
4.09999993	-7.48646600	15.47736000	10.62992000
4.29999992	-4.77854300	15.44045000	11.00517000
4.49999991	-0.79601380	16.17864000	11.04823000
4.69999990	3.66326300	16.14173000	11.04823000
4.89999989	7.32714100	15.85261000	11.00517000
5.09999987	9.39837600	15.80955000	10.62992000
5.29999986	8.92039900	15.80955000	9.89173200
5.49999985	6.37180100	15.80955000	9.51648500
5.69999984	2.07062000	15.76649000	9.47342500
5.89999983	-2.54859700	15.43430000	9.51648500
6.09999981	-6.84916400	15.06521000	9.89173200
6.29999980	-9.23905000	15.43430000	10.62992000
6.49999979	-9.23905000	15.76649000	11.04823000
6.69999978	-7.00848900	15.80955000	11.42347000
6.89999977	-3.18590100	15.80955000	11.79257000
7.09999975	1.11466500	15.80955000	11.42347000
7.29999974	5.09719500	15.80955000	11.09129000
7.49999973	7.32714100	15.80955000	11.04823000
7.69999972	7.64579200	15.80955000	11.04823000
7.89999971	6.21247500	15.80955000	11.04823000
8.09999970	3.18590100	15.80955000	11.04823000
8.29999968	0.00000000	15.80955000	11.04823000
8.49999967	-3.02657500	15.80955000	11.04823000
8.69999966	-4.77854300	15.80955000	11.04823000
8.89999965	-5.25652100	15.80955000	11.04823000
9.09999964	-4.30056600	15.80955000	11.04823000
9.29999962	-2.54859700	15.80955000	11.04823000
9.49999961	-0.47736220	15.80955000	11.04823000
9.69999960	1.11466500	15.80955000	11.04823000
9.89999959	2.22994600	15.80955000	11.04823000
10.09999958	2.54859700	15.80955000	11.04823000
10.29999956	2.22994600	15.80955000	11.04823000
10.49999955	1.43331700	15.80955000	11.04823000
10.69999954	0.47736220	15.80955000	11.04823000
10.89999953	-0.31803640	15.80955000	11.04823000
11.09999952	-0.79601380	15.80955000	11.04823000
11.29999951	-0.95533960	15.80955000	11.04823000
11.49999949	-0.95533960	15.80955000	11.04823000
11.69999948	-0.79601380	15.80955000	11.04823000
11.89999947	-0.31803640	15.80955000	11.04823000
12.09999946	-0.15871060	15.80955000	11.04823000
12.29999945	-0.15871060	15.85261000	11.04823000
12.49999943	-0.15871060	16.18479000	11.04823000
12.69999942	0.00000000	16.55389000	11.04823000
12.89999941	0.00000000	16.18479000	11.04823000
13.09999940	0.00000000	15.85261000	11.04823000
13.29999939	0.00000000	15.80955000	11.04823000
13.49999937	0.00000000	15.80955000	11.04823000
13.69999936	0.00000000	15.80955000	11.04823000
13.89999935	0.00000000	15.80955000	11.04823000
14.09999934	-0.15871060	15.80955000	11.04823000
14.29999933	-0.15871060	15.80955000	11.04823000
14.49999932	-0.15871060	15.80955000	11.04823000
14.69999930	0.00000000	15.80955000	11.04823000
14.89999929	0.00000000	15.80955000	11.04823000
15.09999928	0.00000000	15.80955000	11.04823000
15.29999927	0.00000000	15.80955000	11.00517000
15.49999926	0.00000000	15.80955000	10.62992000
15.69999924	0.00000000	15.80955000	9.89173200
15.89999923	0.00000000	15.80955000	9.56569900
16.09999922	0.00000000	15.85261000	9.89173200
16.29999921	0.00000000	16.14173000	10.58686000
16.49999920	-0.15871060	16.22170000	10.62992000
16.69999919	-0.15871060	15.86491000	10.31004000
16.89999917	0.00000000	16.64001000	10.62992000
17.09999916	0.00000000	17.34744000	10.62992000
17.29999915	0.00000000	17.80881000	10.31004000
17.49999914	0.00000000	18.50394000	10.67298000
17.69999913	0.00000000	18.50394000	11.00517000
17.89999911	0.00000000	17.72268000	11.04823000
18.09999910	0.00000000	16.59695000	11.04823000
18.29999909	0.00000000	15.02214000	11.04823000
18.49999908	0.00000000	13.85334000	11.04823000
18.69999907	0.00000000	12.64764000	11.04823000
18.89999905	-0.15871060	11.57726000	11.04823000
19.09999904	0.00000000	11.62032000	11.04823000
19.29999903	0.00000000	13.15822000	11.04823000
19.49999902	0.00000000	15.90182000	11.04823000
19.69999901	0.00000000	19.38976000	11.04823000
19.89999900	0.00000000	23.24680000	11.04823000
20.09999898	0.00000000	26.27953000	11.04823000
20.29999897	0.00000000	27.43602000	11.04823000
20.49999896	0.00000000	26.23031000	11.04823000
20.69999895	0.00000000	22.69316000	11.04823000
20.89999894	0.00000000	16.83686000	11.04823000
21.09999892	0.00000000	9.48572700	11.04823000
21.29999891	0.00000000	2.22687000	11.04823000
21.49999890	0.00000000	-2.74975400	11.04823000
21.69999889	0.00000000	-3.50024600	11.04823000
21.89999888	0.00000000	0.03690945	11.04823000
22.09999886	0.00000000	7.89862200	11.04823000
22.29999885	0.00000000	19.48204000	11.04823000
22.49999884	0.00000000	32.18504000	11.04823000
22.69999883	0.00000000	42.60580000	11.04823000
22.89999882	0.00000000	48.33292000	11.09129000
23.09999881	0.00000000	47.44709000	11.46653000
23.29999879	0.00000000	38.89025000	12.21087000
23.49999878	0.00000000	24.18799000	12.62918000
23.69999877	0.00000000	6.41609200	13.00443000
23.89999876	0.00000000	-10.56225000	13.37352000
24.09999875	0.00000000	-22.43479000	13.00443000
24.29999873	0.00000000	-25.87352000	12.62918000
24.49999872	0.00000000	-19.22367000	12.11860000
24.69999871	0.00000000	-3.77706700	10.58686000
24.89999870	0.00000000	17.48277000	8.35383800
25.09999869	0.00000000	39.49311000	6.82209600
25.29999867	0.00000000	57.26501000	6.35457700
25.49999866	0.00000000	66.80610000	6.40378900
25.69999865	0.00000000	64.84989000	7.24040300
25.89999864	0.00000000	51.35949000	9.60875900
26.09999863	0.00000000	30.09350000	13.09670000
26.29999862	0.00000000	5.33956700	17.32283000
26.49999860	0.00000000	-17.40895000	21.13066000
26.69999859	0.00000000	-32.43725000	23.03765000
26.89999858	0.00000000	-36.30044000	22.61934000
27.09999857	0.00000000	-27.82972000	19.46358000
27.29999856	0.00000000	-9.31348400	13.65650000
27.49999854	0.00000000	14.60384000	6.31766700
27.69999853	0.00000000	38.60728000	-1.02116100
27.89999852	0.00000000	57.17889000	-6.78518600
28.09999851	0.00000000	66.84916000	-9.38730200
28.29999850	0.00000000	65.31742000	-7.38804100
28.49999848	0.00000000	52.98966000	-0.42445860
28.69999847	0.00000000	33.34769000	9.98400600
28.89999846	0.00000000	10.92520000	21.59203000
29.09999845	0.00000000	-8.80290300	32.00664000
29.29999844	0.00000000	-22.05955000	38.92716000
29.49999843	0.00000000	-26.71014000	40.37278000
29.69999841	0.00000000	-22.10261000	35.30389000
29.89999840	0.00000000	-9.40575800	24.06496000
30.09999839	0.00000000	7.99704600	9.05511800
30.29999838	0.00000000	26.18725000	-6.40994000
30.49999837	0.00000000	41.67692000	-18.73154000
30.69999835	0.00000000	50.98425000	-25.27682000
30.89999834	0.00000000	52.61442000	-24.07111000
31.09999833	0.00000000	46.84424000	-15.19439000
31.29999832	0.00000000	35.25467000	-0.46751960
31.49999831	0.00000000	20.60162000	17.27977000
31.69999829	0.00000000	6.27460600	34.27657000
31.89999828	0.00000000	-4.61368100	46.59818000
32.09999827	0.00000000	-10.47613000	51.65477000
32.29999826	0.00000000	-10.47613000	48.13607000
32.49999825	0.00000000	-4.70595500	36.97712000
32.69999824	0.00000000	5.33956700	20.34941000
32.89999822	0.00000000	17.29823000	2.22071800
33.09999821	0.00000000	28.51255000	-13.66265000
33.29999820	0.00000000	36.23893000	-24.11417000
33.49999819	0.00000000	39.02559000	-27.23302000
33.69999818	0.00000000	36.70644000	-22.58243000
33.89999816	0.00000000	30.17962000	-10.96826000
34.09999815	0.00000000	20.92766000	5.20423200
34.29999814	0.00000000	11.71260000	22.20103000
34.49999813	0.00000000	4.69365100	36.14050000
34.69999812	0.00000000	1.19955700	44.64198000
34.89999810	0.00000000	1.61786400	45.80462000
35.09999809	0.00000000	6.18233200	39.25935000
35.29999808	0.00000000	13.43504000	26.98080000
35.49999807	0.00000000	20.37401000	11.89099000
35.69999806	0.00000000	25.81201000	-2.38065900
35.89999805	0.00000000	28.50640000	-13.19513000
36.09999803	0.00000000	27.76821000	-17.80266000
36.29999802	0.00000000	24.32333000	-15.15133000
36.49999801	0.00000000	18.92839000	-6.36687900
36.69999800	0.00000000	13.20128000	5.94242000
36.89999799	0.00000000	8.96899500	18.25787000
37.09999797	0.00000000	7.38804100	27.92200000
37.29999796	0.00000000	8.55068800	32.52337000
37.49999795	0.00000000	11.99557000	31.03469000
37.69999794	0.00000000	17.01525000	24.15723000
37.89999793	0.00000000	21.99803000	14.21014000
38.09999791	0.00000000	25.85507000	4.26304100
38.29999790	0.00000000	27.43602000	-2.65748000
38.49999789	0.00000000	26.69783000	-4.60752900
38.69999788	0.00000000	24.36639000	-1.53789400
38.89999787	0.00000000	20.46014000	5.75172200
39.09999786	0.00000000	15.85261000	15.28051000
39.29999784	0.00000000	11.62032000	23.68971000
39.49999783	0.00000000	8.92593500	28.29724000
39.69999782	0.00000000	8.45841400	27.92200000
39.89999781	0.00000000	9.62106200	22.53322000
40.09999780	0.00000000	11.95251000	13.74262000
40.29999778	0.00000000	15.43430000	4.12770700
40.49999777	0.00000000	18.92839000	-3.53715500
40.69999776	0.00000000	22.09030000	-7.34498000
40.89999775	0.00000000	24.78469000	-5.77017700
41.09999774	0.00000000	26.32259000	1.10728300
41.29999772	0.00000000	26.32259000	11.04823000
41.49999771	0.00000000	24.74163000	21.03838000
41.69999770	0.00000000	21.66585000	28.38337000
41.89999769	0.00000000	17.80881000	31.45300000
42.09999768	0.00000000	14.32087000	29.53986000
42.29999767	0.00000000	11.57726000	23.03765000
42.49999765	0.00000000	10.03937000	14.21014000
42.69999764	0.00000000	10.03937000	5.33341500
42.89999763	0.00000000	11.53420000	-1.58710600
43.09999762	0.00000000	13.85334000	-4.69365100
43.29999761	0.00000000	16.18479000	-3.58021600
43.49999759	0.00000000	18.55315000	1.01501000
43.69999758	0.00000000	20.46014000	7.89247000
43.89999757	0.00000000	21.62278000	14.81299000
44.09999756	0.00000000	21.66585000	19.88189000
44.29999755	0.00000000	20.97072000	22.61934000
44.49999753	0.00000000	20.59547000	22.61934000
44.69999752	0.00000000	20.55241000	19.97416000
44.89999751	0.00000000	20.55241000	15.78494000
45.09999750	0.00000000	20.50935000	11.51575000
45.29999749	0.00000000	20.08489000	8.02780400
45.49999748	0.00000000	18.87918000	5.66560000
45.69999746	0.00000000	16.92298000	4.87204700
45.89999745	0.00000000	14.18553000	5.24729300
46.09999744	0.00000000	11.15896000	6.82209600
46.29999743	0.00000000	8.87672100	9.51648500
46.49999742	0.00000000	8.50147600	12.58612000
46.69999740	0.00000000	10.08243000	15.27436000
46.89999739	0.00000000	13.61959000	16.81225000
47.09999738	0.00000000	19.06373000	16.85531000
47.29999737	0.00000000	25.20300000	15.69882000
47.49999736	0.00000000	30.60408000	13.74262000
47.69999734	0.00000000	33.63066000	11.04823000
47.89999733	0.00000000	33.21235000	8.35383800
48.09999732	0.00000000	28.93085000	6.40378900
48.29999731	0.00000000	21.62278000	5.29035400
48.49999730	0.00000000	13.15822000	5.70866100
48.69999729	0.00000000	5.76402500	7.98474400
48.89999727	0.00000000	0.78124990	11.04823000
49.09999726	0.00000000	-0.70127950	14.16092000
49.29999725	0.00000000	2.78051200	16.85531000
49.49999724	0.00000000	10.03937000	18.39321000
49.69999723	0.00000000	18.97145000	18.39321000
49.89999721	0.00000000	27.86048000	16.81225000
50.09999720	0.00000000	34.75024000	13.74262000
50.29999719	0.00000000	37.40157000	9.89173200
50.49999718	0.00000000	34.75024000	6.44685000
50.69999717	0.00000000	27.86048000	4.08464600
50.89999715	0.00000000	18.97145000	3.33415300
51.09999714	0.00000000	10.13164000	4.12770700
51.29999713	0.00000000	3.57406500	6.86515700
51.49999712	0.00000000	1.24261800	11.04823000
51.69999711	0.00000000	3.15575800	15.27436000
51.89999710	0.00000000	8.92593500	18.39321000
52.09999708	0.00000000	16.97219000	19.97416000
52.29999707	0.00000000	24.64936000	19.93110000
52.49999706	0.00000000	30.08735000	17.97490000
52.69999705	0.00000000	32.00049000	14.16708000
52.89999704	0.00000000	30.08735000	9.98400600
53.09999702	0.00000000	24.69857000	6.86515700
53.29999701	0.00000000	17.43356000	5.33341500
53.49999700	0.00000000	10.54995000	5.70866100
53.69999699	0.00000000	6.31766700	7.98474400
53.89999698	0.00000000	5.89936000	11.00517000
54.09999696	0.00000000	8.92593500	13.74262000
54.29999695	0.00000000	14.32087000	15.64960000
54.49999694	0.00000000	20.46014000	16.43701000
54.69999693	0.00000000	25.85507000	15.64960000
54.89999692	0.00000000	28.93085000	13.79183000
55.09999691	0.00000000	28.93085000	11.46653000
55.29999689	0.00000000	25.85507000	9.60875900
55.49999688	0.00000000	20.50935000	8.86441900
55.69999687	0.00000000	14.78223000	10.02707000
55.89999686	0.00000000	10.50689000	12.62918000
56.09999685	0.00000000	8.59375000	15.32357000
56.29999683	0.00000000	9.34424200	17.23056000
56.49999682	0.00000000	12.78297000	17.97490000
56.69999681	0.00000000	17.34744000	16.76919000
56.89999680	0.00000000	21.62278000	13.69956000
57.09999679	0.00000000	24.74163000	9.51648500
57.29999677	0.00000000	26.27953000	5.66560000
57.49999676	0.00000000	25.90428000	3.38336600
57.69999675	0.00000000	23.62205000	3.01427100
57.89999674	0.00000000	20.55241000	5.37647600
58.09999673	0.00000000	17.43356000	9.98400600
58.29999672	0.00000000	14.73917000	15.74188000
58.49999670	0.00000000	13.20128000	21.13066000
58.69999669	0.00000000	13.20128000	24.57554000
58.89999668	0.00000000	14.69611000	25.31373000
59.09999667	0.00000000	17.01525000	22.57628000
59.29999666	0.00000000	19.30364000	16.81225000
59.49999664	0.00000000	21.24754000	9.51648500
59.69999663	0.00000000	21.99803000	2.59596400
59.89999662	0.00000000	21.66585000	-2.00541300
60.09999661	0.00000000	20.50935000	-3.16190900
60.29999660	0.00000000	19.01451000	-0.42445860
60.49999658	0.00000000	17.85802000	5.70866100
60.69999657	0.00000000	17.48277000	13.74262000
60.89999656	0.00000000	17.80881000	21.08760000
61.09999655	0.00000000	18.59621000	26.10728000
61.29999654	0.00000000	19.34670000	28.00812000
61.49999653	0.00000000	20.13410000	25.68897000
61.69999651	0.00000000	20.46014000	19.92495000
61.89999650	0.00000000	20.08489000	12.21087000
62.09999649	0.00000000	18.92839000	4.12770700
62.29999648	0.00000000	17.39050000	-2.00541300
62.49999647	0.00000000	15.90182000	-4.74286400
62.69999645	0.00000000	15.11442000	-3.58021600
62.89999644	0.00000000	15.47736000	1.01501000
63.09999643	0.00000000	16.27707000	7.98474400
63.29999642	0.00000000	17.85802000	15.69882000
63.49999641	0.00000000	20.13410000	22.61934000
63.69999639	0.00000000	22.04109000	26.84547000
63.89999638	0.00000000	23.20374000	27.26993000
64.09999637	0.00000000	23.20374000	24.24335000
64.29999636	0.00000000	22.04109000	18.81152000
64.49999635	0.00000000	20.13410000	12.25394000
64.69999634	0.00000000	17.80881000	5.70866100
64.89999632	0.00000000	15.90182000	1.10728300
65.09999631	0.00000000	14.73917000	-0.55979330
65.29999630	0.00000000	14.73917000	0.17839570
65.49999629	0.00000000	15.85261000	2.54675200
65.69999628	0.00000000	17.43356000	6.77903500
65.89999626	0.00000000	19.34670000	11.79257000
66.09999625	0.00000000	21.20448000	16.07406000
66.29999624	0.00000000	21.62278000	19.59892000
66.49999623	0.00000000	20.88459000	21.50590000
66.69999622	0.00000000	19.71580000	21.59203000
66.89999620	0.00000000	17.80881000	20.43553000
67.09999619	0.00000000	16.32013000	18.47933000
67.29999618	0.00000000	15.90182000	15.74188000
67.49999617	0.00000000	16.32013000	12.62918000
67.69999616	0.00000000	17.90108000	9.47342500
67.89999615	0.00000000	20.55241000	6.36072800
68.09999613	0.00000000	23.20374000	3.70939900
68.29999612	0.00000000	24.74163000	2.54675200
68.49999611	0.00000000	24.74163000	3.33415300
68.69999610	0.00000000	23.16068000	5.66560000
68.89999609	0.00000000	20.08489000	9.56569900
69.09999607	0.00000000	16.22785000	14.16708000
69.29999606	0.00000000	12.73991000	18.47933000
69.49999605	0.00000000	10.08243000	21.96727000
69.69999604	0.00000000	9.38730200	24.24335000
69.89999603	0.00000000	11.66339000	24.20029000
70.09999601	0.00000000	15.90182000	21.50590000
70.29999600	0.00000000	20.97072000	16.89837000
70.49999599	0.00000000	26.36565000	11.51575000
70.69999598	0.00000000	30.51181000	6.82209600
70.89999597	0.00000000	31.71752000	3.33415300
71.09999596	0.00000000	29.81053000	1.43331700
71.29999594	0.00000000	25.90428000	2.22071800
71.49999593	0.00000000	20.08489000	5.24729300
71.69999592	0.00000000	13.61959000	9.51648500
71.89999591	0.00000000	8.92593500	14.16708000
72.09999590	0.00000000	6.55142700	18.39321000
72.29999588	0.00000000	6.22539300	21.08760000
72.49999587	0.00000000	8.96899500	21.50590000
72.69999586	0.00000000	14.32087000	20.01722000
72.89999585	0.00000000	20.50935000	17.32283000
73.09999584	0.00000000	26.32259000	14.25320000
73.29999582	0.00000000	30.55487000	11.55881000
73.49999581	0.00000000	32.09276000	10.02707000
73.69999580	0.00000000	30.59793000	9.98400600
73.89999579	0.00000000	26.74089000	11.04823000
74.09999578	0.00000000	21.71506000	12.16166000
74.29999577	0.00000000	16.32013000	12.58612000
74.49999575	0.00000000	12.08784000	12.58612000
74.69999574	0.00000000	10.13164000	12.16166000
74.89999573	0.00000000	10.45768000	11.00517000
75.09999572	0.00000000	12.73991000	9.51648500
75.29999571	0.00000000	15.80955000	8.40305000
75.49999569	0.00000000	18.97145000	8.44611200
75.69999568	0.00000000	22.04109000	9.98400600
75.89999567	0.00000000	24.32333000	12.72146000
76.09999566	0.00000000	24.74163000	16.16018000
76.29999565	0.00000000	23.67126000	19.54970000
76.49999563	0.00000000	22.13336000	21.04454000
76.69999562	0.00000000	20.59547000	19.92495000
76.89999561	0.00000000	19.38976000	16.85531000
77.09999560	0.00000000	18.63927000	12.58612000
77.29999559	0.00000000	18.22711000	7.93553100
77.49999558	0.00000000	18.59621000	3.70939900
77.69999556	0.00000000	18.92839000	1.06422200
77.89999555	0.00000000	18.92839000	1.06422200
78.09999554	0.00000000	18.55315000	3.80167300
78.29999553	0.00000000	17.80881000	8.77829600
78.49999552	0.00000000	17.43356000	14.94833000
78.69999550	0.00000000	17.43356000	20.30020000
78.89999549	0.00000000	17.85802000	23.87426000
79.09999548	0.00000000	19.01451000	24.99385000
79.29999547	0.00000000	20.59547000	23.82505000
79.49999546	0.00000000	22.50861000	19.97416000
79.69999544	0.00000000	24.40945000	14.62844000
79.89999543	0.00000000	25.11688000	9.56569900
80.09999542	0.00000000	24.40945000	5.29035400
80.29999541	0.00000000	22.41634000	2.59596400
80.49999540	0.00000000	19.75886000	2.17150600
80.69999539	0.00000000	16.64616000	3.70939900
80.89999537	0.00000000	14.40699000	6.82209600
81.09999536	0.00000000	13.57652000	11.04823000
81.29999535	0.00000000	14.36393000	15.27436000
81.49999534	0.00000000	16.27707000	18.43627000
81.69999533	0.00000000	18.97145000	20.39247000
81.89999531	0.00000000	21.66585000	21.17372000
82.09999530	0.00000000	23.62205000	20.43553000
82.29999529	0.00000000	24.78469000	18.90379000
82.49999528	0.00000000	24.78469000	16.90453000
82.69999527	0.00000000	23.62205000	14.16092000
82.89999525	0.00000000	21.71506000	11.09744000
83.09999524	0.00000000	19.38976000	8.35383800
83.29999523	0.00000000	17.48277000	6.40378900
83.49999522	0.00000000	16.32013000	5.24729300
83.69999521	0.00000000	16.32013000	5.29035400
83.89999520	0.00000000	17.43356000	6.82209600
84.09999518	0.00000000	18.92839000	9.55954600
84.29999517	0.00000000	20.08489000	13.04749000
84.49999516	0.00000000	20.50935000	16.90453000
84.69999515	0.00000000	20.55241000	19.97416000
84.89999514	0.00000000	20.55241000	21.54897000
85.09999512	0.00000000	20.55241000	21.54897000
85.29999511	0.00000000	20.55241000	19.97416000
85.49999510	0.00000000	20.55241000	16.85531000
85.69999509	0.00000000	20.59547000	12.58612000
85.89999508	0.00000000	20.97072000	7.98474400
86.09999506	0.00000000	21.66585000	4.17076700
86.29999505	0.00000000	21.62278000	2.63902500
86.49999504	0.00000000	20.55241000	3.70939900
86.69999503	0.00000000	19.38976000	6.44685000
86.89999502	0.00000000	18.59621000	10.35310000
87.09999501	0.00000000	17.80881000	15.36663000
87.29999499	0.00000000	17.43356000	19.92495000
87.49999498	0.00000000	17.43356000	22.66855000
87.69999497	0.00000000	17.85802000	22.99459000
87.89999496	0.00000000	19.01451000	20.71235000
88.09999495	0.00000000	20.55241000	16.11712000
88.29999493	0.00000000	22.09030000	11.18356000
88.49999492	0.00000000	23.24680000	7.24040300
88.69999491	0.00000000	23.57899000	4.91510800
88.89999490	0.00000000	22.87770000	4.17691900
89.09999489	0.00000000	21.34596000	5.75172200
89.29999487	0.00000000	20.17716000	9.56569900
89.49999486	0.00000000	18.97145000	14.16708000
89.69999485	0.00000000	17.85802000	18.43627000
89.89999484	0.00000000	17.48277000	21.46284000
90.09999483	0.00000000	17.85802000	22.20103000
90.29999482	0.00000000	18.97145000	19.92495000
90.49999480	0.00000000	20.13410000	15.74188000
90.69999479	0.00000000	20.92766000	11.14050000
90.89999478	0.00000000	21.71506000	7.28346400
91.09999477	0.00000000	22.09030000	5.33341500
91.29999476	0.00000000	22.09030000	5.33341500
91.49999474	0.00000000	21.71506000	7.28346400
91.69999473	0.00000000	20.97072000	11.14050000
91.89999472	0.00000000	20.59547000	15.69882000
92.09999471	0.00000000	20.55241000	19.54970000
92.29999470	0.00000000	20.55241000	21.46284000
92.49999468	0.00000000	20.55241000	21.08760000
92.69999467	0.00000000	20.50935000	18.39321000
92.89999466	0.00000000	20.13410000	14.16708000
93.09999465	0.00000000	19.34670000	9.56569900
93.29999464	0.00000000	18.59621000	5.75172200
93.49999463	0.00000000	17.80881000	4.21998000
93.69999461	0.00000000	17.52584000	5.33341500
93.89999460	0.00000000	18.27633000	8.40305000
94.09999459	0.00000000	20.17716000	12.62918000
94.29999458	0.00000000	22.09030000	16.85531000
94.49999457	0.00000000	23.71432000	19.92495000
94.69999455	0.00000000	25.20300000	21.04454000
94.89999454	0.00000000	25.94734000	19.54970000
95.09999453	0.00000000	25.15994000	16.11712000
95.29999452	0.00000000	23.24680000	12.25394000
95.49999451	0.00000000	20.50935000	8.40305000
95.69999449	0.00000000	17.43356000	5.75172200
95.89999448	0.00000000	14.73917000	5.33341500
96.09999447	0.00000000	13.20128000	6.86515700
96.29999446	0.00000000	13.20128000	9.93479300
96.49999445	0.00000000	14.73917000	13.74262000
96.69999444	0.00000000	17.48277000	16.81225000
96.89999442	0.00000000	20.97072000	18.39321000
97.09999441	0.00000000	24.82775000	18.43627000
97.29999440	0.00000000	27.86048000	17.23056000
97.49999439	0.00000000	29.06619000	14.94833000
97.69999438	0.00000000	28.27879000	11.93405000
97.89999436	0.00000000	25.99040000	10.02707000
98.09999435	0.00000000	22.46555000	9.51648500
98.29999434	0.00000000	18.63927000	9.56569900
98.49999433	0.00000000	15.11442000	10.35310000
98.69999432	0.00000000	12.82603000	12.21087000
98.89999430	0.00000000	12.03863000	13.74262000
99.09999429	0.00000000	13.20128000	14.53617000
99.29999428	0.00000000	15.90182000	14.94833000
99.49999427	0.00000000	19.38976000	14.58538000
99.69999426	0.00000000	23.24680000	14.25320000
99.89999425	0.00000000	26.36565000	14.21014000
100.09999423	0.00000000	28.32185000	14.25320000
100.29999422	0.00000000	29.06619000	14.62844000
100.49999421	0.00000000	27.90354000	15.36663000
100.69999420	0.00000000	25.25221000	15.69267000
100.89999419	0.00000000	22.13336000	15.32357000
101.09999417	0.00000000	19.01451000	14.16092000
101.29999416	0.00000000	16.32013000	12.62918000
101.49999415	0.00000000	14.78223000	11.09744000
101.69999414	0.00000000	14.73917000	9.93479300
101.89999413	0.00000000	15.85261000	9.56569900
102.09999411	0.00000000	17.43356000	9.98400600
102.29999410	0.00000000	19.43897000	11.55881000
102.49999409	0.00000000	22.09030000	14.25320000
102.69999408	0.00000000	24.40945000	17.27977000
102.89999407	0.00000000	25.57825000	19.59892000
103.09999406	0.00000000	25.99040000	20.34941000
103.29999404	0.00000000	25.15994000	19.59892000
103.49999403	0.00000000	23.33907000	17.27977000
103.69999402	0.00000000	21.38902000	14.21014000
103.89999401	0.00000000	20.17716000	11.09744000
104.09999400	0.00000000	18.97145000	8.40305000
104.29999398	0.00000000	17.85802000	6.90821800
104.49999397	0.00000000	17.48277000	7.24040300
104.69999396	0.00000000	17.85802000	9.18430000
104.89999395	0.00000000	19.01451000	11.84178000
105.09999394	0.00000000	20.55241000	14.94833000
105.29999392	0.00000000	22.09030000	17.23056000
105.49999391	0.00000000	23.24680000	18.43627000
105.69999390	0.00000000	23.62205000	18.39321000
105.89999389	0.00000000	23.24680000	16.90453000
106.09999388	0.00000000	22.13336000	14.58538000
106.29999387	0.00000000	20.97072000	12.30315000
106.49999385	0.00000000	20.17716000	10.35310000
106.69999384	0.00000000	19.38976000	9.60875900
106.89999383	0.00000000	19.10679000	9.93479300
107.09999382	0.00000000	19.80807000	11.09744000
107.29999381	0.00000000	21.29675000	12.62918000
107.49999379	0.00000000	22.09030000	14.21014000
107.69999378	0.00000000	22.50861000	15.69882000
107.89999377	0.00000000	22.87770000	16.43701000
108.09999376	0.00000000	22.46555000	15.69882000
108.29999375	0.00000000	21.71506000	14.21014000
108.49999374	0.00000000	20.55241000	12.62918000
108.69999372	0.00000000	19.43897000	11.14050000
108.89999371	0.00000000	19.01451000	10.35310000
109.09999370	0.00000000	19.01451000	10.72219000
109.29999369	0.00000000	19.43897000	11.46653000
109.49999368	0.00000000	20.59547000	12.67224000
109.69999366	0.00000000	22.09030000	14.21014000
109.89999365	0.00000000	23.24680000	15.69882000
110.09999364	0.00000000	23.67126000	16.48007000
110.29999363	0.00000000	23.67126000	16.11712000
110.49999362	0.00000000	23.24680000	15.36663000
110.69999360	0.00000000	22.09030000	14.16092000
110.89999359	0.00000000	20.59547000	12.62918000
111.09999358	0.00000000	19.43897000	11.14050000
111.29999357	0.00000000	19.01451000	10.35310000
111.49999356	0.00000000	19.01451000	10.72219000
111.69999355	0.00000000	19.38976000	11.42347000
111.89999353	0.00000000	20.17716000	12.25394000
112.09999352	0.00000000	20.97072000	13.00443000
112.29999351	0.00000000	22.09030000	13.79183000
112.49999350	0.00000000	22.87770000	14.21014000
112.69999349	0.00000000	22.88386000	14.62844000
112.89999347	0.00000000	22.92076000	15.32357000
113.09999346	0.00000000	22.46555000	15.32357000
113.29999345	0.00000000	21.75812000	14.62844000
113.49999344	0.00000000	20.97072000	14.25320000
113.69999343	0.00000000	20.59547000	14.21014000
113.89999341	0.00000000	20.55241000	14.16708000
114.09999340	0.00000000	20.59547000	13.79183000
114.29999339	0.00000000	20.97072000	13.04749000
114.49999338	0.00000000	21.71506000	12.67224000
114.69999337	0.00000000	22.09030000	12.62918000
114.89999336	0.00000000	22.13336000	12.62918000
115.09999334	0.00000000	22.13336000	12.62918000
115.29999333	0.00000000	22.13336000	12.67224000
115.49999332	0.00000000	22.13336000	13.04749000
115.69999331	0.00000000	22.13336000	13.83489000
115.89999330	0.00000000	22.13336000	14.58538000
116.09999328	0.00000000	22.09030000	15.36663000
116.29999327	0.00000000	21.71506000	15.74188000
116.49999326	0.00000000	20.97072000	15.78494000
116.69999325	0.00000000	20.59547000	15.78494000
116.89999324	0.00000000	20.59547000	15.74188000
117.09999322	0.00000000	20.97072000	15.32357000
117.29999321	0.00000000	21.75812000	14.21014000
117.49999320	0.00000000	22.50861000	13.09670000
117.69999319	0.00000000	23.29601000	12.62918000
117.89999318	0.00000000	23.67126000	12.25394000
118.09999317	0.00000000	23.71432000	11.88484000
118.29999315	0.00000000	23.67126000	12.29700000
118.49999314	0.00000000	23.24680000	13.04749000
118.69999313	0.00000000	22.09030000	14.21014000
118.89999312	0.00000000	20.59547000	15.32357000
119.09999311	0.00000000	19.43897000	15.74188000
119.29999309	0.00000000	19.06373000	15.78494000
119.49999308	0.00000000	19.43897000	15.78494000
119.69999307	0.00000000	20.55241000	15.74188000
119.89999306	0.00000000	21.71506000	15.36663000
120.09999305	0.00000000	22.50861000	14.62844000
120.29999303	0.00000000	23.33907000	14.21014000
120.49999302	0.00000000	24.08957000	13.79183000
120.69999301	0.00000000	24.82775000	13.04749000
120.89999300	0.00000000	24.82775000	12.67224000
121.09999299	0.00000000	24.04650000	12.58612000
121.29999298	0.00000000	22.92076000	12.25394000
121.49999296	0.00000000	21.34596000	11.88484000
121.69999295	0.00000000	20.22022000	12.29700000
121.89999294	0.00000000	19.38976000	13.00443000
122.09999293	0.00000000	19.06373000	13.79183000
122.29999292	0.00000000	19.38976000	14.21014000
122.49999290	0.00000000	20.17716000	14.62844000
122.69999289	0.00000000	20.97072000	15.36663000
122.89999288	0.00000000	22.13336000	15.74188000
123.09999287	0.00000000	23.24680000	15.74188000
123.29999286	0.00000000	23.67126000	15.36663000
123.49999284	0.00000000	23.71432000	14.58538000
123.69999283	0.00000000	23.71432000	13.83489000
123.89999282	0.00000000	23.67126000	13.04749000
124.09999281	0.00000000	23.29601000	12.67224000
124.29999280	0.00000000	22.55167000	12.62918000
124.49999279	0.00000000	22.13336000	12.62918000
124.69999277	0.00000000	21.71506000	12.67224000
124.89999276	0.00000000	20.97072000	13.04749000
125.09999275	0.00000000	20.59547000	13.79183000
125.29999274	0.00000000	20.55241000	14.21014000
125.49999273	0.00000000	20.59547000	14.62844000
125.69999271	0.00000000	20.97072000	15.36663000
125.89999270	0.00000000	21.75812000	15.69267000
126.09999269	0.00000000	22.50861000	15.40969000
126.29999268	0.00000000	23.33907000	15.00369000
126.49999267	0.00000000	24.04650000	14.99139000
126.69999265	0.00000000	24.45866000	14.58538000
126.89999264	0.00000000	24.04650000	14.25320000
127.09999263	0.00000000	23.29601000	14.21014000
127.29999262	0.00000000	22.13336000	14.16708000
127.49999261	0.00000000	21.01993000	13.83489000
127.69999260	0.00000000	20.59547000	13.46580000
127.89999258	0.00000000	20.55241000	13.87795000
128.09999257	0.00000000	20.59547000	14.53617000
128.29999256	0.00000000	21.01993000	14.94833000
128.49999255	0.00000000	22.17643000	14.62844000
128.69999254	0.00000000	23.62205000	14.62844000
128.89999252	0.00000000	24.45866000	14.94833000
129.09999251	0.00000000	24.46481000	14.58538000
129.29999250	0.00000000	24.45866000	14.25320000
129.49999249	0.00000000	23.67126000	14.21014000
129.69999248	0.00000000	22.55167000	14.16708000
129.89999246	0.00000000	21.75812000	13.83489000
130.09999245	0.00000000	20.97072000	13.46580000
130.29999244	0.00000000	20.59547000	13.83489000
130.49999243	0.00000000	20.59547000	14.16708000
130.69999242	0.00000000	21.01993000	14.21014000
130.89999241	0.00000000	22.13336000	14.25320000
131.09999239	0.00000000	23.24680000	14.58538000
131.29999238	0.00000000	23.71432000	14.94833000
131.49999237	0.00000000	24.08957000	14.58538000
131.69999236	0.00000000	24.45866000	14.21014000
131.89999235	0.00000000	24.04650000	13.79183000
132.09999233	0.00000000	23.33907000	13.04749000
132.29999232	0.00000000	22.55167000	12.72146000
132.49999231	0.00000000	22.17643000	13.04749000
132.69999230	0.00000000	22.13336000	13.79183000
132.89999229	0.00000000	22.17643000	14.21014000
133.09999227	0.00000000	22.50861000	14.62844000
133.29999226	0.00000000	22.92076000	15.36663000
133.49999225	0.00000000	22.92692000	15.74188000
133.69999224	0.00000000	23.33907000	15.78494000
133.89999223	0.00000000	23.62205000	15.78494000
134.09999222	0.00000000	23.29601000	15.74188000
134.29999220	0.00000000	22.55167000	15.32357000
134.49999219	0.00000000	22.22564000	14.21014000
134.69999218	0.00000000	22.55167000	13.09670000
134.89999217	0.00000000	23.29601000	12.67224000
135.09999216	0.00000000	23.67126000	12.62918000
135.29999214	0.00000000	23.71432000	12.67224000
135.49999213	0.00000000	23.71432000	13.04749000
135.69999212	0.00000000	23.71432000	13.83489000
135.89999211	0.00000000	23.67126000	14.58538000
136.09999210	0.00000000	23.29601000	15.36663000
136.29999208	0.00000000	22.50861000	15.74188000
136.49999207	0.00000000	21.80118000	15.78494000
136.69999206	0.00000000	21.38902000	15.74188000
136.89999205	0.00000000	21.80118000	15.36663000
137.09999204	0.00000000	22.50861000	14.62844000
137.29999203	0.00000000	23.33907000	14.25320000
137.49999201	0.00000000	24.08957000	14.16708000
137.69999200	0.00000000	24.87697000	13.79183000
137.89999199	0.00000000	25.20300000	13.04749000
138.09999198	0.00000000	24.87697000	12.67224000
138.29999197	0.00000000	24.08957000	12.67224000
138.49999195	0.00000000	23.33907000	13.04749000
138.69999194	0.00000000	22.50861000	13.79183000
138.89999193	0.00000000	21.80118000	14.16708000
139.09999192	0.00000000	21.38902000	14.25320000
139.29999191	0.00000000	21.75812000	14.62844000
139.49999189	0.00000000	22.13336000	15.36663000
139.69999188	0.00000000	22.55167000	15.74188000
139.89999187	0.00000000	23.29601000	15.74188000
140.09999186	0.00000000	23.67126000	15.36663000
140.29999185	0.00000000	23.71432000	14.58538000
140.49999184	0.00000000	23.71432000	13.83489000
140.69999182	0.00000000	23.67126000	13.04749000
140.89999181	0.00000000	23.29601000	12.67224000
141.09999180	0.00000000	22.55167000	12.62918000
141.29999179	0.00000000	22.17643000	12.67224000
141.49999178	0.00000000	22.17643000	13.04749000
141.69999176	0.00000000	22.50861000	13.83489000
141.89999175	0.00000000	22.92076000	14.58538000
142.09999174	0.00000000	22.92692000	15.36663000
142.29999173	0.00000000	23.33907000	15.74188000
142.49999172	0.00000000	23.67126000	15.78494000
142.69999170	0.00000000	23.71432000	15.74188000
142.89999169	0.00000000	23.71432000	15.36663000
143.09999168	0.00000000	23.71432000	14.58538000
143.29999167	0.00000000	23.67126000	13.83489000
143.49999166	0.00000000	23.33907000	13.04749000
143.69999165	0.00000000	22.96998000	12.72146000
143.89999163	0.00000000	23.33907000	13.00443000
144.09999162	0.00000000	23.67126000	13.41658000
144.29999161	0.00000000	23.71432000	13.42274000
144.49999160	0.00000000	23.71432000	13.87795000
144.69999159	0.00000000	23.71432000	14.58538000
144.89999157	0.00000000	23.71432000	15.36663000
145.09999156	0.00000000	23.71432000	15.74188000
145.29999155	0.00000000	23.71432000	15.78494000
145.49999154	0.00000000	23.67126000	15.74188000
145.69999153	0.00000000	23.29601000	15.36663000
145.89999151	0.00000000	22.60088000	14.62844000
146.09999150	0.00000000	22.60088000	14.25320000
146.29999149	0.00000000	23.29601000	14.21014000
146.49999148	0.00000000	23.67126000	14.21014000
146.69999147	0.00000000	23.71432000	14.21014000
146.89999146	0.00000000	23.75738000	14.25320000
147.09999144	0.00000000	24.08957000	14.62844000
147.29999143	0.00000000	24.45866000	15.36663000
147.49999142	0.00000000	24.08957000	15.74188000
147.69999141	0.00000000	23.75738000	15.78494000
147.89999140	0.00000000	23.67126000	15.78494000
148.09999138	0.00000000	23.33907000	15.78494000
148.29999137	0.00000000	22.96998000	15.78494000
148.49999136	0.00000000	23.33907000	15.74188000
148.69999135	0.00000000	23.67126000	15.36663000
148.89999134	0.00000000	23.71432000	14.62844000
149.09999132	0.00000000	23.71432000	14.30241000
149.29999131	0.00000000	23.75738000	14.58538000
149.49999130	0.00000000	24.08957000	14.94833000
149.69999129	0.00000000	24.50172000	14.58538000
149.89999128	0.00000000	24.50787000	14.30241000
150.09999127	0.00000000	24.87697000	14.62844000
150.29999125	0.00000000	24.82775000	15.36663000
150.49999124	0.00000000	24.13263000	15.74188000
150.69999123	0.00000000	23.75738000	15.78494000
150.89999122	0.00000000	23.71432000	15.78494000
151.09999121	0.00000000	23.71432000	15.78494000
151.29999119	0.00000000	23.71432000	15.74188000
151.49999118	0.00000000	23.71432000	15.36663000
151.69999117	0.00000000	23.71432000	14.62844000
151.89999116	0.00000000	23.71432000	14.25320000
152.09999115	0.00000000	23.75738000	14.21014000
152.29999113	0.00000000	24.08957000	14.21014000
152.49999112	0.00000000	24.50172000	14.21014000
152.69999111	0.00000000	24.50787000	14.21014000
152.89999110	0.00000000	24.87697000	14.21014000
153.09999109	0.00000000	24.82775000	14.21014000
153.29999108	0.00000000	24.13263000	14.25320000
153.49999106	0.00000000	23.75738000	14.62844000
153.69999105	0.00000000	23.67126000	15.36663000
153.89999104	0.00000000	23.29601000	15.74188000
154.09999103	0.00000000	22.55167000	15.74188000
154.29999102	0.00000000	22.22564000	15.36663000
154.49999100	0.00000000	22.55167000	14.62844000
154.69999099	0.00000000	23.29601000	14.25320000
154.89999098	0.00000000	23.67126000	14.21014000
155.09999097	0.00000000	23.75738000	14.21014000
155.29999096	0.00000000	24.13263000	14.21014000
155.49999094	0.00000000	24.87697000	14.21014000
155.69999093	0.00000000	25.25221000	14.21014000
155.89999092	0.00000000	25.25221000	14.21014000
156.09999091	0.00000000	24.87697000	14.21014000
156.29999090	0.00000000	24.13263000	14.25320000
156.49999089	0.00000000	23.75738000	14.62844000
156.69999087	0.00000000	23.67126000	15.36663000
156.89999086	0.00000000	23.33907000	15.74188000
157.09999085	0.00000000	22.92692000	15.78494000
157.29999084	0.00000000	22.96383000	15.78494000
157.49999083	0.00000000	22.92692000	15.74188000
157.69999081	0.00000000	23.33907000	15.36663000
157.89999080	0.00000000	23.71432000	14.62844000
158.09999079	0.00000000	24.13263000	14.25320000
158.29999078	0.00000000	24.87697000	14.21014000
158.49999077	0.00000000	25.25221000	14.21014000
158.69999075	0.00000000	25.29527000	14.21014000
158.89999074	0.00000000	25.29527000	14.21014000
159.09999073	0.00000000	25.25221000	14.25320000
159.29999072	0.00000000	24.87697000	14.62844000
159.49999071	0.00000000	24.13263000	15.36663000
159.69999070	0.00000000	23.75738000	15.74188000
159.89999068	0.00000000	23.71432000	15.78494000
160.09999067	0.00000000	23.71432000	15.78494000
160.29999066	0.00000000	23.71432000	15.78494000
160.49999065	0.00000000	23.71432000	15.78494000
160.69999064	0.00000000	23.71432000	15.74188000
160.89999062	0.00000000	23.71432000	15.36663000
161.09999061	0.00000000	23.75738000	14.62844000
161.29999060	0.00000000	24.13263000	14.25320000
161.49999059	0.00000000	24.87697000	14.21014000
161.69999058	0.00000000	25.25221000	14.25320000
161.89999056	0.00000000	25.29527000	14.62844000
162.09999055	0.00000000	25.29527000	15.36663000
162.29999054	0.00000000	25.29527000	15.74188000
162.49999053	0.00000000	25.29527000	15.78494000
162.69999052	0.00000000	25.25221000	15.78494000
162.89999051	0.00000000	24.87697000	15.78494000
163.09999049	0.00000000	24.13263000	15.78494000
163.29999048	0.00000000	23.75738000	15.74188000
163.49999047	0.00000000	23.71432000	15.40969000
163.69999046	0.00000000	23.71432000	15.04675000
163.89999045	0.00000000	23.71432000	15.36663000
164.09999043	0.00000000	23.75738000	15.36663000
164.29999042	0.00000000	24.13263000	15.04675000
164.49999041	0.00000000	24.87697000	15.36663000
164.69999040	0.00000000	25.25221000	15.32357000
164.89999039	0.00000000	25.29527000	14.62844000
165.09999037	0.00000000	25.29527000	14.30241000
165.29999036	0.00000000	25.29527000	14.62844000
165.49999035	0.00000000	25.29527000	15.36663000
165.69999034	0.00000000	25.25221000	15.74188000
165.89999033	0.00000000	24.87697000	15.78494000
166.09999032	0.00000000	24.13263000	15.78494000
166.29999030	0.00000000	23.75738000	15.78494000
166.49999029	0.00000000	23.71432000	15.78494000
166.69999028	0.00000000	23.71432000	15.78494000
166.89999027	0.00000000	23.71432000	15.78494000
167.09999026	0.00000000	23.75738000	15.74188000
167.29999024	0.00000000	24.13263000	15.36663000
167.49999023	0.00000000	24.87697000	14.62844000
167.69999022	0.00000000	25.20300000	14.25320000
167.89999021	0.00000000	24.92003000	14.21014000
168.09999020	0.00000000	24.55093000	14.21014000
168.29999018	0.00000000	24.92003000	14.21014000
168.49999017	0.00000000	25.25221000	14.21014000
168.69999016	0.00000000	25.29527000	14.21014000
168.89999015	0.00000000	25.29527000	14.21014000
169.09999014	0.00000000	25.25221000	14.21014000
169.29999013	0.00000000	24.87697000	14.21014000
169.49999011	0.00000000	24.13263000	14.21014000
169.69999010	0.00000000	23.75738000	14.21014000
169.89999009	0.00000000	23.71432000	14.21014000
170.09999008	0.00000000	23.71432000	14.25320000
170.29999007	0.00000000	23.75738000	14.58538000
170.49999005	0.00000000	24.13263000	14.94833000
170.69999004	0.00000000	24.87697000	14.58538000
170.89999003	0.00000000	25.25221000	14.25320000
171.09999002	0.00000000	25.29527000	14.21014000
171.29999001	0.00000000	25.29527000	14.21014000
171.49998999	0.00000000	25.29527000	14.21014000
171.69998998	0.00000000	25.29527000	14.21014000
171.89998997	0.00000000	25.29527000	14.25320000
172.09998996	0.00000000	25.29527000	14.62844000
172.29998995	0.00000000	25.29527000	15.36663000
172.49998994	0.00000000	25.29527000	15.74188000
172.69998992	0.00000000	25.29527000	15.78494000
172.89998991	0.00000000	25.29527000	15.78494000
173.09998990	0.00000000	25.29527000	15.78494000
173.29998989	0.00000000	25.29527000	15.78494000
173.49998988	0.00000000	25.29527000	15.78494000
173.69998986	0.00000000	25.29527000	15.78494000
173.89998985	0.00000000	25.29527000	15.78494000
174.09998984	0.00000000	25.29527000	15.78494000
174.29998983	0.00000000	25.29527000	15.78494000
174.49998982	0.00000000	25.29527000	15.78494000
174.69998980	0.00000000	25.29527000	15.78494000
174.89998979	0.00000000	25.29527000	15.78494000
175.09998978	0.00000000	25.29527000	15.78494000
175.29998977	0.00000000	25.29527000	15.78494000
175.49998976	0.00000000	25.29527000	15.78494000
175.69998975	0.00000000	25.29527000	15.78494000
175.89998973	0.00000000	25.29527000	15.78494000
176.09998972	0.00000000	25.29527000	15.78494000
176.29998971	0.00000000	25.29527000	15.78494000
176.49998970	0.00000000	25.29527000	15.78494000
176.69998969	0.00000000	25.33834000	15.78494000
176.89998967	0.00000000	25.67052000	15.78494000
177.09998966	0.00000000	26.03961000	15.78494000
177.29998965	0.00000000	25.67052000	15.78494000
177.49998964	0.00000000	25.33834000	15.78494000
177.69998963	0.00000000	25.29527000	15.74188000
177.89998961	0.00000000	25.29527000	15.40969000
178.09998960	0.00000000	25.29527000	15.04675000
178.29998959	0.00000000	25.29527000	15.40969000
178.49998958	0.00000000	25.29527000	15.74188000
178.69998957	0.00000000	25.29527000	15.78494000
178.89998956	0.00000000	25.29527000	15.78494000
179.09998954	0.00000000	25.29527000	15.78494000
179.29998953	0.00000000	25.29527000	15.78494000
179.49998952	0.00000000	25.29527000	15.78494000
179.69998951	0.00000000	25.29527000	15.78494000
179.89998950	0.00000000	25.29527000	15.74188000
180.09998948	0.00000000	25.29527000	15.36663000
180.29998947	0.00000000	25.29527000	14.67150000
180.49998946	0.00000000	25.29527000	14.67150000
180.69998945	0.00000000	25.29527000	15.36663000
180.89998944	0.00000000	25.29527000	15.74188000
181.09998942	0.00000000	25.29527000	15.78494000
181.29998941	0.00000000	25.29527000	15.78494000
181.49998940	0.00000000	25.29527000	15.78494000
181.69998939	0.00000000	25.29527000	15.78494000
181.89998938	0.00000000	25.29527000	15.78494000
182.09998937	0.00000000	25.29527000	15.78494000
182.29998935	0.00000000	25.29527000	15.78494000
182.49998934	0.00000000	25.29527000	15.78494000
182.69998933	0.00000000	25.29527000	15.78494000
182.89998932	0.00000000	25.29527000	15.78494000
183.09998931	0.00000000	25.29527000	15.74188000
183.29998929	0.00000000	25.29527000	15.36663000
183.49998928	0.00000000	25.29527000	14.67150000
183.69998927	0.00000000	25.29527000	14.67150000
183.89998926	0.00000000	25.29527000	15.36663000
184.09998925	0.00000000	25.29527000	15.74188000
184.29998923	0.00000000	25.29527000	15.78494000
184.49998922	0.00000000	25.29527000	15.78494000
184.69998921	0.00000000	25.29527000	15.78494000
184.89998920	0.00000000	25.29527000	15.78494000
185.09998919	0.00000000	25.29527000	15.78494000
185.29998918	0.00000000	25.29527000	15.78494000
185.49998916	0.00000000	25.33834000	15.78494000
185.69998915	0.00000000	25.71358000	15.74188000
185.89998914	0.00000000	26.40871000	15.36663000
186.09998913	0.00000000	26.40871000	14.62844000
186.29998912	0.00000000	25.76279000	14.25320000
186.49998910	0.00000000	25.71358000	14.21014000
186.69998909	0.00000000	26.03961000	14.21014000
186.89998908	0.00000000	25.67052000	14.25320000
187.09998907	0.00000000	25.33834000	14.62844000
187.29998906	0.00000000	25.29527000	15.36663000
187.49998904	0.00000000	25.29527000	15.78494000
187.69998903	0.00000000	25.29527000	16.16018000
187.89998902	0.00000000	25.29527000	16.52928000
188.09998901	0.00000000	25.29527000	16.16018000
188.29998900	0.00000000	25.33834000	15.82800000
188.49998899	0.00000000	25.67052000	15.78494000
188.69998897	0.00000000	26.08268000	15.74188000
188.89998896	0.00000000	26.08883000	15.36663000
189.09998895	0.00000000	26.45792000	14.62844000
189.29998894	0.00000000	26.40871000	14.30241000
189.49998893	0.00000000	25.71358000	14.62844000
189.69998891	0.00000000	25.33834000	15.36663000
189.89998890	0.00000000	25.29527000	15.74188000
190.09998889	0.00000000	25.29527000	15.78494000
190.29998888	0.00000000	25.29527000	15.78494000
190.49998887	0.00000000	25.29527000	15.78494000
190.69998885	0.00000000	25.29527000	15.82800000
190.89998884	0.00000000	25.29527000	16.16018000
191.09998883	0.00000000	25.33834000	16.52928000
191.29998882	0.00000000	25.67052000	16.16018000
191.49998881	0.00000000	26.08268000	15.82800000
191.69998880	0.00000000	26.08883000	15.78494000
191.89998878	0.00000000	26.50098000	15.78494000
192.09998877	0.00000000	26.83317000	15.78494000
192.29998876	0.00000000	26.87623000	15.78494000
192.49998875	0.00000000	26.83317000	15.78494000
192.69998874	0.00000000	26.45792000	15.78494000
192.89998872	0.00000000	25.71358000	15.78494000
193.09998871	0.00000000	25.33834000	15.78494000
193.29998870	0.00000000	25.33834000	15.78494000
193.49998869	0.00000000	25.67052000	15.78494000
193.69998868	0.00000000	26.03961000	15.78494000
193.89998866	0.00000000	25.71358000	15.82800000
194.09998865	0.00000000	25.76279000	16.20325000
194.29998864	0.00000000	26.45792000	16.94759000
194.49998863	0.00000000	26.83317000	17.27362000
194.69998862	0.00000000	26.87623000	16.94759000
194.89998861	0.00000000	26.87623000	16.20325000
195.09998859	0.00000000	26.87623000	15.82800000
195.29998858	0.00000000	26.87623000	15.78494000
195.49998857	0.00000000	26.87623000	15.78494000
195.69998856	0.00000000	26.83317000	15.78494000
195.89998855	0.00000000	26.45792000	15.78494000
196.09998853	0.00000000	25.71358000	15.78494000
