Time	Channel A	Channel B	Channel C
(us)	(V)	(mV)	(mV)

-4.49999956	0.00000000	-85.85137000	-25.26452000
-4.29999957	0.00000000	-86.54650000	-25.26452000
-4.09999958	0.00000000	-86.87254000	-25.30758000
-3.89999959	0.00000000	-86.58956000	-25.63976000
-3.69999960	0.00000000	-86.17741000	-26.00270000
-3.49999962	0.00000000	-86.21432000	-25.63976000
-3.29999963	0.00000000	-86.13435000	-25.30758000
-3.09999964	0.00000000	-86.21432000	-25.26452000
-2.89999965	0.00000000	-86.17741000	-25.26452000
-2.69999966	0.00000000	-86.54650000	-25.26452000
-2.49999968	0.00000000	-86.49728000	-25.26452000
-2.29999969	0.00000000	-85.85137000	-25.26452000
-2.09999970	0.00000000	-85.85137000	-25.26452000
-1.89999971	0.00000000	-86.54650000	-25.26452000
-1.69999972	0.00000000	-86.87254000	-25.26452000
-1.49999973	0.00000000	-86.58956000	-25.26452000
-1.29999975	0.00000000	-86.22047000	-25.26452000
-1.09999976	0.00000000	-86.54650000	-25.26452000
-0.89999977	0.00000000	-86.49728000	-25.26452000
-0.69999978	0.00000000	-85.80216000	-25.26452000
-0.49999979	0.00000000	-85.42691000	-25.26452000
-0.29999981	0.31803640	-85.42691000	-25.26452000
-0.09999982	0.63668800	-85.75910000	-25.26452000
0.10000017	0.95533960	-86.17126000	-25.26452000
0.30000016	0.95533960	-86.17741000	-25.26452000
0.50000015	0.79601380	-86.58956000	-25.26452000
0.70000013	0.31803640	-86.87254000	-25.26452000
0.90000012	-0.47736220	-86.54650000	-25.26452000
1.10000011	-1.59264300	-85.80216000	-25.26452000
1.30000010	-2.38927200	-85.42691000	-25.26452000
1.50000009	-2.70792300	-85.38385000	-25.26452000
1.70000008	-2.38927200	-85.38385000	-25.26452000
1.90000006	-1.27399100	-85.38385000	-25.22145000
2.10000005	0.63668800	-85.38385000	-24.84621000
2.30000004	2.70792300	-85.38385000	-24.15108000
2.50000003	4.45989200	-85.38385000	-24.15108000
2.70000002	5.41584600	-85.42691000	-24.84621000
2.90000000	4.77854300	-85.80216000	-25.22145000
3.09999999	2.86724900	-86.49728000	-25.26452000
3.29999998	-0.15871060	-86.49728000	-25.26452000
3.49999997	-3.66326300	-85.80216000	-25.26452000
3.69999996	-6.53112700	-85.42691000	-25.26452000
3.89999994	-7.96444400	-85.38385000	-25.22145000
4.09999993	-7.48646600	-85.38385000	-24.84621000
4.29999992	-4.93786900	-85.38385000	-24.10187000
4.49999991	-0.95533960	-85.38385000	-23.72662000
4.69999990	3.50393700	-85.42691000	-23.68356000
4.89999989	7.32714100	-85.75910000	-23.72662000
5.09999987	9.23905000	-86.12819000	-24.10187000
5.29999986	9.07972400	-85.75910000	-24.84621000
5.49999985	6.53112700	-85.42691000	-25.22145000
5.69999984	2.22994600	-85.38385000	-25.26452000
5.89999983	-2.54859700	-85.42691000	-25.26452000
6.09999981	-6.69045300	-85.75910000	-25.26452000
6.29999980	-9.07972400	-86.12819000	-25.26452000
6.49999979	-9.23905000	-85.75910000	-25.22145000
6.69999978	-7.00848900	-85.42691000	-24.88927000
6.89999977	-3.18590100	-85.38385000	-24.52018000
7.09999975	1.11466500	-85.38385000	-24.88927000
7.29999974	4.93786900	-85.38385000	-25.22145000
7.49999973	7.32714100	-85.38385000	-25.26452000
7.69999972	7.64579200	-85.38385000	-25.26452000
7.89999971	6.21247500	-85.38385000	-25.26452000
8.09999970	3.34522600	-85.38385000	-25.26452000
8.29999968	0.00000000	-85.42691000	-25.26452000
8.49999967	-2.86724900	-85.75910000	-25.26452000
8.69999966	-4.77854300	-86.12819000	-25.26452000
8.89999965	-5.25652100	-85.75910000	-25.26452000
9.09999964	-4.30056600	-85.42691000	-25.26452000
9.29999962	-2.70792300	-85.38385000	-25.26452000
9.49999961	-0.63668800	-85.38385000	-25.26452000
9.69999960	1.11466500	-85.38385000	-25.26452000
9.89999959	2.22994600	-85.38385000	-25.26452000
10.09999958	2.54859700	-85.42691000	-25.26452000
10.29999956	2.22994600	-85.75910000	-25.26452000
10.49999955	1.43331700	-86.12819000	-25.26452000
10.69999954	0.47736220	-85.75910000	-25.26452000
10.89999953	-0.31803640	-85.42691000	-25.26452000
11.09999952	-0.79601380	-85.38385000	-25.26452000
11.29999951	-0.95533960	-85.38385000	-25.26452000
11.49999949	-0.95533960	-85.38385000	-25.26452000
11.69999948	-0.63668800	-85.38385000	-25.26452000
11.89999947	-0.47736220	-85.38385000	-25.26452000
12.09999946	-0.15871060	-85.38385000	-25.26452000
12.29999945	-0.15871060	-85.38385000	-25.26452000
12.49999943	-0.15871060	-85.38385000	-25.26452000
12.69999942	0.00000000	-85.38385000	-25.26452000
12.89999941	0.00000000	-85.34079000	-25.26452000
13.09999940	0.00000000	-85.00861000	-25.26452000
13.29999939	0.00000000	-84.63951000	-25.26452000
13.49999937	0.00000000	-85.00861000	-25.26452000
13.69999936	0.00000000	-85.34079000	-25.26452000
13.89999935	0.00000000	-85.38385000	-25.26452000
14.09999934	-0.15871060	-85.38385000	-25.26452000
14.29999933	-0.15871060	-85.38385000	-25.26452000
14.49999932	-0.15871060	-85.38385000	-25.26452000
14.69999930	0.00000000	-85.38385000	-25.26452000
14.89999929	0.00000000	-85.38385000	-25.26452000
15.09999928	0.00000000	-85.38385000	-25.26452000
15.29999927	0.00000000	-85.38385000	-25.26452000
15.49999926	0.00000000	-85.38385000	-25.26452000
15.69999924	0.00000000	-85.42691000	-25.26452000
15.89999923	0.00000000	-85.80216000	-25.26452000
16.09999922	0.00000000	-86.49728000	-25.26452000
16.29999921	0.00000000	-86.49728000	-25.26452000
16.49999920	-0.15871060	-85.80216000	-25.26452000
16.69999919	0.00000000	-85.38385000	-25.26452000
16.89999917	0.00000000	-84.96555000	-25.26452000
17.09999916	0.00000000	-84.22120000	-25.26452000
17.29999915	0.00000000	-83.84596000	-25.26452000
17.49999914	0.00000000	-83.80289000	-25.26452000
17.69999913	0.00000000	-83.84596000	-25.26452000
17.89999911	0.00000000	-84.27042000	-25.26452000
18.09999910	0.00000000	-85.42691000	-25.26452000
18.29999909	0.00000000	-86.96481000	-25.26452000
18.49999908	0.00000000	-88.50270000	-25.26452000
18.69999907	0.00000000	-89.70841000	-25.26452000
18.89999905	0.00000000	-90.45890000	-25.26452000
19.09999904	0.00000000	-90.77879000	-25.26452000
19.29999903	0.00000000	-89.57307000	-25.26452000
19.49999902	0.00000000	-86.87254000	-25.26452000
19.69999901	0.00000000	-83.33538000	-25.26452000
19.89999900	0.00000000	-79.10310000	-25.26452000
20.09999898	0.00000000	-75.33833000	-25.26452000
20.29999897	0.00000000	-73.80044000	-25.26452000
20.49999896	0.00000000	-74.96309000	-25.26452000
20.69999895	0.00000000	-78.54330000	-25.26452000
20.89999894	0.00000000	-84.77485000	-25.26452000
21.09999892	0.00000000	-92.82726000	-25.26452000
21.29999891	-0.15871060	-100.17840000	-25.26452000
21.49999890	0.00000000	-105.16120000	-25.26452000
21.69999889	0.00000000	-106.60060000	-25.26452000
21.89999888	0.00000000	-102.65130000	-25.26452000
22.09999886	0.00000000	-93.80536000	-25.26452000
22.29999885	0.00000000	-82.12967000	-25.26452000
22.49999884	0.00000000	-69.75270000	-25.26452000
22.69999883	0.00000000	-59.00590000	-25.26452000
22.89999882	0.00000000	-53.32185000	-25.22145000
23.09999881	0.00000000	-54.90280000	-24.84621000
23.29999879	0.00000000	-63.84104000	-24.10187000
23.49999878	0.00000000	-78.58636000	-23.72662000
23.69999877	0.00000000	-96.36441000	-23.64050000
23.89999876	0.00000000	-113.29970000	-23.30832000
24.09999875	0.00000000	-124.84000000	-22.93922000
24.29999873	0.00000000	-127.86660000	-23.35138000
24.49999872	0.00000000	-121.21060000	-24.15108000
24.69999871	0.00000000	-105.34570000	-25.72589000
24.89999870	0.00000000	-83.75984000	-27.95891000
25.09999869	0.00000000	-61.70029000	-29.49065000
25.29999867	0.00000000	-43.97145000	-29.90895000
25.49999866	0.00000000	-34.80561000	-29.53371000
25.69999865	0.00000000	-37.54921000	-28.28494000
25.89999864	0.00000000	-51.79010000	-25.95964000
26.09999863	0.00000000	-73.80044000	-22.43479000
26.29999862	0.00000000	-98.54822000	-18.61466000
26.49999860	0.00000000	-120.55860000	-15.18209000
26.69999859	0.00000000	-134.84250000	-13.69340000
26.89999858	0.00000000	-137.91830000	-14.80684000
27.09999857	0.00000000	-129.02930000	-18.01181000
27.29999856	0.00000000	-110.13780000	-23.49286000
27.49999854	0.00000000	-85.85137000	-31.15772000
27.69999853	0.00000000	-62.26008000	-38.45349000
27.89999852	0.00000000	-44.43897000	-43.47933000
28.09999851	0.00000000	-35.87598000	-45.33095000
28.29999850	0.00000000	-38.20128000	-42.55044000
28.49999848	0.00000000	-50.49212000	-35.25467000
28.69999847	0.00000000	-69.84498000	-25.17224000
28.89999846	0.00000000	-91.48621000	-14.25320000
29.09999845	0.00000000	-111.20820000	-3.89394600
29.29999844	0.00000000	-124.32950000	3.30339500
29.49999843	0.00000000	-127.90970000	4.01082700
29.69999841	0.00000000	-122.23180000	-2.12844500
29.89999840	0.00000000	-109.48570000	-13.73647000
30.09999839	0.00000000	-92.82726000	-28.42027000
30.29999838	0.00000000	-75.38139000	-43.10408000
30.49999837	0.00000000	-60.72219000	-54.67519000
30.69999835	0.00000000	-52.16535000	-60.43307000
30.89999834	0.00000000	-51.32258000	-58.85826000
31.09999833	0.00000000	-57.42495000	-49.93233000
31.29999832	0.00000000	-68.63311000	-35.20546000
31.49999831	0.00000000	-82.17889000	-17.50123000
31.69999829	0.00000000	-95.38631000	-0.92273620
31.89999828	0.00000000	-105.85630000	10.27928000
32.09999827	0.00000000	-111.67570000	14.22244000
32.29999826	0.00000000	-111.67570000	10.32234000
32.49999825	0.00000000	-105.90550000	-0.50442900
32.69999824	0.00000000	-95.93995000	-16.38779000
32.89999822	0.00000000	-84.68873000	-34.13509000
33.09999821	0.00000000	-74.63091000	-49.98154000
33.29999820	0.00000000	-67.24286000	-60.39001000
33.49999819	0.00000000	-64.53616000	-63.12745000
33.69999818	0.00000000	-66.40009000	-57.73868000
33.89999816	0.00000000	-72.21949000	-45.79847000
34.09999815	0.00000000	-80.68405000	-29.90895000
34.29999814	0.00000000	-89.53001000	-13.31816000
34.49999813	0.00000000	-96.45669000	0.60900590
34.69999812	0.00000000	-99.62475000	8.69832600
34.89999810	0.00000000	-98.92347000	9.48572700
35.09999809	0.00000000	-95.42937000	2.56520700
35.29999808	0.00000000	-89.61613000	-10.11934000
35.49999807	0.00000000	-82.73252000	-25.17224000
35.69999806	0.00000000	-77.00541000	-39.43774000
35.89999805	0.00000000	-74.26796000	-49.47096000
36.09999803	0.00000000	-74.96309000	-53.00197000
36.29999802	0.00000000	-78.03272000	-49.93233000
36.49999801	0.00000000	-82.68947000	-41.10482000
36.69999800	0.00000000	-88.03519000	-28.79552000
36.89999799	0.00000000	-92.26746000	-16.52313000
37.09999797	0.00000000	-94.22366000	-7.23425100
37.29999796	0.00000000	-93.84842000	-3.42027500
37.49999795	0.00000000	-91.15402000	-5.61023600
37.69999794	0.00000000	-86.92175000	-12.89985000
37.89999793	0.00000000	-82.26501000	-22.47785000
38.09999791	0.00000000	-78.07578000	-32.14198000
38.29999790	0.00000000	-75.75665000	-39.34547000
38.49999789	0.00000000	-76.12574000	-41.66461000
38.69999788	0.00000000	-78.40797000	-38.23203000
38.89999787	0.00000000	-82.26501000	-30.60408000
39.09999786	0.00000000	-86.49728000	-21.03223000
39.29999784	0.00000000	-90.03444000	-12.62303000
39.49999783	0.00000000	-92.77805000	-8.01550200
39.69999782	0.00000000	-94.27287000	-8.39074700
39.89999781	0.00000000	-93.89764000	-13.77953000
40.09999780	0.00000000	-91.57234000	-22.61319000
40.29999778	0.00000000	-88.12745000	-32.56028000
40.49999777	0.00000000	-84.17815000	-40.59424000
40.69999776	0.00000000	-80.30881000	-44.03912000
40.89999775	0.00000000	-76.82701000	-42.13213000
41.09999774	0.00000000	-74.96309000	-35.25467000
41.29999772	0.00000000	-75.28912000	-25.68282000
41.49999771	0.00000000	-77.61442000	-16.43085000
41.69999770	0.00000000	-81.05930000	-9.46727400
41.89999769	0.00000000	-85.00861000	-6.39763700
42.09999768	0.00000000	-88.82874000	-7.92937900
42.29999767	0.00000000	-91.94144000	-13.69340000
42.49999765	0.00000000	-93.11023000	-22.10261000
42.69999764	0.00000000	-92.77805000	-30.60408000
42.89999763	0.00000000	-91.19709000	-37.11245000
43.09999762	0.00000000	-88.50270000	-40.21899000
43.29999761	0.00000000	-85.38385000	-38.74261000
43.49999759	0.00000000	-82.35728000	-34.22736000
43.69999758	0.00000000	-80.40723000	-28.42027000
43.89999757	0.00000000	-80.30881000	-22.61319000
44.09999756	0.00000000	-80.59792000	-17.96260000
44.29999755	0.00000000	-80.68405000	-15.27436000
44.49999753	0.00000000	-81.05930000	-15.22515000
44.69999752	0.00000000	-81.84669000	-17.50123000
44.89999751	0.00000000	-82.59719000	-20.94611000
45.09999750	0.00000000	-83.38459000	-24.79700000
45.29999749	0.00000000	-83.80289000	-27.86663000
45.49999748	0.00000000	-84.31348000	-29.49065000
45.69999746	0.00000000	-85.89443000	-29.90895000
45.89999745	0.00000000	-88.58882000	-29.49065000
46.09999744	0.00000000	-91.61539000	-27.95891000
46.29999743	0.00000000	-93.89764000	-25.68282000
46.49999742	0.00000000	-94.22366000	-23.72662000
46.69999740	0.00000000	-92.31667000	-22.15182000
46.89999739	0.00000000	-88.41042000	-20.98917000
47.09999738	0.00000000	-83.33538000	-20.62008000
47.29999737	0.00000000	-77.52214000	-21.03838000
47.49999736	0.00000000	-72.21949000	-22.57013000
47.69999734	0.00000000	-69.52509000	-24.84621000
47.89999733	0.00000000	-70.30634000	-26.79626000
48.09999732	0.00000000	-74.21874000	-28.37721000
48.29999731	0.00000000	-81.23769000	-29.49065000
48.49999730	0.00000000	-90.03444000	-29.40452000
48.69999729	0.00000000	-98.08685000	-27.54060000
48.89999727	0.00000000	-102.74360000	-24.47712000
49.09999726	0.00000000	-103.11880000	-21.77658000
49.29999725	0.00000000	-99.24950000	-19.40822000
49.49999724	0.00000000	-91.52927000	-17.91953000
49.69999723	0.00000000	-82.31422000	-17.91953000
49.89999721	0.00000000	-73.75123000	-19.50049000
50.09999720	0.00000000	-67.60580000	-22.57013000
50.29999719	0.00000000	-65.32972000	-26.42101000
50.49999718	0.00000000	-68.07332000	-29.86589000
50.69999717	0.00000000	-75.33218000	-32.22810000
50.89999715	0.00000000	-84.91634000	-32.97859000
51.09999714	0.00000000	-93.80536000	-32.18504000
51.29999713	0.00000000	-99.99999000	-29.44759000
51.49999712	0.00000000	-102.27610000	-25.26452000
51.69999711	0.00000000	-99.62475000	-21.03838000
51.89999710	0.00000000	-93.11023000	-17.91953000
52.09999708	0.00000000	-85.05167000	-16.33858000
52.29999707	0.00000000	-77.33759000	-16.38164000
52.49999706	0.00000000	-72.31175000	-18.33784000
52.69999705	0.00000000	-70.77386000	-22.14567000
52.89999704	0.00000000	-73.05610000	-26.32874000
53.09999702	0.00000000	-78.82012000	-29.44759000
53.29999701	0.00000000	-85.71604000	-31.02239000
53.49999700	0.00000000	-92.26746000	-31.02239000
53.69999699	0.00000000	-96.45669000	-29.49065000
53.89999698	0.00000000	-96.87499000	-26.83932000
54.09999696	0.00000000	-93.80536000	-24.14493000
54.29999695	0.00000000	-88.07824000	-22.19488000
54.49999694	0.00000000	-81.56988000	-21.03838000
54.69999693	0.00000000	-76.54404000	-21.03838000
54.89999692	0.00000000	-73.80044000	-22.19488000
55.09999691	0.00000000	-73.84350000	-24.05881000
55.29999689	0.00000000	-76.87007000	-25.91043000
55.49999688	0.00000000	-81.88976000	-26.32874000
55.69999687	0.00000000	-87.24778000	-25.63976000
55.89999686	0.00000000	-91.89222000	-24.79700000
56.09999685	0.00000000	-94.13754000	-23.26525000
56.29999683	0.00000000	-93.43011000	-21.40748000
56.49999682	0.00000000	-89.99139000	-20.70620000
56.69999681	0.00000000	-85.42691000	-21.45669000
56.89999680	0.00000000	-81.15157000	-23.77584000
57.09999679	0.00000000	-78.03272000	-26.83932000
57.29999677	0.00000000	-76.49483000	-29.90895000
57.49999676	0.00000000	-76.91928000	-32.18504000
57.69999675	0.00000000	-79.57062000	-32.51107000
57.89999674	0.00000000	-83.33538000	-30.56102000
58.09999673	0.00000000	-86.45423000	-26.32874000
58.29999672	0.00000000	-88.45349000	-20.98917000
58.49999670	0.00000000	-89.61613000	-16.38779000
58.69999669	0.00000000	-89.57307000	-13.64419000
58.89999668	0.00000000	-88.07824000	-13.31816000
59.09999667	0.00000000	-85.80216000	-15.69267000
59.29999666	0.00000000	-83.84596000	-21.08145000
59.49999664	0.00000000	-82.31422000	-27.95891000
59.69999663	0.00000000	-81.52682000	-34.14124000
59.89999662	0.00000000	-81.88976000	-38.32431000
60.09999661	0.00000000	-82.64025000	-39.06250000
60.29999660	0.00000000	-83.80289000	-35.62377000
60.49999658	0.00000000	-84.91634000	-29.49065000
60.69999657	0.00000000	-85.29158000	-22.15182000
60.89999656	0.00000000	-84.96555000	-15.18209000
61.09999655	0.00000000	-84.22120000	-10.20546000
61.29999654	0.00000000	-83.80289000	-8.30462600
61.49999653	0.00000000	-83.42766000	-10.62377000
61.69999651	0.00000000	-83.05856000	-16.38779000
61.89999650	0.00000000	-83.47071000	-24.10187000
62.09999649	0.00000000	-84.22120000	-32.18504000
62.29999648	0.00000000	-85.38385000	-38.31816000
62.49999647	0.00000000	-86.49728000	-41.06176000
62.69999645	0.00000000	-86.92175000	-39.89911000
62.89999644	0.00000000	-86.92175000	-35.29773000
63.09999643	0.00000000	-86.49728000	-28.32800000
63.29999642	0.00000000	-85.34079000	-20.61393000
63.49999641	0.00000000	-83.80289000	-13.69340000
63.69999639	0.00000000	-82.26501000	-9.46727400
63.89999638	0.00000000	-81.10851000	-9.04281500
64.09999637	0.00000000	-80.77632000	-12.11245000
64.29999636	0.00000000	-81.52682000	-17.87647000
64.49999635	0.00000000	-83.42766000	-24.79700000
64.69999634	0.00000000	-85.34079000	-30.97933000
64.89999632	0.00000000	-86.92175000	-35.29773000
65.09999631	0.00000000	-88.03519000	-37.20472000
65.29999630	0.00000000	-88.03519000	-36.45423000
65.49999629	0.00000000	-86.92175000	-33.02165000
65.69999628	0.00000000	-85.38385000	-28.42027000
65.89999626	0.00000000	-83.84596000	-23.72662000
66.09999625	0.00000000	-82.68947000	-19.45743000
66.29999624	0.00000000	-82.31422000	-16.33858000
66.49999623	0.00000000	-82.68947000	-14.76378000
66.69999622	0.00000000	-83.84596000	-14.72072000
66.89999620	0.00000000	-85.38385000	-15.92027000
67.09999619	0.00000000	-86.87254000	-18.25172000
67.29999618	0.00000000	-87.61687000	-21.72736000
67.49999617	0.00000000	-86.82947000	-25.17224000
67.69999616	0.00000000	-84.91634000	-28.00197000
67.89999615	0.00000000	-82.22194000	-30.32726000
68.09999613	0.00000000	-79.57062000	-32.27731000
68.29999612	0.00000000	-78.03272000	-33.02165000
68.49999611	0.00000000	-78.03272000	-32.64640000
68.69999610	0.00000000	-79.61367000	-31.02239000
68.89999609	0.00000000	-82.73252000	-27.90969000
69.09999607	0.00000000	-86.92175000	-23.68356000
69.29999606	0.00000000	-90.77879000	-19.40822000
69.49999605	0.00000000	-93.06102000	-15.92027000
69.69999604	0.00000000	-93.47318000	-13.60113000
69.89999603	0.00000000	-91.48006000	-13.27510000
70.09999601	0.00000000	-87.65993000	-15.22515000
70.29999600	0.00000000	-82.59719000	-19.45743000
70.49999599	0.00000000	-77.61442000	-24.84621000
70.69999598	0.00000000	-73.75738000	-29.86589000
70.89999597	0.00000000	-72.26254000	-33.76599000
71.09999596	0.00000000	-73.75738000	-35.62377000
71.29999594	0.00000000	-77.65748000	-34.92249000
71.49999593	0.00000000	-83.05856000	-31.81594000
71.69999592	0.00000000	-89.24089000	-27.58366000
71.89999591	0.00000000	-94.22366000	-22.57013000
72.09999590	0.00000000	-96.96727000	-18.38090000
72.29999588	0.00000000	-96.92421000	-16.33858000
72.49999587	0.00000000	-93.89764000	-15.96334000
72.69999586	0.00000000	-88.87794000	-17.13213000
72.89999585	0.00000000	-83.42766000	-20.19562000
73.09999584	0.00000000	-77.98966000	-23.59129000
73.29999582	0.00000000	-73.80044000	-26.32874000
73.49999581	0.00000000	-72.26254000	-27.90969000
73.69999580	0.00000000	-73.75738000	-28.32800000
73.89999579	0.00000000	-77.57135000	-27.90969000
74.09999578	0.00000000	-82.22194000	-26.42101000
74.29999577	0.00000000	-86.87254000	-24.56324000
74.49999575	0.00000000	-90.73572000	-23.81890000
74.69999574	0.00000000	-92.69193000	-24.15108000
74.89999573	0.00000000	-92.73499000	-25.26452000
75.09999572	0.00000000	-91.15402000	-26.37795000
75.29999571	0.00000000	-88.12745000	-26.79626000
75.49999569	0.00000000	-84.63951000	-26.74705000
75.69999568	0.00000000	-81.93897000	-25.91043000
75.89999567	0.00000000	-79.94585000	-23.59129000
76.09999566	0.00000000	-79.19537000	-20.57087000
76.29999565	0.00000000	-79.52755000	-17.91953000
76.49999563	0.00000000	-80.68405000	-16.75689000
76.69999562	0.00000000	-82.22194000	-17.54429000
76.89999561	0.00000000	-83.75984000	-19.87574000
77.09999560	0.00000000	-84.91634000	-23.77584000
77.29999559	0.00000000	-85.29158000	-28.37721000
77.49999558	0.00000000	-84.96555000	-32.60334000
77.69999556	0.00000000	-84.27042000	-35.24852000
77.89999555	0.00000000	-84.27042000	-35.24852000
78.09999554	0.00000000	-84.96555000	-32.56028000
78.29999553	0.00000000	-85.38385000	-27.95275000
78.49999552	0.00000000	-85.80216000	-22.52091000
78.69999550	0.00000000	-86.45423000	-17.50123000
78.89999549	0.00000000	-86.07898000	-13.64419000
79.09999548	0.00000000	-84.55339000	-12.15551000
79.29999547	0.00000000	-83.00935000	-13.64419000
79.49999546	0.00000000	-81.05930000	-17.45817000
79.69999544	0.00000000	-79.57062000	-22.10261000
79.89999543	0.00000000	-79.15231000	-26.79626000
80.09999542	0.00000000	-79.57062000	-31.02239000
80.29999541	0.00000000	-81.15157000	-33.71678000
80.49999540	0.00000000	-83.80289000	-34.14124000
80.69999539	0.00000000	-86.49728000	-32.60334000
80.89999537	0.00000000	-88.45349000	-29.53371000
81.09999536	0.00000000	-89.61613000	-25.68282000
81.29999535	0.00000000	-89.57307000	-22.15182000
81.49999534	0.00000000	-88.03519000	-19.03297000
81.69999533	0.00000000	-85.34079000	-16.71383000
81.89999531	0.00000000	-82.31422000	-15.92027000
82.09999530	0.00000000	-79.98892000	-16.29552000
82.29999529	0.00000000	-79.19537000	-17.87647000
82.49999528	0.00000000	-79.52755000	-20.52780000
82.69999527	0.00000000	-80.68405000	-23.26525000
82.89999525	0.00000000	-82.22194000	-25.68282000
83.09999524	0.00000000	-83.80289000	-28.37721000
83.29999523	0.00000000	-85.34079000	-30.64714000
83.49999522	0.00000000	-86.49728000	-31.44069000
83.69999521	0.00000000	-86.87254000	-31.06545000
83.89999520	0.00000000	-86.49728000	-29.49065000
84.09999518	0.00000000	-85.38385000	-26.79626000
84.29999517	0.00000000	-84.27042000	-23.68356000
84.49999516	0.00000000	-83.84596000	-20.52780000
84.69999515	0.00000000	-83.80289000	-17.50123000
84.89999514	0.00000000	-83.80289000	-15.60039000
85.09999512	0.00000000	-83.75984000	-15.96334000
85.29999511	0.00000000	-83.38459000	-17.87647000
85.49999510	0.00000000	-82.64025000	-21.03838000
85.69999509	0.00000000	-82.26501000	-25.26452000
85.89999508	0.00000000	-82.22194000	-29.49065000
86.09999506	0.00000000	-82.26501000	-32.60334000
86.29999505	0.00000000	-82.68947000	-34.14124000
86.49999504	0.00000000	-83.80289000	-33.71678000
86.69999503	0.00000000	-84.96555000	-30.97933000
86.89999502	0.00000000	-85.75910000	-26.37795000
87.09999501	0.00000000	-86.54650000	-21.03223000
87.29999499	0.00000000	-86.92175000	-16.80610000
87.49999498	0.00000000	-86.87254000	-14.80684000
87.69999497	0.00000000	-86.07898000	-14.80684000
87.89999496	0.00000000	-84.17815000	-16.80610000
88.09999495	0.00000000	-82.31422000	-21.03223000
88.29999493	0.00000000	-81.10851000	-26.32874000
88.49999492	0.00000000	-80.68405000	-30.60408000
88.69999491	0.00000000	-80.73326000	-32.92938000
88.89999490	0.00000000	-81.52682000	-33.29847000
89.09999489	0.00000000	-83.42766000	-30.97933000
89.29999487	0.00000000	-85.29158000	-26.79626000
89.49999486	0.00000000	-86.49728000	-22.14567000
89.69999485	0.00000000	-86.87254000	-17.87647000
89.89999484	0.00000000	-86.54650000	-14.84990000
90.09999483	0.00000000	-85.75910000	-14.11171000
90.29999482	0.00000000	-84.96555000	-16.43085000
90.49999480	0.00000000	-83.80289000	-20.94611000
90.69999479	0.00000000	-82.68947000	-25.95964000
90.89999478	0.00000000	-82.26501000	-29.86589000
91.09999477	0.00000000	-82.26501000	-32.51722000
91.29999476	0.00000000	-82.59719000	-32.88017000
91.49999474	0.00000000	-83.00935000	-30.19193000
91.69999473	0.00000000	-83.01550000	-26.04577000
91.89999472	0.00000000	-83.38459000	-21.36442000
92.09999471	0.00000000	-83.33538000	-17.54429000
92.29999470	0.00000000	-82.68947000	-15.22515000
92.49999468	0.00000000	-82.64025000	-15.27436000
92.69999467	0.00000000	-83.00935000	-17.96260000
92.89999466	0.00000000	-83.05856000	-22.52091000
93.09999465	0.00000000	-83.89517000	-27.49138000
93.29999464	0.00000000	-85.34079000	-30.97933000
93.49999463	0.00000000	-86.45423000	-32.56028000
93.69999461	0.00000000	-86.45423000	-32.14198000
93.89999460	0.00000000	-85.34079000	-29.44759000
94.09999459	0.00000000	-83.80289000	-25.22145000
94.29999458	0.00000000	-82.22194000	-20.66314000
94.49999457	0.00000000	-80.64099000	-17.22441000
94.69999455	0.00000000	-79.15231000	-16.43085000
94.89999454	0.00000000	-78.40797000	-17.91953000
95.09999453	0.00000000	-79.19537000	-20.98917000
95.29999452	0.00000000	-81.10851000	-24.84621000
95.49999451	0.00000000	-83.80289000	-28.28494000
95.69999449	0.00000000	-86.54650000	-30.60408000
95.89999448	0.00000000	-88.87794000	-30.97933000
96.09999447	0.00000000	-90.77879000	-29.49065000
96.29999446	0.00000000	-91.11097000	-26.79626000
96.49999445	0.00000000	-89.57307000	-23.68356000
96.69999444	0.00000000	-86.45423000	-20.66314000
96.89999442	0.00000000	-82.22194000	-18.71309000
97.09999441	0.00000000	-78.03272000	-18.70694000
97.29999440	0.00000000	-75.28912000	-19.78346000
97.49999439	0.00000000	-74.49557000	-21.77658000
97.69999438	0.00000000	-75.28912000	-24.00960000
97.89999436	0.00000000	-77.98966000	-26.00270000
98.09999435	0.00000000	-81.84669000	-27.12229000
98.29999434	0.00000000	-85.71604000	-27.53445000
98.49999433	0.00000000	-89.24089000	-26.75320000
98.69999432	0.00000000	-91.52927000	-25.30758000
98.89999430	0.00000000	-92.31667000	-24.15108000
99.09999429	0.00000000	-91.11097000	-23.72662000
99.29999428	0.00000000	-88.07824000	-23.68356000
99.49999427	0.00000000	-84.22120000	-23.68356000
99.69999426	0.00000000	-80.73326000	-23.64050000
99.89999425	0.00000000	-77.98966000	-23.26525000
100.09999423	0.00000000	-76.40871000	-22.52091000
100.29999422	0.00000000	-76.03346000	-22.10261000
100.49999421	0.00000000	-76.82701000	-21.72736000
100.69999420	0.00000000	-79.15231000	-21.40748000
100.89999419	0.00000000	-82.22194000	-22.19488000
101.09999417	0.00000000	-85.34079000	-23.68356000
101.29999416	0.00000000	-88.03519000	-25.26452000
101.49999415	0.00000000	-89.57307000	-26.83932000
101.69999414	0.00000000	-89.61613000	-28.32800000
101.89999413	0.00000000	-88.45349000	-29.02928000
102.09999411	0.00000000	-86.49728000	-27.86663000
102.29999410	0.00000000	-83.80289000	-25.26452000
102.49999409	0.00000000	-81.10851000	-22.52091000
102.69999408	0.00000000	-79.15231000	-20.19562000
102.89999407	0.00000000	-77.98966000	-18.25172000
103.09999406	0.00000000	-77.98966000	-17.54429000
103.29999404	0.00000000	-79.10310000	-18.29478000
103.49999403	0.00000000	-80.68405000	-20.61393000
103.69999402	0.00000000	-82.64025000	-23.68356000
103.89999401	0.00000000	-84.91634000	-26.75320000
104.09999400	0.00000000	-86.45423000	-29.07234000
104.29999398	0.00000000	-86.92175000	-29.86589000
104.49999397	0.00000000	-86.92175000	-29.49065000
104.69999396	0.00000000	-86.49728000	-27.90969000
104.89999395	0.00000000	-85.34079000	-25.21530000
105.09999394	0.00000000	-83.80289000	-22.19488000
105.29999392	0.00000000	-82.26501000	-19.87574000
105.49999391	0.00000000	-81.15157000	-19.08218000
105.69999390	0.00000000	-81.10851000	-19.45743000
105.89999389	0.00000000	-81.84669000	-20.98917000
106.09999388	0.00000000	-82.64025000	-23.26525000
106.29999387	0.00000000	-83.80289000	-25.21530000
106.49999385	0.00000000	-84.91634000	-26.79626000
106.69999384	0.00000000	-85.29158000	-27.90969000
106.89999383	0.00000000	-84.91634000	-27.90969000
107.09999382	0.00000000	-83.80289000	-26.75320000
107.29999381	0.00000000	-82.64025000	-24.84621000
107.49999379	0.00000000	-81.84669000	-22.57013000
107.69999378	0.00000000	-81.10851000	-21.03838000
107.89999377	0.00000000	-81.10851000	-20.62008000
108.09999376	0.00000000	-81.84669000	-20.98917000
108.29999375	0.00000000	-82.64025000	-22.15182000
108.49999374	0.00000000	-83.80289000	-23.68356000
108.69999372	0.00000000	-84.91634000	-25.21530000
108.89999371	0.00000000	-85.34079000	-26.32874000
109.09999370	0.00000000	-85.34079000	-26.32874000
109.29999369	0.00000000	-84.91634000	-25.21530000
109.49999368	0.00000000	-83.75984000	-23.68356000
109.69999366	0.00000000	-82.26501000	-22.15182000
109.89999365	0.00000000	-81.10851000	-20.98917000
110.09999364	0.00000000	-80.68405000	-20.57087000
110.29999363	0.00000000	-80.68405000	-20.57087000
110.49999362	0.00000000	-81.10851000	-21.03838000
110.69999360	0.00000000	-82.22194000	-22.52091000
110.89999359	0.00000000	-83.38459000	-24.42790000
111.09999358	0.00000000	-84.17815000	-25.59055000
111.29999357	0.00000000	-84.91634000	-26.42101000
111.49999356	0.00000000	-84.91634000	-26.74705000
111.69999355	0.00000000	-84.17815000	-26.37795000
111.89999353	0.00000000	-83.42766000	-25.26452000
112.09999352	0.00000000	-82.64025000	-24.10187000
112.29999351	0.00000000	-82.26501000	-23.30832000
112.49999350	0.00000000	-82.22194000	-22.52091000
112.69999349	0.00000000	-82.22194000	-22.14567000
112.89999347	0.00000000	-82.22194000	-22.14567000
113.09999346	0.00000000	-82.26501000	-22.52091000
113.29999345	0.00000000	-82.64025000	-23.26525000
113.49999344	0.00000000	-83.38459000	-23.64050000
113.69999343	0.00000000	-83.75984000	-23.68356000
113.89999341	0.00000000	-83.80289000	-23.72662000
114.09999340	0.00000000	-83.80289000	-24.10187000
114.29999339	0.00000000	-83.80289000	-24.84621000
114.49999338	0.00000000	-83.75984000	-25.22145000
114.69999337	0.00000000	-83.38459000	-25.26452000
114.89999336	0.00000000	-82.64025000	-25.26452000
115.09999334	0.00000000	-82.26501000	-25.26452000
115.29999333	0.00000000	-82.22194000	-25.22145000
115.49999332	0.00000000	-82.22194000	-24.84621000
115.69999331	0.00000000	-82.22194000	-24.10187000
115.89999330	0.00000000	-82.26501000	-23.68356000
116.09999328	0.00000000	-82.64025000	-23.26525000
116.29999327	0.00000000	-83.38459000	-22.52091000
116.49999326	0.00000000	-83.75984000	-22.14567000
116.69999325	0.00000000	-83.80289000	-22.10261000
116.89999324	0.00000000	-83.75984000	-22.14567000
117.09999322	0.00000000	-83.38459000	-22.57013000
117.29999321	0.00000000	-82.64025000	-23.68356000
117.49999320	0.00000000	-82.22194000	-24.84621000
117.69999319	0.00000000	-81.80363000	-25.59055000
117.89999318	0.00000000	-81.05930000	-26.00270000
118.09999317	0.00000000	-80.73326000	-25.63976000
118.29999315	0.00000000	-81.05930000	-25.26452000
118.49999314	0.00000000	-81.84669000	-24.84621000
118.69999313	0.00000000	-82.64025000	-24.05881000
118.89999312	0.00000000	-83.80289000	-23.30832000
119.09999311	0.00000000	-84.91634000	-22.52091000
119.29999309	0.00000000	-85.34079000	-22.14567000
119.49999308	0.00000000	-85.34079000	-22.10261000
119.69999307	0.00000000	-84.96555000	-22.10261000
119.89999306	0.00000000	-84.17815000	-22.14567000
120.09999305	0.00000000	-83.38459000	-22.57013000
120.29999303	0.00000000	-82.17889000	-23.68356000
120.49999302	0.00000000	-80.68405000	-24.79700000
120.69999301	0.00000000	-79.57062000	-25.22145000
120.89999300	0.00000000	-79.52755000	-25.26452000
121.09999299	0.00000000	-80.26574000	-25.26452000
121.29999298	0.00000000	-81.05930000	-25.26452000
121.49999296	0.00000000	-82.26501000	-25.22145000
121.69999295	0.00000000	-83.75984000	-24.84621000
121.89999294	0.00000000	-84.91634000	-24.10187000
122.09999293	0.00000000	-85.34079000	-23.68356000
122.29999292	0.00000000	-85.34079000	-23.26525000
122.49999290	0.00000000	-84.91634000	-22.52091000
122.69999289	0.00000000	-83.80289000	-22.14567000
122.89999288	0.00000000	-82.64025000	-22.10261000
123.09999287	0.00000000	-81.84669000	-22.14567000
123.29999286	0.00000000	-81.05930000	-22.52091000
123.49999284	0.00000000	-80.68405000	-23.26525000
123.69999283	0.00000000	-80.64099000	-23.68356000
123.89999282	0.00000000	-80.68405000	-24.10187000
124.09999281	0.00000000	-81.05930000	-24.84621000
124.29999280	0.00000000	-81.84669000	-25.17224000
124.49999279	0.00000000	-82.59719000	-24.84621000
124.69999277	0.00000000	-83.42766000	-24.10187000
124.89999276	0.00000000	-84.17815000	-23.72662000
125.09999275	0.00000000	-84.91634000	-23.68356000
125.29999274	0.00000000	-84.91634000	-23.64050000
125.49999273	0.00000000	-84.17815000	-23.26525000
125.69999271	0.00000000	-83.42766000	-22.52091000
125.89999270	0.00000000	-82.59719000	-22.14567000
126.09999269	0.00000000	-81.84669000	-22.10261000
126.29999268	0.00000000	-81.05930000	-22.14567000
126.49999267	0.00000000	-80.68405000	-22.52091000
126.69999265	0.00000000	-80.64099000	-23.26525000
126.89999264	0.00000000	-80.68405000	-23.64050000
127.09999263	0.00000000	-81.10851000	-23.68356000
127.29999262	0.00000000	-82.26501000	-23.68356000
127.49999261	0.00000000	-83.75984000	-23.68356000
127.69999260	0.00000000	-84.91634000	-23.68356000
127.89999258	0.00000000	-85.29158000	-23.68356000
128.09999257	0.00000000	-84.96555000	-23.68356000
128.29999256	0.00000000	-84.17815000	-23.64050000
128.49999255	0.00000000	-83.38459000	-23.30832000
128.69999254	0.00000000	-82.22194000	-22.93922000
128.89999252	0.00000000	-81.10851000	-23.30832000
129.09999251	0.00000000	-80.68405000	-23.64050000
129.29999250	0.00000000	-80.68405000	-23.68356000
129.49999249	0.00000000	-81.10851000	-23.68356000
129.69999248	0.00000000	-82.22194000	-23.68356000
129.89999246	0.00000000	-83.33538000	-23.68356000
130.09999245	0.00000000	-83.75984000	-23.68356000
130.29999244	0.00000000	-83.80289000	-23.64050000
130.49999243	0.00000000	-83.75984000	-23.26525000
130.69999242	0.00000000	-83.38459000	-22.52091000
130.89999241	0.00000000	-82.59719000	-22.19488000
131.09999239	0.00000000	-81.84669000	-22.52091000
131.29999238	0.00000000	-81.05930000	-23.26525000
131.49999237	0.00000000	-80.73326000	-23.68356000
131.69999236	0.00000000	-81.05930000	-24.10187000
131.89999235	0.00000000	-81.80363000	-24.84621000
132.09999233	0.00000000	-82.22194000	-25.22145000
132.29999232	0.00000000	-82.64025000	-25.26452000
132.49999231	0.00000000	-83.38459000	-25.26452000
132.69999230	0.00000000	-83.75984000	-25.22145000
132.89999229	0.00000000	-83.75984000	-24.79700000
133.09999227	0.00000000	-83.38459000	-23.72662000
133.29999226	0.00000000	-82.64025000	-22.93922000
133.49999225	0.00000000	-82.26501000	-22.89001000
133.69999224	0.00000000	-82.22194000	-22.47785000
133.89999223	0.00000000	-82.26501000	-22.19488000
134.09999222	0.00000000	-82.59719000	-22.52091000
134.29999220	0.00000000	-82.96629000	-23.30832000
134.49999219	0.00000000	-82.59719000	-24.05881000
134.69999218	0.00000000	-82.26501000	-24.84621000
134.89999217	0.00000000	-82.22194000	-25.22145000
135.09999216	0.00000000	-82.22194000	-25.26452000
135.29999214	0.00000000	-82.22194000	-25.22145000
135.49999213	0.00000000	-82.22194000	-24.84621000
135.69999212	0.00000000	-82.22194000	-24.05881000
135.89999211	0.00000000	-82.22194000	-23.30832000
136.09999210	0.00000000	-82.26501000	-22.52091000
136.29999208	0.00000000	-82.64025000	-22.14567000
136.49999207	0.00000000	-83.38459000	-22.10261000
136.69999206	0.00000000	-83.75984000	-22.10261000
136.89999205	0.00000000	-83.75984000	-22.14567000
137.09999204	0.00000000	-83.38459000	-22.52091000
137.29999203	0.00000000	-82.59719000	-23.26525000
137.49999201	0.00000000	-81.84669000	-23.68356000
137.69999200	0.00000000	-81.05930000	-24.10187000
137.89999199	0.00000000	-80.68405000	-24.84621000
138.09999198	0.00000000	-80.68405000	-25.17224000
138.29999197	0.00000000	-81.05930000	-24.84621000
138.49999195	0.00000000	-81.84669000	-24.10187000
138.69999194	0.00000000	-82.59719000	-23.68356000
138.89999193	0.00000000	-83.38459000	-23.26525000
139.09999192	0.00000000	-83.75984000	-22.47785000
139.29999191	0.00000000	-83.75984000	-21.77658000
139.49999189	0.00000000	-83.38459000	-21.36442000
139.69999188	0.00000000	-82.59719000	-21.72736000
139.89999187	0.00000000	-81.84669000	-22.10261000
140.09999186	0.00000000	-81.05930000	-22.52091000
140.29999185	0.00000000	-80.73326000	-23.30832000
140.49999184	0.00000000	-81.05930000	-24.05881000
140.69999182	0.00000000	-81.80363000	-24.84621000
140.89999181	0.00000000	-82.17889000	-25.22145000
141.09999180	0.00000000	-82.26501000	-25.22145000
141.29999179	0.00000000	-82.64025000	-24.84621000
141.49999178	0.00000000	-83.33538000	-24.10187000
141.69999176	0.00000000	-83.38459000	-23.68356000
141.89999175	0.00000000	-83.01550000	-23.26525000
142.09999174	0.00000000	-83.00935000	-22.52091000
142.29999173	0.00000000	-82.59719000	-22.14567000
142.49999172	0.00000000	-82.22194000	-22.10261000
142.69999170	0.00000000	-81.84669000	-22.14567000
142.89999169	0.00000000	-81.47760000	-22.52091000
143.09999168	0.00000000	-81.84669000	-23.30832000
143.29999167	0.00000000	-82.17889000	-24.05881000
143.49999166	0.00000000	-82.22194000	-24.84621000
143.69999165	0.00000000	-82.22194000	-25.22145000
143.89999163	0.00000000	-82.22194000	-25.22145000
144.09999162	0.00000000	-82.22194000	-24.84621000
144.29999161	0.00000000	-82.22194000	-24.05881000
144.49999160	0.00000000	-82.22194000	-23.30832000
144.69999159	0.00000000	-82.17889000	-22.52091000
144.89999157	0.00000000	-81.84669000	-22.14567000
145.09999156	0.00000000	-81.47760000	-22.10261000
145.29999155	0.00000000	-81.84669000	-22.10261000
145.49999154	0.00000000	-82.17889000	-22.14567000
145.69999153	0.00000000	-82.26501000	-22.52091000
145.89999151	0.00000000	-82.59719000	-23.30832000
146.09999150	0.00000000	-82.96629000	-24.05881000
146.29999149	0.00000000	-82.59719000	-24.84621000
146.49999148	0.00000000	-82.26501000	-25.17224000
146.69999147	0.00000000	-82.22194000	-24.84621000
146.89999146	0.00000000	-82.17889000	-24.10187000
147.09999144	0.00000000	-81.84669000	-23.72662000
147.29999143	0.00000000	-81.47760000	-23.64050000
147.49999142	0.00000000	-81.84669000	-23.26525000
147.69999141	0.00000000	-82.17889000	-22.52091000
147.89999140	0.00000000	-82.22194000	-22.14567000
148.09999138	0.00000000	-82.22194000	-22.14567000
148.29999137	0.00000000	-82.22194000	-22.52091000
148.49999136	0.00000000	-82.22194000	-23.26525000
148.69999135	0.00000000	-82.22194000	-23.64050000
148.89999134	0.00000000	-82.22194000	-23.68356000
149.09999132	0.00000000	-82.22194000	-23.68356000
149.29999131	0.00000000	-82.22194000	-23.68356000
149.49999130	0.00000000	-82.22194000	-23.68356000
149.69999129	0.00000000	-82.17889000	-23.68356000
149.89999128	0.00000000	-81.80363000	-23.64050000
150.09999127	0.00000000	-81.10851000	-23.26525000
150.29999125	0.00000000	-81.10851000	-22.52091000
150.49999124	0.00000000	-81.80363000	-22.14567000
150.69999123	0.00000000	-82.17889000	-22.10261000
150.89999122	0.00000000	-82.22194000	-22.10261000
151.09999121	0.00000000	-82.22194000	-22.14567000
151.29999119	0.00000000	-82.22194000	-22.52091000
151.49999118	0.00000000	-82.26501000	-23.30832000
151.69999117	0.00000000	-82.59719000	-24.01575000
151.89999116	0.00000000	-82.96629000	-24.42790000
152.09999115	0.00000000	-82.59719000	-24.05881000
152.29999113	0.00000000	-82.26501000	-23.72662000
152.49999112	0.00000000	-82.17889000	-23.68356000
152.69999111	0.00000000	-81.80363000	-23.68356000
152.89999110	0.00000000	-81.05930000	-23.64050000
153.09999109	0.00000000	-80.73326000	-23.30832000
153.29999108	0.00000000	-81.05930000	-22.89616000
153.49999106	0.00000000	-81.80363000	-22.93307000
153.69999105	0.00000000	-82.17889000	-22.85310000
153.89999104	0.00000000	-82.26501000	-22.89001000
154.09999103	0.00000000	-82.64025000	-22.52091000
154.29999102	0.00000000	-83.33538000	-22.57013000
154.49999100	0.00000000	-83.33538000	-23.26525000
154.69999099	0.00000000	-82.64025000	-23.64050000
154.89999098	0.00000000	-82.26501000	-23.68356000
155.09999097	0.00000000	-82.17889000	-23.68356000
155.29999096	0.00000000	-81.80363000	-23.68356000
155.49999094	0.00000000	-81.05930000	-23.68356000
155.69999093	0.00000000	-80.68405000	-23.68356000
155.89999092	0.00000000	-80.64099000	-23.68356000
156.09999091	0.00000000	-80.64099000	-23.64050000
156.29999090	0.00000000	-80.68405000	-23.26525000
156.49999089	0.00000000	-81.05930000	-22.52091000
156.69999087	0.00000000	-81.80363000	-22.14567000
156.89999086	0.00000000	-82.17889000	-22.10261000
157.09999085	0.00000000	-82.22194000	-22.10261000
157.29999084	0.00000000	-82.22194000	-22.10261000
157.49999083	0.00000000	-82.22194000	-22.10261000
157.69999081	0.00000000	-82.22194000	-22.14567000
157.89999080	0.00000000	-82.22194000	-22.52091000
158.09999079	0.00000000	-82.17889000	-23.26525000
158.29999078	0.00000000	-81.80363000	-23.64050000
158.49999077	0.00000000	-81.05930000	-23.68356000
158.69999075	0.00000000	-80.68405000	-23.68356000
158.89999074	0.00000000	-80.68405000	-23.64050000
159.09999073	0.00000000	-81.05930000	-23.26525000
159.29999072	0.00000000	-81.80363000	-22.52091000
159.49999071	0.00000000	-82.17889000	-22.14567000
159.69999070	0.00000000	-82.22194000	-22.10261000
159.89999068	0.00000000	-82.22194000	-22.10261000
160.09999067	0.00000000	-82.22194000	-22.10261000
160.29999066	0.00000000	-82.22194000	-22.10261000
160.49999065	0.00000000	-82.22194000	-22.14567000
160.69999064	0.00000000	-82.22194000	-22.52091000
160.89999062	0.00000000	-82.22194000	-23.26525000
161.09999061	0.00000000	-82.22194000	-23.64050000
161.29999060	0.00000000	-82.17889000	-23.68356000
161.49999059	0.00000000	-81.80363000	-23.68356000
161.69999058	0.00000000	-81.05930000	-23.64050000
161.89999056	0.00000000	-80.68405000	-23.30832000
162.09999055	0.00000000	-80.64099000	-22.89616000
162.29999054	0.00000000	-80.64099000	-22.89001000
162.49999053	0.00000000	-80.68405000	-22.47785000
162.69999052	0.00000000	-81.05930000	-22.19488000
162.89999051	0.00000000	-81.80363000	-22.47785000
163.09999049	0.00000000	-82.17889000	-22.89001000
163.29999048	0.00000000	-82.22194000	-22.89616000
163.49999047	0.00000000	-82.22194000	-23.30832000
163.69999046	0.00000000	-82.22194000	-23.64050000
163.89999045	0.00000000	-82.22194000	-23.68356000
164.09999043	0.00000000	-82.22194000	-23.68356000
164.29999042	0.00000000	-82.17889000	-23.68356000
164.49999041	0.00000000	-81.80363000	-23.68356000
164.69999040	0.00000000	-81.05930000	-23.68356000
164.89999039	0.00000000	-80.68405000	-23.68356000
165.09999037	0.00000000	-80.64099000	-23.68356000
165.29999036	0.00000000	-80.64099000	-23.68356000
165.49999035	0.00000000	-80.68405000	-23.68356000
165.69999034	0.00000000	-81.05930000	-23.68356000
165.89999033	0.00000000	-81.80363000	-23.64050000
166.09999032	0.00000000	-82.17889000	-23.30832000
166.29999030	0.00000000	-82.22194000	-22.93922000
166.49999029	0.00000000	-82.22194000	-23.30832000
166.69999028	0.00000000	-82.22194000	-23.64050000
166.89999027	0.00000000	-82.22194000	-23.68356000
167.09999026	0.00000000	-82.22194000	-23.68356000
167.29999024	0.00000000	-82.17889000	-23.68356000
167.49999023	0.00000000	-81.80363000	-23.68356000
167.69999022	0.00000000	-81.05930000	-23.68356000
167.89999021	0.00000000	-80.68405000	-23.68356000
168.09999020	0.00000000	-80.68405000	-23.68356000
168.29999018	0.00000000	-81.01624000	-23.68356000
168.49999017	0.00000000	-81.42839000	-23.68356000
168.69999016	0.00000000	-81.43454000	-23.68356000
168.89999015	0.00000000	-81.84669000	-23.64050000
169.09999014	0.00000000	-82.17889000	-23.30832000
169.29999013	0.00000000	-82.22194000	-22.93922000
169.49999011	0.00000000	-82.22194000	-23.30832000
169.69999010	0.00000000	-82.22194000	-23.64050000
169.89999009	0.00000000	-82.22194000	-23.68356000
170.09999008	0.00000000	-82.22194000	-23.64050000
170.29999007	0.00000000	-82.22194000	-23.26525000
170.49999005	0.00000000	-82.17889000	-22.52091000
170.69999004	0.00000000	-81.80363000	-22.14567000
170.89999003	0.00000000	-81.05930000	-22.10261000
171.09999002	0.00000000	-80.68405000	-22.14567000
171.29999001	0.00000000	-80.64099000	-22.47785000
171.49998999	0.00000000	-80.64099000	-22.84695000
171.69998998	0.00000000	-80.64099000	-22.52091000
171.89998997	0.00000000	-80.64099000	-22.57013000
172.09998996	0.00000000	-80.68405000	-23.26525000
172.29998995	0.00000000	-81.05930000	-23.64050000
172.49998994	0.00000000	-81.80363000	-23.64050000
172.69998992	0.00000000	-82.17889000	-23.30832000
172.89998991	0.00000000	-82.22194000	-22.89616000
173.09998990	0.00000000	-82.17889000	-22.89001000
173.29998989	0.00000000	-81.80363000	-22.47785000
173.49998988	0.00000000	-81.10851000	-22.14567000
173.69998986	0.00000000	-81.10851000	-22.14567000
173.89998985	0.00000000	-81.75443000	-22.47785000
174.09998984	0.00000000	-81.75443000	-22.89001000
174.29998983	0.00000000	-81.05930000	-22.85310000
174.49998982	0.00000000	-80.73326000	-22.93307000
174.69998980	0.00000000	-81.05930000	-22.89616000
174.89998979	0.00000000	-81.75443000	-23.30832000
175.09998978	0.00000000	-81.80363000	-23.59129000
175.29998977	0.00000000	-81.47760000	-23.26525000
175.49998976	0.00000000	-81.80363000	-22.52091000
175.69998975	0.00000000	-81.75443000	-22.14567000
175.89998973	0.00000000	-81.05930000	-22.14567000
176.09998972	0.00000000	-80.73326000	-22.52091000
176.29998971	0.00000000	-81.01624000	-23.26525000
176.49998970	0.00000000	-81.38533000	-23.64050000
176.69998969	0.00000000	-81.01624000	-23.64050000
176.89998967	0.00000000	-80.73326000	-23.26525000
177.09998966	0.00000000	-81.01624000	-22.57013000
177.29998965	0.00000000	-81.42839000	-22.57013000
177.49998964	0.00000000	-81.43454000	-23.26525000
177.69998963	0.00000000	-81.80363000	-23.64050000
177.89998961	0.00000000	-81.80363000	-23.68356000
178.09998960	0.00000000	-81.43454000	-23.68356000
178.29998959	0.00000000	-81.47145000	-23.64050000
178.49998958	0.00000000	-81.39148000	-23.30832000
178.69998957	0.00000000	-81.42839000	-22.89616000
178.89998956	0.00000000	-81.01624000	-22.93307000
179.09998954	0.00000000	-80.68405000	-22.85310000
179.29998953	0.00000000	-80.64099000	-22.93307000
179.49998952	0.00000000	-80.64099000	-22.89616000
179.69998951	0.00000000	-80.64099000	-23.30832000
179.89998950	0.00000000	-80.64099000	-23.64050000
180.09998948	0.00000000	-80.68405000	-23.68356000
180.29998947	0.00000000	-81.05930000	-23.68356000
180.49998946	0.00000000	-81.80363000	-23.68356000
180.69998945	0.00000000	-82.17889000	-23.68356000
180.89998944	0.00000000	-82.22194000	-23.64050000
181.09998942	0.00000000	-82.22194000	-23.26525000
181.29998941	0.00000000	-82.22194000	-22.52091000
181.49998940	0.00000000	-82.17889000	-22.14567000
181.69998939	0.00000000	-81.80363000	-22.10261000
181.89998938	0.00000000	-81.05930000	-22.10261000
182.09998937	0.00000000	-80.68405000	-22.10261000
182.29998935	0.00000000	-80.64099000	-22.10261000
182.49998934	0.00000000	-80.64099000	-22.14567000
182.69998933	0.00000000	-80.64099000	-22.52091000
182.89998932	0.00000000	-80.64099000	-23.26525000
183.09998931	0.00000000	-80.64099000	-23.64050000
183.29998929	0.00000000	-80.64099000	-23.68356000
183.49998928	0.00000000	-80.68405000	-23.64050000
183.69998927	0.00000000	-81.05930000	-23.30832000
183.89998926	0.00000000	-81.75443000	-22.93922000
184.09998925	0.00000000	-81.75443000	-23.26525000
184.29998923	0.00000000	-81.05930000	-23.21604000
184.49998922	0.00000000	-80.68405000	-22.52091000
184.69998921	0.00000000	-80.64099000	-22.14567000
184.89998920	0.00000000	-80.64099000	-22.10261000
185.09998919	0.00000000	-80.64099000	-22.10261000
185.29998918	0.00000000	-80.64099000	-22.10261000
185.49998916	0.00000000	-80.64099000	-22.14567000
185.69998915	0.00000000	-80.64099000	-22.52091000
185.89998914	0.00000000	-80.64099000	-23.26525000
186.09998913	0.00000000	-80.64099000	-23.64050000
186.29998912	0.00000000	-80.64099000	-23.68356000
186.49998910	0.00000000	-80.64099000	-23.68356000
186.69998909	0.00000000	-80.68405000	-23.64050000
186.89998908	0.00000000	-81.01624000	-23.26525000
187.09998907	0.00000000	-81.42839000	-22.52091000
187.29998906	0.00000000	-81.39148000	-22.14567000
187.49998904	0.00000000	-81.42839000	-22.10261000
187.69998903	0.00000000	-81.05930000	-22.10261000
187.89998902	0.00000000	-81.05930000	-22.10261000
188.09998901	0.00000000	-81.38533000	-22.10261000
188.29998900	0.00000000	-81.01624000	-22.14567000
188.49998899	0.00000000	-80.68405000	-22.52091000
188.69998897	0.00000000	-80.64099000	-23.26525000
188.89998896	0.00000000	-80.64099000	-23.64050000
189.09998895	0.00000000	-80.64099000	-23.68356000
189.29998894	0.00000000	-80.64099000	-23.68356000
189.49998893	0.00000000	-80.64099000	-23.64050000
189.69998891	0.00000000	-80.64099000	-23.26525000
189.89998890	0.00000000	-80.64099000	-22.52091000
190.09998889	0.00000000	-80.64099000	-22.14567000
190.29998888	0.00000000	-80.64099000	-22.10261000
190.49998887	0.00000000	-80.64099000	-22.10261000
190.69998885	0.00000000	-80.64099000	-22.10261000
190.89998884	0.00000000	-80.64099000	-22.14567000
191.09998883	0.00000000	-80.64099000	-22.52091000
191.29998882	0.00000000	-80.64099000	-23.26525000
191.49998881	0.00000000	-80.64099000	-23.59129000
191.69998880	0.00000000	-80.64099000	-23.26525000
191.89998878	0.00000000	-80.64099000	-22.57013000
192.09998877	0.00000000	-80.64099000	-22.57013000
192.29998876	0.00000000	-80.64099000	-23.26525000
192.49998875	0.00000000	-80.64099000	-23.64050000
192.69998874	0.00000000	-80.64099000	-23.68356000
192.89998872	0.00000000	-80.64099000	-23.68356000
193.09998871	0.00000000	-80.68405000	-23.68356000
193.29998870	0.00000000	-81.01624000	-23.64050000
193.49998869	0.00000000	-81.38533000	-23.26525000
193.69998868	0.00000000	-81.01624000	-22.52091000
193.89998866	0.00000000	-80.68405000	-22.14567000
194.09998865	0.00000000	-80.64099000	-22.10261000
194.29998864	0.00000000	-80.64099000	-22.10261000
194.49998863	0.00000000	-80.64099000	-22.10261000
194.69998862	0.00000000	-80.64099000	-22.10261000
194.89998861	0.00000000	-80.64099000	-22.14567000
195.09998859	0.00000000	-80.64099000	-22.52091000
195.29998858	0.00000000	-80.64099000	-23.26525000
195.49998857	0.00000000	-80.64099000	-23.64050000
195.69998856	0.00000000	-80.68405000	-23.68356000
195.89998855	0.00000000	-81.01624000	-23.64050000
196.09998853	0.00000000	-81.38533000	-23.30832000
