Time	Channel A	Channel B	Channel C
(us)	(V)	(mV)	(mV)

-4.59999956	0.00000000	-91.70767000	-28.42027000
-4.39999957	0.00000000	-91.70767000	-28.42027000
-4.19999958	0.00000000	-91.70767000	-28.42027000
-3.99999959	0.00000000	-91.70767000	-28.42027000
-3.79999960	0.00000000	-91.70767000	-28.42027000
-3.59999962	0.00000000	-91.70767000	-28.42027000
-3.39999963	0.00000000	-91.70767000	-28.42027000
-3.19999964	0.00000000	-91.70767000	-28.42027000
-2.99999965	0.00000000	-91.70767000	-28.42027000
-2.79999966	0.00000000	-91.70767000	-28.37721000
-2.59999968	0.00000000	-91.70767000	-28.04503000
-2.39999969	0.00000000	-91.70767000	-27.67593000
-2.19999970	0.00000000	-91.70767000	-28.04503000
-1.99999971	0.00000000	-91.70767000	-28.37721000
-1.79999972	0.00000000	-91.70767000	-28.42027000
-1.59999973	0.00000000	-91.70767000	-28.42027000
-1.39999975	0.00000000	-91.70767000	-28.42027000
-1.19999976	0.00000000	-91.70767000	-28.37721000
-0.99999977	0.00000000	-91.70767000	-28.04503000
-0.79999978	0.00000000	-91.70767000	-27.67593000
-0.59999979	0.00000000	-91.70767000	-28.04503000
-0.39999981	0.00000000	-91.70767000	-28.37721000
-0.19999982	0.47736220	-91.70767000	-28.42027000
0.00000017	0.79601380	-91.70767000	-28.42027000
0.20000016	0.95533960	-91.70767000	-28.42027000
0.40000015	0.95533960	-91.70767000	-28.42027000
0.60000013	0.63668800	-91.70767000	-28.42027000
0.80000012	0.00000000	-91.70767000	-28.42027000
1.00000011	-0.79601380	-91.70767000	-28.42027000
1.20000010	-1.75196900	-91.70767000	-28.42027000
1.40000009	-2.54859700	-91.70767000	-28.42027000
1.60000008	-2.70792300	-91.70767000	-28.42027000
1.80000006	-2.22994600	-91.70767000	-28.42027000
2.00000005	-0.79601380	-91.70767000	-28.42027000
2.20000004	1.11466500	-91.70767000	-28.42027000
2.40000003	3.34522600	-91.70767000	-28.42027000
2.60000002	4.93786900	-91.70767000	-28.42027000
2.80000000	5.25652100	-91.70767000	-28.42027000
2.99999999	4.45989200	-91.70767000	-28.42027000
3.19999998	2.07062000	-91.70767000	-28.42027000
3.39999997	-1.11466500	-91.70767000	-28.42027000
3.59999996	-4.45989200	-91.70767000	-28.42027000
3.79999994	-7.00848900	-91.70767000	-28.42027000
3.99999993	-7.96444400	-91.70767000	-28.37721000
4.19999992	-7.00848900	-91.70767000	-28.00197000
4.39999991	-3.98191400	-91.70767000	-27.25763000
4.59999990	0.31803640	-91.70767000	-26.88238000
4.79999989	4.61921700	-91.70767000	-26.88238000
4.99999987	7.96444400	-91.70767000	-27.25763000
5.19999986	9.39837600	-91.70767000	-28.00197000
5.39999985	8.60174700	-91.70767000	-28.37721000
5.59999984	5.41584600	-91.70767000	-28.42027000
5.79999983	0.95533960	-91.70767000	-28.42027000
5.99999981	-3.82258900	-91.70767000	-28.42027000
6.19999980	-7.64579200	-91.70767000	-28.37721000
6.39999979	-9.39837600	-91.70767000	-28.00197000
6.59999978	-8.76107300	-91.70767000	-27.25763000
6.79999977	-6.05315000	-91.70767000	-26.88238000
6.99999975	-2.07062000	-91.70767000	-26.83932000
7.19999974	2.22994600	-91.70767000	-26.83932000
7.39999973	5.73449800	-91.70767000	-26.88238000
7.59999972	7.64579200	-91.70767000	-27.25763000
7.79999971	7.48646600	-91.70767000	-28.00197000
7.99999970	5.41584600	-91.70767000	-28.37721000
8.19999968	2.38927200	-91.70767000	-28.42027000
8.39999967	-0.79601380	-91.70767000	-28.42027000
8.59999966	-3.50393700	-91.70767000	-28.42027000
8.79999965	-4.93786900	-91.70767000	-28.37721000
8.99999964	-5.09719500	-91.70767000	-28.04503000
9.19999962	-3.98191400	-91.70767000	-27.67593000
9.39999961	-2.07062000	-91.70767000	-28.00197000
9.59999960	0.00000000	-91.70767000	-27.95275000
9.79999959	1.43331700	-91.70767000	-27.30684000
9.99999958	2.38927200	-91.70767000	-27.30684000
10.19999956	2.54859700	-91.70767000	-28.00197000
10.39999955	1.91129400	-91.70767000	-28.37721000
10.59999954	1.11466500	-91.70767000	-28.42027000
10.79999953	0.31803640	-91.70767000	-28.42027000
10.99999952	-0.47736220	-91.70767000	-28.42027000
11.19999951	-0.79601380	-91.70767000	-28.42027000
11.39999949	-0.95533960	-91.70767000	-28.42027000
11.59999948	-0.95533960	-91.70767000	-28.42027000
11.79999947	-0.63668800	-91.70767000	-28.42027000
11.99999946	-0.31803640	-91.70767000	-28.42027000
12.19999945	-0.15871060	-91.70767000	-28.42027000
12.39999943	-0.15871060	-91.70767000	-28.42027000
12.59999942	0.00000000	-91.70767000	-28.42027000
12.79999941	0.00000000	-91.70767000	-28.42027000
12.99999940	0.00000000	-91.70767000	-28.42027000
13.19999939	0.15871060	-91.70767000	-28.42027000
13.39999937	0.00000000	-91.70767000	-28.42027000
13.59999936	0.00000000	-91.70767000	-28.37721000
13.79999935	0.00000000	-91.70767000	-28.04503000
13.99999934	0.00000000	-91.70767000	-27.67593000
14.19999933	-0.15871060	-91.70767000	-28.04503000
14.39999932	-0.15871060	-91.70767000	-28.37721000
14.59999930	0.00000000	-91.70767000	-28.42027000
14.79999929	0.00000000	-91.70767000	-28.42027000
14.99999928	0.00000000	-91.70767000	-28.42027000
15.19999927	0.00000000	-91.70767000	-28.42027000
15.39999926	0.00000000	-91.70767000	-28.42027000
15.59999924	0.00000000	-91.70767000	-28.42027000
15.79999923	0.00000000	-91.66460000	-28.37721000
15.99999922	0.00000000	-91.33242000	-28.00197000
16.19999921	0.00000000	-90.96333000	-27.30684000
16.39999920	0.00000000	-91.33242000	-27.30684000
16.59999919	-0.15871060	-91.61539000	-28.00197000
16.79999917	0.00000000	-91.28937000	-28.37721000
16.99999916	0.00000000	-90.54502000	-28.42027000
17.19999915	0.00000000	-90.16978000	-28.37721000
17.39999914	0.00000000	-90.12672000	-28.04503000
17.59999913	0.00000000	-90.12672000	-27.67593000
17.79999911	0.00000000	-90.16978000	-28.04503000
17.99999910	0.00000000	-90.54502000	-28.32800000
18.19999909	0.00000000	-91.37549000	-28.00197000
18.39999908	0.00000000	-92.54428000	-27.25763000
18.59999907	0.00000000	-94.45127000	-26.93159000
18.79999905	0.00000000	-95.93995000	-27.21457000
18.99999904	0.00000000	-96.35826000	-27.58366000
19.19999903	0.00000000	-95.93995000	-27.21457000
19.39999902	0.00000000	-94.31594000	-26.88238000
19.59999901	0.00000000	-91.24016000	-26.83932000
19.79999900	0.00000000	-87.38312000	-26.83932000
19.99999898	0.00000000	-83.89517000	-26.83932000
20.19999897	0.00000000	-81.19463000	-26.83932000
20.39999896	0.00000000	-80.12425000	-26.88238000
20.59999895	0.00000000	-81.70521000	-27.21457000
20.79999894	0.00000000	-86.02977000	-27.58366000
20.99999892	0.00000000	-92.63656000	-27.25763000
21.19999891	0.00000000	-100.73200000	-27.30684000
21.39999890	0.00000000	-107.99700000	-28.00197000
21.59999889	0.00000000	-112.22930000	-28.37721000
21.79999888	0.00000000	-112.13700000	-28.42027000
21.99999886	0.00000000	-107.06200000	-28.42027000
22.19999885	0.00000000	-97.34251000	-28.42027000
22.39999884	0.00000000	-84.96555000	-28.42027000
22.59999883	0.00000000	-72.26254000	-28.37721000
22.79999882	0.00000000	-62.67839000	-28.00197000
22.99999881	0.00000000	-59.22736000	-27.25763000
23.19999879	0.00000000	-62.76451000	-26.88238000
23.39999878	0.00000000	-73.28371000	-26.79626000
23.59999877	0.00000000	-89.14861000	-26.42101000
23.79999876	0.00000000	-106.92050000	-25.68282000
23.99999875	0.00000000	-122.74240000	-25.35679000
24.19999873	0.00000000	-132.65870000	-25.68282000
24.39999872	0.00000000	-133.35380000	-26.46407000
24.59999871	0.00000000	-123.63430000	-27.25763000
24.79999870	0.00000000	-105.48100000	-28.51255000
24.99999869	0.00000000	-82.73252000	-30.37647000
25.19999867	0.00000000	-61.14050000	-32.27731000
25.39999866	0.00000000	-46.06299000	-33.02165000
25.59999865	0.00000000	-40.66806000	-32.64640000
25.79999864	0.00000000	-46.53051000	-31.02239000
25.99999863	0.00000000	-62.76451000	-27.95275000
26.19999862	0.00000000	-85.93749000	-24.10187000
26.39999860	0.00000000	-110.64840000	-20.57087000
26.59999859	0.00000000	-131.12080000	-17.50123000
26.79999858	0.00000000	-142.70420000	-15.69267000
26.99999857	0.00000000	-142.66120000	-16.94144000
27.19999856	0.00000000	-130.69640000	-21.54281000
27.39999854	0.00000000	-109.52880000	-28.51255000
27.59999853	0.00000000	-84.82406000	-36.22662000
27.79999852	0.00000000	-62.34621000	-43.14714000
27.99999851	0.00000000	-46.48130000	-47.37327000
28.19999850	0.00000000	-40.71727000	-47.70546000
28.39999848	0.00000000	-46.43824000	-43.79921000
28.59999847	0.00000000	-61.83562000	-35.62377000
28.79999846	0.00000000	-82.68947000	-24.79700000
28.99999845	0.00000000	-104.36760000	-13.22589000
29.19999844	0.00000000	-122.18870000	-3.61097400
29.39999843	0.00000000	-132.65870000	1.35949800
29.59999841	0.00000000	-133.86440000	0.52288380
29.79999840	0.00000000	-125.81200000	-6.86515700
29.99999839	0.00000000	-111.15280000	-19.59276000
30.19999838	0.00000000	-93.38090000	-34.69488000
30.39999837	0.00000000	-76.31028000	-49.37254000
30.59999835	0.00000000	-63.50886000	-60.48228000
30.79999834	0.00000000	-56.90822000	-64.65919000
30.99999833	0.00000000	-58.02165000	-60.43307000
31.19999832	0.00000000	-66.02485000	-48.86811000
31.39999831	0.00000000	-78.03272000	-32.64640000
31.59999829	0.00000000	-91.62155000	-15.23130000
31.79999828	0.00000000	-104.41070000	-0.17224410
31.99999827	0.00000000	-113.71800000	9.48572700
32.19999826	0.00000000	-117.95030000	11.39272000
32.39999825	0.00000000	-116.04330000	5.25959600
32.59999824	0.00000000	-108.41530000	-7.55413300
32.79999822	0.00000000	-97.98843000	-24.52018000
32.99999821	0.00000000	-87.10014000	-42.31053000
33.19999820	0.00000000	-77.47293000	-56.58218000
33.39999819	0.00000000	-71.65969000	-64.75147000
33.59999818	0.00000000	-70.77386000	-65.12672000
33.79999816	0.00000000	-73.84350000	-57.78789000
33.99999815	0.00000000	-80.08120000	-44.26673000
34.19999814	0.00000000	-88.54576000	-27.30684000
34.39999813	0.00000000	-96.96727000	-11.09129000
34.59999812	0.00000000	-102.82970000	0.94119090
34.79999810	0.00000000	-105.16120000	6.74827700
34.99999809	0.00000000	-104.03540000	5.21653500
35.19999808	0.00000000	-99.39098000	-3.23572800
35.39999807	0.00000000	-92.91338000	-16.38164000
35.59999806	0.00000000	-86.35580000	-31.39763000
35.79999805	0.00000000	-81.74828000	-44.91264000
35.99999803	0.00000000	-80.12425000	-53.42027000
36.19999802	0.00000000	-81.28690000	-55.74557000
36.39999801	0.00000000	-84.77485000	-51.13803000
36.59999800	0.00000000	-90.12672000	-40.78494000
36.79999799	0.00000000	-95.47859000	-28.13730000
36.99999797	0.00000000	-98.96652000	-16.15404000
37.19999796	0.00000000	-100.17840000	-8.10777600
37.39999795	0.00000000	-98.96652000	-5.74557000
37.59999794	0.00000000	-95.52164000	-9.55339400
37.79999793	0.00000000	-90.54502000	-17.96260000
37.99999791	0.00000000	-85.93749000	-28.32800000
38.19999790	0.00000000	-82.77559000	-37.89985000
38.39999789	0.00000000	-81.23769000	-43.62082000
38.59999788	0.00000000	-81.66215000	-43.71309000
38.79999787	0.00000000	-84.35654000	-38.74261000
38.99999786	0.00000000	-88.58882000	-30.69636000
39.19999784	0.00000000	-93.24557000	-21.45669000
39.39999783	0.00000000	-97.47784000	-13.87180000
39.59999782	0.00000000	-100.17840000	-10.39001000
39.79999781	0.00000000	-100.59670000	-12.33391000
39.99999780	0.00000000	-99.10187000	-18.84842000
40.19999778	0.00000000	-96.35826000	-28.42027000
40.39999777	0.00000000	-92.87032000	-37.99213000
40.59999776	0.00000000	-88.96407000	-44.50664000
40.79999775	0.00000000	-85.42691000	-46.45054000
40.99999774	0.00000000	-82.35728000	-42.96875000
41.19999772	0.00000000	-80.49950000	-35.34079000
41.39999771	0.00000000	-81.23769000	-25.72589000
41.59999770	0.00000000	-83.89517000	-16.89222000
41.79999769	0.00000000	-87.43233000	-11.09129000
41.99999768	0.00000000	-91.70767000	-9.55339400
42.19999767	0.00000000	-95.89690000	-12.62303000
42.39999765	0.00000000	-98.64050000	-19.50049000
42.59999764	0.00000000	-99.43405000	-27.90969000
42.79999763	0.00000000	-98.68356000	-35.29773000
42.99999762	0.00000000	-96.35826000	-40.36663000
43.19999761	0.00000000	-93.33169000	-42.63656000
43.39999759	0.00000000	-90.54502000	-41.10482000
43.59999758	0.00000000	-88.21358000	-36.17741000
43.79999757	0.00000000	-86.31274000	-30.04429000
43.99999756	0.00000000	-85.89443000	-24.19414000
44.19999755	0.00000000	-86.58956000	-19.58661000
44.39999753	0.00000000	-87.34005000	-17.26747000
44.59999752	0.00000000	-88.12745000	-17.96260000
44.79999751	0.00000000	-88.54576000	-20.61393000
44.99999750	0.00000000	-88.96407000	-24.10187000
45.19999749	0.00000000	-89.70841000	-27.95275000
45.39999748	0.00000000	-90.16978000	-31.02239000
45.59999746	0.00000000	-91.01255000	-32.64640000
45.79999745	0.00000000	-92.95644000	-33.02165000
45.99999744	0.00000000	-95.28789000	-32.27731000
46.19999743	0.00000000	-97.98843000	-30.32726000
46.39999742	0.00000000	-100.17840000	-28.04503000
46.59999740	0.00000000	-100.13530000	-25.68282000
46.79999739	0.00000000	-97.43479000	-23.81890000
46.99999738	0.00000000	-92.77805000	-22.98843000
47.19999737	0.00000000	-86.96481000	-23.40059000
47.39999736	0.00000000	-81.19463000	-24.52018000
47.59999734	0.00000000	-76.96235000	-26.51329000
47.79999733	0.00000000	-75.42445000	-28.79552000
47.99999732	0.00000000	-77.05462000	-31.11466000
48.19999731	0.00000000	-82.08046000	-32.60334000
48.39999730	0.00000000	-89.79453000	-32.64640000
48.59999729	0.00000000	-97.89616000	-31.48991000
48.79999727	0.00000000	-104.82900000	-29.53371000
48.99999726	0.00000000	-108.64910000	-26.83932000
49.19999725	0.00000000	-107.90480000	-24.14493000
49.39999724	0.00000000	-103.24800000	-22.19488000
49.59999723	0.00000000	-95.47859000	-21.03838000
49.79999721	0.00000000	-85.85137000	-21.08145000
49.99999720	0.00000000	-77.05462000	-22.65625000
50.19999719	0.00000000	-71.65969000	-25.72589000
50.39999718	0.00000000	-71.23524000	-29.58292000
50.59999717	0.00000000	-75.47367000	-33.02165000
50.79999715	0.00000000	-83.19389000	-35.34079000
50.99999714	0.00000000	-92.77805000	-35.67298000
51.19999713	0.00000000	-101.24880000	-33.80905000
51.39999712	0.00000000	-106.28080000	-30.32726000
51.59999711	0.00000000	-107.11120000	-26.46407000
51.79999710	0.00000000	-103.62330000	-22.57013000
51.99999708	0.00000000	-97.10260000	-19.54355000
52.19999707	0.00000000	-89.01328000	-18.33784000
52.39999706	0.00000000	-81.70521000	-19.12524000
52.59999705	0.00000000	-77.09768000	-21.45669000
52.79999704	0.00000000	-76.31028000	-25.30758000
52.99999702	0.00000000	-79.74902000	-29.49065000
53.19999701	0.00000000	-85.85137000	-32.60334000
53.39999700	0.00000000	-92.82111000	-34.14124000
53.59999699	0.00000000	-98.92347000	-33.76599000
53.79999698	0.00000000	-102.36830000	-31.48991000
53.99999696	0.00000000	-101.62400000	-28.46333000
54.19999695	0.00000000	-97.47784000	-25.72589000
54.39999694	0.00000000	-91.70767000	-23.81890000
54.59999693	0.00000000	-85.89443000	-23.03149000
54.79999692	0.00000000	-81.28690000	-23.77584000
54.99999691	0.00000000	-79.01083000	-25.26452000
55.19999689	0.00000000	-80.16732000	-26.83932000
55.39999688	0.00000000	-84.31348000	-28.32800000
55.59999687	0.00000000	-89.70841000	-29.07234000
55.79999686	0.00000000	-94.73425000	-28.32800000
55.99999685	0.00000000	-98.59743000	-26.83932000
56.19999683	0.00000000	-100.08610000	-25.30758000
56.39999682	0.00000000	-98.59743000	-24.15108000
56.59999681	0.00000000	-94.77731000	-23.81890000
56.79999680	0.00000000	-90.16978000	-24.65551000
56.99999679	0.00000000	-85.93749000	-27.34990000
57.19999677	0.00000000	-83.19389000	-31.06545000
57.39999676	0.00000000	-82.40034000	-33.80905000
57.59999675	0.00000000	-83.19389000	-34.92864000
57.79999674	0.00000000	-85.85137000	-34.50418000
57.99999673	0.00000000	-89.29010000	-31.39763000
58.19999672	0.00000000	-92.03986000	-26.83932000
58.39999670	0.00000000	-94.35899000	-22.14567000
58.59999669	0.00000000	-95.47859000	-17.96260000
58.79999668	0.00000000	-94.77731000	-15.69267000
58.99999667	0.00000000	-93.24557000	-16.47392000
59.19999666	0.00000000	-91.28937000	-19.96186000
59.39999664	0.00000000	-89.01328000	-25.77510000
59.59999663	0.00000000	-87.47539000	-32.64640000
59.79999662	0.00000000	-87.05708000	-38.41043000
59.99999661	0.00000000	-87.43233000	-41.52312000
60.19999660	0.00000000	-88.54576000	-41.48006000
60.39999658	0.00000000	-89.70841000	-37.94907000
60.59999657	0.00000000	-90.50197000	-31.06545000
60.79999656	0.00000000	-91.24016000	-23.03149000
60.99999655	0.00000000	-91.24016000	-16.43085000
61.19999654	0.00000000	-90.50197000	-12.20472000
61.39999653	0.00000000	-89.75147000	-11.46038000
61.59999651	0.00000000	-88.96407000	-14.94217000
61.79999650	0.00000000	-88.63803000	-21.45669000
61.99999649	0.00000000	-89.01328000	-29.53371000
62.19999648	0.00000000	-90.12672000	-36.87869000
62.39999647	0.00000000	-91.28937000	-41.89838000
62.59999645	0.00000000	-92.08292000	-43.79921000
62.79999644	0.00000000	-92.82111000	-41.48006000
62.99999643	0.00000000	-92.77805000	-35.75910000
63.19999642	0.00000000	-91.66460000	-28.42027000
63.39999641	0.00000000	-90.12672000	-21.03838000
63.59999639	0.00000000	-88.58882000	-14.89911000
63.79999638	0.00000000	-87.38312000	-11.46038000
63.99999637	0.00000000	-86.63262000	-12.20472000
64.19999636	0.00000000	-86.26968000	-16.33858000
64.39999635	0.00000000	-87.10014000	-22.14567000
64.59999634	0.00000000	-88.96407000	-28.37721000
64.79999632	0.00000000	-91.24016000	-34.18430000
64.99999631	0.00000000	-92.77805000	-38.41043000
65.19999630	0.00000000	-93.19635000	-39.94832000
65.39999629	0.00000000	-92.82111000	-38.50270000
65.59999628	0.00000000	-91.66460000	-35.02091000
65.79999626	0.00000000	-90.12672000	-30.73942000
65.99999625	0.00000000	-88.58882000	-25.72589000
66.19999624	0.00000000	-87.47539000	-21.45669000
66.39999623	0.00000000	-87.47539000	-18.70694000
66.59999622	0.00000000	-88.58882000	-17.13213000
66.79999620	0.00000000	-90.12672000	-17.54429000
66.99999619	0.00000000	-91.66460000	-19.40822000
67.19999618	0.00000000	-92.77805000	-22.15182000
67.39999617	0.00000000	-92.77805000	-25.26452000
67.59999616	0.00000000	-91.61539000	-28.37721000
67.79999615	0.00000000	-89.70841000	-31.15772000
67.99999613	0.00000000	-87.38312000	-33.48302000
68.19999612	0.00000000	-85.47613000	-35.43307000
68.39999611	0.00000000	-84.31348000	-36.13435000
68.59999610	0.00000000	-84.39960000	-35.38385000
68.79999609	0.00000000	-86.31274000	-33.02165000
68.99999607	0.00000000	-89.79453000	-29.53371000
69.19999606	0.00000000	-93.62081000	-25.26452000
69.39999605	0.00000000	-97.10260000	-20.98917000
69.59999604	0.00000000	-98.96652000	-17.54429000
69.79999603	0.00000000	-98.59129000	-15.64345000
69.99999601	0.00000000	-95.89690000	-16.43085000
70.19999600	0.00000000	-91.61539000	-19.45743000
70.39999599	0.00000000	-86.58956000	-23.72662000
70.59999598	0.00000000	-81.56988000	-28.42027000
70.79999597	0.00000000	-78.16806000	-33.06471000
70.99999596	0.00000000	-77.38065000	-36.87869000
71.19999594	0.00000000	-79.70595000	-38.36737000
71.39999593	0.00000000	-84.31348000	-36.92175000
71.59999592	0.00000000	-90.12672000	-33.43996000
71.79999591	0.00000000	-95.93995000	-29.16461000
71.99999590	0.00000000	-100.55360000	-24.15108000
72.19999588	0.00000000	-102.87890000	-19.96186000
72.39999587	0.00000000	-102.09150000	-18.01181000
72.59999586	0.00000000	-98.64050000	-18.33784000
72.79999585	0.00000000	-93.19635000	-20.61393000
72.99999584	0.00000000	-87.05708000	-23.68356000
73.19999582	0.00000000	-81.66215000	-26.79626000
73.39999581	0.00000000	-78.54330000	-29.49065000
73.59999580	0.00000000	-78.12499000	-31.02239000
73.79999579	0.00000000	-80.03198000	-31.06545000
73.99999578	0.00000000	-83.89517000	-29.95201000
74.19999577	0.00000000	-88.54576000	-28.42027000
74.39999575	0.00000000	-93.15329000	-26.88853000
74.59999574	0.00000000	-96.63509000	-25.81816000
74.79999573	0.00000000	-97.85310000	-26.19340000
74.99999572	0.00000000	-97.47784000	-28.00197000
75.19999571	0.00000000	-95.52164000	-29.49065000
75.39999569	0.00000000	-92.08292000	-29.90895000
75.59999568	0.00000000	-88.68110000	-29.53371000
75.79999567	0.00000000	-86.26968000	-28.28494000
75.99999566	0.00000000	-85.10088000	-26.00270000
76.19999565	0.00000000	-84.68873000	-22.98843000
76.39999563	0.00000000	-85.47613000	-21.08145000
76.59999562	0.00000000	-86.96481000	-20.66314000
76.79999561	0.00000000	-88.50270000	-21.49975000
76.99999560	0.00000000	-89.65919000	-24.23720000
77.19999559	0.00000000	-90.08366000	-28.42027000
77.39999558	0.00000000	-90.12672000	-32.68946000
77.59999556	0.00000000	-90.12672000	-36.13435000
77.79999555	0.00000000	-90.12672000	-38.03519000
77.99999554	0.00000000	-90.16978000	-37.25394000
78.19999553	0.00000000	-90.54502000	-34.18430000
78.39999552	0.00000000	-91.33242000	-29.49065000
78.59999550	0.00000000	-92.03986000	-23.72662000
78.79999549	0.00000000	-92.40280000	-18.38706000
78.99999548	0.00000000	-91.61539000	-15.27436000
79.19999547	0.00000000	-90.08366000	-14.84990000
79.39999546	0.00000000	-88.12745000	-16.80610000
79.59999544	0.00000000	-85.85137000	-21.03223000
79.79999543	0.00000000	-84.31348000	-26.42101000
79.99999542	0.00000000	-83.93823000	-31.44069000
80.19999541	0.00000000	-84.73178000	-35.34079000
80.39999540	0.00000000	-87.05708000	-37.24778000
80.59999539	0.00000000	-90.08366000	-36.92175000
80.79999537	0.00000000	-92.77805000	-34.60261000
80.99999536	0.00000000	-94.35899000	-31.15772000
81.19999535	0.00000000	-94.77731000	-27.25763000
81.39999534	0.00000000	-94.35899000	-23.77584000
81.59999533	0.00000000	-92.77805000	-20.98917000
81.79999531	0.00000000	-90.08366000	-19.08218000
81.99999530	0.00000000	-87.05708000	-18.29478000
82.19999529	0.00000000	-84.73178000	-19.08218000
82.39999528	0.00000000	-83.93823000	-20.98917000
82.59999527	0.00000000	-84.31348000	-23.72662000
82.79999525	0.00000000	-85.85137000	-26.83932000
82.99999524	0.00000000	-88.12745000	-29.95201000
83.19999523	0.00000000	-90.08366000	-32.64640000
83.39999522	0.00000000	-91.66460000	-34.22736000
83.59999521	0.00000000	-92.77805000	-34.60261000
83.79999520	0.00000000	-92.77805000	-33.80905000
83.99999518	0.00000000	-91.70767000	-31.48991000
84.19999517	0.00000000	-90.54502000	-28.42027000
84.39999516	0.00000000	-89.75147000	-25.26452000
84.59999515	0.00000000	-88.96407000	-22.15182000
84.79999514	0.00000000	-88.58882000	-19.45743000
84.99999512	0.00000000	-88.54576000	-17.96260000
85.19999511	0.00000000	-88.54576000	-18.38706000
85.39999510	0.00000000	-88.54576000	-21.08145000
85.59999509	0.00000000	-88.50270000	-25.26452000
85.79999508	0.00000000	-88.12745000	-29.53371000
85.99999506	0.00000000	-87.43233000	-33.06471000
86.19999505	0.00000000	-87.43233000	-35.75910000
86.39999504	0.00000000	-88.17052000	-36.82948000
86.59999503	0.00000000	-88.96407000	-35.29773000
86.79999502	0.00000000	-90.16978000	-31.48376000
86.99999501	0.00000000	-91.66460000	-26.88238000
87.19999499	0.00000000	-92.77805000	-22.57013000
87.39999498	0.00000000	-92.77805000	-19.12524000
87.59999497	0.00000000	-91.66460000	-17.22441000
87.79999496	0.00000000	-90.12672000	-18.01181000
87.99999495	0.00000000	-88.58882000	-21.03838000
88.19999493	0.00000000	-87.38312000	-25.30758000
88.39999492	0.00000000	-86.58956000	-29.90895000
88.59999491	0.00000000	-85.85137000	-33.76599000
88.79999490	0.00000000	-85.93749000	-35.71604000
88.99999489	0.00000000	-87.43233000	-35.67298000
89.19999487	0.00000000	-89.65919000	-33.34153000
89.39999486	0.00000000	-91.24016000	-28.75246000
89.59999485	0.00000000	-92.03986000	-23.77584000
89.79999484	0.00000000	-92.45201000	-19.54355000
89.99999483	0.00000000	-92.03986000	-17.26747000
90.19999482	0.00000000	-91.28937000	-18.01181000
90.39999480	0.00000000	-90.08366000	-21.08145000
90.59999479	0.00000000	-88.58882000	-25.68282000
90.79999478	0.00000000	-87.43233000	-30.64714000
90.99999477	0.00000000	-87.05708000	-34.13509000
91.19999476	0.00000000	-87.38312000	-35.71604000
91.39999474	0.00000000	-88.12745000	-35.24852000
91.59999473	0.00000000	-88.50270000	-32.18504000
91.79999472	0.00000000	-88.54576000	-27.25763000
91.99999471	0.00000000	-88.54576000	-22.65625000
92.19999470	0.00000000	-88.54576000	-19.50049000
92.39999468	0.00000000	-88.54576000	-17.96260000
92.59999467	0.00000000	-88.58882000	-18.43012000
92.79999466	0.00000000	-88.96407000	-21.49975000
92.99999465	0.00000000	-89.75147000	-26.42101000
93.19999464	0.00000000	-90.50197000	-31.02239000
93.39999463	0.00000000	-91.28937000	-34.13509000
93.59999461	0.00000000	-91.66460000	-35.29773000
93.79999460	0.00000000	-91.66460000	-34.13509000
93.99999459	0.00000000	-91.24016000	-31.06545000
94.19999458	0.00000000	-90.03444000	-26.83932000
94.39999457	0.00000000	-88.12745000	-22.61319000
94.59999455	0.00000000	-85.85137000	-19.58661000
94.79999454	0.00000000	-84.31348000	-18.80536000
94.99999453	0.00000000	-83.93823000	-20.70620000
95.19999452	0.00000000	-84.73178000	-24.10187000
95.39999451	0.00000000	-87.05708000	-28.00197000
95.59999449	0.00000000	-90.12672000	-31.39763000
95.79999448	0.00000000	-93.19635000	-33.34153000
95.99999447	0.00000000	-95.52164000	-32.97859000
96.19999446	0.00000000	-96.31520000	-31.11466000
96.39999445	0.00000000	-95.89690000	-28.37721000
96.59999444	0.00000000	-93.89764000	-25.30758000
96.79999442	0.00000000	-90.08366000	-22.61319000
96.99999441	0.00000000	-85.89443000	-21.08145000
97.19999440	0.00000000	-82.73252000	-21.08145000
97.39999439	0.00000000	-80.77632000	-22.61319000
97.59999438	0.00000000	-80.03198000	-25.26452000
97.79999436	0.00000000	-81.23769000	-27.90969000
97.99999435	0.00000000	-84.27042000	-29.49065000
98.19999434	0.00000000	-88.17052000	-29.90895000
98.39999433	0.00000000	-92.03986000	-29.58292000
98.59999432	0.00000000	-95.52164000	-28.79552000
98.79999430	0.00000000	-97.43479000	-28.00197000
98.99999429	0.00000000	-97.47784000	-26.83932000
99.19999428	0.00000000	-95.89690000	-25.72589000
99.39999427	0.00000000	-92.82111000	-25.30758000
99.59999426	0.00000000	-88.96407000	-25.26452000
99.79999425	0.00000000	-85.47613000	-25.26452000
99.99999423	0.00000000	-82.73252000	-25.22145000
100.19999422	0.00000000	-81.19463000	-24.84621000
100.39999421	0.00000000	-81.19463000	-24.10187000
100.59999420	0.00000000	-82.73252000	-23.77584000
100.79999419	0.00000000	-85.42691000	-24.10187000
100.99999417	0.00000000	-88.54576000	-24.88927000
101.19999416	0.00000000	-91.66460000	-25.72589000
101.39999415	0.00000000	-94.31594000	-27.30684000
101.59999414	0.00000000	-95.52164000	-29.53371000
101.79999413	0.00000000	-95.15255000	-31.02239000
101.99999411	0.00000000	-93.98376000	-31.06545000
102.19999410	0.00000000	-91.66460000	-29.90895000
102.39999409	0.00000000	-89.01328000	-27.95891000
102.59999408	0.00000000	-87.00787000	-25.26452000
102.79999407	0.00000000	-85.42691000	-22.57013000
102.99999406	0.00000000	-84.31348000	-20.66314000
103.19999404	0.00000000	-84.31348000	-19.91880000
103.39999403	0.00000000	-85.42691000	-21.08145000
103.59999402	0.00000000	-87.00787000	-23.72662000
103.79999401	0.00000000	-88.96407000	-26.83932000
103.99999400	0.00000000	-91.24016000	-29.95201000
104.19999398	0.00000000	-92.77805000	-32.60334000
104.39999397	0.00000000	-93.19635000	-33.71678000
104.59999396	0.00000000	-92.82111000	-32.60334000
104.79999395	0.00000000	-91.66460000	-29.95201000
104.99999394	0.00000000	-90.12672000	-26.88853000
105.19999392	0.00000000	-88.58882000	-24.14493000
105.39999391	0.00000000	-87.38312000	-22.23794000
105.59999390	0.00000000	-86.63262000	-21.45669000
105.79999389	0.00000000	-86.26968000	-22.19488000
105.99999388	0.00000000	-87.05708000	-23.72662000
106.19999387	0.00000000	-88.50270000	-25.68282000
106.39999385	0.00000000	-89.70841000	-28.00197000
106.59999384	0.00000000	-90.45890000	-29.86589000
106.79999383	0.00000000	-90.87106000	-30.64714000
106.99999382	0.00000000	-90.45890000	-29.90895000
107.19999381	0.00000000	-89.70841000	-28.42027000
107.39999379	0.00000000	-88.54576000	-26.83932000
107.59999378	0.00000000	-87.43233000	-25.30758000
107.79999377	0.00000000	-87.00787000	-24.15108000
107.99999376	0.00000000	-87.00787000	-23.77584000
108.19999375	0.00000000	-87.43233000	-24.19414000
108.39999374	0.00000000	-88.58882000	-25.68282000
108.59999372	0.00000000	-90.08366000	-27.58366000
108.79999371	0.00000000	-91.24016000	-28.75246000
108.99999370	0.00000000	-91.61539000	-29.53371000
109.19999369	0.00000000	-91.24016000	-29.49065000
109.39999368	0.00000000	-90.08366000	-28.37721000
109.59999366	0.00000000	-88.58882000	-26.83932000
109.79999365	0.00000000	-87.38312000	-25.26452000
109.99999364	0.00000000	-86.63262000	-23.77584000
110.19999363	0.00000000	-86.22047000	-22.98843000
110.39999362	0.00000000	-86.63262000	-23.35138000
110.59999360	0.00000000	-87.34005000	-24.10187000
110.79999359	0.00000000	-88.17052000	-25.30758000
110.99999358	0.00000000	-88.92101000	-26.83932000
111.19999357	0.00000000	-89.70841000	-28.37721000
111.39999356	0.00000000	-90.03444000	-29.49065000
111.59999355	0.00000000	-89.70841000	-29.49065000
111.79999353	0.00000000	-88.96407000	-28.42027000
111.99999352	0.00000000	-88.58882000	-27.25763000
112.19999351	0.00000000	-88.54576000	-26.46407000
112.39999350	0.00000000	-88.50270000	-25.63976000
112.59999349	0.00000000	-88.17052000	-24.93233000
112.79999347	0.00000000	-87.80142000	-24.52018000
112.99999346	0.00000000	-88.17052000	-24.88927000
113.19999345	0.00000000	-88.50270000	-25.22145000
113.39999344	0.00000000	-88.54576000	-25.30758000
113.59999343	0.00000000	-88.54576000	-25.68282000
113.79999341	0.00000000	-88.54576000	-26.42101000
113.99999340	0.00000000	-88.54576000	-26.79626000
114.19999339	0.00000000	-88.54576000	-26.83932000
114.39999338	0.00000000	-88.54576000	-26.83932000
114.59999337	0.00000000	-88.54576000	-26.88238000
114.79999336	0.00000000	-88.54576000	-27.25763000
114.99999334	0.00000000	-88.54576000	-28.00197000
115.19999333	0.00000000	-88.54576000	-28.32800000
115.39999332	0.00000000	-88.54576000	-28.00197000
115.59999331	0.00000000	-88.54576000	-27.21457000
115.79999330	0.00000000	-88.54576000	-26.46407000
115.99999328	0.00000000	-88.54576000	-25.63976000
116.19999327	0.00000000	-88.54576000	-24.88927000
116.39999326	0.00000000	-88.54576000	-24.10187000
116.59999325	0.00000000	-88.54576000	-23.77584000
116.79999324	0.00000000	-88.54576000	-24.10187000
116.99999322	0.00000000	-88.54576000	-24.88927000
117.19999321	0.00000000	-88.54576000	-25.68282000
117.39999320	0.00000000	-88.50270000	-26.83932000
117.59999319	0.00000000	-88.12745000	-27.95275000
117.79999318	0.00000000	-87.38312000	-28.37721000
117.99999317	0.00000000	-87.00787000	-28.42027000
118.19999315	0.00000000	-86.96481000	-28.37721000
118.39999314	0.00000000	-87.00787000	-28.00197000
118.59999313	0.00000000	-87.43233000	-27.21457000
118.79999312	0.00000000	-88.54576000	-26.46407000
118.99999311	0.00000000	-89.65919000	-25.63976000
119.19999309	0.00000000	-90.12672000	-24.88927000
119.39999308	0.00000000	-90.50197000	-24.10187000
119.59999307	0.00000000	-90.82184000	-23.77584000
119.79999306	0.00000000	-90.08366000	-24.10187000
119.99999305	0.00000000	-88.96407000	-24.88927000
120.19999303	0.00000000	-88.12745000	-25.63976000
120.39999302	0.00000000	-86.96481000	-26.46407000
120.59999301	0.00000000	-85.85137000	-27.21457000
120.79999300	0.00000000	-85.47613000	-28.00197000
120.99999299	0.00000000	-85.85137000	-28.37721000
121.19999298	0.00000000	-86.96481000	-28.37721000
121.39999296	0.00000000	-88.12745000	-28.04503000
121.59999295	0.00000000	-88.92101000	-27.63287000
121.79999294	0.00000000	-89.75147000	-27.62672000
121.99999293	0.00000000	-90.50197000	-27.17150000
122.19999292	0.00000000	-91.24016000	-26.46407000
122.39999290	0.00000000	-91.24016000	-25.68282000
122.59999289	0.00000000	-90.50197000	-25.30758000
122.79999288	0.00000000	-89.70841000	-25.26452000
122.99999287	0.00000000	-88.50270000	-25.26452000
123.19999286	0.00000000	-87.00787000	-25.26452000
123.39999284	0.00000000	-85.85137000	-25.30758000
123.59999283	0.00000000	-85.47613000	-25.68282000
123.79999282	0.00000000	-85.80216000	-26.42101000
123.99999281	0.00000000	-86.54650000	-26.79626000
124.19999280	0.00000000	-86.96481000	-26.83932000
124.39999279	0.00000000	-87.43233000	-26.83932000
124.59999277	0.00000000	-88.54576000	-26.83932000
124.79999276	0.00000000	-89.65919000	-26.83932000
124.99999275	0.00000000	-90.08366000	-26.79626000
125.19999274	0.00000000	-90.12672000	-26.42101000
125.39999273	0.00000000	-90.08366000	-25.68282000
125.59999271	0.00000000	-89.70841000	-25.30758000
125.79999270	0.00000000	-88.92101000	-25.26452000
125.99999269	0.00000000	-88.17052000	-25.26452000
126.19999268	0.00000000	-87.34005000	-25.26452000
126.39999267	0.00000000	-86.58956000	-25.26452000
126.59999265	0.00000000	-85.80216000	-25.30758000
126.79999264	0.00000000	-85.47613000	-25.68282000
126.99999263	0.00000000	-85.85137000	-26.42101000
127.19999262	0.00000000	-87.00787000	-26.79626000
127.39999261	0.00000000	-88.50270000	-26.83932000
127.59999260	0.00000000	-89.65919000	-26.83932000
127.79999258	0.00000000	-90.08366000	-26.83932000
127.99999257	0.00000000	-90.12672000	-26.83932000
128.19999256	0.00000000	-90.08366000	-26.79626000
128.39999255	0.00000000	-89.65919000	-26.42101000
128.59999254	0.00000000	-88.54576000	-25.68282000
128.79999252	0.00000000	-87.38312000	-25.30758000
128.99999251	0.00000000	-86.58956000	-25.26452000
129.19999250	0.00000000	-85.85137000	-25.26452000
129.39999249	0.00000000	-85.89443000	-25.30758000
129.59999248	0.00000000	-86.96481000	-25.68282000
129.79999246	0.00000000	-88.12745000	-26.42101000
129.99999245	0.00000000	-88.92101000	-26.79626000
130.19999244	0.00000000	-89.70841000	-26.79626000
130.39999243	0.00000000	-90.08366000	-26.42101000
130.59999242	0.00000000	-90.08366000	-25.68282000
130.79999241	0.00000000	-89.65919000	-25.30758000
130.99999239	0.00000000	-88.54576000	-25.30758000
131.19999238	0.00000000	-87.43233000	-25.63976000
131.39999237	0.00000000	-87.00787000	-26.04577000
131.59999236	0.00000000	-86.96481000	-26.05807000
131.79999235	0.00000000	-87.00787000	-26.46407000
131.99999233	0.00000000	-87.38312000	-26.79626000
132.19999232	0.00000000	-88.12745000	-26.88238000
132.39999231	0.00000000	-88.50270000	-27.21457000
132.59999230	0.00000000	-88.54576000	-27.58366000
132.79999229	0.00000000	-88.54576000	-27.21457000
132.99999227	0.00000000	-88.54576000	-26.83932000
133.19999226	0.00000000	-88.54576000	-26.42101000
133.39999225	0.00000000	-88.54576000	-25.68282000
133.59999224	0.00000000	-88.54576000	-25.30758000
133.79999223	0.00000000	-88.54576000	-25.26452000
133.99999222	0.00000000	-88.54576000	-25.30758000
134.19999220	0.00000000	-88.54576000	-25.68282000
134.39999219	0.00000000	-88.54576000	-26.42101000
134.59999218	0.00000000	-88.50270000	-26.83932000
134.79999217	0.00000000	-88.12745000	-27.25763000
134.99999216	0.00000000	-87.38312000	-28.00197000
135.19999214	0.00000000	-87.00787000	-28.32800000
135.39999213	0.00000000	-86.96481000	-28.00197000
135.59999212	0.00000000	-86.96481000	-27.21457000
135.79999211	0.00000000	-87.00787000	-26.46407000
135.99999210	0.00000000	-87.38312000	-25.68282000
136.19999208	0.00000000	-88.17052000	-25.30758000
136.39999207	0.00000000	-88.87794000	-25.26452000
136.59999206	0.00000000	-89.33316000	-25.26452000
136.79999205	0.00000000	-89.29626000	-25.26452000
136.99999204	0.00000000	-89.33316000	-25.30758000
137.19999203	0.00000000	-88.87794000	-25.68282000
137.39999201	0.00000000	-88.17052000	-26.42101000
137.59999200	0.00000000	-87.38312000	-26.83932000
137.79999199	0.00000000	-87.00787000	-27.25763000
137.99999198	0.00000000	-86.96481000	-27.95275000
138.19999197	0.00000000	-86.96481000	-27.95275000
138.39999195	0.00000000	-87.00787000	-27.25763000
138.59999194	0.00000000	-87.38312000	-26.83932000
138.79999193	0.00000000	-88.17052000	-26.37795000
138.99999192	0.00000000	-88.87794000	-25.30758000
139.19999191	0.00000000	-89.29010000	-24.56939000
139.39999189	0.00000000	-88.92101000	-24.88927000
139.59999188	0.00000000	-88.54576000	-25.22145000
139.79999187	0.00000000	-88.12745000	-25.26452000
139.99999186	0.00000000	-87.38312000	-25.26452000
140.19999185	0.00000000	-87.00787000	-25.30758000
140.39999184	0.00000000	-86.96481000	-25.68282000
140.59999182	0.00000000	-86.96481000	-26.46407000
140.79999181	0.00000000	-87.00787000	-27.21457000
140.99999180	0.00000000	-87.38312000	-27.95275000
141.19999179	0.00000000	-88.12745000	-27.95275000
141.39999178	0.00000000	-88.50270000	-27.25763000
141.59999176	0.00000000	-88.54576000	-26.83932000
141.79999175	0.00000000	-88.50270000	-26.37795000
141.99999174	0.00000000	-88.12745000	-25.26452000
142.19999173	0.00000000	-87.38312000	-24.15108000
142.39999172	0.00000000	-87.00787000	-23.72662000
142.59999170	0.00000000	-86.96481000	-23.72662000
142.79999169	0.00000000	-86.96481000	-24.15108000
142.99999168	0.00000000	-87.00787000	-25.26452000
143.19999167	0.00000000	-87.34005000	-26.42101000
143.39999166	0.00000000	-87.75221000	-27.21457000
143.59999165	0.00000000	-87.75835000	-27.95275000
143.79999163	0.00000000	-88.17052000	-27.95275000
143.99999162	0.00000000	-88.45349000	-27.25763000
144.19999161	0.00000000	-88.17052000	-26.83932000
144.39999160	0.00000000	-87.75835000	-26.42101000
144.59999159	0.00000000	-87.75221000	-25.68282000
144.79999157	0.00000000	-87.34005000	-25.26452000
144.99999156	0.00000000	-87.00787000	-24.84621000
145.19999155	0.00000000	-86.96481000	-24.15108000
145.39999154	0.00000000	-87.00787000	-24.15108000
145.59999153	0.00000000	-87.38312000	-24.88927000
145.79999151	0.00000000	-88.12745000	-25.63976000
145.99999150	0.00000000	-88.50270000	-26.42101000
146.19999149	0.00000000	-88.54576000	-26.79626000
146.39999148	0.00000000	-88.50270000	-26.83932000
146.59999147	0.00000000	-88.12745000	-26.83932000
146.79999146	0.00000000	-87.38312000	-26.83932000
146.99999144	0.00000000	-87.00787000	-26.79626000
147.19999143	0.00000000	-86.96481000	-26.42101000
147.39999142	0.00000000	-86.96481000	-25.68282000
147.59999141	0.00000000	-86.96481000	-25.30758000
147.79999140	0.00000000	-87.00787000	-25.26452000
147.99999138	0.00000000	-87.38312000	-25.26452000
148.19999137	0.00000000	-88.12745000	-25.26452000
148.39999136	0.00000000	-88.50270000	-25.30758000
148.59999135	0.00000000	-88.54576000	-25.68282000
148.79999134	0.00000000	-88.54576000	-26.42101000
148.99999132	0.00000000	-88.50270000	-26.79626000
149.19999131	0.00000000	-88.12745000	-26.83932000
149.39999130	0.00000000	-87.38312000	-26.83932000
149.59999129	0.00000000	-87.00787000	-26.83932000
149.79999128	0.00000000	-86.96481000	-26.79626000
149.99999127	0.00000000	-86.96481000	-26.42101000
150.19999125	0.00000000	-86.96481000	-25.68282000
150.39999124	0.00000000	-86.96481000	-25.30758000
150.59999123	0.00000000	-87.00787000	-25.26452000
150.79999122	0.00000000	-87.38312000	-25.26452000
150.99999121	0.00000000	-88.12745000	-25.26452000
151.19999119	0.00000000	-88.50270000	-25.26452000
151.39999118	0.00000000	-88.54576000	-25.30758000
151.59999117	0.00000000	-88.50270000	-25.68282000
151.79999116	0.00000000	-88.12745000	-26.42101000
151.99999115	0.00000000	-87.38312000	-26.79626000
152.19999113	0.00000000	-87.00787000	-26.83932000
152.39999112	0.00000000	-86.96481000	-26.83932000
152.59999111	0.00000000	-86.96481000	-26.83932000
152.79999110	0.00000000	-86.96481000	-26.83932000
152.99999109	0.00000000	-86.96481000	-26.83932000
153.19999108	0.00000000	-86.96481000	-26.79626000
153.39999106	0.00000000	-86.96481000	-26.42101000
153.59999105	0.00000000	-87.00787000	-25.68282000
153.79999104	0.00000000	-87.38312000	-25.30758000
153.99999103	0.00000000	-88.12745000	-25.26452000
154.19999102	0.00000000	-88.50270000	-25.26452000
154.39999100	0.00000000	-88.54576000	-25.26452000
154.59999099	0.00000000	-88.54576000	-25.26452000
154.79999098	0.00000000	-88.50270000	-25.30758000
154.99999097	0.00000000	-88.12745000	-25.63976000
155.19999096	0.00000000	-87.38312000	-26.04577000
155.39999094	0.00000000	-87.00787000	-26.05807000
155.59999093	0.00000000	-86.96481000	-26.42101000
155.79999092	0.00000000	-86.96481000	-26.37795000
155.99999091	0.00000000	-86.96481000	-25.68282000
156.19999090	0.00000000	-86.96481000	-25.30758000
156.39999089	0.00000000	-86.96481000	-25.26452000
156.59999087	0.00000000	-87.00787000	-25.26452000
156.79999086	0.00000000	-87.38312000	-25.26452000
156.99999085	0.00000000	-88.12745000	-25.26452000
157.19999084	0.00000000	-88.50270000	-25.26452000
157.39999083	0.00000000	-88.54576000	-25.26452000
157.59999081	0.00000000	-88.50270000	-25.26452000
157.79999080	0.00000000	-88.12745000	-25.30758000
157.99999079	0.00000000	-87.38312000	-25.68282000
158.19999078	0.00000000	-87.00787000	-26.42101000
158.39999077	0.00000000	-86.96481000	-26.79626000
158.59999075	0.00000000	-86.96481000	-26.83932000
158.79999074	0.00000000	-86.96481000	-26.79626000
158.99999073	0.00000000	-86.96481000	-26.42101000
159.19999072	0.00000000	-86.96481000	-25.68282000
159.39999071	0.00000000	-87.00787000	-25.30758000
159.59999070	0.00000000	-87.38312000	-25.26452000
159.79999068	0.00000000	-88.12745000	-25.22145000
159.99999067	0.00000000	-88.50270000	-24.88927000
160.19999066	0.00000000	-88.54576000	-24.52018000
160.39999065	0.00000000	-88.50270000	-24.88927000
160.59999064	0.00000000	-88.12745000	-25.22145000
160.79999062	0.00000000	-87.38312000	-25.30758000
160.99999061	0.00000000	-87.00787000	-25.68282000
161.19999060	0.00000000	-86.96481000	-26.42101000
161.39999059	0.00000000	-86.96481000	-26.79626000
161.59999058	0.00000000	-86.96481000	-26.83932000
161.79999056	0.00000000	-86.96481000	-26.79626000
161.99999055	0.00000000	-86.96481000	-26.42101000
162.19999054	0.00000000	-86.96481000	-25.68282000
162.39999053	0.00000000	-86.96481000	-25.30758000
162.59999052	0.00000000	-86.96481000	-25.26452000
162.79999051	0.00000000	-87.00787000	-25.26452000
162.99999049	0.00000000	-87.38312000	-25.26452000
163.19999048	0.00000000	-88.12745000	-25.30758000
163.39999047	0.00000000	-88.50270000	-25.63976000
163.59999046	0.00000000	-88.54576000	-26.00270000
163.79999045	0.00000000	-88.54576000	-25.68282000
163.99999043	0.00000000	-88.50270000	-25.72589000
164.19999042	0.00000000	-88.12745000	-26.42101000
164.39999041	0.00000000	-87.38312000	-26.79626000
164.59999040	0.00000000	-87.00787000	-26.79626000
164.79999039	0.00000000	-86.96481000	-26.46407000
164.99999037	0.00000000	-86.96481000	-26.10113000
165.19999036	0.00000000	-86.96481000	-26.46407000
165.39999035	0.00000000	-86.96481000	-26.74705000
165.59999034	0.00000000	-86.96481000	-26.42101000
165.79999033	0.00000000	-86.96481000	-25.68282000
165.99999032	0.00000000	-87.00787000	-25.30758000
166.19999030	0.00000000	-87.38312000	-25.30758000
166.39999029	0.00000000	-88.12745000	-25.68282000
166.59999028	0.00000000	-88.50270000	-26.37795000
166.79999027	0.00000000	-88.50270000	-26.37795000
166.99999026	0.00000000	-88.12745000	-25.72589000
167.19999024	0.00000000	-87.38312000	-25.72589000
167.39999023	0.00000000	-87.00787000	-26.42101000
167.59999022	0.00000000	-86.96481000	-26.79626000
167.79999021	0.00000000	-86.96481000	-26.83932000
167.99999020	0.00000000	-86.96481000	-26.79626000
168.19999018	0.00000000	-86.96481000	-26.46407000
168.39999017	0.00000000	-86.96481000	-26.10113000
168.59999016	0.00000000	-86.96481000	-26.46407000
168.79999015	0.00000000	-86.96481000	-26.74705000
168.99999014	0.00000000	-86.96481000	-26.42101000
169.19999013	0.00000000	-86.96481000	-25.68282000
169.39999011	0.00000000	-86.96481000	-25.30758000
169.59999010	0.00000000	-86.96481000	-25.26452000
169.79999009	0.00000000	-86.96481000	-25.26452000
169.99999008	0.00000000	-86.96481000	-25.26452000
170.19999007	0.00000000	-86.96481000	-25.26452000
170.39999005	0.00000000	-86.96481000	-25.26452000
170.59999004	0.00000000	-86.96481000	-25.30758000
170.79999003	0.00000000	-86.96481000	-25.63976000
170.99999002	0.00000000	-86.96481000	-26.04577000
171.19999001	0.00000000	-86.96481000	-26.05807000
171.39998999	0.00000000	-86.96481000	-26.42101000
171.59998998	0.00000000	-86.96481000	-26.37795000
171.79998997	0.00000000	-86.96481000	-25.68282000
171.99998996	0.00000000	-86.96481000	-25.30758000
172.19998995	0.00000000	-87.00787000	-25.30758000
172.39998994	0.00000000	-87.34005000	-25.63976000
172.59998992	0.00000000	-87.70914000	-26.00270000
172.79998991	0.00000000	-87.34005000	-25.63976000
172.99998990	0.00000000	-87.00787000	-25.30758000
173.19998989	0.00000000	-86.96481000	-25.26452000
173.39998988	0.00000000	-86.96481000	-25.26452000
173.59998986	0.00000000	-86.96481000	-25.30758000
173.79998985	0.00000000	-86.96481000	-25.63976000
173.99998984	0.00000000	-86.96481000	-26.00270000
174.19998983	0.00000000	-86.96481000	-25.63976000
174.39998982	0.00000000	-86.96481000	-25.30758000
174.59998980	0.00000000	-86.96481000	-25.26452000
174.79998979	0.00000000	-86.96481000	-25.30758000
174.99998978	0.00000000	-86.96481000	-25.63976000
175.19998977	0.00000000	-86.96481000	-26.00270000
175.39998976	0.00000000	-86.96481000	-25.63976000
175.59998975	0.00000000	-86.96481000	-25.30758000
175.79998973	0.00000000	-86.96481000	-25.26452000
175.99998972	0.00000000	-86.96481000	-25.26452000
176.19998971	0.00000000	-86.96481000	-25.26452000
176.39998970	0.00000000	-86.96481000	-25.26452000
176.59998969	0.00000000	-86.96481000	-25.26452000
176.79998967	0.00000000	-86.96481000	-25.26452000
176.99998966	0.00000000	-86.96481000	-25.26452000
177.19998965	0.00000000	-86.96481000	-25.26452000
177.39998964	0.00000000	-86.96481000	-25.26452000
177.59998963	0.00000000	-86.96481000	-25.26452000
177.79998961	0.00000000	-86.96481000	-25.26452000
177.99998960	0.00000000	-86.96481000	-25.26452000
178.19998959	0.00000000	-86.96481000	-25.26452000
178.39998958	0.00000000	-86.96481000	-25.26452000
178.59998957	0.00000000	-86.96481000	-25.30758000
178.79998956	0.00000000	-86.96481000	-25.63976000
178.99998954	0.00000000	-86.96481000	-26.00270000
179.19998953	0.00000000	-86.96481000	-25.63976000
179.39998952	0.00000000	-86.96481000	-25.30758000
179.59998951	0.00000000	-86.96481000	-25.30758000
179.79998950	0.00000000	-86.96481000	-25.68282000
179.99998948	0.00000000	-86.96481000	-26.42101000
180.19998947	0.00000000	-86.96481000	-26.79626000
180.39998946	0.00000000	-86.96481000	-26.83932000
180.59998945	0.00000000	-86.96481000	-26.83932000
180.79998944	0.00000000	-86.96481000	-26.79626000
180.99998942	0.00000000	-86.96481000	-26.42101000
181.19998941	0.00000000	-86.96481000	-25.68282000
181.39998940	0.00000000	-86.96481000	-25.30758000
181.59998939	0.00000000	-86.96481000	-25.26452000
181.79998938	0.00000000	-86.96481000	-25.26452000
181.99998937	0.00000000	-86.96481000	-25.26452000
182.19998935	0.00000000	-86.96481000	-25.26452000
182.39998934	0.00000000	-86.96481000	-25.26452000
182.59998933	0.00000000	-86.96481000	-25.30758000
182.79998932	0.00000000	-86.96481000	-25.68282000
182.99998931	0.00000000	-86.96481000	-26.42101000
183.19998929	0.00000000	-86.96481000	-26.79626000
183.39998928	0.00000000	-86.96481000	-26.79626000
183.59998927	0.00000000	-86.96481000	-26.42101000
183.79998926	0.00000000	-86.96481000	-25.68282000
183.99998925	0.00000000	-86.96481000	-25.30758000
184.19998923	0.00000000	-86.96481000	-25.26452000
184.39998922	0.00000000	-86.96481000	-25.26452000
184.59998921	0.00000000	-86.96481000	-25.26452000
184.79998920	0.00000000	-86.96481000	-25.26452000
184.99998919	0.00000000	-86.96481000	-25.26452000
185.19998918	0.00000000	-86.96481000	-25.26452000
185.39998916	0.00000000	-86.96481000	-25.26452000
185.59998915	0.00000000	-86.92175000	-25.26452000
185.79998914	0.00000000	-86.58956000	-25.26452000
185.99998913	0.00000000	-86.22047000	-25.30758000
186.19998912	0.00000000	-86.54650000	-25.68282000
186.39998910	0.00000000	-86.54650000	-26.37795000
186.59998909	0.00000000	-86.22047000	-26.37795000
186.79998908	0.00000000	-86.58956000	-25.68282000
186.99998907	0.00000000	-86.92175000	-25.30758000
187.19998906	0.00000000	-86.96481000	-25.26452000
187.39998904	0.00000000	-86.96481000	-25.26452000
187.59998903	0.00000000	-86.96481000	-25.22145000
187.79998902	0.00000000	-86.96481000	-24.88927000
187.99998901	0.00000000	-86.96481000	-24.52018000
188.19998900	0.00000000	-86.96481000	-24.88927000
188.39998899	0.00000000	-86.92175000	-25.22145000
188.59998897	0.00000000	-86.54650000	-25.26452000
188.79998896	0.00000000	-85.80216000	-25.26452000
188.99998895	0.00000000	-85.47613000	-25.30758000
189.19998894	0.00000000	-85.80216000	-25.63976000
189.39998893	0.00000000	-86.54650000	-26.00270000
189.59998891	0.00000000	-86.92175000	-25.63976000
189.79998890	0.00000000	-86.96481000	-25.30758000
189.99998889	0.00000000	-86.96481000	-25.26452000
190.19998888	0.00000000	-86.96481000	-25.26452000
190.39998887	0.00000000	-86.96481000	-25.26452000
190.59998885	0.00000000	-86.96481000	-25.26452000
190.79998884	0.00000000	-86.96481000	-25.26452000
190.99998883	0.00000000	-86.96481000	-25.26452000
191.19998882	0.00000000	-86.92175000	-25.26452000
191.39998881	0.00000000	-86.54650000	-25.26452000
191.59998880	0.00000000	-85.80216000	-25.26452000
191.79998878	0.00000000	-85.42691000	-25.26452000
191.99998877	0.00000000	-85.42691000	-25.26452000
192.19998876	0.00000000	-85.80216000	-25.26452000
192.39998875	0.00000000	-86.49728000	-25.26452000
192.59998874	0.00000000	-86.54650000	-25.26452000
192.79998872	0.00000000	-86.22047000	-25.26452000
192.99998871	0.00000000	-86.58956000	-25.26452000
193.19998870	0.00000000	-86.92175000	-25.26452000
193.39998869	0.00000000	-86.96481000	-25.26452000
193.59998868	0.00000000	-86.96481000	-25.26452000
193.79998866	0.00000000	-86.92175000	-25.26452000
193.99998865	0.00000000	-86.58956000	-25.26452000
194.19998864	0.00000000	-86.22047000	-25.26452000
194.39998863	0.00000000	-86.54650000	-25.26452000
194.59998862	0.00000000	-86.49728000	-25.26452000
194.79998861	0.00000000	-85.80216000	-25.26452000
194.99998859	0.00000000	-85.47613000	-25.30758000
195.19998858	0.00000000	-85.80216000	-25.63976000
195.39998857	0.00000000	-86.54650000	-26.04577000
195.59998856	0.00000000	-86.92175000	-26.00886000
195.79998855	0.00000000	-86.96481000	-26.04577000
195.99998853	0.00000000	-86.96481000	-25.63976000
