Time	Channel A	Channel B	Channel C
(us)	(V)	(mV)	(mV)

-4.49999956	0.00000000	60.08243000	30.00123000
-4.29999957	0.00000000	60.08243000	30.00123000
-4.09999958	0.00000000	60.08243000	30.00123000
-3.89999959	0.00000000	60.08243000	30.00123000
-3.69999960	0.00000000	60.08243000	30.00123000
-3.49999962	0.00000000	60.08243000	30.00123000
-3.29999963	0.00000000	60.08243000	30.00123000
-3.09999964	0.00000000	60.08243000	30.00123000
-2.89999965	0.00000000	60.08243000	30.00123000
-2.69999966	0.00000000	60.08243000	30.00123000
-2.49999968	0.00000000	60.08243000	30.00123000
-2.29999969	0.00000000	60.08243000	29.95817000
-2.09999970	0.00000000	60.08243000	29.62598000
-1.89999971	0.00000000	60.08243000	29.25689000
-1.69999972	0.00000000	60.08243000	29.62598000
-1.49999973	0.00000000	60.08243000	29.95817000
-1.29999975	0.00000000	60.08243000	30.00123000
-1.09999976	0.00000000	60.08243000	29.95817000
-0.89999977	0.00000000	60.08243000	29.58292000
-0.69999978	0.00000000	60.08243000	28.83858000
-0.49999979	0.00000000	60.03937000	28.51255000
-0.29999981	0.15871060	59.75024000	28.83858000
-0.09999982	0.63668800	59.71333000	29.58292000
0.10000017	0.95533960	60.45152000	29.90895000
0.30000016	1.11466500	60.41461000	29.58292000
0.50000015	0.95533960	60.12549000	28.83858000
0.70000013	0.47736220	60.08243000	28.46333000
0.90000012	-0.31803640	60.08243000	28.46333000
1.10000011	-1.27399100	60.08243000	28.83858000
1.30000010	-2.22994600	60.08243000	29.58292000
1.50000009	-2.70792300	60.08243000	29.95817000
1.70000008	-2.54859700	60.08243000	30.00123000
1.90000006	-1.59264300	60.08243000	30.00123000
2.10000005	0.15871060	60.08243000	30.00123000
2.30000004	2.22994600	60.08243000	30.00123000
2.50000003	4.14124000	60.08243000	30.00123000
2.70000002	5.25652100	60.08243000	29.95817000
2.90000000	5.09719500	60.08243000	29.58292000
3.09999999	3.50393700	60.08243000	28.83858000
3.29999998	0.47736220	60.08243000	28.46333000
3.49999997	-2.86724900	60.08243000	28.46333000
3.69999996	-5.89382400	60.08243000	28.83858000
3.89999994	-7.80511800	60.08243000	29.58292000
4.09999993	-7.80511800	60.08243000	29.95817000
4.29999992	-5.57517200	60.08243000	30.04429000
4.49999991	-1.91129400	60.08243000	30.37647000
4.69999990	2.38927200	60.08243000	30.73942000
4.89999989	6.53112700	60.08243000	30.37647000
5.09999987	9.07972400	60.08243000	30.04429000
5.29999986	9.23905000	60.08243000	30.00123000
5.49999985	7.16781500	60.08243000	30.00123000
5.69999984	3.34522600	60.08243000	30.00123000
5.89999983	-1.27399100	60.08243000	30.00123000
6.09999981	-5.89382400	60.08243000	30.00123000
6.29999980	-8.76107300	60.12549000	30.04429000
6.49999979	-9.39837600	60.50073000	30.41954000
6.69999978	-7.80511800	61.19586000	31.15772000
6.89999977	-4.30056600	61.24508000	31.53297000
7.09999975	0.00000000	60.91904000	31.57603000
7.29999974	4.14124000	61.24508000	31.53297000
7.49999973	6.84916400	61.24508000	31.15772000
7.69999972	7.80511800	60.87598000	30.41954000
7.89999971	6.69045300	60.86983000	30.04429000
8.09999970	4.14124000	60.50073000	30.00123000
8.29999968	0.79601380	60.50073000	30.00123000
8.49999967	-2.22994600	60.82677000	30.00123000
8.69999966	-4.45989200	60.45767000	30.00123000
8.89999965	-5.25652100	60.12549000	30.00123000
9.09999964	-4.61921700	60.08243000	30.00123000
9.29999962	-3.02657500	60.08243000	30.00123000
9.49999961	-1.11466500	60.08243000	30.00123000
9.69999960	0.79601380	60.08243000	30.00123000
9.89999959	2.07062000	60.08243000	30.00123000
10.09999958	2.54859700	60.08243000	30.00123000
10.29999956	2.22994600	60.08243000	30.00123000
10.49999955	1.59264300	60.08243000	30.00123000
10.69999954	0.79601380	60.12549000	30.00123000
10.89999953	-0.15871060	60.45767000	30.00123000
11.09999952	-0.63668800	60.82677000	30.00123000
11.29999951	-0.95533960	60.50073000	30.00123000
11.49999949	-0.95533960	60.50073000	30.00123000
11.69999948	-0.79601380	60.82677000	30.00123000
11.89999947	-0.47736220	60.45767000	30.00123000
12.09999946	-0.15871060	60.17470000	30.00123000
12.29999945	-0.15871060	60.45767000	30.00123000
12.49999943	-0.15871060	60.82677000	30.00123000
12.69999942	0.00000000	60.45767000	30.00123000
12.89999941	0.00000000	60.12549000	30.00123000
13.09999940	0.00000000	60.08243000	30.00123000
13.29999939	0.00000000	60.08243000	30.00123000
13.49999937	0.00000000	60.12549000	30.00123000
13.69999936	0.00000000	60.45767000	30.00123000
13.89999935	0.00000000	60.82677000	30.00123000
14.09999934	-0.15871060	60.45767000	30.00123000
14.29999933	-0.15871060	60.12549000	30.00123000
14.49999932	-0.15871060	60.08243000	30.00123000
14.69999930	0.00000000	60.08243000	30.00123000
14.89999929	0.00000000	60.08243000	30.00123000
15.09999928	0.00000000	60.08243000	30.00123000
15.29999927	0.00000000	60.08243000	30.00123000
15.49999926	0.00000000	60.08243000	30.00123000
15.69999924	0.00000000	60.08243000	30.00123000
15.89999923	0.00000000	60.08243000	30.00123000
16.09999922	0.00000000	60.12549000	30.00123000
16.29999921	0.00000000	60.45767000	30.00123000
16.49999920	-0.15871060	60.82677000	30.00123000
16.69999919	0.00000000	60.50073000	29.95817000
16.89999917	0.00000000	60.54995000	29.62598000
17.09999916	0.00000000	61.24508000	29.25689000
17.29999915	0.00000000	61.66338000	29.62598000
17.49999914	0.00000000	62.03863000	29.95817000
17.69999913	0.00000000	62.40772000	30.00123000
17.89999911	0.00000000	61.99557000	30.00123000
18.09999910	0.00000000	61.24508000	30.00123000
18.29999909	0.00000000	60.03937000	30.00123000
18.49999908	0.00000000	58.50147000	30.00123000
18.69999907	0.00000000	56.96358000	30.00123000
18.89999905	0.00000000	55.85014000	30.00123000
19.09999904	0.00000000	55.85014000	30.00123000
19.29999903	0.00000000	57.01279000	30.00123000
19.49999902	0.00000000	59.01205000	30.00123000
19.69999901	0.00000000	62.17396000	30.00123000
19.89999900	0.00000000	66.36318000	30.00123000
20.09999898	0.00000000	70.17716000	30.00123000
20.29999897	0.00000000	72.09030000	30.00123000
20.49999896	0.00000000	71.71505000	30.00123000
20.69999895	0.00000000	68.88533000	30.00123000
20.89999894	0.00000000	63.43504000	30.00123000
21.09999892	0.00000000	55.71481000	30.00123000
21.29999891	0.00000000	48.03149000	30.00123000
21.49999890	0.00000000	42.26747000	30.00123000
21.69999889	0.00000000	40.03444000	30.00123000
21.89999888	0.00000000	42.77190000	30.00123000
22.09999886	0.00000000	50.17224000	30.00123000
22.29999885	0.00000000	61.06053000	30.00123000
22.49999884	0.00000000	73.80659000	30.00123000
22.69999883	0.00000000	85.34695000	30.00123000
22.89999882	0.00000000	92.60580000	30.04429000
23.09999881	0.00000000	93.25787000	30.41954000
23.29999879	0.00000000	85.86368000	31.15772000
23.49999878	0.00000000	71.57972000	31.57603000
23.69999877	0.00000000	53.80782000	31.99434000
23.89999876	0.00000000	36.44808000	32.73868000
24.09999875	0.00000000	23.74508000	33.06471000
24.29999873	0.00000000	19.13755000	32.68946000
24.49999872	0.00000000	23.83735000	31.53297000
24.69999871	0.00000000	37.46924000	30.00123000
24.89999870	0.00000000	57.94168000	28.42027000
25.09999869	0.00000000	80.69020000	26.88853000
25.29999867	0.00000000	99.96309000	25.77510000
25.49999866	0.00000000	111.12820000	25.77510000
25.69999865	0.00000000	111.07900000	26.93159000
25.89999864	0.00000000	99.49556000	28.93085000
26.09999863	0.00000000	79.02312000	32.04355000
26.29999862	0.00000000	54.31225000	35.89444000
26.49999860	0.00000000	31.09621000	39.33932000
26.69999859	0.00000000	14.53002000	41.61540000
26.89999858	0.00000000	8.34768700	41.52312000
27.09999857	0.00000000	14.53002000	38.41043000
27.29999856	0.00000000	31.13927000	32.64640000
27.49999854	0.00000000	54.68750000	25.63976000
27.69999853	0.00000000	79.71825000	18.66388000
27.89999852	0.00000000	99.45251000	12.53076000
28.09999851	0.00000000	110.00860000	9.55339400
28.29999850	0.00000000	110.00860000	11.13435000
28.49999848	0.00000000	99.53863000	17.35974000
28.69999847	0.00000000	80.69020000	27.39296000
28.89999846	0.00000000	58.31693000	39.00713000
29.09999845	0.00000000	38.16437000	49.79700000
29.29999844	0.00000000	23.79429000	57.45570000
29.49999843	0.00000000	17.97490000	59.31963000
29.69999841	0.00000000	21.78888000	54.67519000
29.89999840	0.00000000	33.70448000	44.21752000
30.09999839	0.00000000	50.68897000	29.90895000
30.29999838	0.00000000	68.51008000	14.85605000
30.49999837	0.00000000	83.63065000	2.07923200
30.69999835	0.00000000	93.35014000	-5.54256900
30.89999834	0.00000000	95.67544000	-5.91166300
31.09999833	0.00000000	90.74187000	1.83932100
31.29999832	0.00000000	79.95201000	15.73573000
31.49999831	0.00000000	66.40624000	33.11393000
31.69999829	0.00000000	52.82357000	50.06767000
31.89999828	0.00000000	41.60925000	62.47539000
32.09999827	0.00000000	35.37770000	68.28863000
32.29999826	0.00000000	34.91019000	66.33243000
32.49999825	0.00000000	39.56693000	56.66830000
32.69999824	0.00000000	48.49901000	41.61540000
32.89999822	0.00000000	60.03937000	24.19414000
33.09999821	0.00000000	71.20448000	7.97859100
33.29999820	0.00000000	78.98006000	-3.63558100
33.49999819	0.00000000	82.14198000	-8.28001900
33.69999818	0.00000000	80.60408000	-5.16732200
33.89999816	0.00000000	74.83390000	5.28420300
34.09999815	0.00000000	66.40624000	21.08145000
34.29999814	0.00000000	57.94168000	38.45964000
34.49999813	0.00000000	51.66092000	53.51254000
34.69999812	0.00000000	48.16683000	63.17667000
34.89999810	0.00000000	47.80388000	65.12672000
35.09999809	0.00000000	51.24261000	59.41191000
35.29999808	0.00000000	56.96358000	47.84079000
35.49999807	0.00000000	63.15822000	33.15699000
35.69999806	0.00000000	68.55315000	18.52239000
35.89999805	0.00000000	71.62893000	7.32652500
36.09999803	0.00000000	71.62893000	2.30684000
36.29999802	0.00000000	68.59621000	4.16461600
36.49999801	0.00000000	63.61958000	12.20472000
36.69999800	0.00000000	58.63681000	23.76968000
36.89999799	0.00000000	54.73056000	36.09129000
37.09999797	0.00000000	52.86663000	46.49360000
37.29999796	0.00000000	53.57406000	51.84547000
37.49999795	0.00000000	56.68061000	51.18725000
37.69999794	0.00000000	60.87598000	45.05413000
37.89999793	0.00000000	65.56963000	35.85138000
38.09999791	0.00000000	69.39591000	25.86122000
38.29999790	0.00000000	71.71505000	17.87033000
38.49999789	0.00000000	71.67200000	14.75148000
38.69999788	0.00000000	69.02066000	17.02756000
38.89999787	0.00000000	64.78223000	23.54207000
39.09999786	0.00000000	60.12549000	32.73868000
39.29999784	0.00000000	55.85014000	41.48006000
39.49999783	0.00000000	52.77436000	46.86885000
39.69999782	0.00000000	51.61786000	47.24409000
39.89999781	0.00000000	52.73130000	42.63656000
40.09999780	0.00000000	55.43184000	34.22736000
40.29999778	0.00000000	58.96899000	24.61245000
40.49999777	0.00000000	63.24434000	16.56619000
40.69999776	0.00000000	67.48277000	11.97096000
40.89999775	0.00000000	70.55856000	12.75836000
41.09999774	0.00000000	71.76427000	18.47318000
41.29999772	0.00000000	71.01993000	27.30684000
41.49999771	0.00000000	69.06373000	36.92175000
41.69999770	0.00000000	65.94488000	44.63582000
41.89999769	0.00000000	62.08169000	48.86811000
42.09999768	0.00000000	58.59375000	48.44980000
42.29999767	0.00000000	55.85014000	43.10408000
42.49999765	0.00000000	54.31225000	34.69488000
42.69999764	0.00000000	54.31225000	25.86122000
42.89999763	0.00000000	55.85014000	18.89148000
43.09999762	0.00000000	58.50147000	15.36048000
43.29999761	0.00000000	61.24508000	15.36048000
43.49999759	0.00000000	63.57652000	18.80536000
43.69999758	0.00000000	65.52042000	24.93233000
43.89999757	0.00000000	66.27091000	31.44069000
44.09999756	0.00000000	65.98794000	36.87869000
44.29999755	0.00000000	65.20053000	39.99138000
44.49999753	0.00000000	64.49311000	40.40969000
44.69999752	0.00000000	64.03790000	38.54576000
44.89999751	0.00000000	64.03174000	35.06397000
45.09999750	0.00000000	63.61958000	31.20078000
45.29999749	0.00000000	63.24434000	27.30684000
45.49999748	0.00000000	62.73376000	24.28026000
45.69999746	0.00000000	61.15280000	23.07455000
45.89999745	0.00000000	58.45841000	23.81890000
46.09999744	0.00000000	55.43184000	25.72589000
46.29999743	0.00000000	53.10654000	28.42027000
46.49999742	0.00000000	52.35605000	31.11466000
46.69999740	0.00000000	53.19881000	33.06471000
46.89999739	0.00000000	56.36073000	34.22736000
47.09999738	0.00000000	61.75566000	34.27042000
47.29999737	0.00000000	67.94415000	33.48917000
47.49999736	0.00000000	73.72047000	32.27731000
47.69999734	0.00000000	77.48523000	29.95201000
47.89999733	0.00000000	77.44217000	27.30684000
48.09999732	0.00000000	73.25295000	25.39985000
48.29999731	0.00000000	66.27091000	24.61245000
48.49999730	0.00000000	58.12622000	25.39985000
48.69999729	0.00000000	50.07997000	27.30684000
48.89999727	0.00000000	44.68504000	30.00123000
49.09999726	0.00000000	43.51624000	32.73868000
49.29999725	0.00000000	46.26599000	35.06397000
49.49999724	0.00000000	53.24187000	36.96481000
49.69999723	0.00000000	62.82603000	37.29700000
49.89999721	0.00000000	72.09030000	35.80217000
50.09999720	0.00000000	79.02312000	33.06471000
50.29999719	0.00000000	81.71751000	29.58292000
50.49999718	0.00000000	79.39838000	25.72589000
50.69999717	0.00000000	72.87770000	22.74852000
50.89999715	0.00000000	63.61958000	21.91806000
51.09999714	0.00000000	54.40452000	23.44365000
51.29999713	0.00000000	47.47170000	26.14419000
51.49999712	0.00000000	44.77731000	30.04429000
51.69999711	0.00000000	47.05339000	34.22736000
51.89999710	0.00000000	53.14960000	37.38312000
52.09999708	0.00000000	61.24508000	39.29626000
52.29999707	0.00000000	68.97145000	39.61614000
52.49999706	0.00000000	74.74163000	37.34006000
52.69999705	0.00000000	77.02386000	33.53223000
52.89999704	0.00000000	74.74163000	29.66904000
53.09999702	0.00000000	69.02066000	26.19340000
53.29999701	0.00000000	61.71259000	24.28026000
53.49999700	0.00000000	54.82283000	24.23720000
53.69999699	0.00000000	50.59055000	25.77510000
53.89999698	0.00000000	50.17224000	28.46333000
54.09999696	0.00000000	53.19881000	31.53297000
54.29999695	0.00000000	58.59375000	34.18430000
54.49999694	0.00000000	64.73917000	35.38385000
54.69999693	0.00000000	70.13410000	35.02091000
54.89999692	0.00000000	73.20988000	33.85211000
55.09999691	0.00000000	73.25295000	31.57603000
55.29999689	0.00000000	70.55241000	29.34916000
55.49999688	0.00000000	65.89567000	28.55561000
55.69999687	0.00000000	60.17470000	28.93085000
55.89999686	0.00000000	55.19808000	30.46260000
56.09999685	0.00000000	52.86663000	32.73868000
56.29999683	0.00000000	53.19881000	34.60261000
56.49999682	0.00000000	55.93627000	35.34079000
56.69999681	0.00000000	60.50073000	34.18430000
56.89999680	0.00000000	65.47736000	31.53297000
57.09999679	0.00000000	68.97145000	28.42027000
57.29999677	0.00000000	70.55856000	25.35064000
57.49999676	0.00000000	70.18331000	23.07455000
57.69999675	0.00000000	67.90108000	22.74852000
57.89999674	0.00000000	64.82529000	24.65551000
58.09999673	0.00000000	61.70644000	28.55561000
58.29999672	0.00000000	59.01205000	33.53223000
58.49999670	0.00000000	57.47416000	38.50270000
58.69999669	0.00000000	57.43110000	41.56618000
58.89999668	0.00000000	58.59375000	41.94144000
59.09999667	0.00000000	60.50073000	39.61614000
59.29999666	0.00000000	62.82603000	34.55955000
59.49999664	0.00000000	64.73302000	28.04503000
59.69999663	0.00000000	65.89567000	21.49975000
59.89999662	0.00000000	65.89567000	16.94144000
60.09999661	0.00000000	64.78223000	15.77879000
60.29999660	0.00000000	63.28740000	18.43012000
60.49999658	0.00000000	62.13090000	23.86196000
60.69999657	0.00000000	61.70644000	30.83784000
60.89999656	0.00000000	61.66338000	38.50270000
61.09999655	0.00000000	61.70644000	44.21752000
61.29999654	0.00000000	62.08169000	46.17372000
61.49999653	0.00000000	62.82603000	44.26673000
61.69999651	0.00000000	63.20127000	38.87795000
61.89999650	0.00000000	63.20127000	31.53297000
62.09999649	0.00000000	62.77681000	23.81890000
62.29999648	0.00000000	61.66338000	17.26747000
62.49999647	0.00000000	60.54995000	13.82874000
62.69999645	0.00000000	60.12549000	14.20399000
62.89999644	0.00000000	60.12549000	18.47318000
63.09999643	0.00000000	60.54995000	25.72589000
63.29999642	0.00000000	61.70644000	33.80905000
63.49999641	0.00000000	63.24434000	40.40969000
63.69999639	0.00000000	64.78223000	44.68504000
63.89999638	0.00000000	65.93873000	45.84153000
64.09999637	0.00000000	66.31397000	43.52239000
64.29999636	0.00000000	65.89567000	38.54576000
64.49999635	0.00000000	64.35777000	31.95128000
64.69999634	0.00000000	62.13090000	25.44291000
64.89999632	0.00000000	60.59301000	20.38632000
65.09999631	0.00000000	60.12549000	18.05487000
65.29999630	0.00000000	60.12549000	18.38706000
65.49999629	0.00000000	60.54995000	21.08145000
65.69999628	0.00000000	61.66338000	25.30758000
65.89999626	0.00000000	62.82603000	30.00123000
66.09999625	0.00000000	63.61958000	34.64567000
66.29999624	0.00000000	64.35777000	38.50270000
66.49999623	0.00000000	64.31471000	40.45890000
66.69999622	0.00000000	63.20127000	40.54502000
66.89999620	0.00000000	61.70644000	39.38238000
67.09999619	0.00000000	60.54995000	37.43233000
67.29999618	0.00000000	60.17470000	34.64567000
67.49999617	0.00000000	60.59301000	31.20078000
67.69999616	0.00000000	62.17396000	27.72515000
67.89999615	0.00000000	64.82529000	25.35064000
68.09999613	0.00000000	67.48277000	23.72662000
68.29999612	0.00000000	69.02066000	22.61319000
68.49999611	0.00000000	69.02066000	22.65625000
68.69999610	0.00000000	67.43970000	24.23720000
68.89999609	0.00000000	64.36392000	27.34990000
69.09999607	0.00000000	60.50073000	31.61909000
69.29999606	0.00000000	57.05585000	36.22662000
69.49999605	0.00000000	54.73056000	40.07751000
69.69999604	0.00000000	54.35531000	42.03371000
69.89999603	0.00000000	55.93627000	42.03371000
70.09999601	0.00000000	59.47342000	40.07751000
70.29999600	0.00000000	64.82529000	36.22662000
70.49999599	0.00000000	70.17716000	31.57603000
70.69999598	0.00000000	73.67126000	26.88238000
70.89999597	0.00000000	74.87697000	22.69931000
71.09999596	0.00000000	73.67126000	20.38632000
71.29999594	0.00000000	70.17716000	20.74926000
71.49999593	0.00000000	64.78223000	23.03149000
71.69999592	0.00000000	58.96899000	26.93159000
71.89999591	0.00000000	53.98622000	31.53297000
72.09999590	0.00000000	50.87352000	35.80217000
72.29999588	0.00000000	50.86737000	38.87795000
72.49999587	0.00000000	53.14960000	40.03444000
72.69999586	0.00000000	57.47416000	38.87795000
72.89999585	0.00000000	63.24434000	35.85138000
73.09999584	0.00000000	69.02066000	32.04355000
73.29999582	0.00000000	73.25295000	28.97392000
73.49999581	0.00000000	74.83390000	27.34990000
73.69999580	0.00000000	73.72047000	26.93159000
73.89999579	0.00000000	70.60162000	27.30684000
74.09999578	0.00000000	65.94488000	28.42027000
74.29999577	0.00000000	60.59301000	29.58292000
74.49999575	0.00000000	56.36073000	30.32726000
74.69999574	0.00000000	54.35531000	30.69636000
74.89999573	0.00000000	54.31225000	29.90895000
75.09999572	0.00000000	55.89320000	28.46333000
75.29999571	0.00000000	58.96899000	27.34990000
75.49999569	0.00000000	62.77681000	27.39296000
75.69999568	0.00000000	65.85260000	28.88164000
75.89999567	0.00000000	67.48277000	31.20078000
76.09999566	0.00000000	67.90108000	33.53223000
76.29999565	0.00000000	67.52583000	35.85138000
76.49999563	0.00000000	66.36318000	37.29700000
76.69999562	0.00000000	64.82529000	36.92175000
76.89999561	0.00000000	63.28740000	34.55955000
77.09999560	0.00000000	62.17396000	30.73942000
77.29999559	0.00000000	62.13090000	26.10113000
77.49999558	0.00000000	62.77681000	22.28100000
77.69999556	0.00000000	62.77681000	19.96186000
77.89999555	0.00000000	62.08169000	20.01107000
78.09999554	0.00000000	61.66338000	22.65625000
78.29999553	0.00000000	61.24508000	26.93159000
78.49999552	0.00000000	60.50073000	31.95128000
78.69999550	0.00000000	60.17470000	36.96481000
78.89999549	0.00000000	60.54995000	40.40969000
79.09999548	0.00000000	61.75566000	41.61540000
79.29999547	0.00000000	63.66264000	40.45275000
79.49999546	0.00000000	65.94488000	37.34006000
79.69999544	0.00000000	67.48277000	32.73868000
79.89999543	0.00000000	67.90108000	27.72515000
80.09999542	0.00000000	67.48277000	23.86196000
80.29999541	0.00000000	65.89567000	21.49975000
80.49999540	0.00000000	63.24434000	21.12451000
80.69999539	0.00000000	60.54995000	22.65625000
80.89999537	0.00000000	58.59375000	25.72589000
81.09999536	0.00000000	57.47416000	29.58292000
81.29999535	0.00000000	57.84941000	33.06471000
81.49999534	0.00000000	59.75024000	35.85138000
81.69999533	0.00000000	62.08169000	37.80142000
81.89999531	0.00000000	64.82529000	38.96407000
82.09999530	0.00000000	67.48277000	38.92101000
82.29999529	0.00000000	69.02066000	37.38312000
82.49999528	0.00000000	69.06373000	34.73794000
82.69999527	0.00000000	67.90108000	31.99434000
82.89999525	0.00000000	65.98794000	29.62598000
83.09999524	0.00000000	63.66264000	27.25763000
83.29999523	0.00000000	61.75566000	25.35064000
83.49999522	0.00000000	60.59301000	24.19414000
83.69999521	0.00000000	60.54995000	24.23720000
83.89999520	0.00000000	61.28814000	25.77510000
84.09999518	0.00000000	62.08169000	28.46333000
84.29999517	0.00000000	63.24434000	31.62524000
84.49999516	0.00000000	64.35777000	35.11319000
84.69999515	0.00000000	64.78223000	38.54576000
84.89999514	0.00000000	64.82529000	40.45890000
85.09999512	0.00000000	64.82529000	40.50196000
85.29999511	0.00000000	64.82529000	38.92101000
85.49999510	0.00000000	64.82529000	35.80217000
85.69999509	0.00000000	64.82529000	31.53297000
85.89999508	0.00000000	64.82529000	26.93159000
86.09999506	0.00000000	64.82529000	23.12377000
86.29999505	0.00000000	64.78223000	21.58587000
86.49999504	0.00000000	64.35777000	22.65625000
86.69999503	0.00000000	63.24434000	25.39985000
86.89999502	0.00000000	62.08169000	29.25689000
87.09999501	0.00000000	61.33120000	33.94439000
87.29999499	0.00000000	60.91904000	38.09055000
87.49999498	0.00000000	61.33120000	40.82185000
87.69999497	0.00000000	62.08169000	40.78494000
87.89999496	0.00000000	63.28740000	38.54576000
88.09999495	0.00000000	64.78223000	34.64567000
88.29999493	0.00000000	65.93873000	30.04429000
88.49999492	0.00000000	66.36318000	25.77510000
88.69999491	0.00000000	66.36318000	22.74852000
88.89999490	0.00000000	65.93873000	21.96112000
89.09999489	0.00000000	64.78223000	23.86196000
89.29999487	0.00000000	63.24434000	27.30684000
89.49999486	0.00000000	61.75566000	31.61909000
89.69999485	0.00000000	60.96825000	36.17741000
89.89999484	0.00000000	61.28814000	39.61614000
90.09999483	0.00000000	61.66338000	40.36663000
90.29999482	0.00000000	62.13090000	38.45964000
90.49999480	0.00000000	63.24434000	34.22736000
90.69999479	0.00000000	64.35777000	28.88779000
90.89999478	0.00000000	64.78223000	24.28026000
91.09999477	0.00000000	64.82529000	21.59203000
91.29999476	0.00000000	64.82529000	21.54281000
91.49999474	0.00000000	64.82529000	23.86196000
91.69999473	0.00000000	64.78223000	27.72515000
91.89999472	0.00000000	64.45004000	32.73868000
92.09999471	0.00000000	64.03790000	37.29700000
92.29999470	0.00000000	64.03174000	39.99138000
92.49999468	0.00000000	63.61958000	39.99138000
92.69999467	0.00000000	63.28740000	37.34006000
92.89999466	0.00000000	63.15207000	33.11393000
93.09999465	0.00000000	62.40772000	28.46333000
93.29999464	0.00000000	60.91904000	24.28026000
93.49999463	0.00000000	60.21776000	22.01033000
93.69999461	0.00000000	60.50073000	22.74852000
93.89999460	0.00000000	61.33120000	25.77510000
94.09999459	0.00000000	62.50000000	30.00123000
94.29999458	0.00000000	64.45004000	34.22736000
94.49999457	0.00000000	66.36318000	37.29700000
94.69999455	0.00000000	67.94415000	38.45349000
94.89999454	0.00000000	69.02066000	37.34006000
95.09999453	0.00000000	68.64542000	34.64567000
95.29999452	0.00000000	66.73843000	31.15772000
95.49999451	0.00000000	64.40699000	27.34990000
95.69999449	0.00000000	61.66338000	24.69857000
95.89999448	0.00000000	58.96899000	24.28026000
96.09999447	0.00000000	57.05585000	25.77510000
96.29999446	0.00000000	56.31151000	28.46333000
96.49999445	0.00000000	57.51722000	31.53297000
96.69999444	0.00000000	60.54995000	34.27042000
96.89999442	0.00000000	64.45004000	36.17741000
97.09999441	0.00000000	68.31938000	36.92175000
97.29999440	0.00000000	71.76427000	35.80217000
97.49999439	0.00000000	73.29601000	33.57529000
97.69999438	0.00000000	72.55782000	31.62524000
97.89999436	0.00000000	70.26943000	30.04429000
98.09999435	0.00000000	66.73843000	28.88779000
98.29999434	0.00000000	62.86909000	28.51255000
98.49999433	0.00000000	59.01205000	28.88779000
98.69999432	0.00000000	56.36073000	30.00123000
98.89999430	0.00000000	55.89320000	31.15772000
99.09999429	0.00000000	57.05585000	31.90822000
99.29999428	0.00000000	59.38730000	32.36343000
99.49999427	0.00000000	62.86909000	32.32653000
99.69999426	0.00000000	66.36318000	32.40649000
99.89999425	0.00000000	69.48203000	32.36959000
100.09999423	0.00000000	71.76427000	32.82480000
100.29999422	0.00000000	72.13951000	33.53223000
100.49999421	0.00000000	70.68774000	34.27042000
100.69999420	0.00000000	68.31938000	34.22736000
100.89999419	0.00000000	65.61269000	33.11393000
101.09999417	0.00000000	62.50000000	31.57603000
101.29999416	0.00000000	60.17470000	30.00123000
101.49999415	0.00000000	58.59375000	28.46333000
101.69999414	0.00000000	57.89247000	27.34990000
101.89999413	0.00000000	59.01205000	27.34990000
102.09999411	0.00000000	61.24508000	28.51255000
102.29999410	0.00000000	63.24434000	30.41954000
102.49999409	0.00000000	65.24360000	32.78174000
102.69999408	0.00000000	67.52583000	35.11319000
102.89999407	0.00000000	69.06373000	37.38312000
103.09999406	0.00000000	69.48203000	38.50270000
103.29999404	0.00000000	69.06373000	37.75836000
103.49999403	0.00000000	67.52583000	35.80217000
103.69999402	0.00000000	65.24360000	32.68946000
103.89999401	0.00000000	63.28740000	28.93085000
104.09999400	0.00000000	61.70644000	26.23647000
104.29999398	0.00000000	60.59301000	25.39985000
104.49999397	0.00000000	60.54995000	25.77510000
104.69999396	0.00000000	61.33120000	27.34990000
104.89999395	0.00000000	62.50000000	30.04429000
105.09999394	0.00000000	64.40699000	33.11393000
105.29999392	0.00000000	65.93873000	35.80217000
105.49999391	0.00000000	66.73843000	37.34006000
105.69999390	0.00000000	67.15059000	37.34006000
105.89999389	0.00000000	66.73843000	35.80217000
106.09999388	0.00000000	65.98794000	33.11393000
106.29999387	0.00000000	64.78223000	30.08735000
106.49999385	0.00000000	63.28740000	27.76821000
106.69999384	0.00000000	62.13090000	26.93159000
106.89999383	0.00000000	61.75566000	26.93159000
107.09999382	0.00000000	62.13090000	27.72515000
107.29999381	0.00000000	63.28740000	29.62598000
107.49999379	0.00000000	64.78223000	31.53297000
107.69999378	0.00000000	65.93873000	33.06471000
107.89999377	0.00000000	66.31397000	33.80905000
108.09999376	0.00000000	65.93873000	33.06471000
108.29999375	0.00000000	64.82529000	31.57603000
108.49999374	0.00000000	63.66264000	30.00123000
108.69999372	0.00000000	62.86909000	28.46333000
108.89999371	0.00000000	62.08169000	27.34990000
109.09999370	0.00000000	61.75566000	27.34990000
109.29999369	0.00000000	62.13090000	28.46333000
109.49999368	0.00000000	63.28740000	30.00123000
109.69999366	0.00000000	64.78223000	31.53297000
109.89999365	0.00000000	65.93873000	32.73868000
110.09999364	0.00000000	66.36318000	33.53223000
110.29999363	0.00000000	66.36318000	34.22736000
110.49999362	0.00000000	65.93873000	33.85211000
110.69999360	0.00000000	64.82529000	32.32653000
110.89999359	0.00000000	63.66264000	30.82554000
111.09999358	0.00000000	62.86909000	29.25689000
111.29999357	0.00000000	62.13090000	28.51255000
111.49999356	0.00000000	62.13090000	28.42027000
111.69999355	0.00000000	62.86909000	28.46333000
111.89999353	0.00000000	63.61958000	28.88779000
112.09999352	0.00000000	64.40699000	30.00123000
112.29999351	0.00000000	64.82529000	31.15772000
112.49999350	0.00000000	65.24360000	31.95128000
112.69999349	0.00000000	65.98794000	32.73868000
112.89999347	0.00000000	66.31397000	33.11393000
113.09999346	0.00000000	65.98794000	33.11393000
113.29999345	0.00000000	65.24360000	32.73868000
113.49999344	0.00000000	64.86835000	31.99434000
113.69999343	0.00000000	64.82529000	31.61909000
113.89999341	0.00000000	64.82529000	31.57603000
114.09999340	0.00000000	64.82529000	31.57603000
114.29999339	0.00000000	64.82529000	31.53297000
114.49999338	0.00000000	64.82529000	31.15772000
114.69999337	0.00000000	64.82529000	30.41954000
114.89999336	0.00000000	64.82529000	30.04429000
115.09999334	0.00000000	64.82529000	30.04429000
115.29999333	0.00000000	64.82529000	30.41954000
115.49999332	0.00000000	64.82529000	31.20078000
115.69999331	0.00000000	64.82529000	31.95128000
115.89999330	0.00000000	64.82529000	32.78174000
116.09999328	0.00000000	64.82529000	33.53223000
116.29999327	0.00000000	64.82529000	34.31963000
116.49999326	0.00000000	64.82529000	34.64567000
116.69999325	0.00000000	64.82529000	34.31963000
116.89999324	0.00000000	64.82529000	33.53223000
117.09999322	0.00000000	64.82529000	32.78174000
117.29999321	0.00000000	64.86835000	31.95128000
117.49999320	0.00000000	65.24360000	31.20078000
117.69999319	0.00000000	65.98794000	30.41954000
117.89999318	0.00000000	66.36318000	30.04429000
118.09999317	0.00000000	66.40624000	30.04429000
118.29999315	0.00000000	66.36318000	30.41954000
118.49999314	0.00000000	65.98794000	31.20078000
118.69999313	0.00000000	65.20053000	31.95128000
118.89999312	0.00000000	64.45004000	32.73868000
119.09999311	0.00000000	63.61958000	33.11393000
119.29999309	0.00000000	62.91216000	33.15699000
119.49999308	0.00000000	62.54921000	33.15699000
119.69999307	0.00000000	63.28740000	33.11393000
119.89999306	0.00000000	64.40699000	32.73868000
120.09999305	0.00000000	65.24360000	31.99434000
120.29999303	0.00000000	66.40624000	31.57603000
120.49999302	0.00000000	67.52583000	31.15772000
120.69999301	0.00000000	67.95029000	30.41954000
120.89999300	0.00000000	67.95029000	30.04429000
121.09999299	0.00000000	67.52583000	30.00123000
121.29999298	0.00000000	66.36318000	30.00123000
121.49999296	0.00000000	64.82529000	30.00123000
121.69999295	0.00000000	63.28740000	30.04429000
121.89999294	0.00000000	62.13090000	30.41954000
122.09999293	0.00000000	61.75566000	31.15772000
122.29999292	0.00000000	62.08169000	31.53297000
122.49999290	0.00000000	62.86909000	31.61909000
122.69999289	0.00000000	63.61958000	31.95128000
122.89999288	0.00000000	64.45004000	32.32037000
123.09999287	0.00000000	65.20053000	31.95128000
123.29999286	0.00000000	65.98794000	31.61909000
123.49999284	0.00000000	66.36318000	31.53297000
123.69999283	0.00000000	66.40624000	31.15772000
123.89999282	0.00000000	66.36318000	30.41954000
124.09999281	0.00000000	65.98794000	30.04429000
124.29999280	0.00000000	65.24360000	30.00123000
124.49999279	0.00000000	64.82529000	30.00123000
124.69999277	0.00000000	64.40699000	30.04429000
124.89999276	0.00000000	63.66264000	30.41954000
125.09999275	0.00000000	63.28740000	31.15772000
125.29999274	0.00000000	63.24434000	31.53297000
125.49999273	0.00000000	63.28740000	31.61909000
125.69999271	0.00000000	63.66264000	31.99434000
125.89999270	0.00000000	64.45004000	32.73868000
126.09999269	0.00000000	65.20053000	33.11393000
126.29999268	0.00000000	66.03100000	33.11393000
126.49999267	0.00000000	66.78149000	32.73868000
126.69999265	0.00000000	67.52583000	31.99434000
126.89999264	0.00000000	67.48277000	31.61909000
127.09999263	0.00000000	66.40624000	31.53297000
127.29999262	0.00000000	65.24360000	31.20078000
127.49999261	0.00000000	64.45004000	30.83784000
127.69999260	0.00000000	63.66264000	31.20078000
127.89999258	0.00000000	63.28740000	31.53297000
128.09999257	0.00000000	63.24434000	31.57603000
128.29999256	0.00000000	63.33661000	31.61909000
128.49999255	0.00000000	64.08095000	31.95128000
128.69999254	0.00000000	65.56963000	32.36343000
128.89999252	0.00000000	66.36318000	32.32653000
129.09999251	0.00000000	66.82455000	32.40649000
129.29999250	0.00000000	67.52583000	32.32653000
129.49999249	0.00000000	67.48277000	32.36343000
129.69999248	0.00000000	66.40624000	31.95128000
129.89999246	0.00000000	65.24360000	31.61909000
130.09999245	0.00000000	64.45004000	31.57603000
130.29999244	0.00000000	63.66264000	31.61909000
130.49999243	0.00000000	63.33661000	31.99434000
130.69999242	0.00000000	63.71186000	32.73868000
130.89999241	0.00000000	64.82529000	33.11393000
131.09999239	0.00000000	65.98794000	33.15699000
131.29999238	0.00000000	66.78149000	33.11393000
131.49999237	0.00000000	67.57505000	32.73868000
131.69999236	0.00000000	67.90108000	31.99434000
131.89999235	0.00000000	67.57505000	31.57603000
132.09999233	0.00000000	66.78149000	31.20078000
132.29999232	0.00000000	66.03100000	30.83784000
132.49999231	0.00000000	65.24360000	31.20078000
132.69999230	0.00000000	64.86835000	31.53297000
132.89999229	0.00000000	64.82529000	31.61909000
133.09999227	0.00000000	64.82529000	31.99434000
133.29999226	0.00000000	64.86835000	32.73868000
133.49999225	0.00000000	65.20053000	33.11393000
133.69999224	0.00000000	65.56963000	33.15699000
133.89999223	0.00000000	65.24360000	33.11393000
134.09999222	0.00000000	65.24360000	32.73868000
134.29999220	0.00000000	65.56963000	31.95128000
134.49999219	0.00000000	65.24360000	31.20078000
134.69999218	0.00000000	65.29281000	30.41954000
134.89999217	0.00000000	65.98794000	30.04429000
135.09999216	0.00000000	66.36318000	30.00123000
135.29999214	0.00000000	66.40624000	30.00123000
135.49999213	0.00000000	66.36318000	30.04429000
135.69999212	0.00000000	65.98794000	30.41954000
135.89999211	0.00000000	65.24360000	31.20078000
136.09999210	0.00000000	64.86835000	31.95128000
136.29999208	0.00000000	64.78223000	32.73868000
136.49999207	0.00000000	64.40699000	33.11393000
136.69999206	0.00000000	63.71186000	33.11393000
136.89999205	0.00000000	63.71186000	32.73868000
137.09999204	0.00000000	64.45004000	31.95128000
137.29999203	0.00000000	65.20053000	31.20078000
137.49999201	0.00000000	66.03100000	30.41954000
137.69999200	0.00000000	66.78149000	30.04429000
137.89999199	0.00000000	67.52583000	30.00123000
138.09999198	0.00000000	67.48277000	30.00123000
138.29999197	0.00000000	66.40624000	30.00123000
138.49999195	0.00000000	65.29281000	30.04429000
138.69999194	0.00000000	64.82529000	30.41954000
138.89999193	0.00000000	64.45004000	31.15772000
139.09999192	0.00000000	64.08095000	31.57603000
139.29999191	0.00000000	64.45004000	31.99434000
139.49999189	0.00000000	64.78223000	32.73868000
139.69999188	0.00000000	64.86835000	33.06471000
139.89999187	0.00000000	65.24360000	32.73868000
140.09999186	0.00000000	65.98794000	31.99434000
140.29999185	0.00000000	66.36318000	31.57603000
140.49999184	0.00000000	66.36318000	31.15772000
140.69999182	0.00000000	65.98794000	30.41954000
140.89999181	0.00000000	65.24360000	30.04429000
141.09999180	0.00000000	64.86835000	30.00123000
141.29999179	0.00000000	64.82529000	30.04429000
141.49999178	0.00000000	64.82529000	30.41954000
141.69999176	0.00000000	64.86835000	31.20078000
141.89999175	0.00000000	65.24360000	31.95128000
142.09999174	0.00000000	65.98794000	32.78174000
142.29999173	0.00000000	66.36318000	33.48917000
142.49999172	0.00000000	66.40624000	33.90133000
142.69999170	0.00000000	66.40624000	33.53223000
142.89999169	0.00000000	66.40624000	33.15699000
143.09999168	0.00000000	66.40624000	32.73868000
143.29999167	0.00000000	66.36318000	31.95128000
143.49999166	0.00000000	65.98794000	31.25000000
143.69999165	0.00000000	65.29281000	30.83784000
143.89999163	0.00000000	65.29281000	31.20078000
144.09999162	0.00000000	65.98794000	31.57603000
144.29999161	0.00000000	66.36318000	31.99434000
144.49999160	0.00000000	66.40624000	32.73868000
144.69999159	0.00000000	66.40624000	33.11393000
144.89999157	0.00000000	66.40624000	33.15699000
145.09999156	0.00000000	66.40624000	33.15699000
145.29999155	0.00000000	66.40624000	33.15699000
145.49999154	0.00000000	66.36318000	33.11393000
145.69999153	0.00000000	65.98794000	32.73868000
145.89999151	0.00000000	65.24360000	31.99434000
146.09999150	0.00000000	64.86835000	31.61909000
146.29999149	0.00000000	64.86835000	31.57603000
146.49999148	0.00000000	65.24360000	31.57603000
146.69999147	0.00000000	65.98794000	31.57603000
146.89999146	0.00000000	66.36318000	31.61909000
147.09999144	0.00000000	66.40624000	31.99434000
147.29999143	0.00000000	66.40624000	32.73868000
147.49999142	0.00000000	66.40624000	33.11393000
147.69999141	0.00000000	66.40624000	33.15699000
147.89999140	0.00000000	66.36318000	33.15699000
148.09999138	0.00000000	65.98794000	33.15699000
148.29999137	0.00000000	65.24360000	33.11393000
148.49999136	0.00000000	64.91756000	32.73868000
148.69999135	0.00000000	65.24360000	31.99434000
148.89999134	0.00000000	65.98794000	31.61909000
149.09999132	0.00000000	66.36318000	31.57603000
149.29999131	0.00000000	66.40624000	31.57603000
149.49999130	0.00000000	66.44931000	31.57603000
149.69999129	0.00000000	66.82455000	31.61909000
149.89999128	0.00000000	67.57505000	31.99434000
150.09999127	0.00000000	67.90108000	32.73868000
150.29999125	0.00000000	67.57505000	33.15699000
150.49999124	0.00000000	66.82455000	33.53223000
150.69999123	0.00000000	66.44931000	33.90133000
150.89999122	0.00000000	66.40624000	33.53223000
151.09999121	0.00000000	66.36318000	33.20005000
151.29999119	0.00000000	65.98794000	33.11393000
151.49999118	0.00000000	65.29281000	32.73868000
151.69999117	0.00000000	65.29281000	31.99434000
151.89999116	0.00000000	65.98794000	31.61909000
152.09999115	0.00000000	66.36318000	31.57603000
152.29999113	0.00000000	66.44931000	31.57603000
152.49999112	0.00000000	66.78149000	31.57603000
152.69999111	0.00000000	67.15059000	31.57603000
152.89999110	0.00000000	66.78149000	31.57603000
153.09999109	0.00000000	66.44931000	31.57603000
153.29999108	0.00000000	66.40624000	31.57603000
153.49999106	0.00000000	66.36318000	31.57603000
153.69999105	0.00000000	65.98794000	31.57603000
153.89999104	0.00000000	65.24360000	31.57603000
154.09999103	0.00000000	64.86835000	31.57603000
154.29999102	0.00000000	64.82529000	31.57603000
154.49999100	0.00000000	64.82529000	31.57603000
154.69999099	0.00000000	64.86835000	31.57603000
154.89999098	0.00000000	65.20053000	31.57603000
155.09999097	0.00000000	65.61269000	31.53297000
155.29999096	0.00000000	65.61884000	31.15772000
155.49999094	0.00000000	66.03100000	30.46260000
155.69999093	0.00000000	66.36318000	30.46260000
155.89999092	0.00000000	66.40624000	31.15772000
156.09999091	0.00000000	66.40624000	31.53297000
156.29999090	0.00000000	66.36318000	31.57603000
156.49999089	0.00000000	65.98794000	31.61909000
156.69999087	0.00000000	65.24360000	31.95128000
156.89999086	0.00000000	64.86835000	32.36343000
157.09999085	0.00000000	64.82529000	32.32653000
157.29999084	0.00000000	64.82529000	32.36343000
157.49999083	0.00000000	64.86835000	31.95128000
157.69999081	0.00000000	65.24360000	31.61909000
157.89999080	0.00000000	66.03100000	31.57603000
158.09999079	0.00000000	66.78149000	31.57603000
158.29999078	0.00000000	67.57505000	31.57603000
158.49999077	0.00000000	67.95029000	31.57603000
158.69999075	0.00000000	67.95029000	31.57603000
158.89999074	0.00000000	67.57505000	31.57603000
159.09999073	0.00000000	66.82455000	31.61909000
159.29999072	0.00000000	66.44931000	31.99434000
159.49999071	0.00000000	66.40624000	32.73868000
159.69999070	0.00000000	66.40624000	33.11393000
159.89999068	0.00000000	66.40624000	33.15699000
160.09999067	0.00000000	66.44931000	33.15699000
160.29999066	0.00000000	66.78149000	33.15699000
160.49999065	0.00000000	67.15059000	33.15699000
160.69999064	0.00000000	66.78149000	33.15699000
160.89999062	0.00000000	66.44931000	33.11393000
161.09999061	0.00000000	66.40624000	32.73868000
161.29999060	0.00000000	66.40624000	31.99434000
161.49999059	0.00000000	66.44931000	31.66830000
161.69999058	0.00000000	66.82455000	31.99434000
161.89999056	0.00000000	67.57505000	32.73868000
162.09999055	0.00000000	67.95029000	33.11393000
162.29999054	0.00000000	67.95029000	33.15699000
162.49999053	0.00000000	67.57505000	33.15699000
162.69999052	0.00000000	66.82455000	33.15699000
162.89999051	0.00000000	66.44931000	33.15699000
163.09999049	0.00000000	66.40624000	33.15699000
163.29999048	0.00000000	66.40624000	33.15699000
163.49999047	0.00000000	66.40624000	33.15699000
163.69999046	0.00000000	66.40624000	33.15699000
163.89999045	0.00000000	66.40624000	33.15699000
164.09999043	0.00000000	66.40624000	33.15699000
164.29999042	0.00000000	66.44931000	33.11393000
164.49999041	0.00000000	66.82455000	32.78174000
164.69999040	0.00000000	67.57505000	32.36959000
164.89999039	0.00000000	67.95029000	32.36343000
165.09999037	0.00000000	67.99335000	31.95128000
165.29999036	0.00000000	67.95029000	31.61909000
165.49999035	0.00000000	67.57505000	31.57603000
165.69999034	0.00000000	66.82455000	31.57603000
165.89999033	0.00000000	66.44931000	31.57603000
166.09999032	0.00000000	66.40624000	31.57603000
166.29999030	0.00000000	66.40624000	31.57603000
166.49999029	0.00000000	66.40624000	31.57603000
166.69999028	0.00000000	66.40624000	31.57603000
166.89999027	0.00000000	66.40624000	31.57603000
167.09999026	0.00000000	66.40624000	31.57603000
167.29999024	0.00000000	66.40624000	31.57603000
167.49999023	0.00000000	66.44931000	31.57603000
167.69999022	0.00000000	66.82455000	31.57603000
167.89999021	0.00000000	67.52583000	31.57603000
168.09999020	0.00000000	67.52583000	31.57603000
168.29999018	0.00000000	66.82455000	31.57603000
168.49999017	0.00000000	66.44931000	31.57603000
168.69999016	0.00000000	66.40624000	31.57603000
168.89999015	0.00000000	66.40624000	31.57603000
169.09999014	0.00000000	66.40624000	31.57603000
169.29999013	0.00000000	66.40624000	31.57603000
169.49999011	0.00000000	66.40624000	31.57603000
169.69999010	0.00000000	66.36318000	31.57603000
169.89999009	0.00000000	66.03100000	31.57603000
170.09999008	0.00000000	65.66190000	31.57603000
170.29999007	0.00000000	66.03100000	31.57603000
170.49999005	0.00000000	66.36318000	31.57603000
170.69999004	0.00000000	66.40624000	31.57603000
170.89999003	0.00000000	66.40624000	31.57603000
171.09999002	0.00000000	66.40624000	31.57603000
171.29999001	0.00000000	66.40624000	31.57603000
171.49998999	0.00000000	66.40624000	31.57603000
171.69998998	0.00000000	66.40624000	31.57603000
171.89998997	0.00000000	66.40624000	31.57603000
172.09998996	0.00000000	66.40624000	31.57603000
172.29998995	0.00000000	66.40624000	31.57603000
172.49998994	0.00000000	66.40624000	31.57603000
172.69998992	0.00000000	66.40624000	31.57603000
172.89998991	0.00000000	66.40624000	31.57603000
173.09998990	0.00000000	66.40624000	31.61909000
173.29998989	0.00000000	66.44931000	31.99434000
173.49998988	0.00000000	66.82455000	32.73868000
173.69998986	0.00000000	67.57505000	33.11393000
173.89998985	0.00000000	67.95029000	33.11393000
174.09998984	0.00000000	67.99335000	32.78174000
174.29998983	0.00000000	67.99335000	32.41265000
174.49998982	0.00000000	67.95029000	32.78174000
174.69998980	0.00000000	67.61810000	33.11393000
174.89998979	0.00000000	67.20596000	33.15699000
175.09998978	0.00000000	67.19365000	33.15699000
175.29998977	0.00000000	66.82455000	33.15699000
175.49998976	0.00000000	66.87376000	33.15699000
175.69998975	0.00000000	67.57505000	33.15699000
175.89998973	0.00000000	67.95029000	33.15699000
176.09998972	0.00000000	67.99335000	33.15699000
176.29998971	0.00000000	67.99335000	33.15699000
176.49998970	0.00000000	67.99335000	33.15699000
176.69998969	0.00000000	67.99335000	33.15699000
176.89998967	0.00000000	67.99335000	33.15699000
177.09998966	0.00000000	67.99335000	33.15699000
177.29998965	0.00000000	67.99335000	33.15699000
177.49998964	0.00000000	67.99335000	33.15699000
177.69998963	0.00000000	67.99335000	33.15699000
177.89998961	0.00000000	67.99335000	33.15699000
178.09998960	0.00000000	67.95029000	33.15699000
178.29998959	0.00000000	67.61810000	33.15699000
178.49998958	0.00000000	67.20596000	33.15699000
178.69998957	0.00000000	67.19365000	33.15699000
178.89998956	0.00000000	66.82455000	33.15699000
179.09998954	0.00000000	66.87376000	33.15699000
179.29998953	0.00000000	67.57505000	33.11393000
179.49998952	0.00000000	67.95029000	32.78174000
179.69998951	0.00000000	67.99335000	32.41265000
179.89998950	0.00000000	67.99335000	32.73868000
180.09998948	0.00000000	67.99335000	32.68946000
180.29998947	0.00000000	67.99335000	32.04355000
180.49998946	0.00000000	67.95029000	31.99434000
180.69998945	0.00000000	67.57505000	32.32037000
180.89998944	0.00000000	66.82455000	31.95128000
181.09998942	0.00000000	66.49852000	31.66830000
181.29998941	0.00000000	66.78149000	31.99434000
181.49998940	0.00000000	67.15059000	32.73868000
181.69998939	0.00000000	66.78149000	33.11393000
181.89998938	0.00000000	66.44931000	33.11393000
182.09998937	0.00000000	66.44931000	32.73868000
182.29998935	0.00000000	66.82455000	31.99434000
182.49998934	0.00000000	67.57505000	31.61909000
182.69998933	0.00000000	67.95029000	31.57603000
182.89998932	0.00000000	67.99335000	31.57603000
183.09998931	0.00000000	67.99335000	31.57603000
183.29998929	0.00000000	67.95029000	31.57603000
183.49998928	0.00000000	67.57505000	31.57603000
183.69998927	0.00000000	66.87376000	31.57603000
183.89998926	0.00000000	66.82455000	31.57603000
184.09998925	0.00000000	67.15059000	31.61909000
184.29998923	0.00000000	66.78149000	31.99434000
184.49998922	0.00000000	66.49852000	32.73868000
184.69998921	0.00000000	66.78149000	33.06471000
184.89998920	0.00000000	67.15059000	32.73868000
185.09998919	0.00000000	66.82455000	31.99434000
185.29998918	0.00000000	66.87376000	31.61909000
185.49998916	0.00000000	67.57505000	31.57603000
185.69998915	0.00000000	67.95029000	31.57603000
185.89998914	0.00000000	67.99335000	31.57603000
186.09998913	0.00000000	67.99335000	31.57603000
186.29998912	0.00000000	67.99335000	31.57603000
186.49998910	0.00000000	67.95029000	31.57603000
186.69998909	0.00000000	67.61810000	31.57603000
186.89998908	0.00000000	67.20596000	31.61909000
187.09998907	0.00000000	67.19365000	31.99434000
187.29998906	0.00000000	66.78149000	32.73868000
187.49998904	0.00000000	66.49852000	33.11393000
187.69998903	0.00000000	66.78149000	33.15699000
187.89998902	0.00000000	67.15059000	33.15699000
188.09998901	0.00000000	66.82455000	33.15699000
188.29998900	0.00000000	66.87376000	33.11393000
188.49998899	0.00000000	67.57505000	32.73868000
188.69998897	0.00000000	67.95029000	31.99434000
188.89998896	0.00000000	67.99335000	31.61909000
189.09998895	0.00000000	67.99335000	31.57603000
189.29998894	0.00000000	67.99335000	31.57603000
189.49998893	0.00000000	67.99335000	31.61909000
189.69998891	0.00000000	67.99335000	31.99434000
189.89998890	0.00000000	67.99335000	32.73868000
190.09998889	0.00000000	67.99335000	33.11393000
190.29998888	0.00000000	67.99335000	33.15699000
190.49998887	0.00000000	67.99335000	33.15699000
190.69998885	0.00000000	67.99335000	33.15699000
190.89998884	0.00000000	67.99335000	33.15699000
191.09998883	0.00000000	67.99335000	33.15699000
191.29998882	0.00000000	67.99335000	33.15699000
191.49998881	0.00000000	67.99335000	33.15699000
191.69998880	0.00000000	67.99335000	33.15699000
191.89998878	0.00000000	67.99335000	33.15699000
192.09998877	0.00000000	67.99335000	33.15699000
192.29998876	0.00000000	67.99335000	33.15699000
192.49998875	0.00000000	67.99335000	33.15699000
192.69998874	0.00000000	67.99335000	33.15699000
192.89998872	0.00000000	67.99335000	33.15699000
193.09998871	0.00000000	67.99335000	33.15699000
193.29998870	0.00000000	67.99335000	33.15699000
193.49998869	0.00000000	67.99335000	33.15699000
193.69998868	0.00000000	67.95029000	33.15699000
193.89998866	0.00000000	67.61810000	33.15699000
194.09998865	0.00000000	67.24901000	33.15699000
194.29998864	0.00000000	67.61810000	33.15699000
194.49998863	0.00000000	67.95029000	33.15699000
194.69998862	0.00000000	67.99335000	33.15699000
194.89998861	0.00000000	67.99335000	33.15699000
195.09998859	0.00000000	67.99335000	33.15699000
195.29998858	0.00000000	67.99335000	33.15699000
195.49998857	0.00000000	67.99335000	33.11393000
195.69998856	0.00000000	67.95029000	32.73868000
195.89998855	0.00000000	67.61810000	32.04355000
196.09998853	0.00000000	67.24901000	31.99434000
