Time	Channel A	Channel B	Channel C
(us)	(V)	(mV)	(mV)

-4.53333289	0.00000000	-15.80955000	-9.47342500
-4.33333290	0.00000000	-15.80955000	-9.47342500
-4.13333291	0.00000000	-15.80955000	-9.47342500
-3.93333293	0.00000000	-15.80955000	-9.47342500
-3.73333294	0.00000000	-15.80955000	-9.47342500
-3.53333295	0.00000000	-15.80955000	-9.51648500
-3.33333296	0.00000000	-15.80955000	-9.89173200
-3.13333297	0.00000000	-15.80955000	-10.58686000
-2.93333299	0.00000000	-15.80955000	-10.58686000
-2.73333300	0.00000000	-15.80955000	-9.89173200
-2.53333301	0.00000000	-15.80955000	-9.51648500
-2.33333302	0.00000000	-15.80955000	-9.47342500
-2.13333303	0.00000000	-15.80955000	-9.47342500
-1.93333304	0.00000000	-15.80955000	-9.47342500
-1.73333306	0.00000000	-15.80955000	-9.47342500
-1.53333307	0.00000000	-15.80955000	-9.47342500
-1.33333308	0.00000000	-15.80955000	-9.47342500
-1.13333309	0.00000000	-15.80955000	-9.47342500
-0.93333310	0.00000000	-15.80955000	-9.47342500
-0.73333312	0.00000000	-15.80955000	-9.47342500
-0.53333313	0.00000000	-15.80955000	-9.47342500
-0.33333314	0.15871060	-15.80955000	-9.47342500
-0.13333315	0.47736220	-15.80955000	-9.47342500
0.06666684	0.95533960	-15.80955000	-9.47342500
0.26666682	0.95533960	-15.80955000	-9.47342500
0.46666681	0.95533960	-15.80955000	-9.47342500
0.66666680	0.47736220	-15.80955000	-9.47342500
0.86666679	-0.15871060	-15.80955000	-9.47342500
1.06666678	-1.27399100	-15.80955000	-9.47342500
1.26666677	-2.22994600	-15.80955000	-9.47342500
1.46666675	-2.70792300	-15.80955000	-9.47342500
1.66666674	-2.54859700	-15.80955000	-9.47342500
1.86666673	-1.75196900	-15.80955000	-9.47342500
2.06666672	0.00000000	-15.80955000	-9.47342500
2.26666671	2.07062000	-15.80955000	-9.47342500
2.46666669	3.98191400	-15.80955000	-9.47342500
2.66666668	5.25652100	-15.80955000	-9.51648500
2.86666667	5.09719500	-15.80955000	-9.89173200
3.06666666	3.50393700	-15.80955000	-10.62992000
3.26666665	0.79601380	-15.80955000	-11.00517000
3.46666663	-2.54859700	-15.80955000	-11.00517000
3.66666662	-5.73449800	-15.80955000	-10.62992000
3.86666661	-7.64579200	-15.80955000	-9.89173200
4.06666660	-7.80511800	-15.80955000	-9.51648500
4.26666659	-5.73449800	-15.76649000	-9.47342500
4.46666658	-2.22994600	-15.43430000	-9.47342500
4.66666656	2.22994600	-15.06521000	-9.47342500
4.86666655	6.21247500	-15.43430000	-9.51648500
5.06666654	8.92039900	-15.76649000	-9.89173200
5.26666653	9.39837600	-15.80955000	-10.62992000
5.46666652	7.48646600	-15.80955000	-11.00517000
5.66666650	3.66326300	-15.80955000	-11.04823000
5.86666649	-1.11466500	-15.80955000	-11.04823000
6.06666648	-5.57517200	-15.80955000	-11.00517000
6.26666647	-8.60174700	-15.80955000	-10.62992000
6.46666646	-9.39837600	-15.80955000	-9.89173200
6.66666644	-7.96444400	-15.80955000	-9.51648500
6.86666643	-4.61921700	-15.80955000	-9.47342500
7.06666642	-0.15871060	-15.80955000	-9.47342500
7.26666641	3.98191400	-15.80955000	-9.47342500
7.46666640	6.69045300	-15.80955000	-9.47342500
7.66666639	7.80511800	-15.80955000	-9.51648500
7.86666637	6.84916400	-15.80955000	-9.84867000
8.06666636	4.30056600	-15.80955000	-10.21161000
8.26666635	0.95533960	-15.80955000	-9.84867000
8.46666634	-2.07062000	-15.80955000	-9.56569900
8.66666633	-4.30056600	-15.80955000	-9.84867000
8.86666631	-5.25652100	-15.80955000	-10.21161000
9.06666630	-4.77854300	-15.80955000	-9.84867000
9.26666629	-3.18590100	-15.80955000	-9.51648500
9.46666628	-1.27399100	-15.80955000	-9.47342500
9.66666627	0.63668800	-15.80955000	-9.47342500
9.86666625	1.91129400	-15.80955000	-9.47342500
10.06666624	2.54859700	-15.85261000	-9.47342500
10.26666623	2.38927200	-16.18479000	-9.47342500
10.46666622	1.59264300	-16.55389000	-9.47342500
10.66666621	0.79601380	-16.18479000	-9.47342500
10.86666620	0.00000000	-15.85261000	-9.47342500
11.06666618	-0.63668800	-15.80955000	-9.47342500
11.26666617	-0.95533960	-15.80955000	-9.51648500
11.46666616	-0.95533960	-15.80955000	-9.84867000
11.66666615	-0.79601380	-15.80955000	-10.21161000
11.86666614	-0.47736220	-15.80955000	-9.84867000
12.06666612	-0.15871060	-15.80955000	-9.51648500
12.26666611	-0.15871060	-15.80955000	-9.47342500
12.46666610	0.00000000	-15.80955000	-9.47342500
12.66666609	0.00000000	-15.80955000	-9.47342500
12.86666608	0.00000000	-15.80955000	-9.47342500
13.06666606	0.00000000	-15.80955000	-9.47342500
13.26666605	0.00000000	-15.80955000	-9.47342500
13.46666604	0.00000000	-15.80955000	-9.47342500
13.66666603	0.00000000	-15.80955000	-9.47342500
13.86666602	0.00000000	-15.80955000	-9.47342500
14.06666601	-0.15871060	-15.80955000	-9.47342500
14.26666599	-0.15871060	-15.80955000	-9.47342500
14.46666598	-0.15871060	-15.80955000	-9.47342500
14.66666597	-0.15871060	-15.80955000	-9.47342500
14.86666596	0.00000000	-15.80955000	-9.47342500
15.06666595	0.00000000	-15.80955000	-9.47342500
15.26666593	0.00000000	-15.80955000	-9.51648500
15.46666592	0.00000000	-15.80955000	-9.84867000
15.66666591	0.00000000	-15.80955000	-10.21161000
15.86666590	0.00000000	-15.80955000	-9.84867000
16.06666589	0.00000000	-15.80955000	-9.51648500
16.26666587	0.00000000	-15.80955000	-9.47342500
16.46666586	0.00000000	-15.80955000	-9.47342500
16.66666585	-0.15871060	-15.76649000	-9.47342500
16.86666584	0.00000000	-15.39124000	-9.47342500
17.06666583	0.00000000	-14.64690000	-9.47342500
17.26666582	0.00000000	-14.27165000	-9.47342500
17.46666580	0.00000000	-14.22859000	-9.47342500
17.66666579	0.00000000	-14.22859000	-9.47342500
17.86666578	0.00000000	-14.27165000	-9.47342500
18.06666577	0.00000000	-14.69611000	-9.47342500
18.26666576	0.00000000	-15.85261000	-9.47342500
18.46666574	0.00000000	-17.39050000	-9.47342500
18.66666573	0.00000000	-18.97145000	-9.47342500
18.86666572	0.00000000	-20.46014000	-9.47342500
19.06666571	-0.15871060	-21.20448000	-9.47342500
19.26666570	0.00000000	-20.37401000	-9.47342500
19.46666568	0.00000000	-18.08563000	-9.47342500
19.66666567	0.00000000	-14.56078000	-9.47342500
19.86666566	0.00000000	-10.69144000	-9.47342500
20.06666565	0.00000000	-6.83439900	-9.47342500
20.26666564	0.00000000	-4.22613100	-9.47342500
20.46666563	0.00000000	-4.26919300	-9.47342500
20.66666561	0.00000000	-7.38804100	-9.47342500
20.86666560	0.00000000	-13.20128000	-9.47342500
21.06666559	0.00000000	-20.55241000	-9.51648500
21.26666558	0.00000000	-27.90354000	-9.84867000
21.46666557	0.00000000	-33.67372000	-10.21161000
21.66666555	0.00000000	-36.33120000	-9.84867000
21.86666554	0.00000000	-34.65797000	-9.51648500
22.06666553	0.00000000	-28.04503000	-9.51648500
22.26666552	0.00000000	-17.21210000	-9.84867000
22.46666551	0.00000000	-4.83513700	-10.21161000
22.66666549	0.00000000	6.74827700	-9.84867000
22.86666548	0.00000000	14.70842000	-9.51648500
23.06666547	0.00000000	15.82185000	-9.47342500
23.26666546	0.00000000	9.22121000	-9.43036400
23.46666545	0.00000000	-3.57406500	-9.05511800
23.66666544	0.00000000	-20.64468000	-8.31077700
23.86666542	0.00000000	-38.33046000	-7.93553100
24.06666541	0.00000000	-52.18996000	-7.93553100
24.26666540	0.00000000	-58.33538000	-8.31077700
24.46666539	0.00000000	-55.17347000	-9.14124000
24.66666538	0.00000000	-42.74729000	-10.31004000
24.86666536	0.00000000	-23.02534000	-12.25394000
25.06666535	0.00000000	-0.64591530	-14.11786000
25.26666534	0.00000000	19.40822000	-15.27436000
25.46666533	0.00000000	32.11122000	-15.27436000
25.66666532	0.00000000	33.97514000	-14.11786000
25.86666530	0.00000000	24.33563000	-12.11860000
26.06666529	0.00000000	4.98892600	-8.96284400
26.26666528	0.00000000	-19.30364000	-4.77977300
26.46666527	0.00000000	-43.30709000	-0.92888770
26.66666526	0.00000000	-61.41117000	1.35334600
26.86666525	0.00000000	-69.50664000	1.71628900
27.06666523	0.00000000	-65.22514000	-0.68897630
27.26666522	0.00000000	-49.45251000	-5.70866100
27.46666521	0.00000000	-26.32259000	-12.72146000
27.66666520	0.00000000	-1.57480300	-20.39247000
27.86666519	0.00000000	19.31594000	-26.93774000
28.06666517	0.00000000	32.11122000	-30.33341000
28.26666516	0.00000000	34.06742000	-29.53986000
28.46666515	0.00000000	25.17839000	-24.06496000
28.66666514	0.00000000	7.44955700	-14.76993000
28.86666513	0.00000000	-14.92987000	-3.15575800
29.06666511	0.00000000	-36.19587000	8.36614100
29.26666510	0.00000000	-52.14690000	16.81841000
29.46666509	0.00000000	-59.87328000	19.88804000
29.66666508	0.00000000	-58.00320000	16.77534000
29.86666507	0.00000000	-47.21333000	7.76943800
30.06666506	0.00000000	-30.60408000	-6.17618100
30.26666504	0.00000000	-11.66339000	-22.66855000
30.46666503	0.00000000	5.30880900	-36.92790000
30.66666502	0.00000000	16.24631000	-45.43553000
30.86666501	0.00000000	19.82652000	-46.96727000
31.06666500	0.00000000	16.33243000	-40.32357000
31.26666498	0.00000000	6.28690900	-26.85162000
31.46666497	0.00000000	-7.99704600	-9.43036400
31.66666496	0.00000000	-23.02534000	8.32308000
31.86666495	0.00000000	-35.44537000	22.58243000
32.06666494	0.00000000	-42.47662000	29.92126000
32.26666492	0.00000000	-43.68233000	28.80782000
32.46666491	0.00000000	-39.02559000	19.88804000
32.66666490	0.00000000	-29.44143000	4.78592500
32.86666489	0.00000000	-17.85802000	-13.69956000
33.06666488	0.00000000	-6.96973400	-31.07775000
33.26666487	0.00000000	1.54404500	-43.48548000
33.46666485	0.00000000	5.73326700	-48.91732000
33.66666484	0.00000000	4.28764700	-46.22293000
33.86666483	0.00000000	-1.85162400	-36.18971000
34.06666482	0.00000000	-10.32234000	-21.13066000
34.26666481	0.00000000	-19.62352000	-4.08464600
34.46666479	0.00000000	-27.25763000	11.34350000
34.66666478	0.00000000	-31.20694000	22.12106000
34.86666477	0.00000000	-30.83784000	25.23376000
35.06666476	0.00000000	-27.01772000	20.30635000
35.26666475	0.00000000	-20.46014000	9.52263600
35.46666473	0.00000000	-13.20128000	-4.82898600
35.66666472	0.00000000	-7.43110200	-19.83883000
35.86666471	0.00000000	-4.69365100	-32.14813000
36.06666470	0.00000000	-5.38877900	-38.33046000
36.26666469	0.00000000	-8.50147600	-37.30315000
36.46666468	0.00000000	-13.53346000	-30.38263000
36.66666466	0.00000000	-19.62352000	-19.54970000
36.86666465	0.00000000	-24.23105000	-6.87130900
37.06666464	0.00000000	-26.18725000	4.23228400
37.26666463	0.00000000	-25.43676000	10.41462000
37.46666462	0.00000000	-21.99803000	10.50074000
37.66666460	0.00000000	-17.39050000	5.11811000
37.86666459	0.00000000	-12.69070000	-4.08464600
38.06666458	0.00000000	-8.50147600	-14.81299000
38.26666457	0.00000000	-6.18233200	-23.55438000
38.46666456	0.00000000	-6.55142700	-27.45448000
38.66666454	0.00000000	-8.83366100	-25.55364000
38.86666453	0.00000000	-12.73991000	-19.08834000
39.06666452	0.00000000	-17.34744000	-9.89173200
39.26666451	0.00000000	-21.62278000	-1.10728300
39.46666450	0.00000000	-24.69857000	4.69365100
39.66666449	0.00000000	-25.90428000	6.18848400
39.86666447	0.00000000	-25.15994000	2.70054100
40.06666446	0.00000000	-23.20374000	-5.33341500
40.26666445	0.00000000	-20.04183000	-15.28051000
40.46666444	0.00000000	-15.80955000	-24.06496000
40.66666443	0.00000000	-11.57726000	-29.07849000
40.86666441	0.00000000	-8.45841400	-28.71555000
41.06666440	0.00000000	-6.87746000	-23.73892000
41.26666439	0.00000000	-6.87746000	-15.23130000
41.46666438	0.00000000	-8.41535400	-5.24729300
41.66666437	0.00000000	-11.15896000	3.53715500
41.86666435	0.00000000	-14.64690000	8.55068800
42.06666434	0.00000000	-18.50394000	8.18774500
42.26666433	0.00000000	-21.62278000	3.25418300
42.46666432	0.00000000	-23.57899000	-4.87204700
42.66666431	0.00000000	-24.36639000	-14.03174000
42.86666430	0.00000000	-23.57899000	-21.78272000
43.06666428	0.00000000	-21.66585000	-26.01501000
43.26666427	0.00000000	-18.97145000	-26.47638000
43.46666426	0.00000000	-16.27707000	-22.99459000
43.66666425	0.00000000	-14.32087000	-16.94759000
43.86666424	0.00000000	-13.11516000	-10.31004000
44.06666422	0.00000000	-12.69070000	-4.49680100
44.26666421	0.00000000	-12.64764000	0.09227362
44.46666420	0.00000000	-12.64764000	1.58710600
44.66666419	0.00000000	-12.64764000	-0.55364170
44.86666418	0.00000000	-12.64764000	-4.36146600
45.06666416	0.00000000	-12.73991000	-8.26771600
45.26666415	0.00000000	-13.53346000	-12.16166000
45.46666414	0.00000000	-15.47736000	-15.23130000
45.66666413	0.00000000	-17.76575000	-16.81225000
45.86666412	0.00000000	-20.17716000	-16.81225000
46.06666411	0.00000000	-22.50861000	-15.27436000
46.26666409	0.00000000	-24.82775000	-12.62918000
46.46666408	0.00000000	-26.23031000	-9.93479300
46.66666407	0.00000000	-25.43676000	-7.93553100
46.86666406	0.00000000	-21.95497000	-6.40378900
47.06666405	0.00000000	-16.92298000	-5.66560000
47.26666403	0.00000000	-11.06668000	-6.40378900
47.46666402	0.00000000	-5.33956700	-7.93553100
47.66666401	0.00000000	-1.53174200	-9.93479300
47.86666400	0.00000000	-1.15649600	-12.62918000
48.06666399	0.00000000	-4.26919300	-15.27436000
48.26666397	0.00000000	-10.45768000	-16.81225000
48.46666396	0.00000000	-18.59621000	-16.81225000
48.66666395	0.00000000	-26.69783000	-15.27436000
48.86666394	0.00000000	-33.21235000	-12.58612000
49.06666393	0.00000000	-35.86368000	-9.47342500
49.26666392	0.00000000	-33.58760000	-6.40378900
49.46666390	0.00000000	-27.39296000	-4.08464600
49.66666389	0.00000000	-18.50394000	-3.33415300
49.86666388	0.00000000	-8.87672100	-4.12770700
50.06666387	0.00000000	-1.15649600	-6.82209600
50.26666386	0.00000000	3.08193900	-10.62992000
50.46666384	0.00000000	2.61441900	-14.16092000
50.66666383	0.00000000	-3.11269700	-17.27977000
50.86666382	0.00000000	-12.27239000	-19.50664000
51.06666381	0.00000000	-21.53666000	-19.46358000
51.26666380	0.00000000	-28.93085000	-16.81225000
51.46666379	0.00000000	-33.16929000	-12.62918000
51.66666377	0.00000000	-33.12008000	-8.35998900
51.86666376	0.00000000	-28.55561000	-4.87204700
52.06666375	0.00000000	-20.88459000	-2.54675200
52.26666374	0.00000000	-12.82603000	-2.17150600
52.46666373	0.00000000	-6.22539300	-3.70939900
52.66666371	0.00000000	-2.82357300	-6.82209600
52.86666370	0.00000000	-3.53100400	-11.00517000
53.06666369	0.00000000	-8.13238100	-14.85605000
53.26666368	0.00000000	-14.64690000	-17.18750000
53.46666367	0.00000000	-21.57972000	-17.97490000
53.66666365	0.00000000	-26.92544000	-16.81225000
53.86666364	0.00000000	-28.88164000	-14.16092000
54.06666363	0.00000000	-27.34990000	-11.14050000
54.26666362	0.00000000	-22.74237000	-8.82135800
54.46666361	0.00000000	-16.27707000	-8.02780400
54.66666360	0.00000000	-10.54995000	-8.40305000
54.86666358	0.00000000	-7.38804100	-9.89173200
55.06666357	0.00000000	-6.96973400	-11.79257000
55.26666356	0.00000000	-8.92593500	-12.96137000
55.46666355	0.00000000	-13.15822000	-13.69956000
55.66666354	0.00000000	-18.50394000	-13.28125000
55.86666352	0.00000000	-23.16068000	-11.38041000
56.06666351	0.00000000	-26.23031000	-9.14124000
56.26666350	0.00000000	-26.97465000	-7.19734200
56.46666349	0.00000000	-24.69857000	-6.44685000
56.66666348	0.00000000	-20.50935000	-6.86515700
56.86666346	0.00000000	-15.85261000	-8.86441900
57.06666345	0.00000000	-11.62032000	-12.67224000
57.26666344	0.00000000	-8.96899500	-16.85531000
57.46666343	0.00000000	-8.92593500	-19.88189000
57.66666342	0.00000000	-11.20202000	-20.66929000
57.86666341	0.00000000	-14.60384000	-18.71924000
58.06666339	0.00000000	-18.13484000	-14.85605000
58.26666338	0.00000000	-20.83538000	-9.42421200
58.46666337	0.00000000	-22.78543000	-3.70939900
58.66666336	0.00000000	-23.11762000	0.51673230
58.86666335	0.00000000	-21.66585000	2.00541300
59.06666333	0.00000000	-19.34670000	0.09227362
59.26666332	0.00000000	-17.05832000	-4.91510800
59.46666331	0.00000000	-15.11442000	-11.47269000
59.66666330	0.00000000	-14.32087000	-18.39321000
59.86666329	0.00000000	-14.27165000	-23.78199000
60.06666327	0.00000000	-14.69611000	-26.06422000
60.26666326	0.00000000	-15.85261000	-24.89542000
60.46666325	0.00000000	-17.29823000	-19.83883000
60.66666324	0.00000000	-18.08563000	-12.21087000
60.86666323	0.00000000	-17.76575000	-4.12770700
61.06666322	0.00000000	-17.39050000	2.04847400
61.26666320	0.00000000	-16.97219000	5.11195900
61.46666319	0.00000000	-16.22785000	4.32455700
61.66666318	0.00000000	-15.85261000	-0.64591530
61.86666317	0.00000000	-15.85261000	-7.93553100
62.06666316	0.00000000	-16.27707000	-15.69882000
62.26666314	0.00000000	-17.43356000	-22.61934000
62.46666313	0.00000000	-18.92839000	-26.80241000
62.66666312	0.00000000	-20.08489000	-26.84547000
62.86666311	0.00000000	-20.46014000	-23.03765000
63.06666310	0.00000000	-20.04183000	-16.85531000
63.26666308	0.00000000	-18.50394000	-9.51648500
63.46666307	0.00000000	-16.27707000	-2.59596400
63.66666306	0.00000000	-14.69611000	2.04847400
63.86666305	0.00000000	-13.85334000	3.62942900
64.06666304	0.00000000	-13.11516000	2.04847400
64.26666303	0.00000000	-13.20128000	-2.55290300
64.46666301	0.00000000	-14.69611000	-9.05511800
64.66666300	0.00000000	-16.97219000	-15.23130000
64.86666299	0.00000000	-18.92839000	-19.92495000
65.06666298	0.00000000	-20.50935000	-22.66855000
65.26666297	0.00000000	-21.57972000	-23.03765000
65.46666295	0.00000000	-21.20448000	-21.13066000
65.66666294	0.00000000	-19.34670000	-17.27362000
65.86666293	0.00000000	-17.43356000	-12.67224000
66.06666292	0.00000000	-15.85261000	-8.40305000
66.26666291	0.00000000	-14.73917000	-5.29035400
66.46666289	0.00000000	-14.73917000	-3.66633800
66.66666288	0.00000000	-15.85261000	-3.24803100
66.86666287	0.00000000	-17.39050000	-3.66633800
67.06666286	0.00000000	-18.92839000	-5.19808000
67.26666285	0.00000000	-20.04183000	-7.51722400
67.46666284	0.00000000	-20.04183000	-9.89173200
67.66666282	0.00000000	-18.87918000	-12.67224000
67.86666281	0.00000000	-16.97219000	-15.78494000
68.06666280	0.00000000	-14.64690000	-18.85458000
68.26666279	0.00000000	-12.78297000	-21.13066000
68.46666278	0.00000000	-11.99557000	-21.50590000
68.66666276	0.00000000	-12.82603000	-20.01722000
68.86666275	0.00000000	-15.15748000	-17.27977000
69.06666274	0.00000000	-19.01451000	-13.69956000
69.26666273	0.00000000	-23.20374000	-9.05511800
69.46666272	0.00000000	-26.27953000	-4.12770700
69.66666270	0.00000000	-27.43602000	-1.06422200
69.86666269	0.00000000	-26.23031000	-0.59670270
70.06666268	0.00000000	-22.78543000	-2.17765700
70.26666267	0.00000000	-17.76575000	-5.66560000
70.46666266	0.00000000	-12.73991000	-10.67298000
70.66666265	0.00000000	-8.45841400	-15.69882000
70.86666263	0.00000000	-5.85014700	-19.97416000
71.06666262	0.00000000	-6.27460600	-22.66855000
71.26666261	0.00000000	-10.03937000	-22.99459000
71.46666260	0.00000000	-15.43430000	-20.75541000
71.66666259	0.00000000	-20.92766000	-16.49237000
71.86666257	0.00000000	-26.32259000	-11.83563000
72.06666256	0.00000000	-30.13656000	-6.82209600
72.26666255	0.00000000	-30.93012000	-3.10039400
72.46666254	0.00000000	-29.01698000	-2.63902500
72.66666253	0.00000000	-24.74163000	-4.77977300
72.86666251	0.00000000	-18.92839000	-7.51722400
73.06666250	0.00000000	-12.78297000	-10.26698000
73.26666249	0.00000000	-7.76328700	-13.32431000
73.46666248	0.00000000	-5.43184000	-15.18824000
73.66666247	0.00000000	-5.80708600	-15.27436000
73.86666246	0.00000000	-8.87672100	-14.16092000
74.06666244	0.00000000	-13.89641000	-12.62918000
74.26666243	0.00000000	-19.30364000	-11.14050000
74.46666242	0.00000000	-24.32333000	-10.35310000
74.66666241	0.00000000	-27.39296000	-10.76525000
74.86666240	0.00000000	-27.86048000	-11.88484000
75.06666238	0.00000000	-26.32259000	-13.79183000
75.26666237	0.00000000	-23.24680000	-15.23130000
75.46666236	0.00000000	-19.38976000	-15.27436000
75.66666235	0.00000000	-15.90182000	-14.07480000
75.86666234	0.00000000	-13.20128000	-11.74951000
76.06666232	0.00000000	-12.03863000	-8.31077700
76.26666231	0.00000000	-12.73991000	-5.24729300
76.46666230	0.00000000	-14.27165000	-3.33415300
76.66666229	0.00000000	-16.18479000	-3.01427100
76.86666228	0.00000000	-18.13484000	-5.33341500
77.06666227	0.00000000	-19.30364000	-9.56569900
77.26666225	0.00000000	-20.08489000	-14.58538000
77.46666224	0.00000000	-20.08489000	-19.55585000
77.66666223	0.00000000	-19.38976000	-22.61934000
77.86666222	0.00000000	-19.01451000	-23.03765000
78.06666221	0.00000000	-19.01451000	-21.08760000
78.26666219	0.00000000	-19.38976000	-16.81225000
78.46666218	0.00000000	-20.13410000	-11.04823000
78.66666217	0.00000000	-20.46014000	-5.29035400
78.86666216	0.00000000	-20.08489000	-1.06422200
79.06666215	0.00000000	-18.92839000	0.51673230
79.26666213	0.00000000	-17.39050000	-0.59670270
79.46666212	0.00000000	-15.85261000	-3.70939900
79.66666211	0.00000000	-14.64690000	-8.35998900
79.86666210	0.00000000	-13.89641000	-13.74262000
80.06666209	0.00000000	-13.53346000	-18.39321000
80.26666208	0.00000000	-14.40699000	-21.50590000
80.46666206	0.00000000	-16.64616000	-22.66240000
80.66666205	0.00000000	-19.71580000	-21.50590000
80.86666204	0.00000000	-21.99803000	-18.47933000
81.06666203	0.00000000	-23.24680000	-14.62844000
81.26666202	0.00000000	-23.57899000	-11.09744000
81.46666200	0.00000000	-22.78543000	-7.93553100
81.66666199	0.00000000	-20.46014000	-5.24729300
81.86666198	0.00000000	-17.43356000	-3.70939900
82.06666197	0.00000000	-14.73917000	-3.70939900
82.26666196	0.00000000	-13.20128000	-5.24729300
82.46666194	0.00000000	-13.15822000	-7.93553100
82.66666193	0.00000000	-14.32087000	-11.00517000
82.86666192	0.00000000	-16.22785000	-13.79183000
83.06666191	0.00000000	-18.55315000	-16.16018000
83.26666190	0.00000000	-20.46014000	-18.47933000
83.46666189	0.00000000	-21.66585000	-19.97416000
83.66666187	0.00000000	-22.04109000	-20.01722000
83.86666186	0.00000000	-21.66585000	-18.81152000
84.06666185	0.00000000	-20.50935000	-16.48622000
84.26666184	0.00000000	-19.01451000	-12.96137000
84.46666183	0.00000000	-17.85802000	-9.14124000
84.66666181	0.00000000	-17.43356000	-5.61638700
84.86666180	0.00000000	-17.39050000	-3.33415300
85.06666179	0.00000000	-17.43356000	-2.59596400
85.26666178	0.00000000	-17.76575000	-4.12770700
85.46666177	0.00000000	-18.13484000	-7.60949800
85.66666175	0.00000000	-17.76575000	-11.84178000
85.86666174	0.00000000	-17.43356000	-16.48622000
86.06666173	0.00000000	-17.39050000	-19.97416000
86.26666172	0.00000000	-17.43356000	-21.92421000
86.46666171	0.00000000	-17.80881000	-22.24409000
86.66666170	0.00000000	-18.59621000	-19.88189000
86.86666168	0.00000000	-19.38976000	-15.36663000
87.06666167	0.00000000	-20.55241000	-10.31004000
87.26666166	0.00000000	-21.62278000	-6.07160400
87.46666165	0.00000000	-21.62278000	-2.96505900
87.66666164	0.00000000	-20.50935000	-2.26377900
87.86666162	0.00000000	-18.97145000	-4.12770700
88.06666161	0.00000000	-17.43356000	-7.98474400
88.26666160	0.00000000	-16.27707000	-12.58612000
88.46666159	0.00000000	-15.85261000	-16.85531000
88.66666158	0.00000000	-15.85261000	-19.92495000
88.86666156	0.00000000	-16.27707000	-21.04454000
89.06666155	0.00000000	-17.43356000	-19.50664000
89.26666154	0.00000000	-18.97145000	-15.69882000
89.46666153	0.00000000	-20.50935000	-11.09129000
89.66666152	0.00000000	-21.66585000	-6.82209600
89.86666151	0.00000000	-22.04109000	-3.75246000
90.06666149	0.00000000	-21.66585000	-2.63902500
90.26666148	0.00000000	-20.50935000	-4.17076700
90.46666147	0.00000000	-19.01451000	-8.02780400
90.66666146	0.00000000	-17.80881000	-12.96137000
90.86666145	0.00000000	-17.05832000	-17.55659000
91.06666143	0.00000000	-16.64616000	-19.88189000
91.26666142	0.00000000	-17.01525000	-19.97416000
91.46666141	0.00000000	-17.39050000	-18.35015000
91.66666140	0.00000000	-17.80881000	-14.85605000
91.86666139	0.00000000	-18.55315000	-9.93479300
92.06666137	0.00000000	-18.92839000	-5.75172200
92.26666136	0.00000000	-18.97145000	-3.75246000
92.46666135	0.00000000	-18.97145000	-3.75246000
92.66666134	0.00000000	-18.97145000	-5.70866100
92.86666133	0.00000000	-19.01451000	-9.56569900
93.06666132	0.00000000	-19.43897000	-14.11786000
93.26666130	0.00000000	-20.55241000	-17.97490000
93.46666129	0.00000000	-21.62278000	-19.88189000
93.66666128	0.00000000	-21.66585000	-19.55585000
93.86666127	0.00000000	-20.88459000	-17.23056000
94.06666126	0.00000000	-19.71580000	-13.74262000
94.26666124	0.00000000	-17.76575000	-9.51648500
94.46666123	0.00000000	-15.85261000	-5.75172200
94.66666122	0.00000000	-14.32087000	-4.21998000
94.86666121	0.00000000	-13.53346000	-5.29035400
95.06666120	0.00000000	-13.94562000	-7.98474400
95.26666118	0.00000000	-15.11442000	-11.46653000
95.46666117	0.00000000	-17.48277000	-15.27436000
95.66666116	0.00000000	-20.55241000	-17.97490000
95.86666115	0.00000000	-23.62205000	-18.76845000
96.06666114	0.00000000	-25.90428000	-18.01796000
96.26666113	0.00000000	-26.27953000	-15.69882000
96.46666111	0.00000000	-24.78469000	-12.67224000
96.66666110	0.00000000	-22.04109000	-9.93479300
96.86666109	0.00000000	-18.55315000	-8.02780400
97.06666108	0.00000000	-14.69611000	-7.24040300
97.26666107	0.00000000	-11.62032000	-8.02780400
97.46666105	0.00000000	-10.08243000	-9.93479300
97.66666104	0.00000000	-10.45768000	-12.58612000
97.86666103	0.00000000	-12.78297000	-14.85605000
98.06666102	0.00000000	-16.22785000	-15.69267000
98.26666101	0.00000000	-20.13410000	-15.74188000
98.46666099	0.00000000	-23.62205000	-15.32357000
98.66666098	0.00000000	-26.36565000	-14.21014000
98.86666097	0.00000000	-27.86048000	-13.04749000
99.06666096	0.00000000	-27.43602000	-12.25394000
99.26666095	0.00000000	-24.78469000	-11.42347000
99.46666094	0.00000000	-20.97072000	-10.72219000
99.66666092	0.00000000	-17.43356000	-10.31004000
99.86666091	0.00000000	-14.32087000	-10.67298000
100.06666090	0.00000000	-12.03863000	-11.00517000
100.26666089	0.00000000	-11.62032000	-11.00517000
100.46666088	0.00000000	-12.73991000	-10.67298000
100.66666086	0.00000000	-14.69611000	-10.31004000
100.86666085	0.00000000	-17.43356000	-10.72219000
101.06666084	0.00000000	-20.50935000	-11.46653000
101.26666083	0.00000000	-23.24680000	-12.72146000
101.46666082	0.00000000	-25.15994000	-14.58538000
101.66666080	0.00000000	-25.94734000	-16.48622000
101.86666079	0.00000000	-25.15994000	-17.23056000
102.06666078	0.00000000	-23.29601000	-16.85531000
102.26666077	0.00000000	-20.92766000	-15.27436000
102.46666076	0.00000000	-18.59621000	-12.58612000
102.66666075	0.00000000	-16.27707000	-9.55954600
102.86666073	0.00000000	-14.73917000	-7.24040300
103.06666072	0.00000000	-14.32087000	-6.44685000
103.26666071	0.00000000	-14.69611000	-6.82209600
103.46666070	0.00000000	-15.90182000	-8.40305000
103.66666069	0.00000000	-17.80881000	-11.09744000
103.86666067	0.00000000	-20.13410000	-14.16092000
104.06666066	0.00000000	-22.09030000	-16.90453000
104.26666065	0.00000000	-23.57899000	-18.76845000
104.46666064	0.00000000	-23.99114000	-19.13140000
104.66666063	0.00000000	-22.88386000	-17.23056000
104.86666061	0.00000000	-21.75812000	-14.21014000
105.06666060	0.00000000	-20.50935000	-11.09744000
105.26666059	0.00000000	-19.01451000	-8.40305000
105.46666058	0.00000000	-17.85802000	-6.86515700
105.66666057	0.00000000	-17.43356000	-6.82209600
105.86666056	0.00000000	-17.43356000	-7.98474400
106.06666054	0.00000000	-17.85802000	-9.89173200
106.26666053	0.00000000	-18.97145000	-12.21087000
106.46666052	0.00000000	-20.08489000	-14.11786000
106.66666051	0.00000000	-20.50935000	-15.32357000
106.86666050	0.00000000	-20.50935000	-15.64960000
107.06666048	0.00000000	-20.13410000	-14.90526000
107.26666047	0.00000000	-19.34670000	-13.00443000
107.46666046	0.00000000	-18.63927000	-11.14050000
107.66666045	0.00000000	-18.18405000	-9.93479300
107.86666044	0.00000000	-18.22096000	-9.56569900
108.06666042	0.00000000	-18.22711000	-9.93479300
108.26666041	0.00000000	-19.01451000	-11.09744000
108.46666040	0.00000000	-20.13410000	-12.62918000
108.66666039	0.00000000	-20.92766000	-14.16092000
108.86666038	0.00000000	-21.66585000	-15.27436000
109.06666037	0.00000000	-21.66585000	-15.27436000
109.26666035	0.00000000	-20.92766000	-14.21014000
109.46666034	0.00000000	-20.13410000	-13.00443000
109.66666033	0.00000000	-18.92839000	-11.83563000
109.86666032	0.00000000	-17.43356000	-10.31004000
110.06666031	0.00000000	-16.32013000	-9.56569900
110.26666029	0.00000000	-16.32013000	-9.51648500
110.46666028	0.00000000	-17.43356000	-9.93479300
110.66666027	0.00000000	-18.92839000	-11.09744000
110.86666026	0.00000000	-20.13410000	-12.62918000
111.06666025	0.00000000	-20.92766000	-14.16092000
111.26666023	0.00000000	-21.71506000	-15.32357000
111.46666022	0.00000000	-22.04109000	-15.69267000
111.66666021	0.00000000	-21.71506000	-15.36663000
111.86666020	0.00000000	-20.92766000	-14.58538000
112.06666019	0.00000000	-20.17716000	-13.83489000
112.26666018	0.00000000	-19.34670000	-13.00443000
112.46666016	0.00000000	-18.63927000	-12.25394000
112.66666015	0.00000000	-18.22711000	-11.46653000
112.86666014	0.00000000	-18.59621000	-11.09129000
113.06666013	0.00000000	-18.97145000	-11.04823000
113.26666012	0.00000000	-19.38976000	-11.09129000
113.46666010	0.00000000	-20.13410000	-11.46653000
113.66666009	0.00000000	-20.50935000	-12.21087000
113.86666008	0.00000000	-20.55241000	-12.62918000
114.06666007	0.00000000	-20.55241000	-13.04749000
114.26666006	0.00000000	-20.55241000	-13.79183000
114.46666004	0.00000000	-20.55241000	-14.16708000
114.66666003	0.00000000	-20.50935000	-14.21014000
114.86666002	0.00000000	-20.13410000	-14.21014000
115.06666001	0.00000000	-19.38976000	-14.21014000
115.26666000	0.00000000	-19.01451000	-14.21014000
115.46665999	0.00000000	-19.01451000	-14.16708000
115.66665997	0.00000000	-19.38976000	-13.79183000
115.86665996	0.00000000	-20.13410000	-13.00443000
116.06665995	0.00000000	-20.50935000	-12.25394000
116.26665994	0.00000000	-20.55241000	-11.46653000
116.46665993	0.00000000	-20.55241000	-11.09129000
116.66665991	0.00000000	-20.55241000	-11.04823000
116.86665990	0.00000000	-20.55241000	-11.09129000
117.06665989	0.00000000	-20.50935000	-11.46653000
117.26665988	0.00000000	-20.13410000	-12.25394000
117.46665987	0.00000000	-19.38976000	-13.04749000
117.66665985	0.00000000	-18.97145000	-14.21014000
117.86665984	0.00000000	-18.55315000	-15.27436000
118.06665983	0.00000000	-17.85802000	-15.32357000
118.26665982	0.00000000	-17.85802000	-14.58538000
118.46665981	0.00000000	-18.59621000	-13.79183000
118.66665980	0.00000000	-19.38976000	-12.62918000
118.86665978	0.00000000	-20.55241000	-11.51575000
119.06665977	0.00000000	-21.66585000	-11.09129000
119.26665976	0.00000000	-22.09030000	-11.04823000
119.46665975	0.00000000	-22.13336000	-11.04823000
119.66665974	0.00000000	-22.09030000	-11.09129000
119.86665972	0.00000000	-21.66585000	-11.46653000
120.06665971	0.00000000	-20.55241000	-12.21087000
120.26665970	0.00000000	-19.38976000	-12.58612000
120.46665969	0.00000000	-18.59621000	-12.67224000
120.66665968	0.00000000	-17.80881000	-13.09670000
120.86665966	0.00000000	-17.48277000	-14.16092000
121.06665965	0.00000000	-17.85802000	-14.90526000
121.26665964	0.00000000	-19.01451000	-14.58538000
121.46665963	0.00000000	-20.50935000	-14.25320000
121.66665962	0.00000000	-21.71506000	-14.16708000
121.86665961	0.00000000	-22.46555000	-13.79183000
122.06665959	0.00000000	-22.87770000	-13.00443000
122.26665958	0.00000000	-22.50861000	-12.25394000
122.46665957	0.00000000	-22.13336000	-11.46653000
122.66665956	0.00000000	-21.66585000	-11.09129000
122.86665955	0.00000000	-20.55241000	-11.04823000
123.06665953	0.00000000	-19.38976000	-11.04823000
123.26665952	0.00000000	-18.59621000	-11.09129000
123.46665951	0.00000000	-17.85802000	-11.46653000
123.66665950	0.00000000	-17.85802000	-12.21087000
123.86665949	0.00000000	-18.55315000	-12.62918000
124.06665947	0.00000000	-18.97145000	-13.04749000
124.26665946	0.00000000	-19.38976000	-13.79183000
124.46665945	0.00000000	-20.17716000	-14.11786000
124.66665944	0.00000000	-20.92766000	-13.79183000
124.86665943	0.00000000	-21.71506000	-13.04749000
125.06665942	0.00000000	-22.09030000	-12.67224000
125.26665940	0.00000000	-22.13336000	-12.58612000
125.46665939	0.00000000	-22.09030000	-12.21087000
125.66665938	0.00000000	-21.71506000	-11.46653000
125.86665937	0.00000000	-20.88459000	-11.09129000
126.06665936	0.00000000	-19.80192000	-11.04823000
126.26665934	0.00000000	-18.60236000	-11.09129000
126.46665933	0.00000000	-18.26402000	-11.46653000
126.66665932	0.00000000	-18.18405000	-12.25394000
126.86665931	0.00000000	-18.63927000	-13.00443000
127.06665930	0.00000000	-19.38976000	-13.83489000
127.26665928	0.00000000	-20.55241000	-14.53617000
127.46665927	0.00000000	-21.66585000	-14.94833000
127.66665926	0.00000000	-22.13336000	-14.58538000
127.86665925	0.00000000	-22.50861000	-14.21014000
128.06665924	0.00000000	-22.82849000	-13.79183000
128.26665923	0.00000000	-22.09030000	-13.04749000
128.46665921	0.00000000	-20.97072000	-12.67224000
128.66665920	0.00000000	-20.17716000	-12.62918000
128.86665919	0.00000000	-19.38976000	-12.62918000
129.06665918	0.00000000	-19.01451000	-12.67224000
129.26665917	0.00000000	-19.01451000	-13.04749000
129.46665915	0.00000000	-19.38976000	-13.79183000
129.66665914	0.00000000	-20.17716000	-14.16708000
129.86665913	0.00000000	-20.97072000	-14.21014000
130.06665912	0.00000000	-22.13336000	-14.21014000
130.26665911	0.00000000	-23.20374000	-14.21014000
130.46665909	0.00000000	-23.20374000	-14.16708000
130.66665908	0.00000000	-22.13336000	-13.79183000
130.86665907	0.00000000	-21.01993000	-13.04749000
131.06665906	0.00000000	-20.55241000	-12.67224000
131.26665905	0.00000000	-20.13410000	-12.67224000
131.46665904	0.00000000	-19.43897000	-13.04749000
131.66665902	0.00000000	-19.38976000	-13.79183000
131.86665901	0.00000000	-19.75886000	-14.16708000
132.06665900	0.00000000	-19.80807000	-14.21014000
132.26665899	0.00000000	-20.59547000	-14.21014000
132.46665898	0.00000000	-21.66585000	-14.21014000
132.66665896	0.00000000	-22.09030000	-14.16708000
132.86665895	0.00000000	-22.13336000	-13.79183000
133.06665894	0.00000000	-22.13336000	-13.00443000
133.26665893	0.00000000	-22.09030000	-12.25394000
133.46665892	0.00000000	-21.71506000	-11.46653000
133.66665890	0.00000000	-20.97072000	-11.14050000
133.86665889	0.00000000	-20.59547000	-11.46653000
134.06665888	0.00000000	-20.55241000	-12.25394000
134.26665887	0.00000000	-20.55241000	-13.00443000
134.46665886	0.00000000	-20.55241000	-13.79183000
134.66665885	0.00000000	-20.55241000	-14.16708000
134.86665883	0.00000000	-20.55241000	-14.21014000
135.06665882	0.00000000	-20.55241000	-14.21014000
135.26665881	0.00000000	-20.55241000	-14.16708000
135.46665880	0.00000000	-20.55241000	-13.79183000
135.66665879	0.00000000	-20.55241000	-13.00443000
135.86665877	0.00000000	-20.55241000	-12.25394000
136.06665876	0.00000000	-20.59547000	-11.46653000
136.26665875	0.00000000	-20.97072000	-11.09129000
136.46665874	0.00000000	-21.71506000	-11.04823000
136.66665873	0.00000000	-22.09030000	-11.09129000
136.86665871	0.00000000	-22.13336000	-11.46653000
137.06665870	0.00000000	-22.09030000	-12.21087000
137.26665869	0.00000000	-21.71506000	-12.62918000
137.46665868	0.00000000	-20.97072000	-13.04749000
137.66665867	0.00000000	-20.55241000	-13.79183000
137.86665866	0.00000000	-20.13410000	-14.16708000
138.06665864	0.00000000	-19.43897000	-14.21014000
138.26665863	0.00000000	-19.43897000	-14.21014000
138.46665862	0.00000000	-20.17716000	-14.21014000
138.66665861	0.00000000	-20.92766000	-14.16708000
138.86665860	0.00000000	-21.71506000	-13.79183000
139.06665858	0.00000000	-22.09030000	-13.04749000
139.26665857	0.00000000	-22.13336000	-12.62918000
139.46665856	0.00000000	-22.09030000	-12.21087000
139.66665855	0.00000000	-21.66585000	-11.46653000
139.86665854	0.00000000	-20.59547000	-11.14050000
140.06665852	0.00000000	-19.80807000	-11.46653000
140.26665851	0.00000000	-19.80192000	-12.25394000
140.46665850	0.00000000	-19.76501000	-13.00443000
140.66665849	0.00000000	-20.17716000	-13.83489000
140.86665848	0.00000000	-20.55241000	-14.53617000
141.06665847	0.00000000	-20.97072000	-14.99139000
141.26665845	0.00000000	-21.71506000	-14.95448000
141.46665844	0.00000000	-22.09030000	-14.94833000
141.66665843	0.00000000	-22.13336000	-14.16092000
141.86665842	0.00000000	-22.13336000	-13.04749000
142.06665841	0.00000000	-22.09030000	-12.25394000
142.26665839	0.00000000	-21.71506000	-11.46653000
142.46665838	0.00000000	-20.97072000	-11.14050000
142.66665837	0.00000000	-20.59547000	-11.46653000
142.86665836	0.00000000	-20.55241000	-12.25394000
143.06665835	0.00000000	-20.59547000	-13.04749000
143.26665834	0.00000000	-20.97072000	-14.21014000
143.46665832	0.00000000	-21.71506000	-15.32357000
143.66665831	0.00000000	-22.09030000	-15.74188000
143.86665830	0.00000000	-22.13336000	-15.74188000
144.06665829	0.00000000	-22.13336000	-15.36663000
144.26665828	0.00000000	-22.09030000	-14.58538000
144.46665826	0.00000000	-21.71506000	-13.83489000
144.66665825	0.00000000	-21.01993000	-13.04749000
144.86665824	0.00000000	-20.97072000	-12.67224000
145.06665823	0.00000000	-21.33981000	-12.62918000
145.26665822	0.00000000	-21.34596000	-12.62918000
145.46665820	0.00000000	-21.75812000	-12.67224000
145.66665819	0.00000000	-22.09030000	-13.04749000
145.86665818	0.00000000	-22.13336000	-13.79183000
146.06665817	0.00000000	-22.13336000	-14.21014000
146.26665816	0.00000000	-22.13336000	-14.58538000
146.46665815	0.00000000	-22.13336000	-14.94833000
146.66665813	0.00000000	-22.09030000	-14.58538000
146.86665812	0.00000000	-21.71506000	-14.25320000
147.06665811	0.00000000	-20.97072000	-14.16708000
147.26665810	0.00000000	-20.59547000	-13.79183000
147.46665809	0.00000000	-20.59547000	-13.04749000
147.66665807	0.00000000	-20.97072000	-12.67224000
147.86665806	0.00000000	-21.71506000	-12.62918000
148.06665805	0.00000000	-22.09030000	-12.62918000
148.26665804	0.00000000	-22.13336000	-12.62918000
148.46665803	0.00000000	-22.13336000	-12.67224000
148.66665801	0.00000000	-22.13336000	-13.04749000
148.86665800	0.00000000	-22.13336000	-13.79183000
149.06665799	0.00000000	-22.09030000	-14.16708000
149.26665798	0.00000000	-21.71506000	-14.21014000
149.46665797	0.00000000	-20.97072000	-14.21014000
149.66665796	0.00000000	-20.59547000	-14.21014000
149.86665794	0.00000000	-20.55241000	-14.16708000
150.06665793	0.00000000	-20.55241000	-13.79183000
150.26665792	0.00000000	-20.59547000	-13.04749000
150.46665791	0.00000000	-20.97072000	-12.67224000
150.66665790	0.00000000	-21.71506000	-12.62918000
150.86665788	0.00000000	-22.09030000	-12.62918000
151.06665787	0.00000000	-22.13336000	-12.62918000
151.26665786	0.00000000	-22.13336000	-12.62918000
151.46665785	0.00000000	-22.13336000	-12.62918000
151.66665784	0.00000000	-22.13336000	-12.67224000
151.86665782	0.00000000	-22.09030000	-13.04749000
152.06665781	0.00000000	-21.75812000	-13.79183000
152.26665780	0.00000000	-21.34596000	-14.16708000
152.46665779	0.00000000	-21.33981000	-14.21014000
152.66665778	0.00000000	-20.92766000	-14.21014000
152.86665777	0.00000000	-20.59547000	-14.16708000
153.06665775	0.00000000	-20.55241000	-13.79183000
153.26665774	0.00000000	-20.59547000	-13.04749000
153.46665773	0.00000000	-20.97072000	-12.67224000
153.66665772	0.00000000	-21.71506000	-12.62918000
153.86665771	0.00000000	-22.13336000	-12.62918000
154.06665769	0.00000000	-22.50861000	-12.62918000
154.26665768	0.00000000	-22.87770000	-12.62918000
154.46665767	0.00000000	-22.50861000	-12.62918000
154.66665766	0.00000000	-22.17643000	-12.72146000
154.86665765	0.00000000	-22.09030000	-13.42274000
155.06665763	0.00000000	-21.71506000	-14.48696000
155.26665762	0.00000000	-20.97072000	-14.16092000
155.46665761	0.00000000	-20.59547000	-13.51501000
155.66665760	0.00000000	-20.55241000	-13.83489000
155.86665759	0.00000000	-20.55241000	-14.16708000
156.06665758	0.00000000	-20.59547000	-14.21014000
156.26665756	0.00000000	-20.97072000	-14.16708000
156.46665755	0.00000000	-21.71506000	-13.79183000
156.66665754	0.00000000	-22.09030000	-13.04749000
156.86665753	0.00000000	-22.17643000	-12.67224000
157.06665752	0.00000000	-22.50861000	-12.62918000
157.26665750	0.00000000	-22.87770000	-12.62918000
157.46665749	0.00000000	-22.50861000	-12.67224000
157.66665748	0.00000000	-22.17643000	-13.04749000
157.86665747	0.00000000	-22.13336000	-13.79183000
158.06665746	0.00000000	-22.09030000	-14.16708000
158.26665744	0.00000000	-21.71506000	-14.21014000
158.46665743	0.00000000	-20.97072000	-14.21014000
158.66665742	0.00000000	-20.64468000	-14.21014000
158.86665741	0.00000000	-20.92766000	-14.21014000
159.06665740	0.00000000	-21.33981000	-14.21014000
159.26665739	0.00000000	-21.34596000	-14.16708000
159.46665737	0.00000000	-21.75812000	-13.79183000
159.66665736	0.00000000	-22.09030000	-13.04749000
159.86665735	0.00000000	-22.13336000	-12.67224000
160.06665734	0.00000000	-22.13336000	-12.67224000
160.26665733	0.00000000	-22.13336000	-13.04749000
160.46665731	0.00000000	-22.13336000	-13.79183000
160.66665730	0.00000000	-22.13336000	-14.16708000
160.86665729	0.00000000	-22.13336000	-14.21014000
161.06665728	0.00000000	-22.13336000	-14.25320000
161.26665727	0.00000000	-22.13336000	-14.58538000
161.46665725	0.00000000	-22.13336000	-14.94833000
161.66665724	0.00000000	-22.13336000	-14.58538000
161.86665723	0.00000000	-22.13336000	-14.25320000
162.06665722	0.00000000	-22.13336000	-14.21014000
162.26665721	0.00000000	-22.13336000	-14.21014000
162.46665720	0.00000000	-22.13336000	-14.21014000
162.66665718	0.00000000	-22.13336000	-14.16708000
162.86665717	0.00000000	-22.13336000	-13.83489000
163.06665716	0.00000000	-22.17643000	-13.46580000
163.26665715	0.00000000	-22.55167000	-13.83489000
163.46665714	0.00000000	-23.29601000	-14.16708000
163.66665712	0.00000000	-23.67126000	-14.21014000
163.86665711	0.00000000	-23.67126000	-14.21014000
164.06665710	0.00000000	-23.29601000	-14.21014000
164.26665709	0.00000000	-22.55167000	-14.21014000
164.46665708	0.00000000	-22.17643000	-14.21014000
164.66665706	0.00000000	-22.13336000	-14.21014000
164.86665705	0.00000000	-22.13336000	-14.21014000
165.06665704	0.00000000	-22.13336000	-14.21014000
165.26665703	0.00000000	-22.13336000	-14.21014000
165.46665702	0.00000000	-22.13336000	-14.21014000
165.66665701	0.00000000	-22.13336000	-14.21014000
165.86665699	0.00000000	-22.13336000	-14.16708000
166.06665698	0.00000000	-22.13336000	-13.79183000
166.26665697	0.00000000	-22.13336000	-13.04749000
166.46665696	0.00000000	-22.13336000	-12.67224000
166.66665695	0.00000000	-22.13336000	-12.67224000
166.86665693	0.00000000	-22.13336000	-13.04749000
167.06665692	0.00000000	-22.13336000	-13.79183000
167.26665691	0.00000000	-22.13336000	-14.16708000
167.46665690	0.00000000	-22.13336000	-14.21014000
167.66665689	0.00000000	-22.13336000	-14.21014000
167.86665687	0.00000000	-22.13336000	-14.21014000
168.06665686	0.00000000	-22.13336000	-14.21014000
168.26665685	0.00000000	-22.13336000	-14.21014000
168.46665684	0.00000000	-22.13336000	-14.21014000
168.66665683	0.00000000	-22.13336000	-14.21014000
168.86665682	0.00000000	-22.13336000	-14.16708000
169.06665680	0.00000000	-22.13336000	-13.83489000
169.26665679	0.00000000	-22.17643000	-13.46580000
169.46665678	0.00000000	-22.55167000	-13.83489000
169.66665677	0.00000000	-23.24680000	-14.16708000
169.86665676	0.00000000	-23.24680000	-14.21014000
170.06665674	0.00000000	-22.55167000	-14.21014000
170.26665673	0.00000000	-22.17643000	-14.21014000
170.46665672	0.00000000	-22.13336000	-14.21014000
170.66665671	0.00000000	-22.13336000	-14.21014000
170.86665670	0.00000000	-22.13336000	-14.21014000
171.06665668	0.00000000	-22.13336000	-14.21014000
171.26665667	0.00000000	-22.13336000	-14.21014000
171.46665666	0.00000000	-22.13336000	-14.21014000
171.66665665	0.00000000	-22.13336000	-14.21014000
171.86665664	0.00000000	-22.13336000	-14.21014000
172.06665663	0.00000000	-22.17643000	-14.21014000
172.26665661	0.00000000	-22.55167000	-14.21014000
172.46665660	0.00000000	-23.24680000	-14.21014000
172.66665659	0.00000000	-23.29601000	-14.21014000
172.86665658	0.00000000	-22.92692000	-14.21014000
173.06665657	0.00000000	-22.92076000	-14.21014000
173.26665655	0.00000000	-22.50861000	-14.21014000
173.46665654	0.00000000	-22.17643000	-14.21014000
173.66665653	0.00000000	-22.13336000	-14.21014000
173.86665652	0.00000000	-22.13336000	-14.21014000
174.06665651	0.00000000	-22.13336000	-14.21014000
174.26665649	0.00000000	-22.13336000	-14.21014000
174.46665648	0.00000000	-22.13336000	-14.21014000
174.66665647	0.00000000	-22.17643000	-14.21014000
174.86665646	0.00000000	-22.50861000	-14.21014000
175.06665645	0.00000000	-22.92076000	-14.21014000
175.26665644	0.00000000	-22.88386000	-14.21014000
175.46665642	0.00000000	-22.92076000	-14.21014000
175.66665641	0.00000000	-22.50861000	-14.21014000
175.86665640	0.00000000	-22.22564000	-14.21014000
176.06665639	0.00000000	-22.55167000	-14.21014000
176.26665638	0.00000000	-23.29601000	-14.21014000
176.46665636	0.00000000	-23.67126000	-14.21014000
176.66665635	0.00000000	-23.71432000	-14.21014000
176.86665634	0.00000000	-23.71432000	-14.21014000
177.06665633	0.00000000	-23.71432000	-14.21014000
177.26665632	0.00000000	-23.71432000	-14.21014000
177.46665630	0.00000000	-23.71432000	-14.25320000
177.66665629	0.00000000	-23.71432000	-14.62844000
177.86665628	0.00000000	-23.71432000	-15.32357000
178.06665627	0.00000000	-23.71432000	-15.32357000
178.26665626	0.00000000	-23.71432000	-14.62844000
178.46665625	0.00000000	-23.71432000	-14.25320000
178.66665623	0.00000000	-23.71432000	-14.21014000
178.86665622	0.00000000	-23.71432000	-14.21014000
179.06665621	0.00000000	-23.71432000	-14.21014000
179.26665620	0.00000000	-23.67126000	-14.21014000
179.46665619	0.00000000	-23.33907000	-14.21014000
179.66665617	0.00000000	-22.96998000	-14.21014000
179.86665616	0.00000000	-23.29601000	-14.21014000
180.06665615	0.00000000	-23.29601000	-14.21014000
180.26665614	0.00000000	-22.96998000	-14.21014000
180.46665613	0.00000000	-23.33907000	-14.21014000
180.66665611	0.00000000	-23.67126000	-14.21014000
180.86665610	0.00000000	-23.71432000	-14.21014000
181.06665609	0.00000000	-23.71432000	-14.21014000
181.26665608	0.00000000	-23.71432000	-14.21014000
181.46665607	0.00000000	-23.71432000	-14.21014000
181.66665606	0.00000000	-23.71432000	-14.21014000
181.86665604	0.00000000	-23.71432000	-14.21014000
182.06665603	0.00000000	-23.71432000	-14.16708000
182.26665602	0.00000000	-23.71432000	-13.83489000
182.46665601	0.00000000	-23.67126000	-13.46580000
182.66665600	0.00000000	-23.29601000	-13.83489000
182.86665598	0.00000000	-22.55167000	-14.16708000
183.06665597	0.00000000	-22.22564000	-14.21014000
183.26665596	0.00000000	-22.55167000	-14.21014000
183.46665595	0.00000000	-23.29601000	-14.21014000
183.66665594	0.00000000	-23.67126000	-14.21014000
183.86665592	0.00000000	-23.71432000	-14.21014000
184.06665591	0.00000000	-23.71432000	-14.16708000
184.26665590	0.00000000	-23.71432000	-13.79183000
184.46665589	0.00000000	-23.71432000	-13.04749000
184.66665588	0.00000000	-23.71432000	-12.67224000
184.86665587	0.00000000	-23.71432000	-12.62918000
185.06665585	0.00000000	-23.71432000	-12.67224000
185.26665584	0.00000000	-23.67126000	-13.04749000
185.46665583	0.00000000	-23.33907000	-13.83489000
185.66665582	0.00000000	-22.96998000	-14.53617000
185.86665581	0.00000000	-23.29601000	-14.94833000
186.06665579	0.00000000	-23.29601000	-14.62844000
186.26665578	0.00000000	-22.96998000	-14.62844000
186.46665577	0.00000000	-23.33907000	-14.94833000
186.66665576	0.00000000	-23.62205000	-14.58538000
186.86665575	0.00000000	-23.33907000	-14.25320000
187.06665573	0.00000000	-22.96998000	-14.21014000
187.26665572	0.00000000	-23.33907000	-14.21014000
187.46665571	0.00000000	-23.67126000	-14.16708000
187.66665570	0.00000000	-23.71432000	-13.83489000
187.86665569	0.00000000	-23.67126000	-13.46580000
188.06665568	0.00000000	-23.33907000	-13.83489000
188.26665566	0.00000000	-22.96998000	-14.16708000
188.46665565	0.00000000	-23.33907000	-14.25320000
188.66665564	0.00000000	-23.67126000	-14.62844000
188.86665563	0.00000000	-23.71432000	-15.36663000
189.06665562	0.00000000	-23.71432000	-15.74188000
189.26665560	0.00000000	-23.71432000	-15.78494000
189.46665559	0.00000000	-23.71432000	-15.78494000
189.66665558	0.00000000	-23.71432000	-15.74188000
189.86665557	0.00000000	-23.71432000	-15.36663000
190.06665556	0.00000000	-23.71432000	-14.62844000
190.26665554	0.00000000	-23.71432000	-14.25320000
190.46665553	0.00000000	-23.71432000	-14.21014000
190.66665552	0.00000000	-23.71432000	-14.21014000
190.86665551	0.00000000	-23.71432000	-14.21014000
191.06665550	0.00000000	-23.71432000	-14.21014000
191.26665549	0.00000000	-23.71432000	-14.21014000
191.46665547	0.00000000	-23.71432000	-14.21014000
191.66665546	0.00000000	-23.71432000	-14.21014000
191.86665545	0.00000000	-23.71432000	-14.25320000
192.06665544	0.00000000	-23.71432000	-14.62844000
192.26665543	0.00000000	-23.71432000	-15.36663000
192.46665541	0.00000000	-23.71432000	-15.74188000
192.66665540	0.00000000	-23.71432000	-15.78494000
192.86665539	0.00000000	-23.71432000	-15.78494000
193.06665538	0.00000000	-23.71432000	-15.78494000
193.26665537	0.00000000	-23.71432000	-15.74188000
193.46665535	0.00000000	-23.71432000	-15.36663000
193.66665534	0.00000000	-23.71432000	-14.62844000
193.86665533	0.00000000	-23.71432000	-14.25320000
194.06665532	0.00000000	-23.71432000	-14.21014000
194.26665531	0.00000000	-23.71432000	-14.21014000
194.46665530	0.00000000	-23.71432000	-14.21014000
194.66665528	0.00000000	-23.71432000	-14.21014000
194.86665527	0.00000000	-23.71432000	-14.21014000
195.06665526	0.00000000	-23.71432000	-14.21014000
195.26665525	0.00000000	-23.71432000	-14.21014000
195.46665524	0.00000000	-23.71432000	-14.21014000
195.66665522	0.00000000	-23.71432000	-14.25320000
195.86665521	0.00000000	-23.71432000	-14.58538000
196.06665520	0.00000000	-23.71432000	-14.94833000
