Time	Channel A	Channel B	Channel C
(us)	(V)	(mV)	(mV)

-4.59999956	0.00000000	-12.64764000	-7.93553100
-4.39999957	0.00000000	-12.64764000	-8.26771600
-4.19999958	0.00000000	-12.64764000	-8.63681000
-3.99999959	0.00000000	-12.69070000	-8.31077700
-3.79999960	0.00000000	-13.02288000	-8.35998900
-3.59999962	0.00000000	-13.43504000	-9.00590400
-3.39999963	0.00000000	-13.39813000	-9.00590400
-3.19999964	0.00000000	-13.43504000	-8.31077700
-2.99999965	0.00000000	-13.02288000	-7.98474400
-2.79999966	0.00000000	-12.69070000	-8.31077700
-2.59999968	0.00000000	-12.64764000	-9.05511800
-2.39999969	0.00000000	-12.64764000	-9.43036400
-2.19999970	0.00000000	-12.69070000	-9.43036400
-1.99999971	0.00000000	-13.02288000	-9.05511800
-1.79999972	0.00000000	-13.39198000	-8.31077700
-1.59999973	0.00000000	-13.02288000	-7.93553100
-1.39999975	0.00000000	-12.73991000	-7.89247000
-1.19999976	0.00000000	-13.02288000	-7.89247000
-0.99999977	0.00000000	-13.39198000	-7.89247000
-0.79999978	0.00000000	-13.06594000	-7.93553100
-0.59999979	0.00000000	-13.06594000	-8.26771600
-0.39999981	0.15871060	-13.39198000	-8.67987200
-0.19999982	0.47736220	-13.02288000	-8.64296200
0.00000017	0.79601380	-12.69070000	-8.72293300
0.20000016	0.95533960	-12.69070000	-8.64296200
0.40000015	0.95533960	-13.02288000	-8.72293300
0.60000013	0.47736220	-13.39198000	-8.68602300
0.80000012	-0.15871060	-13.02288000	-9.05511800
1.00000011	-1.27399100	-12.69070000	-9.00590400
1.20000010	-2.07062000	-12.64764000	-8.31077700
1.40000009	-2.70792300	-12.60458000	-7.93553100
1.60000008	-2.70792300	-12.27239000	-7.89247000
1.80000006	-1.75196900	-11.95251000	-7.89247000
2.00000005	0.00000000	-12.64764000	-7.89247000
2.20000004	2.07062000	-13.34276000	-7.89247000
2.40000003	3.98191400	-13.02288000	-7.93553100
2.60000002	5.25652100	-12.69070000	-8.31077700
2.80000000	5.09719500	-12.69070000	-9.05511800
2.99999999	3.66326300	-13.06594000	-9.43036400
3.19999998	0.95533960	-13.76107000	-9.47342500
3.39999997	-2.38927200	-13.76107000	-9.47342500
3.59999996	-5.73449800	-13.06594000	-9.43036400
3.79999994	-7.64579200	-12.69070000	-9.05511800
3.99999993	-7.80511800	-12.64764000	-8.31077700
4.19999992	-6.05315000	-12.64764000	-7.89247000
4.39999991	-2.38927200	-12.64764000	-7.51722400
4.59999990	1.91129400	-12.69070000	-7.14812900
4.79999989	6.05315000	-13.02288000	-7.51722400
4.99999987	8.92039900	-13.39198000	-7.84940900
5.19999986	9.39837600	-13.06594000	-7.93553100
5.39999985	7.64579200	-13.06594000	-8.31077700
5.59999984	3.82258900	-13.43504000	-9.05511800
5.79999983	-0.95533960	-13.39813000	-9.43036400
5.99999981	-5.41584600	-13.43504000	-9.47342500
6.19999980	-8.60174700	-13.02288000	-9.43036400
6.39999979	-9.39837600	-12.69070000	-9.05511800
6.59999978	-8.12377000	-12.64764000	-8.31077700
6.79999977	-4.61921700	-12.64764000	-7.93553100
6.99999975	-0.31803640	-12.64764000	-7.89247000
7.19999974	3.82258900	-12.69070000	-7.93553100
7.39999973	6.69045300	-13.02288000	-8.31077700
7.59999972	7.80511800	-13.43504000	-9.05511800
7.79999971	6.84916400	-13.44119000	-9.43036400
7.99999970	4.30056600	-13.85334000	-9.47342500
8.19999968	1.11466500	-14.18553000	-9.47342500
8.39999967	-1.91129400	-14.18553000	-9.47342500
8.59999966	-4.30056600	-13.81028000	-9.43036400
8.79999965	-5.25652100	-13.06594000	-9.05511800
8.99999964	-4.77854300	-12.69070000	-8.31077700
9.19999962	-3.34522600	-12.64764000	-7.93553100
9.39999961	-1.27399100	-12.69070000	-7.93553100
9.59999960	0.63668800	-13.02288000	-8.26771600
9.79999959	1.91129400	-13.39198000	-8.63681000
9.99999958	2.54859700	-13.06594000	-8.26771600
10.19999956	2.38927200	-13.06594000	-7.93553100
10.39999955	1.75196900	-13.43504000	-7.93553100
10.59999954	0.79601380	-13.39813000	-8.26771600
10.79999953	0.00000000	-13.47810000	-8.67987200
10.99999952	-0.63668800	-13.44119000	-8.68602300
11.19999951	-0.95533960	-13.81028000	-9.05511800
11.39999949	-0.95533960	-13.76107000	-9.00590400
11.59999948	-0.79601380	-13.06594000	-8.31077700
11.79999947	-0.47736220	-12.69070000	-7.93553100
11.99999946	-0.15871060	-12.64764000	-7.93553100
12.19999945	-0.15871060	-12.64764000	-8.26771600
12.39999943	-0.15871060	-12.69070000	-8.63681000
12.59999942	0.00000000	-13.02288000	-8.26771600
12.79999941	0.00000000	-13.39198000	-7.93553100
12.99999940	0.00000000	-13.02288000	-7.89247000
13.19999939	0.00000000	-12.73991000	-7.93553100
13.39999937	0.00000000	-13.02288000	-8.31077700
13.59999936	0.00000000	-13.43504000	-9.05511800
13.79999935	0.00000000	-13.44119000	-9.43036400
13.99999934	-0.15871060	-13.81028000	-9.43036400
14.19999933	-0.15871060	-13.76107000	-9.05511800
14.39999932	-0.15871060	-13.06594000	-8.31077700
14.59999930	0.00000000	-12.69070000	-7.93553100
14.79999929	0.00000000	-12.64764000	-7.93553100
14.99999928	0.00000000	-12.69070000	-8.26771600
15.19999927	0.00000000	-13.02288000	-8.63681000
15.39999926	0.00000000	-13.43504000	-8.31077700
15.59999924	0.00000000	-13.44119000	-8.31077700
15.79999923	0.00000000	-13.81028000	-8.67987200
15.99999922	0.00000000	-13.81028000	-8.64296200
16.19999921	-0.15871060	-13.44119000	-8.67987200
16.39999920	0.00000000	-13.43504000	-8.26771600
16.59999919	-0.15871060	-13.02288000	-7.93553100
16.79999917	0.00000000	-12.64764000	-7.89247000
16.99999916	0.00000000	-12.22933000	-7.89247000
17.19999915	0.00000000	-11.48499000	-7.89247000
17.39999914	0.00000000	-11.10974000	-7.93553100
17.59999913	0.00000000	-11.10974000	-8.26771600
17.79999911	0.00000000	-11.53420000	-8.63681000
17.99999910	0.00000000	-12.69070000	-8.26771600
18.19999909	0.00000000	-14.22859000	-7.93553100
18.39999908	0.00000000	-15.80955000	-7.89247000
18.59999907	0.00000000	-17.34744000	-7.93553100
18.79999905	0.00000000	-18.50394000	-8.26771600
18.99999904	0.00000000	-18.83612000	-8.63681000
19.19999903	0.00000000	-18.04257000	-8.31077700
19.39999902	0.00000000	-15.67421000	-8.31077700
19.59999901	0.00000000	-12.22933000	-8.63681000
19.79999900	0.00000000	-8.32308000	-8.31077700
19.99999898	0.00000000	-4.87819900	-8.35998900
20.19999897	0.00000000	-2.55290300	-9.05511800
20.39999896	0.00000000	-2.26993100	-9.38115100
20.59999895	0.00000000	-4.64443900	-9.05511800
20.79999894	0.00000000	-10.08243000	-8.31077700
20.99999892	0.00000000	-17.39050000	-7.93553100
21.19999891	0.00000000	-24.78469000	-7.93553100
21.39999890	0.00000000	-30.93012000	-8.31077700
21.59999889	0.00000000	-34.28272000	-9.00590400
21.79999888	0.00000000	-32.65871000	-9.05511800
21.99999886	0.00000000	-25.72589000	-8.72908400
22.19999885	0.00000000	-15.21284000	-9.09817800
22.39999884	0.00000000	-2.82972400	-9.38115100
22.59999883	0.00000000	9.07357200	-9.05511800
22.79999882	0.00000000	16.75074000	-8.31077700
22.99999881	0.00000000	18.24557000	-7.93553100
23.19999879	0.00000000	12.70915000	-7.89247000
23.39999878	0.00000000	-0.07997046	-7.84940900
23.59999877	0.00000000	-17.43971000	-7.47416300
23.79999876	0.00000000	-35.21161000	-6.72982200
23.99999875	0.00000000	-49.45251000	-6.40378900
24.19999873	0.00000000	-56.29306000	-6.77903500
24.39999872	0.00000000	-53.17421000	-7.93553100
24.59999871	0.00000000	-40.38509000	-9.47342500
24.79999870	0.00000000	-20.69390000	-11.04823000
24.99999869	0.00000000	1.72244100	-12.58612000
25.19999867	0.00000000	21.40748000	-13.74262000
25.39999866	0.00000000	34.15354000	-14.07480000
25.59999865	0.00000000	36.76181000	-13.28125000
25.79999864	0.00000000	27.82972000	-10.96211000
25.99999863	0.00000000	8.89517700	-7.84940900
26.19999862	0.00000000	-15.76649000	-4.31840500
26.39999860	0.00000000	-40.09596000	-0.46751960
26.59999859	0.00000000	-58.24926000	2.51599400
26.79999858	0.00000000	-66.38779000	3.25418300
26.99999857	0.00000000	-62.48154000	0.89197830
27.19999856	0.00000000	-47.44709000	-4.12770700
27.39999854	0.00000000	-24.69857000	-11.14050000
27.59999853	0.00000000	0.04921259	-18.81152000
27.79999852	0.00000000	21.31520000	-25.35679000
27.99999851	0.00000000	34.85482000	-28.80167000
28.19999850	0.00000000	37.13705000	-28.38337000
28.39999848	0.00000000	28.00812000	-23.64665000
28.59999847	0.00000000	10.24237000	-14.72687000
28.79999846	0.00000000	-11.39887000	-3.15575800
28.99999845	0.00000000	-32.70177000	8.40920300
29.19999844	0.00000000	-48.94193000	17.24286000
29.39999843	0.00000000	-56.75443000	21.05069000
29.59999841	0.00000000	-55.21653000	18.26402000
29.79999840	0.00000000	-44.83883000	8.96899500
29.99999839	0.00000000	-28.23573000	-5.29035400
30.19999838	0.00000000	-9.66412400	-21.08760000
30.39999837	0.00000000	7.35728300	-34.65182000
30.59999835	0.00000000	18.94070000	-43.48548000
30.79999834	0.00000000	22.57013000	-45.38631000
30.99999833	0.00000000	18.75615000	-39.16707000
31.19999832	0.00000000	9.07357200	-26.43332000
31.39999831	0.00000000	-4.83513700	-9.38115100
31.59999829	0.00000000	-19.53125000	8.32308000
31.79999828	0.00000000	-31.95743000	22.63164000
31.99999827	0.00000000	-40.05290000	30.38878000
32.19999826	0.00000000	-41.63386000	30.34572000
32.39999825	0.00000000	-36.70644000	22.20718000
32.59999824	0.00000000	-27.44217000	7.16043300
32.79999822	0.00000000	-15.80955000	-10.96211000
32.99999821	0.00000000	-4.26919300	-28.38337000
33.19999820	0.00000000	4.23843500	-41.52928000
33.39999819	0.00000000	7.77559000	-47.71161000
33.59999818	0.00000000	6.32997000	-45.76156000
33.79999816	0.00000000	0.89197830	-35.77140000
33.99999815	0.00000000	-7.20964500	-20.34941000
34.19999814	0.00000000	-16.46161000	-3.33415300
34.39999813	0.00000000	-24.13878000	12.13091000
34.59999812	0.00000000	-28.42027000	22.58243000
34.79999810	0.00000000	-28.46333000	26.07037000
34.99999809	0.00000000	-24.64936000	22.20718000
35.19999808	0.00000000	-18.50394000	11.43578000
35.39999807	0.00000000	-11.57726000	-3.15575800
35.59999806	0.00000000	-5.80708600	-17.88263000
35.79999805	0.00000000	-2.68823800	-29.87205000
35.99999803	0.00000000	-2.68823800	-36.79257000
36.19999802	0.00000000	-5.76402500	-36.79257000
36.39999801	0.00000000	-11.10974000	-29.91511000
36.59999800	0.00000000	-16.87992000	-18.43627000
36.79999799	0.00000000	-21.48745000	-5.70866100
36.99999797	0.00000000	-23.81275000	5.06889700
37.19999796	0.00000000	-23.02534000	11.62032000
37.39999795	0.00000000	-19.62352000	12.03863000
37.59999794	0.00000000	-14.60384000	6.69906400
37.79999793	0.00000000	-9.62106200	-2.50369100
37.99999791	0.00000000	-5.71481200	-13.18898000
38.19999790	0.00000000	-3.75861200	-21.60433000
38.39999789	0.00000000	-3.75861200	-25.13533000
38.59999788	0.00000000	-5.71481200	-23.60359000
38.79999787	0.00000000	-9.57800100	-17.46432000
38.99999786	0.00000000	-14.18553000	-8.31077700
39.19999784	0.00000000	-18.46087000	0.46751960
39.39999783	0.00000000	-21.57972000	6.27460600
39.59999782	0.00000000	-23.11762000	7.76328700
39.79999781	0.00000000	-22.74237000	4.27534400
39.99999780	0.00000000	-20.41708000	-3.75861200
40.19999778	0.00000000	-16.97219000	-13.69956000
40.39999777	0.00000000	-13.06594000	-22.53322000
40.59999776	0.00000000	-9.57800100	-27.87278000
40.79999775	0.00000000	-6.83439900	-27.87278000
40.99999774	0.00000000	-5.25344500	-22.53322000
41.19999772	0.00000000	-4.87819900	-13.69956000
41.39999771	0.00000000	-5.71481200	-3.66633800
41.59999770	0.00000000	-8.41535400	5.16117100
41.79999769	0.00000000	-12.22933000	10.50074000
41.99999768	0.00000000	-15.76649000	10.50074000
42.19999767	0.00000000	-18.87918000	5.20423200
42.39999765	0.00000000	-21.16142000	-3.20497000
42.59999764	0.00000000	-21.57972000	-12.07554000
42.79999763	0.00000000	-20.46014000	-19.46358000
42.99999762	0.00000000	-18.50394000	-24.06496000
43.19999761	0.00000000	-15.80955000	-24.85236000
43.39999759	0.00000000	-13.11516000	-21.41363000
43.59999758	0.00000000	-11.15896000	-15.32357000
43.79999757	0.00000000	-9.95324800	-8.40305000
43.99999756	0.00000000	-9.52879000	-2.59596400
44.19999755	0.00000000	-9.48572700	0.93503930
44.39999753	0.00000000	-9.52879000	2.09153500
44.59999752	0.00000000	-9.90403500	0.60285430
44.79999751	0.00000000	-10.64838000	-2.82972400
44.99999750	0.00000000	-11.06668000	-6.68676100
45.19999749	0.00000000	-11.53420000	-10.58686000
45.39999748	0.00000000	-12.73991000	-13.65650000
45.59999746	0.00000000	-14.69611000	-15.23130000
45.79999745	0.00000000	-17.39050000	-15.23130000
45.99999744	0.00000000	-20.08489000	-13.69956000
46.19999743	0.00000000	-22.04109000	-11.04823000
46.39999742	0.00000000	-23.16068000	-8.31077700
46.59999740	0.00000000	-22.65010000	-5.98548200
46.79999739	0.00000000	-19.53125000	-4.03543200
46.99999738	0.00000000	-14.13632000	-3.29109200
47.19999737	0.00000000	-7.94783400	-3.66633800
47.39999736	0.00000000	-2.17765700	-5.24729300
47.59999734	0.00000000	1.63016700	-7.89247000
47.79999733	0.00000000	2.00541300	-10.58686000
47.99999732	0.00000000	-1.06422200	-12.53691000
48.19999731	0.00000000	-6.96973400	-13.74262000
48.39999730	0.00000000	-15.06521000	-14.07480000
48.59999729	0.00000000	-23.89887000	-13.28125000
48.79999727	0.00000000	-30.41954000	-10.96211000
48.99999726	0.00000000	-33.12008000	-7.89247000
49.19999725	0.00000000	-31.16388000	-4.82283400
49.39999724	0.00000000	-24.64936000	-2.50369100
49.59999723	0.00000000	-15.76649000	-1.75319900
49.79999721	0.00000000	-6.45915300	-2.50369100
49.99999720	0.00000000	1.63016700	-4.87204700
50.19999719	0.00000000	6.19463500	-8.31077700
50.39999718	0.00000000	5.81938900	-12.16166000
50.59999717	0.00000000	0.42445860	-15.23130000
50.79999715	0.00000000	-8.37229300	-16.81225000
50.99999714	0.00000000	-17.99951000	-16.76919000
51.19999713	0.00000000	-25.71973000	-14.81299000
51.39999712	0.00000000	-30.00123000	-10.95595000
51.59999711	0.00000000	-29.95817000	-6.40378900
51.79999710	0.00000000	-25.34449000	-2.50369100
51.99999708	0.00000000	-17.34744000	-0.22145670
52.19999707	0.00000000	-8.92593500	0.23375980
52.39999706	0.00000000	-2.68823800	-1.33489200
52.59999705	0.00000000	0.42445860	-4.04158400
52.79999704	0.00000000	-0.03690945	-7.93553100
52.99999702	0.00000000	-4.60137700	-12.07554000
53.19999701	0.00000000	-11.85408000	-14.76993000
53.39999700	0.00000000	-18.74385000	-15.23130000
53.59999699	0.00000000	-23.81275000	-14.11786000
53.79999698	0.00000000	-25.71973000	-12.16781000
53.99999696	0.00000000	-24.18799000	-9.47342500
54.19999695	0.00000000	-19.58046000	-6.82209600
54.39999694	0.00000000	-13.11516000	-5.29035400
54.59999693	0.00000000	-7.34498000	-5.29035400
54.79999692	0.00000000	-3.85088600	-6.77903500
54.99999691	0.00000000	-3.06348400	-9.05511800
55.19999689	0.00000000	-5.38877900	-10.91289000
55.39999688	0.00000000	-9.95324800	-11.70029000
55.59999687	0.00000000	-15.34203000	-10.96211000
55.79999686	0.00000000	-19.95571000	-9.42421200
55.99999685	0.00000000	-22.65010000	-7.47416300
56.19999683	0.00000000	-22.69316000	-5.24729300
56.39999682	0.00000000	-20.37401000	-4.12770700
56.59999681	0.00000000	-16.50467000	-4.82283400
56.79999680	0.00000000	-11.53420000	-6.44685000
56.99999679	0.00000000	-7.34498000	-9.23966500
57.19999677	0.00000000	-5.33956700	-13.74262000
57.39999676	0.00000000	-5.33956700	-17.46432000
57.59999675	0.00000000	-7.25270600	-18.25787000
57.79999674	0.00000000	-10.69144000	-16.39395000
57.99999673	0.00000000	-14.13632000	-12.49385000
58.19999672	0.00000000	-16.92298000	-7.47416300
58.39999670	0.00000000	-18.83612000	-2.08538400
58.59999669	0.00000000	-19.58046000	2.09768700
58.79999668	0.00000000	-18.46087000	3.62942900
58.99999667	0.00000000	-16.18479000	2.04847400
59.19999666	0.00000000	-13.85334000	-2.59596400
59.39999664	0.00000000	-11.53420000	-9.47342500
59.59999663	0.00000000	-10.03937000	-16.39395000
59.79999662	0.00000000	-9.99630800	-21.41363000
59.99999661	0.00000000	-11.10974000	-23.73892000
60.19999660	0.00000000	-12.60458000	-22.53322000
60.39999658	0.00000000	-13.76107000	-17.88263000
60.59999657	0.00000000	-14.18553000	-10.53765000
60.79999656	0.00000000	-14.22859000	-2.12844500
60.99999655	0.00000000	-14.18553000	4.74286400
61.19999654	0.00000000	-13.81028000	7.85556000
61.39999653	0.00000000	-13.06594000	6.74212600
61.59999651	0.00000000	-12.69070000	2.09153500
61.79999650	0.00000000	-12.69070000	-5.24729300
61.99999649	0.00000000	-13.11516000	-13.69956000
62.19999648	0.00000000	-14.22859000	-20.99532000
62.39999647	0.00000000	-15.39124000	-25.22145000
62.59999645	0.00000000	-16.14173000	-25.22145000
62.79999644	0.00000000	-16.55389000	-21.08760000
62.99999643	0.00000000	-16.14173000	-14.53617000
63.19999642	0.00000000	-15.34203000	-7.51722400
63.39999641	0.00000000	-13.76107000	-0.55364170
63.59999639	0.00000000	-11.53420000	4.74286400
63.79999638	0.00000000	-9.99630800	6.32381900
63.99999637	0.00000000	-9.57800100	4.09079700
64.19999636	0.00000000	-9.95324800	-0.51058070
64.39999635	0.00000000	-11.15896000	-6.36072800
64.59999634	0.00000000	-13.06594000	-12.53691000
64.79999632	0.00000000	-15.34203000	-17.92569000
64.99999631	0.00000000	-16.87992000	-20.99532000
65.19999630	0.00000000	-17.29823000	-21.08760000
65.39999629	0.00000000	-16.92298000	-18.81152000
65.59999628	0.00000000	-15.71727000	-15.27436000
65.79999626	0.00000000	-13.85334000	-10.67298000
65.99999625	0.00000000	-11.95251000	-6.03469500
66.19999624	0.00000000	-11.20202000	-2.91584600
66.39999623	0.00000000	-11.53420000	-0.87967510
66.59999622	0.00000000	-12.69070000	-0.13533460
66.79999620	0.00000000	-14.22859000	-0.51058070
66.99999619	0.00000000	-15.76649000	-2.04232300
67.19999618	0.00000000	-16.87992000	-4.36146600
67.39999617	0.00000000	-16.83686000	-6.72982200
67.59999616	0.00000000	-15.34203000	-9.51648500
67.79999615	0.00000000	-13.02288000	-12.62918000
67.99999613	0.00000000	-10.69144000	-15.69882000
68.19999612	0.00000000	-8.41535400	-17.97490000
68.39999611	0.00000000	-7.34498000	-18.39321000
68.59999610	0.00000000	-8.45841400	-17.18750000
68.79999609	0.00000000	-11.15896000	-14.43775000
68.99999607	0.00000000	-14.64690000	-9.79945900
69.19999606	0.00000000	-18.50394000	-4.82898600
69.39999605	0.00000000	-21.57972000	-0.55364170
69.59999604	0.00000000	-23.11762000	2.14074800
69.79999603	0.00000000	-22.65010000	2.55905500
69.99999601	0.00000000	-19.53125000	0.97810030
70.19999600	0.00000000	-14.18553000	-2.50369100
70.39999599	0.00000000	-8.41535400	-7.51722400
70.59999598	0.00000000	-3.75861200	-12.53691000
70.79999597	0.00000000	-1.06422200	-16.85531000
70.99999596	0.00000000	-1.10728300	-19.83883000
71.19999594	0.00000000	-4.18307100	-20.24483000
71.39999593	0.00000000	-9.57800100	-17.56274000
71.59999592	0.00000000	-15.76649000	-13.37352000
71.79999591	0.00000000	-21.57972000	-8.31077700
71.99999590	0.00000000	-25.81201000	-3.75246000
72.19999588	0.00000000	-27.30069000	-0.97194880
72.39999587	0.00000000	-25.39370000	-0.17839570
72.59999586	0.00000000	-20.41708000	-0.97194880
72.79999585	0.00000000	-14.27165000	-3.66633800
72.99999584	0.00000000	-8.41535400	-7.42495000
73.19999582	0.00000000	-3.75861200	-10.53765000
73.39999581	0.00000000	-1.10728300	-12.45079000
73.59999580	0.00000000	-1.48253000	-12.86294000
73.79999579	0.00000000	-4.92125900	-11.38041000
73.99999578	0.00000000	-9.90403500	-9.55954600
74.19999577	0.00000000	-15.34203000	-8.35998900
74.39999575	0.00000000	-19.95571000	-7.98474400
74.59999574	0.00000000	-22.69316000	-8.35998900
74.79999573	0.00000000	-23.11762000	-9.51648500
74.99999572	0.00000000	-21.57972000	-11.00517000
75.19999571	0.00000000	-18.50394000	-12.16166000
75.39999569	0.00000000	-14.64690000	-12.49385000
75.59999568	0.00000000	-11.20202000	-11.65723000
75.79999567	0.00000000	-8.83366100	-8.96284400
75.99999566	0.00000000	-8.04010800	-5.19808000
76.19999565	0.00000000	-8.37229300	-2.12844500
76.39999563	0.00000000	-9.57800100	-0.55364170
76.59999562	0.00000000	-11.48499000	-0.59670270
76.79999561	0.00000000	-13.76107000	-2.59596400
76.99999560	0.00000000	-15.29897000	-6.82209600
77.19999559	0.00000000	-15.71727000	-12.16166000
77.39999558	0.00000000	-15.39124000	-16.81225000
77.59999556	0.00000000	-14.64690000	-19.88189000
77.79999555	0.00000000	-14.27165000	-20.62008000
77.99999554	0.00000000	-14.22859000	-18.30093000
78.19999553	0.00000000	-14.27165000	-13.74262000
78.39999552	0.00000000	-14.64690000	-8.31077700
78.59999550	0.00000000	-15.39124000	-3.24803100
78.79999549	0.00000000	-15.71727000	0.97810030
78.99999548	0.00000000	-15.34203000	3.25418300
79.19999547	0.00000000	-14.13632000	2.51599400
79.39999546	0.00000000	-12.22933000	-0.55364170
79.59999544	0.00000000	-9.95324800	-5.19808000
79.79999543	0.00000000	-8.45841400	-10.58686000
79.99999542	0.00000000	-8.41535400	-15.23130000
80.19999541	0.00000000	-9.62106200	-18.35015000
80.39999540	0.00000000	-11.90330000	-19.50664000
80.59999539	0.00000000	-14.97293000	-18.35015000
80.79999537	0.00000000	-17.29823000	-15.32357000
80.99999536	0.00000000	-18.87918000	-11.42347000
81.19999535	0.00000000	-19.58046000	-7.56028500
81.39999534	0.00000000	-18.41781000	-4.03543200
81.59999533	0.00000000	-15.76649000	-1.71013800
81.79999531	0.00000000	-12.69070000	-0.51058070
81.99999530	0.00000000	-9.99630800	-0.55364170
82.19999529	0.00000000	-8.45841400	-2.04232300
82.39999528	0.00000000	-8.41535400	-4.36146600
82.59999527	0.00000000	-9.57800100	-6.72982200
82.79999525	0.00000000	-11.48499000	-9.51648500
82.99999524	0.00000000	-13.81028000	-12.58612000
83.19999523	0.00000000	-15.71727000	-15.27436000
83.39999522	0.00000000	-16.92298000	-16.81225000
83.59999521	0.00000000	-17.29823000	-16.85531000
83.79999520	0.00000000	-16.92298000	-15.64960000
83.99999518	0.00000000	-15.76649000	-13.32431000
84.19999517	0.00000000	-14.27165000	-9.79945900
84.39999516	0.00000000	-13.11516000	-5.98548200
84.59999515	0.00000000	-12.69070000	-2.46063000
84.79999514	0.00000000	-12.64764000	-0.17839570
84.99999512	0.00000000	-12.64764000	0.60285430
85.19999511	0.00000000	-12.64764000	-0.59670270
85.39999510	0.00000000	-12.64764000	-3.66633800
85.59999509	0.00000000	-12.64764000	-7.93553100
85.79999508	0.00000000	-12.64764000	-12.58612000
85.99999506	0.00000000	-12.64764000	-16.81225000
86.19999505	0.00000000	-12.64764000	-19.42052000
86.39999504	0.00000000	-12.69070000	-19.08834000
86.59999503	0.00000000	-13.11516000	-16.02485000
86.79999502	0.00000000	-14.27165000	-11.83563000
86.99999501	0.00000000	-15.71727000	-7.10506800
87.19999499	0.00000000	-16.50467000	-2.91584600
87.39999498	0.00000000	-16.14173000	0.18454720
87.59999497	0.00000000	-15.43430000	0.88582670
87.79999496	0.00000000	-14.56078000	-0.97194880
87.99999495	0.00000000	-13.39198000	-4.82898600
88.19999493	0.00000000	-11.48499000	-9.43036400
88.39999492	0.00000000	-10.03937000	-13.69956000
88.59999491	0.00000000	-9.99630800	-16.76919000
88.79999490	0.00000000	-11.10974000	-17.88263000
88.99999489	0.00000000	-12.64764000	-16.35089000
89.19999487	0.00000000	-14.18553000	-12.53691000
89.39999486	0.00000000	-15.39124000	-7.93553100
89.59999485	0.00000000	-16.14173000	-3.66633800
89.79999484	0.00000000	-16.55389000	-0.64591530
89.99999483	0.00000000	-16.14173000	0.14148620
90.19999482	0.00000000	-15.39124000	-1.75935000
90.39999480	0.00000000	-14.18553000	-5.19808000
90.59999479	0.00000000	-12.69070000	-9.47342500
90.79999478	0.00000000	-11.57726000	-13.65650000
90.99999477	0.00000000	-11.53420000	-16.35089000
91.19999476	0.00000000	-12.22933000	-16.76919000
91.39999474	0.00000000	-12.64764000	-15.23130000
91.59999473	0.00000000	-13.06594000	-12.11860000
91.79999472	0.00000000	-13.76107000	-7.89247000
91.99999471	0.00000000	-13.76107000	-3.70939900
92.19999470	0.00000000	-13.06594000	-1.01501000
92.39999468	0.00000000	-12.73991000	-0.63976370
92.59999467	0.00000000	-13.06594000	-2.54675200
92.79999466	0.00000000	-13.81028000	-6.40378900
92.99999465	0.00000000	-14.22859000	-10.95595000
93.19999464	0.00000000	-14.64690000	-14.81299000
93.39999463	0.00000000	-15.39124000	-16.71998000
93.59999461	0.00000000	-15.76649000	-16.39395000
93.79999460	0.00000000	-15.71727000	-14.07480000
93.99999459	0.00000000	-14.92372000	-10.58686000
94.19999458	0.00000000	-13.02288000	-6.35457700
94.39999457	0.00000000	-11.10974000	-2.59596400
94.59999455	0.00000000	-9.52879000	-1.05807100
94.79999454	0.00000000	-8.41535400	-2.12844500
94.99999453	0.00000000	-8.45841400	-4.82283400
95.19999452	0.00000000	-9.99630800	-8.31077700
95.39999451	0.00000000	-12.69070000	-12.11860000
95.59999449	0.00000000	-15.76649000	-14.81299000
95.79999448	0.00000000	-18.50394000	-15.60654000
95.99999447	0.00000000	-20.41708000	-14.85605000
96.19999446	0.00000000	-21.16142000	-12.49385000
96.39999445	0.00000000	-19.99877000	-9.09817800
96.59999444	0.00000000	-17.29823000	-5.66560000
96.79999442	0.00000000	-13.81028000	-3.70939900
96.99999441	0.00000000	-9.95324800	-3.29109200
97.19999440	0.00000000	-6.87746000	-4.08464600
97.39999439	0.00000000	-5.29650500	-6.36072800
97.59999438	0.00000000	-5.33956700	-9.00590400
97.79999436	0.00000000	-7.29576700	-10.96211000
97.99999435	0.00000000	-11.10974000	-12.16166000
98.19999434	0.00000000	-15.34203000	-12.53691000
98.39999433	0.00000000	-18.83612000	-12.16166000
98.59999432	0.00000000	-21.20448000	-11.00517000
98.79999430	0.00000000	-21.95497000	-9.51648500
98.99999429	0.00000000	-21.20448000	-8.35998900
99.19999428	0.00000000	-18.87918000	-7.93553100
99.39999427	0.00000000	-15.76649000	-7.89247000
99.59999426	0.00000000	-12.27239000	-7.89247000
99.79999425	0.00000000	-8.83366100	-7.89247000
99.99999423	0.00000000	-6.87746000	-7.84940900
100.19999422	0.00000000	-6.45915300	-7.47416300
100.39999421	0.00000000	-7.25270600	-6.72982200
100.59999420	0.00000000	-9.52879000	-6.40378900
100.79999419	0.00000000	-12.22933000	-6.77903500
100.99999417	0.00000000	-14.60384000	-7.93553100
101.19999416	0.00000000	-16.97219000	-9.47342500
101.39999415	0.00000000	-18.83612000	-11.04823000
101.59999414	0.00000000	-19.62352000	-12.58612000
101.79999413	0.00000000	-18.87918000	-13.65650000
101.99999411	0.00000000	-17.34744000	-13.28125000
102.19999410	0.00000000	-15.39124000	-11.38041000
102.39999409	0.00000000	-13.06594000	-9.05511800
102.59999408	0.00000000	-11.10974000	-6.31151500
102.79999407	0.00000000	-9.57800100	-3.70939900
102.99999406	0.00000000	-8.83366100	-2.50369100
103.19999404	0.00000000	-9.57800100	-2.87278500
103.39999403	0.00000000	-11.06668000	-4.03543200
103.59999402	0.00000000	-12.64764000	-6.40378900
103.79999401	0.00000000	-14.22859000	-9.47342500
103.99999400	0.00000000	-15.76649000	-12.53691000
104.19999398	0.00000000	-16.92298000	-14.81299000
104.39999397	0.00000000	-17.29823000	-15.18824000
104.59999396	0.00000000	-16.92298000	-13.69956000
104.79999395	0.00000000	-15.76649000	-11.00517000
104.99999394	0.00000000	-14.22859000	-7.93553100
105.19999392	0.00000000	-12.69070000	-5.24729300
105.39999391	0.00000000	-11.53420000	-3.70939900
105.59999390	0.00000000	-11.15896000	-3.66633800
105.79999389	0.00000000	-11.48499000	-4.82283400
105.99999388	0.00000000	-12.27239000	-6.72982200
106.19999387	0.00000000	-13.06594000	-9.05511800
106.39999385	0.00000000	-14.22859000	-10.96211000
106.59999384	0.00000000	-15.34203000	-12.16166000
106.79999383	0.00000000	-15.71727000	-12.53691000
106.99999382	0.00000000	-15.34203000	-12.11860000
107.19999381	0.00000000	-14.22859000	-10.58686000
107.39999379	0.00000000	-13.11516000	-8.31077700
107.59999378	0.00000000	-12.69070000	-6.44685000
107.79999377	0.00000000	-12.64764000	-5.61638700
107.99999376	0.00000000	-12.69070000	-6.02854300
108.19999375	0.00000000	-13.11516000	-7.14812900
108.39999374	0.00000000	-14.22859000	-9.05511800
108.59999372	0.00000000	-15.34203000	-10.53765000
108.79999371	0.00000000	-15.76649000	-11.00517000
108.99999370	0.00000000	-15.76649000	-11.00517000
109.19999369	0.00000000	-15.34203000	-10.58686000
109.39999368	0.00000000	-14.18553000	-9.42421200
109.59999366	0.00000000	-12.69070000	-7.93553100
109.79999365	0.00000000	-11.53420000	-6.77903500
109.99999364	0.00000000	-11.10974000	-6.35457700
110.19999363	0.00000000	-11.10974000	-6.35457700
110.39999362	0.00000000	-11.53420000	-6.77903500
110.59999360	0.00000000	-12.69070000	-7.93553100
110.79999359	0.00000000	-14.18553000	-9.42421200
110.99999358	0.00000000	-15.34203000	-10.62992000
111.19999357	0.00000000	-15.76649000	-11.38041000
111.39999356	0.00000000	-15.76649000	-11.79257000
111.59999355	0.00000000	-15.39124000	-11.38041000
111.79999353	0.00000000	-14.60384000	-10.67298000
111.99999352	0.00000000	-13.85334000	-9.84867000
112.19999351	0.00000000	-13.06594000	-9.09817800
112.39999350	0.00000000	-12.69070000	-8.26771600
112.59999349	0.00000000	-12.64764000	-7.56028500
112.79999347	0.00000000	-12.69070000	-7.14812900
112.99999346	0.00000000	-13.06594000	-7.51722400
113.19999345	0.00000000	-13.81028000	-7.84940900
113.39999344	0.00000000	-14.18553000	-7.89247000
113.59999343	0.00000000	-14.22859000	-7.93553100
113.79999341	0.00000000	-14.22859000	-8.31077700
113.99999340	0.00000000	-14.22859000	-9.05511800
114.19999339	0.00000000	-14.22859000	-9.43036400
114.39999338	0.00000000	-14.22859000	-9.51648500
114.59999337	0.00000000	-14.22859000	-9.89173200
114.79999336	0.00000000	-14.22859000	-10.62992000
114.99999334	0.00000000	-14.18553000	-10.95595000
115.19999333	0.00000000	-13.81028000	-10.62992000
115.39999332	0.00000000	-13.11516000	-9.89173200
115.59999331	0.00000000	-13.11516000	-9.51648500
115.79999330	0.00000000	-13.81028000	-9.38115100
115.99999328	0.00000000	-14.18553000	-8.63681000
116.19999327	0.00000000	-14.22859000	-7.14812900
116.39999326	0.00000000	-14.27165000	-6.44685000
116.59999325	0.00000000	-14.60384000	-6.72982200
116.79999324	0.00000000	-14.97293000	-7.51722400
116.99999322	0.00000000	-14.60384000	-8.26771600
117.19999321	0.00000000	-14.22859000	-9.09817800
117.39999320	0.00000000	-13.81028000	-9.84867000
117.59999319	0.00000000	-13.06594000	-10.62992000
117.79999318	0.00000000	-12.64764000	-11.00517000
117.99999317	0.00000000	-12.27239000	-11.04823000
118.19999315	0.00000000	-11.90330000	-11.00517000
118.39999314	0.00000000	-12.31545000	-10.58686000
118.59999313	0.00000000	-13.06594000	-9.47342500
118.79999312	0.00000000	-14.22859000	-8.31077700
118.99999311	0.00000000	-15.34203000	-7.51722400
119.19999309	0.00000000	-15.76649000	-6.72982200
119.39999308	0.00000000	-15.80955000	-6.40378900
119.59999307	0.00000000	-15.76649000	-6.72982200
119.79999306	0.00000000	-15.34203000	-7.47416300
119.99999305	0.00000000	-14.18553000	-7.89247000
120.19999303	0.00000000	-12.69070000	-8.31077700
120.39999302	0.00000000	-11.53420000	-9.05511800
120.59999301	0.00000000	-11.10974000	-9.43036400
120.79999300	0.00000000	-11.15896000	-9.51648500
120.99999299	0.00000000	-11.90330000	-9.84867000
121.19999298	0.00000000	-13.39198000	-10.21161000
121.39999296	0.00000000	-14.18553000	-9.84867000
121.59999295	0.00000000	-14.69611000	-9.51648500
121.79999294	0.00000000	-15.80955000	-9.43036400
121.99999293	0.00000000	-16.87992000	-9.05511800
122.19999292	0.00000000	-16.92298000	-8.31077700
122.39999290	0.00000000	-16.18479000	-7.89247000
122.59999289	0.00000000	-15.39124000	-7.47416300
122.79999288	0.00000000	-14.22859000	-6.72982200
122.99999287	0.00000000	-13.06594000	-6.40378900
123.19999286	0.00000000	-12.27239000	-6.72982200
123.39999284	0.00000000	-11.53420000	-7.47416300
123.59999283	0.00000000	-11.53420000	-7.89247000
123.79999282	0.00000000	-12.22933000	-8.35998900
123.99999281	0.00000000	-12.64764000	-9.47342500
124.19999280	0.00000000	-13.06594000	-10.58686000
124.39999279	0.00000000	-13.85334000	-11.00517000
124.59999277	0.00000000	-14.60384000	-11.00517000
124.79999276	0.00000000	-15.39124000	-10.62992000
124.99999275	0.00000000	-15.76649000	-9.84867000
125.19999274	0.00000000	-15.80955000	-9.09817800
125.39999273	0.00000000	-15.76649000	-8.31077700
125.59999271	0.00000000	-15.39124000	-7.93553100
125.79999270	0.00000000	-14.60384000	-7.89247000
125.99999269	0.00000000	-13.81028000	-7.89247000
126.19999268	0.00000000	-12.64764000	-7.89247000
126.39999267	0.00000000	-11.57726000	-7.93553100
126.59999265	0.00000000	-11.57726000	-8.31077700
126.79999264	0.00000000	-12.64764000	-9.05511800
126.99999263	0.00000000	-13.76107000	-9.43036400
127.19999262	0.00000000	-14.22859000	-9.47342500
127.39999261	0.00000000	-14.64690000	-9.47342500
127.59999260	0.00000000	-15.39124000	-9.47342500
127.79999258	0.00000000	-15.76649000	-9.47342500
127.99999257	0.00000000	-15.76649000	-9.43036400
128.19999256	0.00000000	-15.34203000	-9.05511800
128.39999255	0.00000000	-14.22859000	-8.31077700
128.59999254	0.00000000	-13.11516000	-7.93553100
128.79999252	0.00000000	-12.64764000	-7.93553100
128.99999251	0.00000000	-12.27239000	-8.31077700
129.19999250	0.00000000	-11.90330000	-9.05511800
129.39999249	0.00000000	-12.31545000	-9.43036400
129.59999248	0.00000000	-13.06594000	-9.47342500
129.79999246	0.00000000	-14.22859000	-9.47342500
129.99999245	0.00000000	-15.39124000	-9.51648500
130.19999244	0.00000000	-16.14173000	-9.79945900
130.39999243	0.00000000	-16.50467000	-9.83636800
130.59999242	0.00000000	-15.76649000	-9.06126900
130.79999241	0.00000000	-14.64690000	-8.72293300
130.99999239	0.00000000	-13.85334000	-8.31077700
131.19999238	0.00000000	-13.06594000	-8.31077700
131.39999237	0.00000000	-12.69070000	-8.67987200
131.59999236	0.00000000	-12.69070000	-8.68602300
131.79999235	0.00000000	-13.06594000	-9.09817800
131.99999233	0.00000000	-13.81028000	-9.47342500
132.19999232	0.00000000	-14.18553000	-9.84867000
132.39999231	0.00000000	-14.22859000	-10.21161000
132.59999230	0.00000000	-14.22859000	-9.84867000
132.79999229	0.00000000	-14.22859000	-9.47342500
132.99999227	0.00000000	-14.22859000	-9.05511800
133.19999226	0.00000000	-14.22859000	-8.31077700
133.39999225	0.00000000	-14.22859000	-7.93553100
133.59999224	0.00000000	-14.22859000	-7.89247000
133.79999223	0.00000000	-14.22859000	-7.89247000
133.99999222	0.00000000	-14.22859000	-7.93553100
134.19999220	0.00000000	-14.22859000	-8.35998900
134.39999219	0.00000000	-14.22859000	-9.47342500
134.59999218	0.00000000	-14.22859000	-10.58686000
134.79999217	0.00000000	-14.18553000	-11.00517000
134.99999216	0.00000000	-13.81028000	-11.00517000
135.19999214	0.00000000	-13.06594000	-10.62992000
135.39999213	0.00000000	-12.69070000	-9.89173200
135.59999212	0.00000000	-12.69070000	-9.47342500
135.79999211	0.00000000	-13.06594000	-9.05511800
135.99999210	0.00000000	-13.81028000	-8.31077700
136.19999208	0.00000000	-14.22859000	-7.93553100
136.39999207	0.00000000	-14.64690000	-7.89247000
136.59999206	0.00000000	-15.34203000	-7.89247000
136.79999205	0.00000000	-15.34203000	-7.93553100
136.99999204	0.00000000	-14.64690000	-8.31077700
137.19999203	0.00000000	-14.22859000	-9.05511800
137.39999201	0.00000000	-13.81028000	-9.43036400
137.59999200	0.00000000	-13.06594000	-9.47342500
137.79999199	0.00000000	-12.69070000	-9.47342500
137.99999198	0.00000000	-12.64764000	-9.47342500
138.19999197	0.00000000	-12.64764000	-9.47342500
138.39999195	0.00000000	-12.69070000	-9.47342500
138.59999194	0.00000000	-13.11516000	-9.47342500
138.79999193	0.00000000	-14.22859000	-9.43036400
138.99999192	0.00000000	-15.34203000	-9.05511800
139.19999191	0.00000000	-15.71727000	-8.31077700
139.39999189	0.00000000	-15.39124000	-7.89247000
139.59999188	0.00000000	-14.60384000	-7.51722400
139.79999187	0.00000000	-13.85334000	-7.14812900
139.99999186	0.00000000	-13.06594000	-7.56028500
140.19999185	0.00000000	-12.69070000	-8.26771600
140.39999184	0.00000000	-12.64764000	-9.09817800
140.59999182	0.00000000	-12.69070000	-9.84867000
140.79999181	0.00000000	-13.06594000	-10.62992000
140.99999180	0.00000000	-13.81028000	-11.00517000
141.19999179	0.00000000	-14.18553000	-11.00517000
141.39999178	0.00000000	-14.22859000	-10.58686000
141.59999176	0.00000000	-14.22859000	-9.47342500
141.79999175	0.00000000	-14.22859000	-8.31077700
141.99999174	0.00000000	-14.18553000	-7.51722400
142.19999173	0.00000000	-13.81028000	-6.72982200
142.39999172	0.00000000	-13.06594000	-6.40378900
142.59999170	0.00000000	-12.69070000	-6.72982200
142.79999169	0.00000000	-12.69070000	-7.51722400
142.99999168	0.00000000	-13.06594000	-8.31077700
143.19999167	0.00000000	-13.81028000	-9.47342500
143.39999166	0.00000000	-14.18553000	-10.58686000
143.59999165	0.00000000	-14.22859000	-11.00517000
143.79999163	0.00000000	-14.22859000	-11.00517000
143.99999162	0.00000000	-14.22859000	-10.62992000
144.19999161	0.00000000	-14.18553000	-9.84867000
144.39999160	0.00000000	-13.81028000	-9.09817800
144.59999159	0.00000000	-13.06594000	-8.26771600
144.79999157	0.00000000	-12.69070000	-7.56028500
144.99999156	0.00000000	-12.69070000	-7.14812900
145.19999155	0.00000000	-13.06594000	-7.56028500
145.39999154	0.00000000	-13.81028000	-8.26771600
145.59999153	0.00000000	-14.18553000	-9.05511800
145.79999151	0.00000000	-14.22859000	-9.43036400
145.99999150	0.00000000	-14.22859000	-9.51648500
146.19999149	0.00000000	-14.22859000	-9.89173200
146.39999148	0.00000000	-14.22859000	-10.58686000
146.59999147	0.00000000	-14.18553000	-10.58686000
146.79999146	0.00000000	-13.85334000	-9.89173200
146.99999144	0.00000000	-13.48425000	-9.47342500
147.19999143	0.00000000	-13.85334000	-9.05511800
147.39999142	0.00000000	-14.18553000	-8.31077700
147.59999141	0.00000000	-14.22859000	-7.93553100
147.79999140	0.00000000	-14.22859000	-7.89247000
147.99999138	0.00000000	-14.22859000	-7.89247000
148.19999137	0.00000000	-14.22859000	-7.89247000
148.39999136	0.00000000	-14.22859000	-7.93553100
148.59999135	0.00000000	-14.22859000	-8.31077700
148.79999134	0.00000000	-14.22859000	-9.05511800
148.99999132	0.00000000	-14.22859000	-9.43036400
149.19999131	0.00000000	-14.18553000	-9.47342500
149.39999130	0.00000000	-13.81028000	-9.47342500
149.59999129	0.00000000	-13.06594000	-9.47342500
149.79999128	0.00000000	-12.69070000	-9.47342500
149.99999127	0.00000000	-12.64764000	-9.47342500
150.19999125	0.00000000	-12.69070000	-9.43036400
150.39999124	0.00000000	-13.06594000	-9.05511800
150.59999123	0.00000000	-13.81028000	-8.31077700
150.79999122	0.00000000	-14.18553000	-7.93553100
150.99999121	0.00000000	-14.27165000	-7.89247000
151.19999119	0.00000000	-14.60384000	-7.89247000
151.39999118	0.00000000	-14.97293000	-7.93553100
151.59999117	0.00000000	-14.60384000	-8.31077700
151.79999116	0.00000000	-14.22859000	-9.05511800
151.99999115	0.00000000	-13.81028000	-9.43036400
152.19999113	0.00000000	-13.06594000	-9.47342500
152.39999112	0.00000000	-12.69070000	-9.47342500
152.59999111	0.00000000	-12.64764000	-9.43036400
152.79999110	0.00000000	-12.69070000	-9.09817800
152.99999109	0.00000000	-13.06594000	-8.68602300
153.19999108	0.00000000	-13.81028000	-8.67987200
153.39999106	0.00000000	-14.18553000	-8.26771600
153.59999105	0.00000000	-14.22859000	-7.93553100
153.79999104	0.00000000	-14.27165000	-7.89247000
153.99999103	0.00000000	-14.64690000	-7.93553100
154.19999102	0.00000000	-15.34203000	-8.26771600
154.39999100	0.00000000	-15.34203000	-8.67987200
154.59999099	0.00000000	-14.64690000	-8.68602300
154.79999098	0.00000000	-14.27165000	-9.09817800
154.99999097	0.00000000	-14.18553000	-9.43036400
155.19999096	0.00000000	-13.81028000	-9.47342500
155.39999094	0.00000000	-13.06594000	-9.47342500
155.59999093	0.00000000	-12.73991000	-9.47342500
155.79999092	0.00000000	-13.06594000	-9.47342500
155.99999091	0.00000000	-13.81028000	-9.47342500
156.19999090	0.00000000	-14.18553000	-9.43036400
156.39999089	0.00000000	-14.22859000	-9.05511800
156.59999087	0.00000000	-14.22859000	-8.31077700
156.79999086	0.00000000	-14.27165000	-7.93553100
156.99999085	0.00000000	-14.64690000	-7.89247000
157.19999084	0.00000000	-15.34203000	-7.89247000
157.39999083	0.00000000	-15.34203000	-7.93553100
157.59999081	0.00000000	-14.64690000	-8.31077700
157.79999080	0.00000000	-14.27165000	-9.05511800
157.99999079	0.00000000	-14.18553000	-9.43036400
158.19999078	0.00000000	-13.81028000	-9.47342500
158.39999077	0.00000000	-13.06594000	-9.47342500
158.59999075	0.00000000	-12.69070000	-9.47342500
158.79999074	0.00000000	-12.69070000	-9.47342500
158.99999073	0.00000000	-13.06594000	-9.43036400
159.19999072	0.00000000	-13.81028000	-9.05511800
159.39999071	0.00000000	-14.18553000	-8.31077700
159.59999070	0.00000000	-14.22859000	-7.93553100
159.79999068	0.00000000	-14.22859000	-7.89247000
159.99999067	0.00000000	-14.22859000	-7.89247000
160.19999066	0.00000000	-14.22859000	-7.93553100
160.39999065	0.00000000	-14.22859000	-8.31077700
160.59999064	0.00000000	-14.22859000	-9.00590400
160.79999062	0.00000000	-14.22859000	-9.05511800
160.99999061	0.00000000	-14.22859000	-8.72908400
161.19999060	0.00000000	-14.18553000	-9.09817800
161.39999059	0.00000000	-13.85334000	-9.43036400
161.59999058	0.00000000	-13.48425000	-9.47342500
161.79999056	0.00000000	-13.81028000	-9.43036400
161.99999055	0.00000000	-13.81028000	-9.05511800
162.19999054	0.00000000	-13.48425000	-8.31077700
162.39999053	0.00000000	-13.85334000	-7.98474400
162.59999052	0.00000000	-14.18553000	-8.26771600
162.79999051	0.00000000	-14.22859000	-8.63681000
162.99999049	0.00000000	-14.22859000	-8.26771600
163.19999048	0.00000000	-14.22859000	-7.98474400
163.39999047	0.00000000	-14.22859000	-8.31077700
163.59999046	0.00000000	-14.22859000	-9.05511800
163.79999045	0.00000000	-14.22859000	-9.43036400
163.99999043	0.00000000	-14.22859000	-9.47342500
164.19999042	0.00000000	-14.18553000	-9.47342500
164.39999041	0.00000000	-13.81028000	-9.47342500
164.59999040	0.00000000	-13.06594000	-9.47342500
164.79999039	0.00000000	-12.69070000	-9.47342500
164.99999037	0.00000000	-12.64764000	-9.47342500
165.19999036	0.00000000	-12.64764000	-9.47342500
165.39999035	0.00000000	-12.69070000	-9.43036400
165.59999034	0.00000000	-13.06594000	-9.09817800
165.79999033	0.00000000	-13.81028000	-8.68602300
165.99999032	0.00000000	-14.18553000	-8.67987200
166.19999030	0.00000000	-14.22859000	-8.26771600
166.39999029	0.00000000	-14.22859000	-7.98474400
166.59999028	0.00000000	-14.22859000	-8.31077700
166.79999027	0.00000000	-14.22859000	-9.05511800
166.99999026	0.00000000	-14.22859000	-9.43036400
167.19999024	0.00000000	-14.22859000	-9.47342500
167.39999023	0.00000000	-14.22859000	-9.47342500
167.59999022	0.00000000	-14.22859000	-9.47342500
167.79999021	0.00000000	-14.22859000	-9.47342500
167.99999020	0.00000000	-14.22859000	-9.47342500
168.19999018	0.00000000	-14.22859000	-9.47342500
168.39999017	0.00000000	-14.22859000	-9.47342500
168.59999016	0.00000000	-14.22859000	-9.47342500
168.79999015	0.00000000	-14.22859000	-9.47342500
168.99999014	0.00000000	-14.22859000	-9.47342500
169.19999013	0.00000000	-14.22859000	-9.47342500
169.39999011	0.00000000	-14.22859000	-9.47342500
169.59999010	0.00000000	-14.22859000	-9.47342500
169.79999009	0.00000000	-14.22859000	-9.47342500
169.99999008	0.00000000	-14.22859000	-9.47342500
170.19999007	0.00000000	-14.22859000	-9.43036400
170.39999005	0.00000000	-14.22859000	-9.09817800
170.59999004	0.00000000	-14.22859000	-8.68602300
170.79999003	0.00000000	-14.22859000	-8.72293300
170.99999002	0.00000000	-14.22859000	-8.68602300
171.19999001	0.00000000	-14.22859000	-9.09817800
171.39998999	0.00000000	-14.22859000	-9.43036400
171.59998998	0.00000000	-14.22859000	-9.47342500
171.79998997	0.00000000	-14.22859000	-9.47342500
171.99998996	0.00000000	-14.22859000	-9.47342500
172.19998995	0.00000000	-14.22859000	-9.47342500
172.39998994	0.00000000	-14.22859000	-9.47342500
172.59998992	0.00000000	-14.22859000	-9.43036400
172.79998991	0.00000000	-14.22859000	-9.05511800
172.99998990	0.00000000	-14.22859000	-8.31077700
173.19998989	0.00000000	-14.22859000	-7.93553100
173.39998988	0.00000000	-14.22859000	-7.89247000
173.59998986	0.00000000	-14.22859000	-7.89247000
173.79998985	0.00000000	-14.22859000	-7.89247000
173.99998984	0.00000000	-14.22859000	-7.93553100
174.19998983	0.00000000	-14.22859000	-8.31077700
174.39998982	0.00000000	-14.18553000	-9.05511800
174.59998980	0.00000000	-13.85334000	-9.43036400
174.79998979	0.00000000	-13.48425000	-9.47342500
174.99998978	0.00000000	-13.85334000	-9.51648500
175.19998977	0.00000000	-14.18553000	-9.84867000
175.39998976	0.00000000	-14.22859000	-10.21161000
175.59998975	0.00000000	-14.18553000	-9.84867000
175.79998973	0.00000000	-13.85334000	-9.51648500
175.99998972	0.00000000	-13.48425000	-9.47342500
176.19998971	0.00000000	-13.85334000	-9.43036400
176.39998970	0.00000000	-14.18553000	-9.09817800
176.59998969	0.00000000	-14.22859000	-8.72908400
176.79998967	0.00000000	-14.22859000	-9.09817800
176.99998966	0.00000000	-14.22859000	-9.43036400
177.19998965	0.00000000	-14.22859000	-9.47342500
177.39998964	0.00000000	-14.22859000	-9.47342500
177.59998963	0.00000000	-14.22859000	-9.47342500
177.79998961	0.00000000	-14.22859000	-9.47342500
177.99998960	0.00000000	-14.22859000	-9.47342500
178.19998959	0.00000000	-14.22859000	-9.47342500
178.39998958	0.00000000	-14.22859000	-9.43036400
178.59998957	0.00000000	-14.22859000	-9.05511800
178.79998956	0.00000000	-14.22859000	-8.31077700
178.99998954	0.00000000	-14.22859000	-7.98474400
179.19998953	0.00000000	-14.22859000	-8.31077700
179.39998952	0.00000000	-14.22859000	-9.05511800
179.59998951	0.00000000	-14.22859000	-9.43036400
179.79998950	0.00000000	-14.22859000	-9.47342500
179.99998948	0.00000000	-14.22859000	-9.47342500
180.19998947	0.00000000	-14.22859000	-9.47342500
180.39998946	0.00000000	-14.22859000	-9.47342500
180.59998945	0.00000000	-14.22859000	-9.47342500
180.79998944	0.00000000	-14.22859000	-9.47342500
180.99998942	0.00000000	-14.22859000	-9.43036400
181.19998941	0.00000000	-14.22859000	-9.05511800
181.39998940	0.00000000	-14.22859000	-8.31077700
181.59998939	0.00000000	-14.22859000	-7.93553100
181.79998938	0.00000000	-14.22859000	-7.89247000
181.99998937	0.00000000	-14.22859000	-7.93553100
182.19998935	0.00000000	-14.22859000	-8.31077700
182.39998934	0.00000000	-14.22859000	-9.05511800
182.59998933	0.00000000	-14.22859000	-9.43036400
182.79998932	0.00000000	-14.22859000	-9.47342500
182.99998931	0.00000000	-14.22859000	-9.47342500
183.19998929	0.00000000	-14.22859000	-9.47342500
183.39998928	0.00000000	-14.22859000	-9.47342500
183.59998927	0.00000000	-14.22859000	-9.47342500
183.79998926	0.00000000	-14.22859000	-9.47342500
183.99998925	0.00000000	-14.22859000	-9.43036400
184.19998923	0.00000000	-14.22859000	-9.05511800
184.39998922	0.00000000	-14.22859000	-8.31077700
184.59998921	0.00000000	-14.27165000	-7.93553100
184.79998920	0.00000000	-14.60384000	-7.89247000
184.99998919	0.00000000	-14.97293000	-7.89247000
185.19998918	0.00000000	-14.60384000	-7.93553100
185.39998916	0.00000000	-14.27165000	-8.31077700
185.59998915	0.00000000	-14.22859000	-9.05511800
185.79998914	0.00000000	-14.22859000	-9.43036400
185.99998913	0.00000000	-14.22859000	-9.47342500
186.19998912	0.00000000	-14.22859000	-9.47342500
186.39998910	0.00000000	-14.22859000	-9.47342500
186.59998909	0.00000000	-14.22859000	-9.47342500
186.79998908	0.00000000	-14.22859000	-9.47342500
186.99998907	0.00000000	-14.22859000	-9.47342500
187.19998906	0.00000000	-14.22859000	-9.43036400
187.39998904	0.00000000	-14.22859000	-9.05511800
187.59998903	0.00000000	-14.22859000	-8.31077700
187.79998902	0.00000000	-14.22859000	-7.93553100
187.99998901	0.00000000	-14.22859000	-7.93553100
188.19998900	0.00000000	-14.22859000	-8.31077700
188.39998899	0.00000000	-14.22859000	-9.05511800
188.59998897	0.00000000	-14.22859000	-9.43036400
188.79998896	0.00000000	-14.22859000	-9.47342500
188.99998895	0.00000000	-14.22859000	-9.47342500
189.19998894	0.00000000	-14.22859000	-9.47342500
189.39998893	0.00000000	-14.22859000	-9.47342500
189.59998891	0.00000000	-14.22859000	-9.47342500
189.79998890	0.00000000	-14.22859000	-9.43036400
189.99998889	0.00000000	-14.22859000	-9.09817800
190.19998888	0.00000000	-14.22859000	-8.68602300
190.39998887	0.00000000	-14.27165000	-8.67987200
190.59998885	0.00000000	-14.60384000	-8.31077700
190.79998884	0.00000000	-14.97293000	-8.35998900
190.99998883	0.00000000	-14.60384000	-9.05511800
191.19998882	0.00000000	-14.27165000	-9.43036400
191.39998881	0.00000000	-14.22859000	-9.47342500
191.59998880	0.00000000	-14.22859000	-9.47342500
191.79998878	0.00000000	-14.18553000	-9.47342500
191.99998877	0.00000000	-13.85334000	-9.47342500
192.19998876	0.00000000	-13.48425000	-9.47342500
192.39998875	0.00000000	-13.85334000	-9.47342500
192.59998874	0.00000000	-14.18553000	-9.47342500
192.79998872	0.00000000	-14.22859000	-9.47342500
192.99998871	0.00000000	-14.22859000	-9.47342500
193.19998870	0.00000000	-14.22859000	-9.47342500
193.39998869	0.00000000	-14.22859000	-9.47342500
193.59998868	0.00000000	-14.22859000	-9.43036400
193.79998866	0.00000000	-14.27165000	-9.09817800
193.99998865	0.00000000	-14.56078000	-8.68602300
194.19998864	0.00000000	-14.59769000	-8.67987200
194.39998863	0.00000000	-13.85950000	-8.31077700
194.59998862	0.00000000	-13.89641000	-8.35998900
194.79998861	0.00000000	-14.18553000	-9.05511800
194.99998859	0.00000000	-14.22859000	-9.43036400
195.19998858	0.00000000	-14.22859000	-9.47342500
195.39998857	0.00000000	-14.22859000	-9.47342500
195.59998856	0.00000000	-14.22859000	-9.47342500
195.79998855	0.00000000	-14.22859000	-9.47342500
195.99998853	0.00000000	-14.22859000	-9.47342500
