Time	Channel A	Channel B	Channel C
(us)	(V)	(mV)	(mV)

-4.59999956	0.00000000	-12.60458000	-7.89247000
-4.39999957	0.00000000	-12.27239000	-7.89247000
-4.19999958	0.00000000	-11.90330000	-7.89247000
-3.99999959	0.00000000	-12.27239000	-7.89247000
-3.79999960	0.00000000	-12.60458000	-7.89247000
-3.59999962	0.00000000	-12.64764000	-7.89247000
-3.39999963	0.00000000	-12.64764000	-7.89247000
-3.19999964	0.00000000	-12.64764000	-7.89247000
-2.99999965	0.00000000	-12.64764000	-7.89247000
-2.79999966	0.00000000	-12.64764000	-7.89247000
-2.59999968	0.00000000	-12.64764000	-7.89247000
-2.39999969	0.00000000	-12.64764000	-7.89247000
-2.19999970	0.00000000	-12.64764000	-7.89247000
-1.99999971	0.00000000	-12.64764000	-7.89247000
-1.79999972	0.00000000	-12.64764000	-7.89247000
-1.59999973	0.00000000	-12.64764000	-7.89247000
-1.39999975	0.00000000	-12.64764000	-7.89247000
-1.19999976	0.00000000	-12.64764000	-7.89247000
-0.99999977	0.00000000	-12.64764000	-7.89247000
-0.79999978	0.00000000	-12.64764000	-7.89247000
-0.59999979	0.00000000	-12.64764000	-7.89247000
-0.39999981	0.15871060	-12.64764000	-7.89247000
-0.19999982	0.47736220	-12.60458000	-7.89247000
0.00000017	0.79601380	-12.27239000	-7.89247000
0.20000016	0.95533960	-11.90330000	-7.89247000
0.40000015	0.95533960	-12.27239000	-7.89247000
0.60000013	0.63668800	-12.60458000	-7.93553100
0.80000012	0.00000000	-12.64764000	-8.26771600
1.00000011	-0.79601380	-12.64764000	-8.63681000
1.20000010	-1.91129400	-12.64764000	-8.26771600
1.40000009	-2.54859700	-12.64764000	-7.93553100
1.60000008	-2.70792300	-12.64764000	-7.89247000
1.80000006	-2.07062000	-12.64764000	-7.89247000
2.00000005	-0.63668800	-12.64764000	-7.89247000
2.20000004	1.27399100	-12.64764000	-7.89247000
2.40000003	3.34522600	-12.64764000	-7.89247000
2.60000002	4.93786900	-12.64764000	-7.93553100
2.80000000	5.25652100	-12.64764000	-8.31077700
2.99999999	4.30056600	-12.64764000	-9.05511800
3.19999998	1.91129400	-12.64764000	-9.43036400
3.39999997	-1.43331700	-12.64764000	-9.43036400
3.59999996	-4.77854300	-12.64764000	-9.05511800
3.79999994	-7.16781500	-12.60458000	-8.31077700
3.99999993	-7.96444400	-12.27239000	-7.93553100
4.19999992	-6.69045300	-11.90330000	-7.89247000
4.39999991	-3.66326300	-12.27239000	-7.89247000
4.59999990	0.63668800	-12.60458000	-7.89247000
4.79999989	4.93786900	-12.64764000	-7.89247000
4.99999987	8.28309500	-12.64764000	-7.93553100
5.19999986	9.39837600	-12.64764000	-8.31077700
5.39999985	8.28309500	-12.64764000	-9.05511800
5.59999984	5.09719500	-12.64764000	-9.43036400
5.79999983	0.63668800	-12.64764000	-9.43036400
5.99999981	-4.14124000	-12.64764000	-9.05511800
6.19999980	-7.80511800	-12.64764000	-8.31077700
6.39999979	-9.39837600	-12.64764000	-7.93553100
6.59999978	-8.60174700	-12.64764000	-7.89247000
6.79999977	-5.89382400	-12.64764000	-7.89247000
6.99999975	-1.75196900	-12.64764000	-7.89247000
7.19999974	2.54859700	-12.64764000	-7.89247000
7.39999973	6.05315000	-12.64764000	-7.89247000
7.59999972	7.64579200	-12.64764000	-7.89247000
7.79999971	7.32714100	-12.64764000	-7.93553100
7.99999970	5.25652100	-12.64764000	-8.31077700
8.19999968	2.22994600	-12.64764000	-9.00590400
8.39999967	-1.11466500	-12.64764000	-9.00590400
8.59999966	-3.66326300	-12.64764000	-8.31077700
8.79999965	-5.09719500	-12.64764000	-7.93553100
8.99999964	-5.09719500	-12.64764000	-7.89247000
9.19999962	-3.82258900	-12.64764000	-7.89247000
9.39999961	-1.91129400	-12.64764000	-7.89247000
9.59999960	0.00000000	-12.64764000	-7.89247000
9.79999959	1.59264300	-12.64764000	-7.89247000
9.99999958	2.38927200	-12.64764000	-7.89247000
10.19999956	2.54859700	-12.64764000	-7.89247000
10.39999955	1.91129400	-12.60458000	-7.93553100
10.59999954	1.11466500	-12.27239000	-8.26771600
10.79999953	0.15871060	-11.90330000	-8.63681000
10.99999952	-0.47736220	-12.27239000	-8.26771600
11.19999951	-0.79601380	-12.60458000	-7.93553100
11.39999949	-0.95533960	-12.64764000	-7.89247000
11.59999948	-0.95533960	-12.64764000	-7.89247000
11.79999947	-0.63668800	-12.60458000	-7.89247000
11.99999946	-0.31803640	-12.27239000	-7.89247000
12.19999945	-0.15871060	-11.90330000	-7.89247000
12.39999943	-0.15871060	-12.27239000	-7.89247000
12.59999942	0.00000000	-12.60458000	-7.89247000
12.79999941	0.00000000	-12.64764000	-7.89247000
12.99999940	0.00000000	-12.64764000	-7.89247000
13.19999939	0.00000000	-12.64764000	-7.89247000
13.39999937	0.00000000	-12.64764000	-7.89247000
13.59999936	0.00000000	-12.64764000	-7.93553100
13.79999935	0.00000000	-12.64764000	-8.26771600
13.99999934	-0.15871060	-12.64764000	-8.63681000
14.19999933	-0.15871060	-12.64764000	-8.26771600
14.39999932	-0.15871060	-12.64764000	-7.93553100
14.59999930	-0.15871060	-12.64764000	-7.89247000
14.79999929	0.00000000	-12.64764000	-7.89247000
14.99999928	0.00000000	-12.64764000	-7.89247000
15.19999927	0.00000000	-12.64764000	-7.89247000
15.39999926	0.00000000	-12.64764000	-7.89247000
15.59999924	0.00000000	-12.69070000	-7.89247000
15.79999923	0.00000000	-13.02288000	-7.93553100
15.99999922	0.00000000	-13.39198000	-8.26771600
16.19999921	0.00000000	-13.02288000	-8.63681000
16.39999920	-0.15871060	-12.69070000	-8.26771600
16.59999919	0.00000000	-12.60458000	-7.93553100
16.79999917	-0.15871060	-12.22933000	-7.89247000
16.99999916	0.00000000	-11.48499000	-7.89247000
17.19999915	0.00000000	-11.10974000	-7.89247000
17.39999914	0.00000000	-11.06668000	-7.89247000
17.59999913	0.00000000	-11.06668000	-7.89247000
17.79999911	0.00000000	-11.10974000	-7.89247000
17.99999910	0.00000000	-11.53420000	-7.89247000
18.19999909	0.00000000	-12.69070000	-7.93553100
18.39999908	0.00000000	-14.22859000	-8.26771600
18.59999907	0.00000000	-15.80955000	-8.63681000
18.79999905	0.00000000	-17.29823000	-8.26771600
18.99999904	0.00000000	-18.04257000	-7.93553100
19.19999903	0.00000000	-17.25517000	-7.89247000
19.39999902	0.00000000	-15.34203000	-7.89247000
19.59999901	0.00000000	-12.55536000	-7.89247000
19.79999900	0.00000000	-9.06742000	-7.89247000
19.99999898	0.00000000	-5.21038300	-7.89247000
20.19999897	0.00000000	-2.17765700	-7.89247000
20.39999896	0.00000000	-1.06422200	-7.89247000
20.59999895	0.00000000	-2.68823800	-7.89247000
20.79999894	0.00000000	-7.34498000	-7.89247000
20.99999892	0.00000000	-14.32087000	-7.93553100
21.19999891	0.00000000	-22.04109000	-8.31077700
21.39999890	0.00000000	-28.97392000	-9.00590400
21.59999889	0.00000000	-33.16929000	-9.05511800
21.79999888	0.00000000	-33.07701000	-8.72908400
21.99999886	0.00000000	-28.00197000	-9.05511800
22.19999885	0.00000000	-18.28248000	-9.00590400
22.39999884	0.00000000	-5.94857300	-8.31077700
22.59999883	0.00000000	6.42224400	-7.93553100
22.79999882	0.00000000	15.63730000	-7.89247000
22.99999881	0.00000000	19.45128000	-7.89247000
23.19999879	0.00000000	16.24631000	-7.84940900
23.39999878	0.00000000	5.73326700	-7.47416300
23.59999877	0.00000000	-10.45768000	-6.72982200
23.79999876	0.00000000	-28.59867000	-6.35457700
23.99999875	0.00000000	-44.00837000	-6.31151500
24.19999873	0.00000000	-53.26033000	-6.35457700
24.39999872	0.00000000	-53.54945000	-6.77903500
24.59999871	0.00000000	-44.24212000	-7.93553100
24.79999870	0.00000000	-26.79626000	-9.47342500
24.99999869	0.00000000	-4.78592500	-11.04823000
25.19999867	0.00000000	16.79995000	-12.58612000
25.39999866	0.00000000	32.57259000	-13.69956000
25.59999865	0.00000000	38.34277000	-13.65650000
25.79999864	0.00000000	32.52953000	-12.07554000
25.99999863	0.00000000	16.28937000	-8.96284400
26.19999862	0.00000000	-6.87746000	-4.73671200
26.39999860	0.00000000	-31.62524000	-0.51058070
26.59999859	0.00000000	-52.47908000	2.55905500
26.79999858	0.00000000	-64.76377000	3.67249000
26.99999857	0.00000000	-64.76377000	2.09768700
27.19999856	0.00000000	-52.42987000	-2.17765700
27.39999854	0.00000000	-31.25615000	-8.40305000
27.59999853	0.00000000	-6.13927100	-15.78494000
27.79999852	0.00000000	16.66462000	-23.08686000
27.99999851	0.00000000	32.57259000	-28.38337000
28.19999850	0.00000000	38.34277000	-29.49680000
28.39999848	0.00000000	32.57259000	-25.59670000
28.59999847	0.00000000	16.84301000	-17.46432000
28.79999846	0.00000000	-4.41067900	-6.22539300
28.99999845	0.00000000	-26.10113000	5.71481200
29.19999844	0.00000000	-44.32824000	15.70497000
29.39999843	0.00000000	-55.13041000	21.05069000
29.59999841	0.00000000	-56.37918000	19.84498000
29.79999840	0.00000000	-48.28986000	12.13091000
29.99999839	0.00000000	-33.25541000	-0.63976370
30.19999838	0.00000000	-14.69611000	-15.74188000
30.39999837	0.00000000	3.08193900	-30.42569000
30.59999835	0.00000000	16.28937000	-41.52928000
30.79999834	0.00000000	22.57013000	-45.76156000
30.99999833	0.00000000	21.45054000	-41.86147000
31.19999832	0.00000000	13.68110000	-30.65945000
31.39999831	0.00000000	0.55979330	-14.03174000
31.59999829	0.00000000	-14.83760000	4.09079700
31.79999828	0.00000000	-28.37721000	19.93110000
31.99999827	0.00000000	-37.35236000	29.97047000
32.19999826	0.00000000	-40.52042000	31.87746000
32.39999825	0.00000000	-37.81988000	25.36909000
32.59999824	0.00000000	-30.09350000	11.80487000
32.79999822	0.00000000	-18.87918000	-5.57332700
32.99999821	0.00000000	-6.96973400	-23.78199000
33.19999820	0.00000000	2.74975400	-38.79183000
33.39999819	0.00000000	8.15083600	-47.29330000
33.59999818	0.00000000	8.60605200	-47.34252000
33.79999816	0.00000000	4.01082700	-39.25935000
33.99999815	0.00000000	-3.67249000	-25.35679000
34.19999814	0.00000000	-12.60458000	-8.35998900
34.39999813	0.00000000	-21.02608000	7.90477300
34.59999812	0.00000000	-26.46407000	20.26329000
34.79999810	0.00000000	-27.67593000	26.43947000
34.99999809	0.00000000	-25.39370000	24.53248000
35.19999808	0.00000000	-19.95571000	15.70497000
35.39999807	0.00000000	-12.73991000	2.18380900
35.59999806	0.00000000	-6.18233200	-13.23819000
35.79999805	0.00000000	-2.31299200	-26.71629000
35.99999803	0.00000000	-1.48253000	-35.26082000
36.19999802	0.00000000	-3.80782500	-37.21087000
36.39999801	0.00000000	-8.41535400	-32.60949000
36.59999800	0.00000000	-14.18553000	-22.57628000
36.79999799	0.00000000	-19.53125000	-9.56569900
36.99999797	0.00000000	-22.60704000	2.74360200
37.19999796	0.00000000	-22.65010000	10.83292000
37.39999795	0.00000000	-19.95571000	13.19513000
37.59999794	0.00000000	-15.34203000	9.38730200
37.79999793	0.00000000	-9.99630800	0.97810030
37.99999791	0.00000000	-5.71481200	-9.38730200
38.19999790	0.00000000	-3.34030500	-18.95300000
38.39999789	0.00000000	-2.60211600	-24.66781000
38.59999788	0.00000000	-4.18307100	-24.76009000
38.79999787	0.00000000	-7.99704600	-19.78961000
38.99999786	0.00000000	-12.60458000	-11.70029000
39.19999784	0.00000000	-16.87992000	-2.12844500
39.39999783	0.00000000	-19.99877000	5.81323800
39.59999782	0.00000000	-21.57972000	8.87672100
39.79999781	0.00000000	-21.57972000	6.27460600
39.99999780	0.00000000	-19.99877000	-0.64591530
40.19999778	0.00000000	-16.92298000	-9.89173200
40.39999777	0.00000000	-13.06594000	-19.46358000
40.59999776	0.00000000	-9.52879000	-26.29798000
40.79999775	0.00000000	-6.41609200	-27.87278000
40.99999774	0.00000000	-4.13385800	-24.06496000
41.19999772	0.00000000	-3.71555100	-16.35089000
41.39999771	0.00000000	-4.83513700	-6.36072800
41.59999770	0.00000000	-6.83439900	3.21112200
41.79999769	0.00000000	-9.95324800	9.34424200
41.99999768	0.00000000	-13.76107000	10.59301000
42.19999767	0.00000000	-16.87992000	7.11122000
42.39999765	0.00000000	-18.87918000	0.18454720
42.59999764	0.00000000	-19.99877000	-9.01205700
42.79999763	0.00000000	-19.62352000	-17.42126000
42.99999762	0.00000000	-17.72268000	-22.53322000
43.19999761	0.00000000	-15.43430000	-24.10802000
43.39999759	0.00000000	-13.06594000	-22.15797000
43.59999758	0.00000000	-11.10974000	-16.81225000
43.79999757	0.00000000	-9.52879000	-9.93479300
43.99999756	0.00000000	-8.37229300	-3.70939900
44.19999755	0.00000000	-7.99704600	0.93503930
44.39999753	0.00000000	-8.32308000	3.25418300
44.59999752	0.00000000	-9.06742000	2.51599400
44.79999751	0.00000000	-9.44266700	-0.51058070
44.99999750	0.00000000	-9.52879000	-4.77977300
45.19999749	0.00000000	-9.95324800	-9.38115100
45.39999748	0.00000000	-11.15896000	-13.23819000
45.59999746	0.00000000	-13.11516000	-15.18824000
45.79999745	0.00000000	-15.80955000	-15.27436000
45.99999744	0.00000000	-18.50394000	-14.07480000
46.19999743	0.00000000	-20.46014000	-11.79257000
46.39999742	0.00000000	-21.62278000	-8.68602300
46.59999740	0.00000000	-21.53666000	-6.02854300
46.79999739	0.00000000	-19.53125000	-4.03543200
46.99999738	0.00000000	-15.25591000	-3.29109200
47.19999737	0.00000000	-9.44266700	-3.62327700
47.39999736	0.00000000	-3.29724400	-4.82283400
47.59999734	0.00000000	1.67938000	-6.77903500
47.79999733	0.00000000	3.54330700	-9.47342500
47.99999732	0.00000000	1.63016700	-12.11860000
48.19999731	0.00000000	-3.80782500	-13.69956000
48.39999730	0.00000000	-11.53420000	-14.11786000
48.59999729	0.00000000	-20.04183000	-13.65650000
48.79999727	0.00000000	-27.34990000	-11.70029000
48.99999726	0.00000000	-31.58218000	-8.31077700
49.19999725	0.00000000	-31.53912000	-5.19808000
49.39999724	0.00000000	-26.88238000	-2.87278500
49.59999723	0.00000000	-18.41781000	-1.34719500
49.79999721	0.00000000	-8.41535400	-1.75319900
49.99999720	0.00000000	0.42445860	-3.66633800
50.19999719	0.00000000	5.86860200	-6.77903500
50.39999718	0.00000000	6.61294300	-10.62992000
50.59999717	0.00000000	2.79281500	-14.07480000
50.79999715	0.00000000	-4.92125900	-16.39395000
50.99999714	0.00000000	-14.13632000	-16.76919000
51.19999713	0.00000000	-22.65010000	-15.23130000
51.39999712	0.00000000	-28.42027000	-12.16166000
51.59999711	0.00000000	-29.95817000	-8.26771600
51.79999710	0.00000000	-26.83932000	-4.45374000
51.99999708	0.00000000	-19.62352000	-1.34719500
52.19999707	0.00000000	-10.83292000	-0.22145670
52.39999706	0.00000000	-3.85088600	-0.97194880
52.59999705	0.00000000	0.42445860	-3.66633800
52.79999704	0.00000000	1.16879900	-7.47416300
52.99999702	0.00000000	-2.26993100	-10.96211000
53.19999701	0.00000000	-8.37229300	-13.69956000
53.39999700	0.00000000	-15.29897000	-15.18824000
53.59999699	0.00000000	-21.06914000	-14.81299000
53.79999698	0.00000000	-24.13878000	-12.53691000
53.99999696	0.00000000	-23.76353000	-9.51648500
54.19999695	0.00000000	-19.95571000	-6.82209600
54.39999694	0.00000000	-14.22859000	-5.29035400
54.59999693	0.00000000	-8.41535400	-5.24729300
54.79999692	0.00000000	-3.80782500	-6.36072800
54.99999691	0.00000000	-1.53174200	-7.89247000
55.19999689	0.00000000	-2.68823800	-9.42421200
55.39999688	0.00000000	-6.87746000	-10.53765000
55.59999687	0.00000000	-12.60458000	-10.53765000
55.79999686	0.00000000	-17.99951000	-9.38115100
55.99999685	0.00000000	-21.48745000	-7.47416300
56.19999683	0.00000000	-22.65010000	-5.19808000
56.39999682	0.00000000	-21.11220000	-3.70939900
56.59999681	0.00000000	-17.25517000	-3.70939900
56.79999680	0.00000000	-12.31545000	-5.29035400
56.99999679	0.00000000	-7.67101300	-8.35998900
57.19999677	0.00000000	-4.97047200	-12.21087000
57.39999676	0.00000000	-4.13385800	-15.60654000
57.59999675	0.00000000	-5.33956700	-17.50738000
57.79999674	0.00000000	-8.37229300	-16.72613000
57.99999673	0.00000000	-12.22933000	-13.65650000
58.19999672	0.00000000	-15.67421000	-8.96284400
58.39999670	0.00000000	-17.99951000	-3.20497000
58.59999669	0.00000000	-18.41781000	2.09153500
58.79999668	0.00000000	-17.29823000	4.78592500
58.99999667	0.00000000	-15.39124000	3.99852300
59.19999666	0.00000000	-13.06594000	0.14148620
59.39999664	0.00000000	-11.15896000	-6.40378900
59.59999663	0.00000000	-9.95324800	-13.69956000
59.79999662	0.00000000	-9.57800100	-19.88189000
59.99999661	0.00000000	-9.95324800	-23.68971000
60.19999660	0.00000000	-11.10974000	-23.64665000
60.39999658	0.00000000	-12.64764000	-19.46358000
60.59999657	0.00000000	-14.13632000	-12.54306000
60.79999656	0.00000000	-14.88066000	-4.82898600
60.99999655	0.00000000	-14.18553000	2.14074800
61.19999654	0.00000000	-13.06594000	6.69291300
61.39999653	0.00000000	-12.27239000	7.48031400
61.59999651	0.00000000	-11.48499000	4.00467500
61.79999650	0.00000000	-11.10974000	-2.50369100
61.99999649	0.00000000	-11.15896000	-10.62992000
62.19999648	0.00000000	-11.90330000	-18.30093000
62.39999647	0.00000000	-13.43504000	-23.68971000
62.59999645	0.00000000	-14.56078000	-25.22145000
62.79999644	0.00000000	-15.34203000	-22.57628000
62.99999643	0.00000000	-15.29897000	-16.76919000
63.19999642	0.00000000	-14.18553000	-9.09817800
63.39999641	0.00000000	-12.64764000	-1.39025600
63.59999639	0.00000000	-11.06668000	4.00467500
63.79999638	0.00000000	-9.52879000	6.36687900
63.99999637	0.00000000	-8.41535400	5.20423200
64.19999636	0.00000000	-8.41535400	1.02116100
64.39999635	0.00000000	-9.57800100	-4.77977300
64.59999634	0.00000000	-11.48499000	-10.96211000
64.79999632	0.00000000	-13.81028000	-16.39395000
64.99999631	0.00000000	-15.67421000	-19.88189000
65.19999630	0.00000000	-16.50467000	-21.04454000
65.39999629	0.00000000	-16.09252000	-19.50664000
65.59999628	0.00000000	-14.97293000	-15.69882000
65.79999626	0.00000000	-13.02288000	-11.09129000
65.99999625	0.00000000	-11.15896000	-6.77903500
66.19999624	0.00000000	-9.99630800	-3.29109200
66.39999623	0.00000000	-9.99630800	-0.92888770
66.59999622	0.00000000	-11.10974000	-0.13533460
66.79999620	0.00000000	-12.64764000	-0.46136810
66.99999619	0.00000000	-14.18553000	-1.66707700
67.19999618	0.00000000	-15.34203000	-3.61712600
67.39999617	0.00000000	-15.67421000	-6.36072800
67.59999616	0.00000000	-14.92372000	-9.42421200
67.79999615	0.00000000	-12.97982000	-12.21087000
67.99999613	0.00000000	-10.69144000	-14.58538000
68.19999612	0.00000000	-8.37229300	-16.85531000
68.39999611	0.00000000	-6.92052100	-17.97490000
68.59999610	0.00000000	-7.29576700	-17.18750000
68.79999609	0.00000000	-9.62106200	-14.85605000
68.99999607	0.00000000	-13.06594000	-10.95595000
69.19999606	0.00000000	-16.97219000	-6.35457700
69.39999605	0.00000000	-20.37401000	-2.08538400
69.59999604	0.00000000	-22.31791000	1.02116100
69.79999603	0.00000000	-21.90576000	2.55905500
69.99999601	0.00000000	-19.58046000	2.14074800
70.19999600	0.00000000	-15.25591000	-0.59670270
70.39999599	0.00000000	-9.52879000	-5.24729300
70.59999598	0.00000000	-4.13385800	-10.96211000
70.79999597	0.00000000	-0.68897630	-15.97564000
70.99999596	0.00000000	0.09842519	-18.71924000
71.19999594	0.00000000	-2.26993100	-19.55585000
71.39999593	0.00000000	-7.25270600	-18.30093000
71.59999592	0.00000000	-13.81028000	-14.85605000
71.79999591	0.00000000	-19.95571000	-9.84867000
71.99999590	0.00000000	-24.27411000	-4.87204700
72.19999588	0.00000000	-26.18725000	-1.02116100
72.39999587	0.00000000	-25.39370000	0.55979330
72.59999586	0.00000000	-21.53666000	-0.17839570
72.79999585	0.00000000	-15.76649000	-2.46063000
72.99999584	0.00000000	-9.57800100	-5.89320800
73.19999582	0.00000000	-4.18307100	-8.96284400
73.39999581	0.00000000	-1.06422200	-10.96211000
73.59999580	0.00000000	-0.64591530	-12.07554000
73.79999579	0.00000000	-2.60211600	-11.74951000
73.99999578	0.00000000	-6.83439900	-10.26698000
74.19999577	0.00000000	-12.22933000	-9.14124000
74.39999575	0.00000000	-17.25517000	-8.31077700
74.59999574	0.00000000	-21.11220000	-7.98474400
74.79999573	0.00000000	-22.65010000	-8.40305000
74.99999572	0.00000000	-21.53666000	-9.89173200
75.19999571	0.00000000	-18.50394000	-11.74951000
75.39999569	0.00000000	-14.64690000	-12.49385000
75.59999568	0.00000000	-11.15896000	-12.11860000
75.79999567	0.00000000	-8.41535400	-10.49459000
75.99999566	0.00000000	-6.87746000	-7.42495000
76.19999565	0.00000000	-6.87746000	-3.66633800
76.39999563	0.00000000	-8.37229300	-1.01501000
76.59999562	0.00000000	-10.64838000	-0.59670270
76.79999561	0.00000000	-12.55536000	-2.12844500
76.99999560	0.00000000	-13.76107000	-5.29035400
77.19999559	0.00000000	-14.18553000	-9.89173200
77.39999558	0.00000000	-14.18553000	-14.90526000
77.59999556	0.00000000	-13.81028000	-18.71924000
77.79999555	0.00000000	-13.06594000	-20.62008000
77.99999554	0.00000000	-12.73991000	-19.46358000
78.19999553	0.00000000	-13.06594000	-15.64960000
78.39999552	0.00000000	-13.81028000	-10.58686000
78.59999550	0.00000000	-14.18553000	-4.77977300
78.79999549	0.00000000	-14.18553000	0.55979330
78.99999548	0.00000000	-13.76107000	3.62942900
79.19999547	0.00000000	-12.60458000	3.67249000
79.39999546	0.00000000	-11.06668000	0.97810030
79.59999544	0.00000000	-9.52879000	-3.62327700
79.79999543	0.00000000	-8.37229300	-9.05511800
79.99999542	0.00000000	-8.04010800	-14.07480000
80.19999541	0.00000000	-8.79060000	-17.93184000
80.39999540	0.00000000	-10.73450000	-19.50664000
80.59999539	0.00000000	-13.06594000	-18.76845000
80.79999537	0.00000000	-15.76649000	-16.48622000
80.99999536	0.00000000	-18.04257000	-12.96137000
81.19999535	0.00000000	-18.79306000	-9.09817800
81.39999534	0.00000000	-18.04257000	-5.19808000
81.59999533	0.00000000	-15.71727000	-2.12844500
81.79999531	0.00000000	-12.69070000	-0.55364170
81.99999530	0.00000000	-9.95324800	-0.51058070
82.19999529	0.00000000	-8.04010800	-1.62401600
82.39999528	0.00000000	-7.25270600	-3.24803100
82.59999527	0.00000000	-8.04010800	-5.61638700
82.79999525	0.00000000	-9.90403500	-9.05511800
82.99999524	0.00000000	-12.22933000	-12.11860000
83.19999523	0.00000000	-14.18553000	-14.16092000
83.39999522	0.00000000	-15.71727000	-15.74188000
83.59999521	0.00000000	-16.46161000	-16.81225000
83.79999520	0.00000000	-15.76649000	-16.39395000
83.99999518	0.00000000	-14.64690000	-14.07480000
84.19999517	0.00000000	-13.81028000	-10.62992000
84.39999516	0.00000000	-12.64764000	-6.72982200
84.59999515	0.00000000	-11.53420000	-3.24803100
84.79999514	0.00000000	-11.10974000	-0.51058070
84.99999512	0.00000000	-11.10974000	0.97810030
85.19999511	0.00000000	-11.44193000	0.55979330
85.39999510	0.00000000	-11.85408000	-2.12844500
85.59999509	0.00000000	-11.81717000	-6.35457700
85.79999508	0.00000000	-11.85408000	-11.00517000
85.99999506	0.00000000	-11.44193000	-15.23130000
86.19999505	0.00000000	-11.15896000	-17.92569000
86.39999504	0.00000000	-11.48499000	-18.35015000
86.59999503	0.00000000	-12.27239000	-16.76919000
86.79999502	0.00000000	-13.06594000	-13.28125000
86.99999501	0.00000000	-14.22859000	-8.31077700
87.19999499	0.00000000	-15.34203000	-3.70939900
87.39999498	0.00000000	-15.71727000	-0.59670270
87.59999497	0.00000000	-15.34203000	0.55979330
87.79999496	0.00000000	-14.18553000	-0.59670270
87.99999495	0.00000000	-12.64764000	-3.66633800
88.19999493	0.00000000	-11.10974000	-7.93553100
88.39999492	0.00000000	-9.95324800	-12.53691000
88.59999491	0.00000000	-9.57800100	-16.35089000
88.79999490	0.00000000	-9.95324800	-17.88263000
88.99999489	0.00000000	-11.10974000	-16.76919000
89.19999487	0.00000000	-12.64764000	-13.69956000
89.39999486	0.00000000	-14.18553000	-9.43036400
89.59999485	0.00000000	-15.34203000	-4.82898600
89.79999484	0.00000000	-15.71727000	-1.02116100
89.99999483	0.00000000	-15.39124000	0.51673230
90.19999482	0.00000000	-14.56078000	-0.59670270
90.39999480	0.00000000	-13.43504000	-3.66633800
90.59999479	0.00000000	-11.90330000	-7.93553100
90.79999478	0.00000000	-11.15896000	-12.53691000
90.99999477	0.00000000	-11.06668000	-16.35089000
91.19999476	0.00000000	-11.10974000	-17.83957000
91.39999474	0.00000000	-11.48499000	-16.35089000
91.59999473	0.00000000	-12.22933000	-12.53691000
91.79999472	0.00000000	-12.60458000	-7.93553100
91.99999471	0.00000000	-12.64764000	-3.66633800
92.19999470	0.00000000	-12.64764000	-0.59670270
92.39999468	0.00000000	-12.64764000	0.51673230
92.59999467	0.00000000	-12.64764000	-1.02116100
92.79999466	0.00000000	-12.69070000	-4.82898600
92.99999465	0.00000000	-13.11516000	-9.43036400
93.19999464	0.00000000	-14.22859000	-13.65650000
93.39999463	0.00000000	-15.34203000	-16.35089000
93.59999461	0.00000000	-15.71727000	-16.71998000
93.79999460	0.00000000	-15.34203000	-14.85605000
93.99999459	0.00000000	-14.18553000	-11.38041000
94.19999458	0.00000000	-12.64764000	-7.51722400
94.39999457	0.00000000	-11.06668000	-3.66633800
94.59999455	0.00000000	-9.48572700	-1.06422200
94.79999454	0.00000000	-7.99704600	-1.01501000
94.99999453	0.00000000	-7.29576700	-3.29109200
95.19999452	0.00000000	-8.45841400	-6.72982200
95.39999451	0.00000000	-11.10974000	-10.58686000
95.59999449	0.00000000	-14.18553000	-13.65650000
95.79999448	0.00000000	-16.92298000	-15.18824000
95.99999447	0.00000000	-18.87918000	-14.81299000
96.19999446	0.00000000	-19.99877000	-12.53691000
96.39999445	0.00000000	-19.58046000	-9.47342500
96.59999444	0.00000000	-17.25517000	-6.40378900
96.79999442	0.00000000	-13.81028000	-4.08464600
96.99999441	0.00000000	-9.95324800	-3.29109200
97.19999440	0.00000000	-6.83439900	-3.66633800
97.39999439	0.00000000	-4.87819900	-5.24729300
97.59999438	0.00000000	-4.13385800	-7.89247000
97.79999436	0.00000000	-5.33956700	-10.53765000
97.99999435	0.00000000	-8.37229300	-12.11860000
98.19999434	0.00000000	-12.27239000	-12.53691000
98.39999433	0.00000000	-16.14173000	-12.16166000
98.59999432	0.00000000	-19.62352000	-11.00517000
98.79999430	0.00000000	-21.53666000	-9.51648500
98.99999429	0.00000000	-21.53666000	-8.35998900
99.19999428	0.00000000	-19.62352000	-7.93553100
99.39999427	0.00000000	-16.14173000	-7.89247000
99.59999426	0.00000000	-12.27239000	-7.89247000
99.79999425	0.00000000	-8.41535400	-7.84940900
99.99999423	0.00000000	-5.71481200	-7.47416300
100.19999422	0.00000000	-4.87819900	-6.72982200
100.39999421	0.00000000	-5.25344500	-6.35457700
100.59999420	0.00000000	-6.83439900	-6.31151500
100.79999419	0.00000000	-9.52879000	-6.35457700
100.99999417	0.00000000	-12.64764000	-6.82209600
101.19999416	0.00000000	-15.71727000	-8.35383800
101.39999415	0.00000000	-18.04257000	-10.58686000
101.59999414	0.00000000	-18.83612000	-12.11860000
101.79999413	0.00000000	-18.50394000	-12.58612000
101.99999411	0.00000000	-17.29823000	-12.53691000
102.19999410	0.00000000	-15.39124000	-11.70029000
102.39999409	0.00000000	-13.06594000	-9.42421200
102.59999408	0.00000000	-11.10974000	-6.72982200
102.79999407	0.00000000	-9.52879000	-4.40452700
102.99999406	0.00000000	-8.41535400	-2.50369100
103.19999404	0.00000000	-8.41535400	-2.17150600
103.39999403	0.00000000	-9.52879000	-3.66633800
103.59999402	0.00000000	-11.06668000	-6.36072800
103.79999401	0.00000000	-12.64764000	-9.42421200
103.99999400	0.00000000	-14.22859000	-12.16781000
104.19999398	0.00000000	-15.71727000	-14.07480000
104.39999397	0.00000000	-16.50467000	-14.85605000
104.59999396	0.00000000	-16.14173000	-14.07480000
104.79999395	0.00000000	-15.39124000	-12.16781000
104.99999394	0.00000000	-14.18553000	-9.42421200
105.19999392	0.00000000	-12.64764000	-6.40378900
105.39999391	0.00000000	-11.10974000	-4.08464600
105.59999390	0.00000000	-9.99630800	-3.29109200
105.79999389	0.00000000	-9.99630800	-3.66633800
105.99999388	0.00000000	-11.06668000	-5.24729300
106.19999387	0.00000000	-12.22933000	-7.89247000
106.39999385	0.00000000	-13.02288000	-10.53765000
106.59999384	0.00000000	-13.81028000	-12.11860000
106.79999383	0.00000000	-14.13632000	-12.53691000
106.99999382	0.00000000	-13.81028000	-12.16166000
107.19999381	0.00000000	-13.02288000	-10.96211000
107.39999379	0.00000000	-12.27239000	-9.09817800
107.59999378	0.00000000	-11.48499000	-7.19734200
107.79999377	0.00000000	-11.10974000	-6.40378900
107.99999376	0.00000000	-11.10974000	-6.35457700
108.19999375	0.00000000	-11.53420000	-6.77903500
108.39999374	0.00000000	-12.64764000	-7.93553100
108.59999372	0.00000000	-13.81028000	-9.42421200
108.79999371	0.00000000	-14.56078000	-10.58686000
108.99999370	0.00000000	-14.97293000	-10.95595000
109.19999369	0.00000000	-14.56078000	-10.58686000
109.39999368	0.00000000	-13.81028000	-9.42421200
109.59999366	0.00000000	-12.64764000	-7.93553100
109.79999365	0.00000000	-11.48499000	-6.77903500
109.99999364	0.00000000	-10.73450000	-6.35457700
110.19999363	0.00000000	-10.32234000	-6.31151500
110.39999362	0.00000000	-10.73450000	-6.35457700
110.59999360	0.00000000	-11.48499000	-6.77903500
110.79999359	0.00000000	-12.64764000	-7.93553100
110.99999358	0.00000000	-13.76107000	-9.42421200
111.19999357	0.00000000	-14.18553000	-10.62992000
111.39999356	0.00000000	-14.22859000	-11.38041000
111.59999355	0.00000000	-14.18553000	-11.74336000
111.79999353	0.00000000	-13.81028000	-11.00517000
111.99999352	0.00000000	-13.02288000	-9.89173200
112.19999351	0.00000000	-12.27239000	-9.05511800
112.39999350	0.00000000	-11.48499000	-7.89247000
112.59999349	0.00000000	-11.15896000	-6.82209600
112.79999347	0.00000000	-11.48499000	-6.72982200
112.99999346	0.00000000	-12.22933000	-7.09891700
113.19999345	0.00000000	-12.60458000	-7.10506800
113.39999344	0.00000000	-12.69070000	-7.56028500
113.59999343	0.00000000	-13.06594000	-8.26771600
113.79999341	0.00000000	-13.76107000	-9.05511800
113.99999340	0.00000000	-13.81028000	-9.43036400
114.19999339	0.00000000	-13.44119000	-9.47342500
114.39999338	0.00000000	-13.43504000	-9.47342500
114.59999337	0.00000000	-13.02288000	-9.47342500
114.79999336	0.00000000	-12.69070000	-9.51648500
114.99999334	0.00000000	-12.64764000	-9.89173200
115.19999333	0.00000000	-12.64764000	-10.58686000
115.39999332	0.00000000	-12.64764000	-10.58686000
115.59999331	0.00000000	-12.64764000	-9.84867000
115.79999330	0.00000000	-12.64764000	-9.09817800
115.99999328	0.00000000	-12.64764000	-8.26771600
116.19999327	0.00000000	-12.69070000	-7.51722400
116.39999326	0.00000000	-13.06594000	-6.72982200
116.59999325	0.00000000	-13.81028000	-6.40378900
116.79999324	0.00000000	-14.18553000	-6.72982200
116.99999322	0.00000000	-14.18553000	-7.51722400
117.19999321	0.00000000	-13.81028000	-8.26771600
117.39999320	0.00000000	-13.02288000	-9.09817800
117.59999319	0.00000000	-12.27239000	-9.84867000
117.79999318	0.00000000	-11.48499000	-10.62992000
117.99999317	0.00000000	-11.10974000	-11.00517000
118.19999315	0.00000000	-11.10974000	-11.00517000
118.39999314	0.00000000	-11.48499000	-10.58686000
118.59999313	0.00000000	-12.27239000	-9.47342500
118.79999312	0.00000000	-13.06594000	-8.31077700
118.99999311	0.00000000	-14.22859000	-7.51722400
119.19999309	0.00000000	-15.34203000	-6.72982200
119.39999308	0.00000000	-15.71727000	-6.40378900
119.59999307	0.00000000	-15.39124000	-6.72982200
119.79999306	0.00000000	-14.60384000	-7.47416300
119.99999305	0.00000000	-13.81028000	-7.89247000
120.19999303	0.00000000	-12.60458000	-8.31077700
120.39999302	0.00000000	-11.10974000	-9.05511800
120.59999301	0.00000000	-9.95324800	-9.43036400
120.79999300	0.00000000	-9.57800100	-9.47342500
120.99999299	0.00000000	-9.95324800	-9.47342500
121.19999298	0.00000000	-11.10974000	-9.47342500
121.39999296	0.00000000	-12.60458000	-9.47342500
121.59999295	0.00000000	-13.81028000	-9.47342500
121.79999294	0.00000000	-14.60384000	-9.47342500
121.99999293	0.00000000	-15.39124000	-9.43036400
122.19999292	0.00000000	-15.71727000	-9.05511800
122.39999290	0.00000000	-15.39124000	-8.31077700
122.59999289	0.00000000	-14.60384000	-7.93553100
122.79999288	0.00000000	-13.81028000	-7.84940900
122.99999287	0.00000000	-12.64764000	-7.51722400
123.19999286	0.00000000	-11.53420000	-7.14812900
123.39999284	0.00000000	-11.10974000	-7.56028500
123.59999283	0.00000000	-11.06668000	-8.26771600
123.79999282	0.00000000	-11.06668000	-9.05511800
123.99999281	0.00000000	-11.10974000	-9.43036400
124.19999280	0.00000000	-11.48499000	-9.47342500
124.39999279	0.00000000	-12.27239000	-9.47342500
124.59999277	0.00000000	-13.06594000	-9.47342500
124.79999276	0.00000000	-14.18553000	-9.47342500
124.99999275	0.00000000	-14.92372000	-9.43036400
125.19999274	0.00000000	-14.60384000	-9.05511800
125.39999273	0.00000000	-14.27165000	-8.31077700
125.59999271	0.00000000	-14.18553000	-7.93553100
125.79999270	0.00000000	-13.76107000	-7.89247000
125.99999269	0.00000000	-12.64764000	-7.89247000
126.19999268	0.00000000	-11.53420000	-7.89247000
126.39999267	0.00000000	-11.10974000	-7.89247000
126.59999265	0.00000000	-11.06668000	-7.93553100
126.79999264	0.00000000	-11.10974000	-8.31077700
126.99999263	0.00000000	-11.48499000	-9.05511800
127.19999262	0.00000000	-12.27239000	-9.43036400
127.39999261	0.00000000	-13.06594000	-9.47342500
127.59999260	0.00000000	-14.22859000	-9.47342500
127.79999258	0.00000000	-15.29897000	-9.47342500
127.99999257	0.00000000	-15.34203000	-9.43036400
128.19999256	0.00000000	-14.60384000	-9.05511800
128.39999255	0.00000000	-13.81028000	-8.31077700
128.59999254	0.00000000	-12.64764000	-7.93553100
128.79999252	0.00000000	-11.53420000	-7.89247000
128.99999251	0.00000000	-11.10974000	-7.93553100
129.19999250	0.00000000	-11.06668000	-8.26771600
129.39999249	0.00000000	-11.10974000	-8.67987200
129.59999248	0.00000000	-11.53420000	-8.68602300
129.79999246	0.00000000	-12.69070000	-9.09817800
129.99999245	0.00000000	-14.18553000	-9.43036400
130.19999244	0.00000000	-15.29897000	-9.43036400
130.39999243	0.00000000	-15.34203000	-9.05511800
130.59999242	0.00000000	-14.60384000	-8.31077700
130.79999241	0.00000000	-13.85334000	-7.93553100
130.99999239	0.00000000	-13.02288000	-7.89247000
131.19999238	0.00000000	-12.27239000	-7.89247000
131.39999237	0.00000000	-11.48499000	-7.89247000
131.59999236	0.00000000	-11.15896000	-7.93553100
131.79999235	0.00000000	-11.48499000	-8.31077700
131.99999233	0.00000000	-12.22933000	-9.05511800
132.19999232	0.00000000	-12.64764000	-9.43036400
132.39999231	0.00000000	-13.06594000	-9.47342500
132.59999230	0.00000000	-13.81028000	-9.47342500
132.79999229	0.00000000	-14.18553000	-9.43036400
132.99999227	0.00000000	-14.18553000	-9.05511800
133.19999226	0.00000000	-13.81028000	-8.31077700
133.39999225	0.00000000	-13.06594000	-7.89247000
133.59999224	0.00000000	-12.69070000	-7.51722400
133.79999223	0.00000000	-12.64764000	-7.14812900
133.99999222	0.00000000	-12.64764000	-7.56028500
134.19999220	0.00000000	-12.64764000	-8.26771600
134.39999219	0.00000000	-12.64764000	-9.05511800
134.59999218	0.00000000	-12.64764000	-9.47342500
134.79999217	0.00000000	-12.64764000	-9.89173200
134.99999216	0.00000000	-12.64764000	-10.62992000
135.19999214	0.00000000	-12.64764000	-10.95595000
135.39999213	0.00000000	-12.64764000	-10.62992000
135.59999212	0.00000000	-12.64764000	-9.84867000
135.79999211	0.00000000	-12.64764000	-9.09817800
135.99999210	0.00000000	-12.69070000	-8.31077700
136.19999208	0.00000000	-13.06594000	-7.93553100
136.39999207	0.00000000	-13.81028000	-7.89247000
136.59999206	0.00000000	-14.18553000	-7.89247000
136.79999205	0.00000000	-14.22859000	-7.89247000
136.99999204	0.00000000	-14.18553000	-7.93553100
137.19999203	0.00000000	-13.81028000	-8.31077700
137.39999201	0.00000000	-13.02288000	-9.05511800
137.59999200	0.00000000	-12.27239000	-9.43036400
137.79999199	0.00000000	-11.48499000	-9.51648500
137.99999198	0.00000000	-11.15896000	-9.84867000
138.19999197	0.00000000	-11.48499000	-10.21161000
138.39999195	0.00000000	-12.22933000	-9.84867000
138.59999194	0.00000000	-12.64764000	-9.51648500
138.79999193	0.00000000	-13.06594000	-9.43036400
138.99999192	0.00000000	-13.81028000	-9.05511800
139.19999191	0.00000000	-14.18553000	-8.31077700
139.39999189	0.00000000	-14.18553000	-7.93553100
139.59999188	0.00000000	-13.81028000	-7.89247000
139.79999187	0.00000000	-13.06594000	-7.89247000
139.99999186	0.00000000	-12.69070000	-7.89247000
140.19999185	0.00000000	-12.60458000	-7.93553100
140.39999184	0.00000000	-12.27239000	-8.31077700
140.59999182	0.00000000	-11.90330000	-9.09817800
140.79999181	0.00000000	-12.27239000	-9.84867000
140.99999180	0.00000000	-12.64764000	-10.62992000
141.19999179	0.00000000	-13.06594000	-10.95595000
141.39999178	0.00000000	-13.81028000	-10.62992000
141.59999176	0.00000000	-14.18553000	-9.84867000
141.79999175	0.00000000	-14.18553000	-9.09817800
141.99999174	0.00000000	-13.81028000	-8.26771600
142.19999173	0.00000000	-13.06594000	-7.51722400
142.39999172	0.00000000	-12.69070000	-6.72982200
142.59999170	0.00000000	-12.64764000	-6.40378900
142.79999169	0.00000000	-12.64764000	-6.77903500
142.99999168	0.00000000	-12.64764000	-7.93553100
143.19999167	0.00000000	-12.64764000	-9.38115100
143.39999166	0.00000000	-12.69070000	-10.21161000
143.59999165	0.00000000	-13.06594000	-10.26698000
143.79999163	0.00000000	-13.76107000	-10.62992000
143.99999162	0.00000000	-13.76107000	-10.58686000
144.19999161	0.00000000	-13.06594000	-9.84867000
144.39999160	0.00000000	-12.69070000	-9.09817800
144.59999159	0.00000000	-12.64764000	-8.26771600
144.79999157	0.00000000	-12.64764000	-7.51722400
144.99999156	0.00000000	-12.64764000	-6.72982200
145.19999155	0.00000000	-12.64764000	-6.40378900
145.39999154	0.00000000	-12.64764000	-6.72982200
145.59999153	0.00000000	-12.69070000	-7.51722400
145.79999151	0.00000000	-13.02288000	-8.26771600
145.99999150	0.00000000	-13.43504000	-9.05511800
146.19999149	0.00000000	-13.39813000	-9.43036400
146.39999148	0.00000000	-13.43504000	-9.51648500
146.59999147	0.00000000	-13.02288000	-9.84867000
146.79999146	0.00000000	-12.69070000	-10.21161000
146.99999144	0.00000000	-12.64764000	-9.84867000
147.19999143	0.00000000	-12.64764000	-9.47342500
147.39999142	0.00000000	-12.64764000	-9.05511800
147.59999141	0.00000000	-12.64764000	-8.31077700
147.79999140	0.00000000	-12.64764000	-7.93553100
147.99999138	0.00000000	-12.69070000	-7.89247000
148.19999137	0.00000000	-13.06594000	-7.93553100
148.39999136	0.00000000	-13.81028000	-8.31077700
148.59999135	0.00000000	-14.18553000	-9.05511800
148.79999134	0.00000000	-14.18553000	-9.43036400
148.99999132	0.00000000	-13.81028000	-9.47342500
149.19999131	0.00000000	-13.06594000	-9.47342500
149.39999130	0.00000000	-12.69070000	-9.47342500
149.59999129	0.00000000	-12.64764000	-9.47342500
149.79999128	0.00000000	-12.64764000	-9.47342500
149.99999127	0.00000000	-12.64764000	-9.43036400
150.19999125	0.00000000	-12.64764000	-9.05511800
150.39999124	0.00000000	-12.69070000	-8.31077700
150.59999123	0.00000000	-13.02288000	-7.93553100
150.79999122	0.00000000	-13.43504000	-7.89247000
150.99999121	0.00000000	-13.44119000	-7.93553100
151.19999119	0.00000000	-13.85334000	-8.26771600
151.39999118	0.00000000	-14.18553000	-8.67987200
151.59999117	0.00000000	-14.18553000	-8.64296200
151.79999116	0.00000000	-13.81028000	-8.72293300
151.99999115	0.00000000	-13.06594000	-8.68602300
152.19999113	0.00000000	-12.69070000	-9.09817800
152.39999112	0.00000000	-12.64764000	-9.43036400
152.59999111	0.00000000	-12.64764000	-9.47342500
152.79999110	0.00000000	-12.64764000	-9.43036400
152.99999109	0.00000000	-12.64764000	-9.05511800
153.19999108	0.00000000	-12.64764000	-8.31077700
153.39999106	0.00000000	-12.69070000	-7.93553100
153.59999105	0.00000000	-13.06594000	-7.89247000
153.79999104	0.00000000	-13.81028000	-7.93553100
153.99999103	0.00000000	-14.18553000	-8.26771600
154.19999102	0.00000000	-14.22859000	-8.63681000
154.39999100	0.00000000	-14.22859000	-8.31077700
154.59999099	0.00000000	-14.18553000	-8.35998900
154.79999098	0.00000000	-13.81028000	-9.05511800
154.99999097	0.00000000	-13.06594000	-9.43036400
155.19999096	0.00000000	-12.69070000	-9.47342500
155.39999094	0.00000000	-12.64764000	-9.47342500
155.59999093	0.00000000	-12.64764000	-9.47342500
155.79999092	0.00000000	-12.64764000	-9.47342500
155.99999091	0.00000000	-12.64764000	-9.43036400
156.19999090	0.00000000	-12.69070000	-9.05511800
156.39999089	0.00000000	-13.06594000	-8.31077700
156.59999087	0.00000000	-13.85334000	-7.93553100
156.79999086	0.00000000	-14.56078000	-7.89247000
156.99999085	0.00000000	-14.97293000	-7.89247000
157.19999084	0.00000000	-14.60384000	-7.89247000
157.39999083	0.00000000	-14.27165000	-7.89247000
157.59999081	0.00000000	-14.18553000	-7.93553100
157.79999080	0.00000000	-13.81028000	-8.31077700
157.99999079	0.00000000	-13.06594000	-9.05511800
158.19999078	0.00000000	-12.69070000	-9.43036400
158.39999077	0.00000000	-12.64764000	-9.47342500
158.59999075	0.00000000	-12.64764000	-9.47342500
158.79999074	0.00000000	-12.64764000	-9.43036400
158.99999073	0.00000000	-12.64764000	-9.05511800
159.19999072	0.00000000	-12.64764000	-8.31077700
159.39999071	0.00000000	-12.69070000	-7.93553100
159.59999070	0.00000000	-13.02288000	-7.89247000
159.79999068	0.00000000	-13.43504000	-7.89247000
159.99999067	0.00000000	-13.44119000	-7.89247000
160.19999066	0.00000000	-13.81028000	-7.89247000
160.39999065	0.00000000	-13.81028000	-7.89247000
160.59999064	0.00000000	-13.44119000	-7.93553100
160.79999062	0.00000000	-13.43504000	-8.31077700
160.99999061	0.00000000	-13.02288000	-9.05511800
161.19999060	0.00000000	-12.69070000	-9.43036400
161.39999059	0.00000000	-12.64764000	-9.47342500
161.59999058	0.00000000	-12.64764000	-9.47342500
161.79999056	0.00000000	-12.64764000	-9.47342500
161.99999055	0.00000000	-12.64764000	-9.43036400
162.19999054	0.00000000	-12.64764000	-9.05511800
162.39999053	0.00000000	-12.64764000	-8.31077700
162.59999052	0.00000000	-12.64764000	-7.93553100
162.79999051	0.00000000	-12.64764000	-7.89247000
162.99999049	0.00000000	-12.69070000	-7.89247000
163.19999048	0.00000000	-13.02288000	-7.93553100
163.39999047	0.00000000	-13.43504000	-8.31077700
163.59999046	0.00000000	-13.44119000	-9.05511800
163.79999045	0.00000000	-13.85334000	-9.43036400
163.99999043	0.00000000	-14.18553000	-9.47342500
164.19999042	0.00000000	-14.18553000	-9.47342500
164.39999041	0.00000000	-13.81028000	-9.47342500
164.59999040	0.00000000	-13.06594000	-9.47342500
164.79999039	0.00000000	-12.69070000	-9.47342500
164.99999037	0.00000000	-12.64764000	-9.47342500
165.19999036	0.00000000	-12.64764000	-9.47342500
165.39999035	0.00000000	-12.64764000	-9.47342500
165.59999034	0.00000000	-12.64764000	-9.43036400
165.79999033	0.00000000	-12.69070000	-9.05511800
165.99999032	0.00000000	-13.02288000	-8.31077700
166.19999030	0.00000000	-13.43504000	-7.93553100
166.39999029	0.00000000	-13.44119000	-7.89247000
166.59999028	0.00000000	-13.81028000	-7.93553100
166.79999027	0.00000000	-13.76107000	-8.26771600
166.99999026	0.00000000	-13.06594000	-8.67987200
167.19999024	0.00000000	-12.69070000	-8.68602300
167.39999023	0.00000000	-12.64764000	-9.09817800
167.59999022	0.00000000	-12.64764000	-9.43036400
167.79999021	0.00000000	-12.64764000	-9.47342500
167.99999020	0.00000000	-12.64764000	-9.47342500
168.19999018	0.00000000	-12.64764000	-9.47342500
168.39999017	0.00000000	-12.64764000	-9.43036400
168.59999016	0.00000000	-12.64764000	-9.09817800
168.79999015	0.00000000	-12.64764000	-8.68602300
168.99999014	0.00000000	-12.69070000	-8.72293300
169.19999013	0.00000000	-13.02288000	-8.64296200
169.39999011	0.00000000	-13.43504000	-8.72293300
169.59999010	0.00000000	-13.44119000	-8.64296200
169.79999009	0.00000000	-13.81028000	-8.72293300
169.99999008	0.00000000	-13.76107000	-8.68602300
170.19999007	0.00000000	-13.06594000	-9.05511800
170.39999005	0.00000000	-12.69070000	-9.05511800
170.59999004	0.00000000	-12.64764000	-8.72908400
170.79999003	0.00000000	-12.64764000	-9.09817800
170.99999002	0.00000000	-12.64764000	-9.43036400
171.19999001	0.00000000	-12.64764000	-9.47342500
171.39998999	0.00000000	-12.64764000	-9.47342500
171.59998998	0.00000000	-12.64764000	-9.47342500
171.79998997	0.00000000	-12.64764000	-9.47342500
171.99998996	0.00000000	-12.64764000	-9.47342500
172.19998995	0.00000000	-12.69070000	-9.47342500
172.39998994	0.00000000	-13.02288000	-9.47342500
172.59998992	0.00000000	-13.39198000	-9.47342500
172.79998991	0.00000000	-13.02288000	-9.43036400
172.99998990	0.00000000	-12.69070000	-9.05511800
173.19998989	0.00000000	-12.64764000	-8.35998900
173.39998988	0.00000000	-12.64764000	-8.35998900
173.59998986	0.00000000	-12.64764000	-9.00590400
173.79998985	0.00000000	-12.64764000	-9.05511800
173.99998984	0.00000000	-12.64764000	-8.72908400
174.19998983	0.00000000	-12.64764000	-9.09817800
174.39998982	0.00000000	-12.64764000	-9.43036400
174.59998980	0.00000000	-12.64764000	-9.47342500
174.79998979	0.00000000	-12.69070000	-9.47342500
174.99998978	0.00000000	-13.02288000	-9.47342500
175.19998977	0.00000000	-13.39198000	-9.43036400
175.39998976	0.00000000	-13.02288000	-9.05511800
175.59998975	0.00000000	-12.69070000	-8.31077700
175.79998973	0.00000000	-12.64764000	-7.98474400
175.99998972	0.00000000	-12.64764000	-8.26771600
176.19998971	0.00000000	-12.64764000	-8.67987200
176.39998970	0.00000000	-12.64764000	-8.64296200
176.59998969	0.00000000	-12.64764000	-8.72293300
176.79998967	0.00000000	-12.64764000	-8.68602300
176.99998966	0.00000000	-12.64764000	-9.09817800
177.19998965	0.00000000	-12.64764000	-9.43036400
177.39998964	0.00000000	-12.64764000	-9.47342500
177.59998963	0.00000000	-12.64764000	-9.47342500
177.79998961	0.00000000	-12.64764000	-9.47342500
177.99998960	0.00000000	-12.69070000	-9.47342500
178.19998959	0.00000000	-13.02288000	-9.47342500
178.39998958	0.00000000	-13.39198000	-9.43036400
178.59998957	0.00000000	-13.02288000	-9.05511800
178.79998956	0.00000000	-12.69070000	-8.31077700
178.99998954	0.00000000	-12.64764000	-7.93553100
179.19998953	0.00000000	-12.64764000	-7.93553100
179.39998952	0.00000000	-12.64764000	-8.31077700
179.59998951	0.00000000	-12.64764000	-9.05511800
179.79998950	0.00000000	-12.64764000	-9.43036400
179.99998948	0.00000000	-12.64764000	-9.47342500
180.19998947	0.00000000	-12.69070000	-9.47342500
180.39998946	0.00000000	-13.02288000	-9.47342500
180.59998945	0.00000000	-13.39198000	-9.47342500
180.79998944	0.00000000	-13.06594000	-9.47342500
180.99998942	0.00000000	-13.11516000	-9.47342500
181.19998941	0.00000000	-13.76107000	-9.43036400
181.39998940	0.00000000	-13.76107000	-9.05511800
181.59998939	0.00000000	-13.06594000	-8.31077700
181.79998938	0.00000000	-12.69070000	-7.93553100
181.99998937	0.00000000	-12.64764000	-7.89247000
182.19998935	0.00000000	-12.64764000	-7.89247000
182.39998934	0.00000000	-12.64764000	-7.93553100
182.59998933	0.00000000	-12.64764000	-8.31077700
182.79998932	0.00000000	-12.64764000	-9.09817800
182.99998931	0.00000000	-12.64764000	-9.79945900
183.19998929	0.00000000	-12.64764000	-10.21161000
183.39998928	0.00000000	-12.64764000	-9.84867000
183.59998927	0.00000000	-12.64764000	-9.51648500
183.79998926	0.00000000	-12.64764000	-9.43036400
183.99998925	0.00000000	-12.69070000	-9.05511800
184.19998923	0.00000000	-13.06594000	-8.31077700
184.39998922	0.00000000	-13.81028000	-7.93553100
184.59998921	0.00000000	-14.18553000	-7.89247000
184.79998920	0.00000000	-14.18553000	-7.89247000
184.99998919	0.00000000	-13.81028000	-7.89247000
185.19998918	0.00000000	-13.06594000	-7.89247000
185.39998916	0.00000000	-12.69070000	-7.93553100
185.59998915	0.00000000	-12.64764000	-8.31077700
185.79998914	0.00000000	-12.64764000	-9.05511800
185.99998913	0.00000000	-12.64764000	-9.43036400
186.19998912	0.00000000	-12.64764000	-9.47342500
186.39998910	0.00000000	-12.64764000	-9.47342500
186.59998909	0.00000000	-12.69070000	-9.47342500
186.79998908	0.00000000	-13.06594000	-9.47342500
186.99998907	0.00000000	-13.81028000	-9.47342500
187.19998906	0.00000000	-14.18553000	-9.43036400
187.39998904	0.00000000	-14.22859000	-9.05511800
187.59998903	0.00000000	-14.18553000	-8.31077700
187.79998902	0.00000000	-13.85334000	-7.93553100
187.99998901	0.00000000	-13.44119000	-7.89247000
188.19998900	0.00000000	-13.43504000	-7.93553100
188.39998899	0.00000000	-13.02288000	-8.31077700
188.59998897	0.00000000	-12.73991000	-9.09817800
188.79998896	0.00000000	-13.02288000	-9.79945900
188.99998895	0.00000000	-13.39198000	-10.21161000
189.19998894	0.00000000	-13.02288000	-9.84867000
189.39998893	0.00000000	-12.69070000	-9.51648500
189.59998891	0.00000000	-12.69070000	-9.47342500
189.79998890	0.00000000	-13.06594000	-9.47342500
189.99998889	0.00000000	-13.81028000	-9.43036400
190.19998888	0.00000000	-14.18553000	-9.05511800
190.39998887	0.00000000	-14.22859000	-8.31077700
190.59998885	0.00000000	-14.22859000	-7.98474400
190.79998884	0.00000000	-14.18553000	-8.26771600
190.99998883	0.00000000	-13.81028000	-8.63681000
191.19998882	0.00000000	-13.06594000	-8.31077700
191.39998881	0.00000000	-12.69070000	-8.35998900
191.59998880	0.00000000	-12.64764000	-9.05511800
191.79998878	0.00000000	-12.64764000	-9.43036400
191.99998877	-0.15871060	-12.64764000	-9.47342500
192.19998876	0.00000000	-12.64764000	-9.47342500
192.39998875	0.00000000	-12.64764000	-9.47342500
192.59998874	0.00000000	-12.69070000	-9.47342500
192.79998872	0.00000000	-13.06594000	-9.47342500
192.99998871	0.00000000	-13.81028000	-9.47342500
193.19998870	0.00000000	-14.18553000	-9.43036400
193.39998869	0.00000000	-14.18553000	-9.09817800
193.59998868	0.00000000	-13.81028000	-8.68602300
193.79998866	0.00000000	-13.06594000	-8.67987200
193.99998865	0.00000000	-12.69070000	-8.31077700
194.19998864	0.00000000	-12.64764000	-8.31077700
194.39998863	0.00000000	-12.64764000	-8.63681000
194.59998862	0.00000000	-12.64764000	-8.31077700
194.79998861	0.00000000	-12.64764000	-8.35998900
194.99998859	0.00000000	-12.69070000	-9.00590400
195.19998858	0.00000000	-13.02288000	-9.00590400
195.39998857	0.00000000	-13.39198000	-8.31077700
195.59998856	0.00000000	-13.06594000	-7.98474400
195.79998855	0.00000000	-13.11516000	-8.31077700
195.99998853	0.00000000	-13.76107000	-9.05511800
