Time	Channel A	Channel B	Channel C
(us)	(V)	(mV)	(mV)

-4.59999956	0.00000000	53.75861000	26.10113000
-4.39999957	0.00000000	53.75861000	26.42101000
-4.19999958	0.00000000	53.75861000	26.42101000
-3.99999959	0.00000000	53.80167000	26.10113000
-3.79999960	0.00000000	54.13385000	26.46407000
-3.59999962	0.00000000	54.50295000	26.79626000
-3.39999963	0.00000000	54.13385000	26.79626000
-3.19999964	0.00000000	53.80167000	26.46407000
-2.99999965	0.00000000	53.75861000	26.05807000
-2.79999966	0.00000000	53.75861000	26.04577000
-2.59999968	0.00000000	53.75861000	25.63976000
-2.39999969	0.00000000	53.75861000	25.30758000
-2.19999970	0.00000000	53.75861000	25.26452000
-1.99999971	0.00000000	53.75861000	25.26452000
-1.79999972	0.00000000	53.75861000	25.26452000
-1.59999973	0.00000000	53.75861000	25.26452000
-1.39999975	0.00000000	53.75861000	25.30758000
-1.19999976	0.00000000	53.75861000	25.63976000
-0.99999977	0.00000000	53.75861000	26.00270000
-0.79999978	0.00000000	53.75861000	25.63976000
-0.59999979	0.00000000	53.75861000	25.30758000
-0.39999981	0.15871060	53.75861000	25.26452000
-0.19999982	0.47736220	53.75861000	25.26452000
0.00000017	0.79601380	53.75861000	25.26452000
0.20000016	1.11466500	53.75861000	25.26452000
0.40000015	0.95533960	53.75861000	25.26452000
0.60000013	0.63668800	53.75861000	25.26452000
0.80000012	-0.15871060	53.75861000	25.26452000
1.00000011	-1.11466500	53.75861000	25.30758000
1.20000010	-2.07062000	53.75861000	25.68282000
1.40000009	-2.70792300	53.75861000	26.42101000
1.60000008	-2.70792300	53.75861000	26.79626000
1.80000006	-1.75196900	53.75861000	26.83932000
2.00000005	-0.15871060	53.75861000	26.83932000
2.20000004	1.91129400	53.75861000	26.79626000
2.40000003	3.82258900	53.75861000	26.42101000
2.60000002	5.09719500	53.75861000	25.68282000
2.80000000	5.25652100	53.75861000	25.30758000
2.99999999	3.82258900	53.75861000	25.26452000
3.19999998	1.11466500	53.75861000	25.26452000
3.39999997	-2.22994600	53.75861000	25.26452000
3.59999996	-5.57517200	53.75861000	25.30758000
3.79999994	-7.48646600	53.75861000	25.68282000
3.99999993	-7.80511800	53.75861000	26.42101000
4.19999992	-6.21247500	53.75861000	26.79626000
4.39999991	-2.70792300	53.80167000	26.83932000
4.59999990	1.75196900	54.13385000	26.83932000
4.79999989	5.89382400	54.50295000	26.79626000
4.99999987	8.76107300	54.13385000	26.42101000
5.19999986	9.39837600	53.80167000	25.68282000
5.39999985	7.80511800	53.75861000	25.30758000
5.59999984	3.98191400	53.75861000	25.26452000
5.79999983	-0.63668800	53.75861000	25.30758000
5.99999981	-5.25652100	53.75861000	25.68282000
6.19999980	-8.44242100	53.80167000	26.42101000
6.39999979	-9.39837600	54.17691000	26.79626000
6.59999978	-8.12377000	54.92125000	26.83932000
6.79999977	-4.77854300	55.29650000	26.83932000
6.99999975	-0.63668800	55.29650000	26.83932000
7.19999974	3.50393700	54.96432000	26.88238000
7.39999973	6.53112700	54.59522000	27.21457000
7.59999972	7.80511800	54.96432000	27.58366000
7.79999971	7.00848900	55.29650000	27.21457000
7.99999970	4.61921700	55.29650000	26.88238000
8.19999968	1.27399100	54.96432000	26.83932000
8.39999967	-1.91129400	54.59522000	26.83932000
8.59999966	-4.14124000	54.96432000	26.83932000
8.79999965	-5.25652100	55.29650000	26.88238000
8.99999964	-4.77854300	55.33957000	27.21457000
9.19999962	-3.34522600	55.33957000	27.58366000
9.39999961	-1.43331700	55.33957000	27.21457000
9.59999960	0.47736220	55.33957000	26.88238000
9.79999959	1.91129400	55.33957000	26.83932000
9.99999958	2.54859700	55.33957000	26.83932000
10.19999956	2.38927200	55.33957000	26.83932000
10.39999955	1.75196900	55.33957000	26.83932000
10.59999954	0.79601380	55.29650000	26.83932000
10.79999953	0.00000000	54.96432000	26.83932000
10.99999952	-0.63668800	54.59522000	26.83932000
11.19999951	-0.95533960	54.96432000	26.83932000
11.39999949	-0.95533960	55.29650000	26.83932000
11.59999948	-0.79601380	55.33957000	26.83932000
11.79999947	-0.47736220	55.29650000	26.79626000
11.99999946	-0.15871060	54.92125000	26.46407000
12.19999945	-0.15871060	54.17691000	26.05807000
12.39999943	-0.15871060	53.85088000	26.04577000
12.59999942	0.00000000	54.17691000	25.68282000
12.79999941	0.00000000	54.87204000	25.68282000
12.99999940	0.00000000	54.92125000	26.00270000
13.19999939	0.15871060	54.55216000	25.63976000
13.39999937	0.00000000	54.54601000	25.30758000
13.59999936	0.00000000	54.17691000	25.26452000
13.79999935	0.00000000	54.17691000	25.26452000
13.99999934	-0.15871060	54.54601000	25.26452000
14.19999933	-0.15871060	54.50910000	25.26452000
14.39999932	-0.15871060	54.54601000	25.26452000
14.59999930	0.00000000	54.13385000	25.26452000
14.79999929	0.00000000	53.80167000	25.26452000
14.99999928	0.00000000	53.75861000	25.26452000
15.19999927	0.00000000	53.75861000	25.26452000
15.39999926	0.00000000	53.75861000	25.26452000
15.59999924	0.00000000	53.75861000	25.26452000
15.79999923	0.00000000	53.75861000	25.26452000
15.99999922	0.00000000	53.75861000	25.26452000
16.19999921	0.00000000	53.80167000	25.30758000
16.39999920	0.00000000	54.13385000	25.63976000
16.59999919	-0.15871060	54.54601000	26.00270000
16.79999917	0.00000000	54.55216000	25.63976000
16.99999916	0.00000000	55.00738000	25.35679000
17.19999915	0.00000000	55.71481000	25.68282000
17.39999914	0.00000000	56.50221000	26.42101000
17.59999913	0.00000000	56.82825000	26.79626000
17.79999911	0.00000000	56.45300000	26.83932000
17.99999910	0.00000000	55.33957000	26.83932000
18.19999909	0.00000000	54.13385000	26.83932000
18.39999908	0.00000000	52.92200000	26.83932000
18.59999907	0.00000000	51.01501000	26.83932000
18.79999905	0.00000000	49.56939000	26.83932000
18.99999904	0.00000000	49.52633000	26.83932000
19.19999903	0.00000000	50.68897000	26.83932000
19.39999902	0.00000000	52.68823000	26.83932000
19.59999901	0.00000000	55.85014000	26.83932000
19.79999900	0.00000000	60.03937000	26.83932000
19.99999898	0.00000000	63.89641000	26.83932000
20.19999897	0.00000000	66.18479000	26.83932000
20.39999896	0.00000000	66.55389000	26.83932000
20.59999895	0.00000000	64.09325000	26.83932000
20.79999894	0.00000000	58.68602000	26.83932000
20.99999892	0.00000000	50.97194000	26.83932000
21.19999891	0.00000000	43.28863000	26.83932000
21.39999890	0.00000000	37.47539000	26.83932000
21.59999889	0.00000000	34.82406000	26.83932000
21.79999888	0.00000000	36.44808000	26.83932000
21.99999886	0.00000000	42.72884000	26.83932000
22.19999885	0.00000000	53.19881000	26.83932000
22.39999884	0.00000000	65.94488000	26.83932000
22.59999883	0.00000000	77.86047000	26.83932000
22.79999882	0.00000000	85.90674000	26.83932000
22.99999881	0.00000000	87.35236000	26.83932000
23.19999879	0.00000000	81.12081000	26.88238000
23.39999878	0.00000000	67.95644000	27.25763000
23.59999877	0.00000000	50.59670000	28.00197000
23.79999876	0.00000000	33.19390000	28.37721000
23.99999875	0.00000000	19.69734000	28.42027000
24.19999873	0.00000000	13.18898000	28.37721000
24.39999872	0.00000000	16.01870000	27.95275000
24.59999871	0.00000000	28.40182000	26.75320000
24.79999870	0.00000000	48.12377000	24.88927000
24.99999869	0.00000000	70.50935000	22.93922000
25.19999867	0.00000000	90.56348000	21.81964000
25.39999866	0.00000000	103.26650000	21.40748000
25.59999865	0.00000000	105.13040000	22.23794000
25.79999864	0.00000000	95.44782000	24.19414000
25.99999863	0.00000000	75.76894000	27.34990000
26.19999862	0.00000000	51.10728000	31.53297000
26.39999860	0.00000000	27.51599000	35.38385000
26.59999859	0.00000000	10.11319000	37.66609000
26.79999858	0.00000000	2.76820900	38.03519000
26.99999857	0.00000000	7.04355200	35.62377000
27.19999856	0.00000000	22.12106000	30.60408000
27.39999854	0.00000000	44.86958000	23.59129000
27.59999853	0.00000000	69.58046000	15.92027000
27.79999852	0.00000000	90.47120000	9.37500000
27.99999851	0.00000000	103.21730000	5.97933100
28.19999850	0.00000000	104.79820000	6.77288300
28.39999848	0.00000000	95.21407000	12.24778000
28.59999847	0.00000000	77.48523000	21.54281000
28.79999846	0.00000000	55.85014000	33.15699000
28.99999845	0.00000000	35.32849000	44.68504000
29.19999844	0.00000000	20.20792000	53.13730000
29.39999843	0.00000000	13.18898000	56.16388000
29.59999841	0.00000000	15.46506000	52.67593000
29.79999840	0.00000000	25.84276000	42.96875000
29.99999839	0.00000000	41.70767000	29.07234000
30.19999838	0.00000000	59.48573000	13.60728000
30.39999837	0.00000000	75.35064000	0.12918310
30.59999835	0.00000000	85.82062000	-8.37229300
30.79999834	0.00000000	89.02558000	-9.86097400
30.99999833	0.00000000	85.21161000	-3.63558100
31.19999832	0.00000000	75.90427000	9.46727400
31.39999831	0.00000000	62.78297000	26.46407000
31.59999829	0.00000000	48.91732000	43.47933000
31.79999828	0.00000000	37.98597000	57.41264000
31.99999827	0.00000000	31.32997000	65.08366000
32.19999826	0.00000000	29.42298000	64.70840000
32.39999825	0.00000000	33.28617000	56.20694000
32.59999824	0.00000000	41.70767000	41.52312000
32.79999822	0.00000000	52.13459000	23.77584000
32.99999821	0.00000000	62.22933000	6.77288300
33.19999820	0.00000000	69.99876000	-5.63484200
33.39999819	0.00000000	74.28026000	-11.44193000
33.59999818	0.00000000	74.28026000	-9.48572700
33.79999816	0.00000000	70.04182000	0.12918310
33.99999815	0.00000000	62.73376000	14.80684000
34.19999814	0.00000000	54.26919000	31.44069000
34.39999813	0.00000000	46.96112000	46.86885000
34.59999812	0.00000000	42.68578000	57.32037000
34.79999810	0.00000000	42.21825000	60.80831000
34.99999809	0.00000000	44.86958000	56.99434000
35.19999808	0.00000000	49.52633000	46.54281000
35.39999807	0.00000000	55.33957000	32.32037000
35.59999806	0.00000000	61.06668000	17.26747000
35.79999805	0.00000000	64.92371000	5.32726300
35.99999803	0.00000000	65.71727000	-0.89812980
36.19999802	0.00000000	63.80413000	-0.56594490
36.39999801	0.00000000	59.57185000	5.97933100
36.59999800	0.00000000	54.26919000	16.80610000
36.79999799	0.00000000	50.03691000	29.86589000
36.99999797	0.00000000	48.03149000	41.71383000
37.19999796	0.00000000	48.03149000	48.26525000
37.39999795	0.00000000	49.98769000	48.35752000
37.59999794	0.00000000	53.80167000	42.63656000
37.79999793	0.00000000	58.03395000	33.06471000
37.99999791	0.00000000	61.57111000	22.69931000
38.19999790	0.00000000	64.22859000	14.24705000
38.39999789	0.00000000	64.96678000	10.02092000
38.59999788	0.00000000	63.10900000	11.17741000
38.79999787	0.00000000	60.03937000	17.26747000
38.99999786	0.00000000	56.45300000	26.42101000
39.19999784	0.00000000	52.22071000	35.24852000
39.39999783	0.00000000	48.45595000	41.43085000
39.59999782	0.00000000	46.82579000	43.66388000
39.79999781	0.00000000	47.15182000	40.59424000
39.99999780	0.00000000	48.36368000	32.93553000
40.19999778	0.00000000	51.15034000	23.35138000
40.39999777	0.00000000	55.33957000	14.15477000
40.59999776	0.00000000	59.61491000	8.43996000
40.79999775	0.00000000	63.10900000	8.01550200
40.99999774	0.00000000	65.43430000	12.62303000
41.19999772	0.00000000	65.80955000	21.08145000
41.39999771	0.00000000	64.27164000	31.02239000
41.59999770	0.00000000	61.19586000	39.53002000
41.79999769	0.00000000	57.33883000	44.54970000
41.99999768	0.00000000	53.80167000	45.33095000
42.19999767	0.00000000	50.68897000	41.43085000
42.39999765	0.00000000	48.36368000	33.80905000
42.59999764	0.00000000	47.61319000	24.61245000
42.79999763	0.00000000	48.36368000	16.94144000
42.99999762	0.00000000	50.68897000	12.62303000
43.19999761	0.00000000	53.75861000	12.15551000
43.39999759	0.00000000	56.82825000	14.84990000
43.59999758	0.00000000	59.15354000	19.82652000
43.79999757	0.00000000	59.99015000	26.00270000
43.99999756	0.00000000	60.08243000	31.39763000
44.19999755	0.00000000	60.03937000	35.29773000
44.39999753	0.00000000	59.66412000	36.82948000
44.59999752	0.00000000	58.91978000	35.71604000
44.79999751	0.00000000	58.54454000	32.68946000
44.99999750	0.00000000	58.45841000	28.79552000
45.19999749	0.00000000	58.03395000	24.98154000
45.39999748	0.00000000	56.82825000	21.87500000
45.59999746	0.00000000	54.92125000	20.70620000
45.79999745	0.00000000	52.55290000	20.98917000
45.99999744	0.00000000	50.22145000	22.19488000
46.19999743	0.00000000	47.90231000	24.10187000
46.39999742	0.00000000	46.45054000	26.42101000
46.59999740	0.00000000	46.91806000	28.37721000
46.79999739	0.00000000	50.03691000	29.90895000
46.99999738	0.00000000	55.43184000	30.64714000
47.19999737	0.00000000	61.62032000	29.90895000
47.39999736	0.00000000	67.39050000	28.37721000
47.59999734	0.00000000	71.20448000	26.42101000
47.79999733	0.00000000	71.57972000	24.10187000
47.99999732	0.00000000	68.46087000	22.23794000
48.19999731	0.00000000	62.22933000	21.40748000
48.39999730	0.00000000	53.75861000	21.81964000
48.59999729	0.00000000	45.29404000	22.98843000
48.79999727	0.00000000	39.14862000	25.35064000
48.99999726	0.00000000	36.82332000	28.37721000
49.19999725	0.00000000	39.19168000	31.11466000
49.39999724	0.00000000	45.71235000	33.02165000
49.59999723	0.00000000	55.00738000	33.76599000
49.79999721	0.00000000	64.60383000	32.60334000
49.99999720	0.00000000	72.32407000	29.90895000
50.19999719	0.00000000	75.76894000	26.42101000
50.39999718	0.00000000	74.28026000	22.57013000
50.59999717	0.00000000	68.46087000	19.54355000
50.79999715	0.00000000	59.66412000	18.33784000
50.99999714	0.00000000	50.41215000	19.12524000
51.19999713	0.00000000	43.47318000	21.40748000
51.39999712	0.00000000	39.94217000	24.93233000
51.59999711	0.00000000	40.77264000	28.79552000
51.79999710	0.00000000	45.71235000	32.64640000
51.99999708	0.00000000	53.42642000	35.29773000
52.19999707	0.00000000	61.48499000	35.71604000
52.39999706	0.00000000	68.04256000	34.18430000
52.59999705	0.00000000	71.07529000	31.11466000
52.79999704	0.00000000	69.62352000	27.25763000
52.99999702	0.00000000	64.64690000	23.77584000
53.19999701	0.00000000	58.08316000	21.08145000
53.39999700	0.00000000	51.15034000	19.96801000
53.59999699	0.00000000	45.80462000	21.03838000
53.79999698	0.00000000	43.89148000	23.30832000
53.99999696	0.00000000	45.80462000	25.68282000
54.19999695	0.00000000	51.15034000	28.42027000
54.39999694	0.00000000	57.99089000	31.02239000
54.59999693	0.00000000	63.81028000	32.13582000
54.79999692	0.00000000	67.30437000	31.06545000
54.99999691	0.00000000	68.08563000	28.83858000
55.19999689	0.00000000	65.76648000	26.93159000
55.39999688	0.00000000	61.19586000	25.72589000
55.59999687	0.00000000	55.75787000	25.35679000
55.79999686	0.00000000	50.77510000	25.77510000
55.99999685	0.00000000	47.33637000	27.25763000
56.19999683	0.00000000	46.96112000	29.16461000
56.39999682	0.00000000	49.56939000	30.28420000
56.59999681	0.00000000	53.80167000	30.64714000
56.79999680	0.00000000	58.45841000	29.44759000
56.99999679	0.00000000	62.64764000	26.79626000
57.19999677	0.00000000	64.96678000	23.72662000
57.39999676	0.00000000	64.64690000	21.08145000
57.59999675	0.00000000	62.77681000	19.96801000
57.79999674	0.00000000	60.03937000	21.12451000
57.99999673	0.00000000	56.92052000	24.19414000
58.19999672	0.00000000	53.85088000	28.46333000
58.39999670	0.00000000	51.56865000	33.06471000
58.59999669	0.00000000	51.15034000	36.87869000
58.79999668	0.00000000	52.26993000	38.36737000
58.99999667	0.00000000	54.17691000	36.82948000
59.19999666	0.00000000	56.50221000	32.56028000
59.39999664	0.00000000	58.40920000	26.42101000
59.59999663	0.00000000	59.61491000	19.91880000
59.79999662	0.00000000	59.99015000	15.31742000
59.99999661	0.00000000	59.61491000	13.69340000
60.19999660	0.00000000	58.45841000	14.89911000
60.39999658	0.00000000	56.96358000	18.80536000
60.59999657	0.00000000	55.80708000	25.35064000
60.79999656	0.00000000	55.43184000	32.60334000
60.99999655	0.00000000	55.75787000	38.41043000
61.19999654	0.00000000	56.50221000	41.48006000
61.39999653	0.00000000	56.92052000	41.06176000
61.59999651	0.00000000	57.33883000	36.82948000
61.79999650	0.00000000	58.03395000	29.90895000
61.99999649	0.00000000	57.99089000	22.19488000
62.19999648	0.00000000	56.92052000	15.27436000
62.39999647	0.00000000	55.75787000	11.04208000
62.59999645	0.00000000	55.00738000	10.62377000
62.79999644	0.00000000	54.59522000	13.73647000
62.99999643	0.00000000	55.00738000	19.91880000
63.19999642	0.00000000	55.75787000	27.95275000
63.39999641	0.00000000	56.96358000	35.25467000
63.59999639	0.00000000	58.45841000	39.94832000
63.79999638	0.00000000	59.61491000	41.52312000
63.99999637	0.00000000	59.99015000	39.99138000
64.19999636	0.00000000	59.61491000	35.71604000
64.39999635	0.00000000	58.45841000	29.58292000
64.59999634	0.00000000	56.92052000	23.03149000
64.79999632	0.00000000	55.38263000	17.96260000
64.99999631	0.00000000	54.26919000	14.84990000
65.19999630	0.00000000	54.22613000	14.11171000
65.39999629	0.00000000	54.96432000	16.38779000
65.59999628	0.00000000	55.75787000	20.57087000
65.79999626	0.00000000	56.92052000	25.26452000
65.99999625	0.00000000	58.03395000	29.90895000
66.19999624	0.00000000	58.45841000	33.80905000
66.39999623	0.00000000	58.45841000	36.13435000
66.59999622	0.00000000	58.03395000	36.96481000
66.79999620	0.00000000	56.92052000	36.17741000
66.99999619	0.00000000	55.80708000	34.27042000
67.19999618	0.00000000	55.43184000	31.53297000
67.39999617	0.00000000	55.80708000	28.42027000
67.59999616	0.00000000	57.01279000	25.30758000
67.79999615	0.00000000	58.91978000	22.57013000
67.99999613	0.00000000	61.19586000	20.61393000
68.19999612	0.00000000	62.73376000	19.45743000
68.39999611	0.00000000	63.10900000	19.45743000
68.59999610	0.00000000	62.31545000	20.66314000
68.79999609	0.00000000	59.94709000	23.03149000
68.99999607	0.00000000	56.50221000	26.88238000
69.19999606	0.00000000	52.64517000	31.11466000
69.39999605	0.00000000	49.56939000	34.64567000
69.59999604	0.00000000	48.08071000	37.34006000
69.79999603	0.00000000	48.87426000	38.45349000
69.99999601	0.00000000	52.35605000	37.29700000
70.19999600	0.00000000	57.33883000	34.18430000
70.39999599	0.00000000	62.73376000	29.53371000
70.59999598	0.00000000	66.97219000	24.15108000
70.79999597	0.00000000	68.92839000	19.54355000
70.99999596	0.00000000	68.55315000	16.80610000
71.19999594	0.00000000	65.80955000	16.43085000
71.39999593	0.00000000	61.19586000	18.33784000
71.59999592	0.00000000	55.75787000	22.19488000
71.79999591	0.00000000	50.73204000	26.79626000
71.99999590	0.00000000	46.87500000	31.06545000
72.19999588	0.00000000	45.38017000	34.18430000
72.39999587	0.00000000	46.91806000	35.71604000
72.59999586	0.00000000	51.10728000	35.34079000
72.79999585	0.00000000	56.50221000	33.06471000
72.99999584	0.00000000	61.57111000	30.00123000
73.19999582	0.00000000	65.85260000	26.88853000
73.39999581	0.00000000	68.51008000	24.19414000
73.59999580	0.00000000	68.51008000	22.65625000
73.79999579	0.00000000	65.85260000	22.61319000
73.99999578	0.00000000	61.62032000	23.72662000
74.19999577	0.00000000	56.96358000	25.26452000
74.39999575	0.00000000	52.68823000	26.75320000
74.59999574	0.00000000	49.61245000	27.49138000
74.79999573	0.00000000	48.45595000	26.79626000
74.99999572	0.00000000	49.56939000	25.68282000
75.19999571	0.00000000	52.26993000	24.93233000
75.39999569	0.00000000	55.71481000	24.56939000
75.59999568	0.00000000	59.19660000	25.35064000
75.79999567	0.00000000	61.52805000	26.88853000
75.99999566	0.00000000	62.69069000	28.83858000
76.19999565	0.00000000	62.31545000	31.15772000
76.39999563	0.00000000	60.50073000	33.02165000
76.59999562	0.00000000	58.96899000	33.76599000
76.79999561	0.00000000	58.12622000	32.56028000
76.99999560	0.00000000	57.33883000	29.49065000
77.19999559	0.00000000	56.96358000	25.26452000
77.39999558	0.00000000	56.92052000	21.03838000
77.59999556	0.00000000	56.92052000	17.96260000
77.79999555	0.00000000	56.92052000	16.80610000
77.99999554	0.00000000	56.87746000	18.01181000
78.19999553	0.00000000	56.50221000	21.45669000
78.39999552	0.00000000	55.75787000	26.46407000
78.59999550	0.00000000	55.38263000	31.48376000
78.79999549	0.00000000	55.38263000	35.75910000
78.99999548	0.00000000	55.85014000	38.41043000
79.19999547	0.00000000	57.38804000	38.41043000
79.39999546	0.00000000	59.66412000	35.75910000
79.59999544	0.00000000	61.57111000	31.48376000
79.79999543	0.00000000	62.73376000	26.46407000
79.99999542	0.00000000	62.69069000	21.49975000
80.19999541	0.00000000	61.19586000	18.38706000
80.39999540	0.00000000	58.87672000	17.54429000
80.59999539	0.00000000	56.54527000	18.29478000
80.79999537	0.00000000	54.17691000	20.66314000
80.99999536	0.00000000	52.35605000	24.10187000
81.19999535	0.00000000	51.94389000	28.00197000
81.39999534	0.00000000	53.47564000	31.48991000
81.59999533	0.00000000	55.75787000	34.22736000
81.79999531	0.00000000	58.50147000	35.75910000
81.99999530	0.00000000	61.15280000	35.75910000
82.19999529	0.00000000	62.73376000	34.27042000
82.39999528	0.00000000	63.15207000	31.95128000
82.59999527	0.00000000	62.73376000	29.58292000
82.79999525	0.00000000	61.15280000	26.79626000
82.99999524	0.00000000	58.54454000	23.77584000
83.19999523	0.00000000	56.26845000	21.45669000
83.39999522	0.00000000	55.43184000	20.62008000
83.59999521	0.00000000	55.38263000	20.62008000
83.79999520	0.00000000	55.75787000	21.45669000
83.99999518	0.00000000	56.54527000	23.77584000
84.19999517	0.00000000	57.29576000	26.88853000
84.39999516	0.00000000	58.08316000	30.37647000
84.59999515	0.00000000	58.50147000	33.80905000
84.79999514	0.00000000	58.87672000	35.71604000
84.99999512	0.00000000	59.24582000	35.80217000
85.19999511	0.00000000	58.87672000	34.60261000
85.39999510	0.00000000	58.59375000	32.22810000
85.59999509	0.00000000	58.91978000	28.32800000
85.79999508	0.00000000	59.66412000	23.77584000
85.99999506	0.00000000	59.99015000	19.91880000
86.19999505	0.00000000	59.66412000	18.01181000
86.39999504	0.00000000	58.87672000	18.33784000
86.59999503	0.00000000	58.08316000	20.70620000
86.79999502	0.00000000	56.92052000	24.56939000
86.99999501	0.00000000	55.80708000	29.58292000
87.19999499	0.00000000	55.43184000	34.14124000
87.39999498	0.00000000	55.75787000	36.87869000
87.59999497	0.00000000	56.58833000	37.29700000
87.79999496	0.00000000	57.75713000	35.71604000
87.99999495	0.00000000	59.66412000	32.22810000
88.19999493	0.00000000	61.15280000	27.21457000
88.39999492	0.00000000	61.57111000	22.28100000
88.59999491	0.00000000	61.19586000	18.75615000
88.79999490	0.00000000	60.08243000	17.63656000
88.99999489	0.00000000	58.87672000	18.75615000
89.19999487	0.00000000	57.70792000	22.28100000
89.39999486	0.00000000	56.17618000	27.21457000
89.59999485	0.00000000	55.43184000	32.22810000
89.79999484	0.00000000	55.38263000	35.67298000
89.99999483	0.00000000	55.80708000	36.87254000
90.19999482	0.00000000	56.96358000	35.67298000
90.39999480	0.00000000	58.45841000	32.22810000
90.59999479	0.00000000	59.61491000	27.21457000
90.79999478	0.00000000	60.03937000	22.23794000
90.99999477	0.00000000	60.03937000	18.38090000
91.19999476	0.00000000	59.66412000	16.89222000
91.39999474	0.00000000	58.91978000	18.43012000
91.59999473	0.00000000	58.54454000	22.61319000
91.79999472	0.00000000	58.50147000	28.00197000
91.99999471	0.00000000	58.50147000	32.97859000
92.19999470	0.00000000	58.50147000	36.45423000
92.39999468	0.00000000	58.50147000	37.20472000
92.59999467	0.00000000	58.50147000	35.29773000
92.79999466	0.00000000	58.40920000	31.06545000
92.99999465	0.00000000	57.66486000	25.72589000
93.19999464	0.00000000	56.17618000	21.12451000
93.39999463	0.00000000	55.43184000	18.38706000
93.59999461	0.00000000	55.38263000	18.01181000
93.79999460	0.00000000	55.80708000	19.91880000
93.99999459	0.00000000	57.01279000	23.77584000
94.19999458	0.00000000	58.91978000	28.37721000
94.39999457	0.00000000	61.24508000	32.60334000
94.59999455	0.00000000	63.15207000	35.24852000
94.79999454	0.00000000	64.31471000	35.29773000
94.99999453	0.00000000	64.27164000	33.02165000
95.19999452	0.00000000	62.73376000	29.53371000
95.39999451	0.00000000	60.03937000	25.35679000
95.59999449	0.00000000	56.92052000	21.91806000
95.79999448	0.00000000	53.85088000	20.70620000
95.99999447	0.00000000	51.52559000	21.03838000
96.19999446	0.00000000	50.77510000	22.65625000
96.39999445	0.00000000	51.56865000	25.68282000
96.59999444	0.00000000	54.26919000	29.11540000
96.79999442	0.00000000	58.12622000	31.44069000
96.99999441	0.00000000	61.99557000	32.64640000
97.19999440	0.00000000	65.47736000	32.60334000
97.39999439	0.00000000	67.39050000	31.11466000
97.59999438	0.00000000	67.43970000	28.83858000
97.79999436	0.00000000	65.85260000	26.93159000
97.99999435	0.00000000	62.73376000	25.72589000
98.19999434	0.00000000	58.50147000	25.30758000
98.39999433	0.00000000	54.26919000	25.30758000
98.59999432	0.00000000	51.19340000	25.72589000
98.79999430	0.00000000	49.98769000	26.83932000
98.99999429	0.00000000	50.73204000	27.95275000
99.19999428	0.00000000	52.68823000	28.37721000
99.39999427	0.00000000	55.80708000	28.46333000
99.59999426	0.00000000	59.66412000	28.83858000
99.79999425	0.00000000	63.15207000	29.58292000
99.99999423	0.00000000	65.85260000	30.00123000
100.19999422	0.00000000	67.01525000	30.41954000
100.39999421	0.00000000	66.27091000	31.11466000
100.59999420	0.00000000	64.35777000	31.06545000
100.79999419	0.00000000	61.62032000	29.95201000
100.99999417	0.00000000	58.54454000	28.42027000
101.19999416	0.00000000	55.80708000	26.83932000
101.39999415	0.00000000	53.85088000	25.26452000
101.59999414	0.00000000	52.68823000	23.77584000
101.79999413	0.00000000	52.77436000	23.03149000
101.99999411	0.00000000	54.64444000	23.81890000
102.19999410	0.00000000	57.66486000	25.72589000
102.39999409	0.00000000	59.99015000	28.42027000
102.59999408	0.00000000	61.66338000	31.11466000
102.79999407	0.00000000	63.20127000	33.06471000
102.99999406	0.00000000	64.27164000	34.22736000
103.19999404	0.00000000	63.89641000	34.18430000
103.39999403	0.00000000	62.03863000	32.64640000
103.59999402	0.00000000	60.12549000	29.95201000
103.79999401	0.00000000	58.50147000	26.83932000
103.99999400	0.00000000	56.96358000	23.77584000
104.19999398	0.00000000	55.80708000	21.49975000
104.39999397	0.00000000	55.43184000	21.12451000
104.59999396	0.00000000	55.80708000	22.61319000
104.79999395	0.00000000	56.96358000	25.30758000
104.99999394	0.00000000	58.50147000	28.37721000
105.19999392	0.00000000	60.03937000	31.06545000
105.39999391	0.00000000	61.19586000	32.60334000
105.59999390	0.00000000	61.62032000	32.64640000
105.79999389	0.00000000	61.62032000	31.48991000
105.99999388	0.00000000	61.19586000	29.58292000
106.19999387	0.00000000	60.03937000	27.25763000
106.39999385	0.00000000	58.54454000	25.30758000
106.59999384	0.00000000	57.38804000	23.81890000
106.79999383	0.00000000	57.01279000	23.44980000
106.99999382	0.00000000	57.33883000	24.93233000
107.19999381	0.00000000	58.12622000	26.79626000
107.39999379	0.00000000	58.91978000	28.37721000
107.59999378	0.00000000	60.08243000	29.53371000
107.79999377	0.00000000	61.15280000	29.90895000
107.99999376	0.00000000	61.15280000	29.53371000
108.19999375	0.00000000	60.03937000	28.37721000
108.39999374	0.00000000	58.54454000	26.83932000
108.59999372	0.00000000	57.38804000	25.30758000
108.79999371	0.00000000	56.96358000	24.15108000
108.99999370	0.00000000	56.92052000	23.77584000
109.19999369	0.00000000	56.96358000	24.19414000
109.39999368	0.00000000	57.38804000	25.72589000
109.59999366	0.00000000	58.50147000	27.95891000
109.79999365	0.00000000	59.66412000	29.53371000
109.99999364	0.00000000	60.45767000	30.37647000
110.19999363	0.00000000	61.19586000	31.11466000
110.39999362	0.00000000	61.19586000	31.06545000
110.59999360	0.00000000	60.45767000	29.95201000
110.79999359	0.00000000	59.66412000	28.42027000
110.99999358	0.00000000	58.50147000	26.88853000
111.19999357	0.00000000	57.38804000	25.72589000
111.39999356	0.00000000	57.01279000	25.30758000
111.59999355	0.00000000	57.33883000	25.30758000
111.79999353	0.00000000	58.08316000	25.72589000
111.99999352	0.00000000	58.50147000	26.88853000
112.19999351	0.00000000	58.91978000	28.37721000
112.39999350	0.00000000	59.70718000	29.53371000
112.59999349	0.00000000	60.41461000	29.95817000
112.79999347	0.00000000	60.82677000	30.00123000
112.99999346	0.00000000	60.45767000	30.00123000
113.19999345	0.00000000	60.12549000	29.95817000
113.39999344	0.00000000	60.08243000	29.58292000
113.59999343	0.00000000	60.08243000	28.83858000
113.79999341	0.00000000	60.03937000	28.46333000
113.99999340	0.00000000	59.70718000	28.42027000
114.19999339	0.00000000	59.33809000	28.37721000
114.39999338	0.00000000	59.66412000	28.00197000
114.59999337	0.00000000	59.66412000	27.25763000
114.79999336	0.00000000	59.33809000	26.88238000
114.99999334	0.00000000	59.70718000	26.83932000
115.19999333	0.00000000	60.03937000	26.83932000
115.39999332	0.00000000	60.08243000	26.88238000
115.59999331	0.00000000	60.08243000	27.25763000
115.79999330	0.00000000	60.08243000	28.04503000
115.99999328	0.00000000	60.08243000	28.79552000
116.19999327	0.00000000	60.08243000	29.62598000
116.39999326	0.00000000	60.08243000	30.32726000
116.59999325	0.00000000	60.03937000	30.73942000
116.79999324	0.00000000	59.70718000	30.32726000
116.99999322	0.00000000	59.33809000	29.58292000
117.19999321	0.00000000	59.70718000	28.42027000
117.39999320	0.00000000	60.08243000	27.25763000
117.59999319	0.00000000	60.50073000	26.46407000
117.79999318	0.00000000	61.24508000	25.68282000
117.99999317	0.00000000	61.62032000	25.35679000
118.19999315	0.00000000	61.62032000	25.68282000
118.39999314	0.00000000	61.24508000	26.46407000
118.59999313	0.00000000	60.45767000	27.21457000
118.79999312	0.00000000	59.70718000	28.04503000
118.99999311	0.00000000	58.87672000	28.79552000
119.19999309	0.00000000	58.12622000	29.58292000
119.39999308	0.00000000	57.38804000	29.95817000
119.59999307	0.00000000	57.38804000	29.95817000
119.79999306	0.00000000	58.12622000	29.58292000
119.99999305	0.00000000	58.91978000	28.79552000
120.19999303	0.00000000	60.12549000	28.04503000
120.39999302	0.00000000	61.62032000	27.25763000
120.59999301	0.00000000	62.77681000	26.88238000
120.79999300	0.00000000	63.15207000	26.83932000
120.99999299	0.00000000	62.77681000	26.83932000
121.19999298	0.00000000	61.62032000	26.83932000
121.39999296	0.00000000	60.08243000	26.83932000
121.59999295	0.00000000	58.54454000	26.83932000
121.79999294	0.00000000	57.38804000	26.83932000
121.99999293	0.00000000	56.96358000	26.88238000
122.19999292	0.00000000	56.92052000	27.25763000
122.39999290	0.00000000	56.96358000	28.00197000
122.59999289	0.00000000	57.38804000	28.37721000
122.79999288	0.00000000	58.54454000	28.42027000
122.99999287	0.00000000	60.03937000	28.42027000
123.19999286	0.00000000	61.24508000	28.42027000
123.39999284	0.00000000	61.99557000	28.42027000
123.59999283	0.00000000	62.40772000	28.37721000
123.79999282	0.00000000	62.03863000	28.00197000
123.99999281	0.00000000	61.66338000	27.25763000
124.19999280	0.00000000	61.19586000	26.88238000
124.39999279	0.00000000	60.08243000	26.83932000
124.59999277	0.00000000	58.91978000	26.83932000
124.79999276	0.00000000	58.12622000	26.88238000
124.99999275	0.00000000	57.38804000	27.25763000
125.19999274	0.00000000	57.38804000	28.00197000
125.39999273	0.00000000	58.12622000	28.37721000
125.59999271	0.00000000	58.87672000	28.46333000
125.79999270	0.00000000	59.70718000	28.79552000
125.99999269	0.00000000	60.50073000	29.16461000
126.19999268	0.00000000	61.62032000	28.79552000
126.39999267	0.00000000	62.40772000	28.46333000
126.59999265	0.00000000	62.41388000	28.42027000
126.79999264	0.00000000	62.40772000	28.37721000
126.99999263	0.00000000	61.62032000	28.00197000
127.19999262	0.00000000	60.50073000	27.25763000
127.39999261	0.00000000	59.66412000	26.88238000
127.59999260	0.00000000	58.50147000	26.88238000
127.79999258	0.00000000	57.43110000	27.25763000
127.99999257	0.00000000	57.38804000	28.00197000
128.19999256	0.00000000	58.12622000	28.42027000
128.39999255	0.00000000	58.91978000	28.79552000
128.59999254	0.00000000	60.12549000	29.20767000
128.79999252	0.00000000	61.62032000	29.17077000
128.99999251	0.00000000	62.73376000	29.20767000
129.19999250	0.00000000	62.77681000	28.79552000
129.39999249	0.00000000	62.03863000	28.42027000
129.59999248	0.00000000	61.24508000	28.00197000
129.79999246	0.00000000	60.08243000	27.30684000
129.99999245	0.00000000	58.96899000	27.25763000
130.19999244	0.00000000	58.54454000	27.62672000
130.39999243	0.00000000	58.54454000	27.63287000
130.59999242	0.00000000	58.91978000	28.04503000
130.79999241	0.00000000	59.66412000	28.42027000
130.99999239	0.00000000	60.08243000	28.79552000
131.19999238	0.00000000	60.50073000	29.16461000
131.39999237	0.00000000	61.24508000	28.79552000
131.59999236	0.00000000	61.62032000	28.46333000
131.79999235	0.00000000	61.66338000	28.37721000
131.99999233	0.00000000	61.62032000	28.00197000
132.19999232	0.00000000	61.24508000	27.25763000
132.39999231	0.00000000	60.50073000	26.88238000
132.59999230	0.00000000	60.12549000	26.88238000
132.79999229	0.00000000	60.08243000	27.25763000
132.99999227	0.00000000	60.08243000	28.04503000
133.19999226	0.00000000	60.08243000	28.79552000
133.39999225	0.00000000	60.08243000	29.58292000
133.59999224	0.00000000	60.08243000	29.95817000
133.79999223	0.00000000	60.08243000	29.95817000
133.99999222	0.00000000	60.08243000	29.58292000
134.19999220	0.00000000	60.08243000	28.79552000
134.39999219	0.00000000	60.08243000	28.04503000
134.59999218	0.00000000	60.12549000	27.25763000
134.79999217	0.00000000	60.50073000	26.88238000
134.99999216	0.00000000	61.24508000	26.83932000
135.19999214	0.00000000	61.62032000	26.83932000
135.39999213	0.00000000	61.66338000	26.88238000
135.59999212	0.00000000	61.66338000	27.30684000
135.79999211	0.00000000	61.62032000	28.42027000
135.99999210	0.00000000	61.19586000	29.53371000
136.19999208	0.00000000	60.08243000	29.95817000
136.39999207	0.00000000	59.01205000	30.00123000
136.59999206	0.00000000	58.96899000	29.95817000
136.79999205	0.00000000	59.66412000	29.58292000
136.99999204	0.00000000	60.03937000	28.79552000
137.19999203	0.00000000	60.12549000	28.04503000
137.39999201	0.00000000	60.50073000	27.25763000
137.59999200	0.00000000	61.24508000	26.88238000
137.79999199	0.00000000	61.62032000	26.83932000
137.99999198	0.00000000	61.66338000	26.83932000
138.19999197	0.00000000	61.62032000	26.83932000
138.39999195	0.00000000	61.24508000	26.83932000
138.59999194	0.00000000	60.45767000	26.88238000
138.79999193	0.00000000	59.70718000	27.25763000
138.99999192	0.00000000	58.96899000	28.00197000
139.19999191	0.00000000	58.96899000	28.37721000
139.39999189	0.00000000	59.66412000	28.42027000
139.59999188	0.00000000	60.08243000	28.42027000
139.79999187	0.00000000	60.50073000	28.42027000
139.99999186	0.00000000	61.24508000	28.42027000
140.19999185	0.00000000	61.62032000	28.37721000
140.39999184	0.00000000	61.66338000	28.00197000
140.59999182	0.00000000	61.62032000	27.25763000
140.79999181	0.00000000	61.28814000	26.88238000
140.99999180	0.00000000	60.87598000	26.83932000
141.19999179	0.00000000	60.86983000	26.83932000
141.39999178	0.00000000	60.45767000	26.88238000
141.59999176	0.00000000	60.12549000	27.25763000
141.79999175	0.00000000	60.12549000	28.04503000
141.99999174	0.00000000	60.45767000	28.79552000
142.19999173	0.00000000	60.86983000	29.58292000
142.39999172	0.00000000	60.87598000	29.95817000
142.59999170	0.00000000	61.28814000	29.95817000
142.79999169	0.00000000	61.57111000	29.58292000
142.99999168	0.00000000	61.24508000	28.79552000
143.19999167	0.00000000	60.50073000	28.04503000
143.39999166	0.00000000	60.12549000	27.25763000
143.59999165	0.00000000	60.08243000	26.88238000
143.79999163	0.00000000	60.08243000	26.88238000
143.99999162	0.00000000	60.12549000	27.25763000
144.19999161	0.00000000	60.50073000	28.04503000
144.39999160	0.00000000	61.28814000	28.79552000
144.59999159	0.00000000	61.99557000	29.58292000
144.79999157	0.00000000	62.40772000	29.95817000
144.99999156	0.00000000	62.03863000	30.00123000
145.19999155	0.00000000	61.70644000	30.00123000
145.39999154	0.00000000	61.62032000	29.95817000
145.59999153	0.00000000	61.24508000	29.58292000
145.79999151	0.00000000	60.50073000	28.79552000
145.99999150	0.00000000	60.17470000	28.04503000
146.19999149	0.00000000	60.50073000	27.25763000
146.39999148	0.00000000	61.24508000	26.88238000
146.59999147	0.00000000	61.57111000	26.83932000
146.79999146	0.00000000	61.28814000	26.88238000
146.99999144	0.00000000	60.91904000	27.30684000
147.19999143	0.00000000	61.28814000	28.42027000
147.39999142	0.00000000	61.62032000	29.53371000
147.59999141	0.00000000	61.66338000	29.95817000
147.79999140	0.00000000	61.66338000	30.00123000
147.99999138	0.00000000	61.62032000	29.95817000
148.19999137	0.00000000	61.24508000	29.58292000
148.39999136	0.00000000	60.54995000	28.83858000
148.59999135	0.00000000	60.50073000	28.46333000
148.79999134	0.00000000	60.86983000	28.37721000
148.99999132	0.00000000	60.87598000	28.00197000
149.19999131	0.00000000	61.28814000	27.30684000
149.39999130	0.00000000	61.62032000	27.30684000
149.59999129	0.00000000	61.66338000	28.00197000
149.79999128	0.00000000	61.66338000	28.37721000
149.99999127	0.00000000	61.66338000	28.42027000
150.19999125	0.00000000	61.66338000	28.46333000
150.39999124	0.00000000	61.66338000	28.79552000
150.59999123	0.00000000	61.66338000	29.16461000
150.79999122	0.00000000	61.66338000	28.79552000
150.99999121	0.00000000	61.62032000	28.46333000
151.19999119	0.00000000	61.24508000	28.42027000
151.39999118	0.00000000	60.50073000	28.42027000
151.59999117	0.00000000	60.12549000	28.42027000
151.79999116	0.00000000	60.12549000	28.42027000
151.99999115	0.00000000	60.50073000	28.42027000
152.19999113	0.00000000	61.24508000	28.42027000
152.39999112	0.00000000	61.62032000	28.42027000
152.59999111	0.00000000	61.66338000	28.42027000
152.79999110	0.00000000	61.66338000	28.42027000
152.99999109	0.00000000	61.66338000	28.42027000
153.19999108	0.00000000	61.66338000	28.42027000
153.39999106	0.00000000	61.66338000	28.42027000
153.59999105	0.00000000	61.62032000	28.42027000
153.79999104	0.00000000	61.24508000	28.42027000
153.99999103	0.00000000	60.50073000	28.42027000
154.19999102	0.00000000	60.12549000	28.42027000
154.39999100	0.00000000	60.08243000	28.42027000
154.59999099	0.00000000	60.08243000	28.37721000
154.79999098	0.00000000	60.12549000	28.00197000
154.99999097	0.00000000	60.50073000	27.25763000
155.19999096	0.00000000	61.28814000	26.93159000
155.39999094	0.00000000	62.03863000	27.25763000
155.59999093	0.00000000	62.77681000	28.00197000
155.79999092	0.00000000	62.77681000	28.37721000
155.99999091	0.00000000	62.08169000	28.42027000
156.19999090	0.00000000	61.70644000	28.42027000
156.39999089	0.00000000	61.62032000	28.46333000
156.59999087	0.00000000	61.24508000	28.83858000
156.79999086	0.00000000	60.50073000	29.58292000
156.99999085	0.00000000	60.12549000	29.90895000
157.19999084	0.00000000	60.08243000	29.58292000
157.39999083	0.00000000	60.12549000	28.83858000
157.59999081	0.00000000	60.50073000	28.46333000
157.79999080	0.00000000	61.24508000	28.42027000
157.99999079	0.00000000	61.62032000	28.37721000
158.19999078	0.00000000	61.70644000	28.04503000
158.39999077	0.00000000	62.08169000	27.67593000
158.59999075	0.00000000	62.77681000	28.04503000
158.79999074	0.00000000	62.77681000	28.37721000
158.99999073	0.00000000	62.08169000	28.42027000
159.19999072	0.00000000	61.70644000	28.46333000
159.39999071	0.00000000	61.66338000	28.83858000
159.59999070	0.00000000	61.66338000	29.58292000
159.79999068	0.00000000	61.66338000	29.95817000
159.99999067	0.00000000	61.66338000	30.00123000
160.19999066	0.00000000	61.66338000	29.95817000
160.39999065	0.00000000	61.66338000	29.58292000
160.59999064	0.00000000	61.66338000	28.83858000
160.79999062	0.00000000	61.66338000	28.46333000
160.99999061	0.00000000	61.66338000	28.42027000
161.19999060	0.00000000	61.66338000	28.42027000
161.39999059	0.00000000	61.70644000	28.42027000
161.59999058	0.00000000	62.08169000	28.46333000
161.79999056	0.00000000	62.77681000	28.79552000
161.99999055	0.00000000	62.77681000	29.20767000
162.19999054	0.00000000	62.08169000	29.17077000
162.39999053	0.00000000	61.70644000	29.25074000
162.59999052	0.00000000	61.66338000	29.17077000
162.79999051	0.00000000	61.66338000	29.25074000
162.99999049	0.00000000	61.66338000	29.21383000
163.19999048	0.00000000	61.66338000	29.58292000
163.39999047	0.00000000	61.66338000	29.53371000
163.59999046	0.00000000	61.66338000	28.83858000
163.79999045	0.00000000	61.66338000	28.46333000
163.99999043	0.00000000	61.66338000	28.42027000
164.19999042	0.00000000	61.66338000	28.42027000
164.39999041	0.00000000	61.66338000	28.42027000
164.59999040	0.00000000	61.70644000	28.42027000
164.79999039	0.00000000	62.08169000	28.42027000
164.99999037	0.00000000	62.82603000	28.42027000
165.19999036	0.00000000	63.20127000	28.42027000
165.39999035	0.00000000	63.24434000	28.42027000
165.59999034	0.00000000	63.20127000	28.42027000
165.79999033	0.00000000	62.82603000	28.42027000
165.99999032	0.00000000	62.08169000	28.42027000
166.19999030	0.00000000	61.66338000	28.42027000
166.39999029	0.00000000	61.28814000	28.42027000
166.59999028	0.00000000	60.91904000	28.42027000
166.79999027	0.00000000	61.28814000	28.42027000
166.99999026	0.00000000	61.62032000	28.42027000
167.19999024	0.00000000	61.66338000	28.42027000
167.39999023	0.00000000	61.66338000	28.42027000
167.59999022	0.00000000	61.70644000	28.42027000
167.79999021	0.00000000	62.03863000	28.42027000
167.99999020	0.00000000	62.40772000	28.42027000
168.19999018	0.00000000	62.03863000	28.37721000
168.39999017	0.00000000	61.70644000	28.04503000
168.59999016	0.00000000	61.66338000	27.67593000
168.79999015	0.00000000	61.66338000	28.04503000
168.99999014	0.00000000	61.66338000	28.37721000
169.19999013	0.00000000	61.66338000	28.42027000
169.39999011	0.00000000	61.66338000	28.42027000
169.59999010	0.00000000	61.66338000	28.42027000
169.79999009	0.00000000	61.66338000	28.42027000
169.99999008	0.00000000	61.66338000	28.42027000
170.19999007	0.00000000	61.66338000	28.42027000
170.39999005	0.00000000	61.66338000	28.42027000
170.59999004	0.00000000	61.66338000	28.42027000
170.79999003	0.00000000	61.70644000	28.42027000
170.99999002	0.00000000	62.08169000	28.42027000
171.19999001	0.00000000	62.77681000	28.42027000
171.39998999	0.00000000	62.77681000	28.42027000
171.59998998	0.00000000	62.08169000	28.42027000
171.79998997	0.00000000	61.70644000	28.42027000
171.99998996	0.00000000	61.66338000	28.42027000
172.19998995	0.00000000	61.66338000	28.42027000
172.39998994	0.00000000	61.70644000	28.42027000
172.59998992	0.00000000	62.03863000	28.42027000
172.79998991	0.00000000	62.40772000	28.46333000
172.99998990	0.00000000	62.08169000	28.83858000
173.19998989	0.00000000	62.08169000	29.58292000
173.39998988	0.00000000	62.40772000	29.90895000
173.59998986	0.00000000	62.03863000	29.58292000
173.79998985	0.00000000	61.75566000	28.83858000
173.99998984	0.00000000	62.08169000	28.46333000
174.19998983	0.00000000	62.82603000	28.42027000
174.39998982	0.00000000	63.15207000	28.42027000
174.59998980	0.00000000	62.86909000	28.42027000
174.79998979	0.00000000	62.50000000	28.42027000
174.99998978	0.00000000	62.86909000	28.42027000
175.19998977	0.00000000	63.20127000	28.42027000
175.39998976	0.00000000	63.24434000	28.42027000
175.59998975	0.00000000	63.20127000	28.42027000
175.79998973	0.00000000	62.86909000	28.42027000
175.99998972	0.00000000	62.45694000	28.42027000
176.19998971	0.00000000	62.49385000	28.42027000
176.39998970	0.00000000	62.45694000	28.42027000
176.59998969	0.00000000	62.82603000	28.42027000
176.79998967	0.00000000	62.82603000	28.42027000
176.99998966	0.00000000	62.50000000	28.42027000
177.19998965	0.00000000	62.86909000	28.42027000
177.39998964	0.00000000	63.20127000	28.42027000
177.59998963	0.00000000	63.24434000	28.42027000
177.79998961	0.00000000	63.20127000	28.42027000
177.99998960	0.00000000	62.86909000	28.42027000
178.19998959	0.00000000	62.45694000	28.46333000
178.39998958	0.00000000	62.49385000	28.75246000
178.59998957	0.00000000	62.45694000	28.78937000
178.79998956	0.00000000	62.86909000	28.05118000
178.99998954	0.00000000	63.15207000	28.08809000
179.19998953	0.00000000	62.86909000	28.37721000
179.39998952	0.00000000	62.50000000	28.42027000
179.59998951	0.00000000	62.82603000	28.42027000
179.79998950	0.00000000	62.82603000	28.42027000
179.99998948	0.00000000	62.50000000	28.42027000
180.19998947	0.00000000	62.86909000	28.42027000
180.39998946	0.00000000	63.15207000	28.42027000
180.59998945	0.00000000	62.86909000	28.42027000
180.79998944	0.00000000	62.45694000	28.42027000
180.99998942	0.00000000	62.45079000	28.42027000
181.19998941	0.00000000	62.03863000	28.42027000
181.39998940	0.00000000	61.75566000	28.46333000
181.59998939	0.00000000	62.08169000	28.83858000
181.79998938	0.00000000	62.82603000	29.58292000
181.99998937	0.00000000	63.20127000	29.90895000
182.19998935	0.00000000	63.24434000	29.58292000
182.39998934	0.00000000	63.24434000	28.83858000
182.59998933	0.00000000	63.24434000	28.46333000
182.79998932	0.00000000	63.24434000	28.42027000
182.99998931	0.00000000	63.24434000	28.42027000
183.19998929	0.00000000	63.24434000	28.42027000
183.39998928	0.00000000	63.24434000	28.42027000
183.59998927	0.00000000	63.24434000	28.42027000
183.79998926	0.00000000	63.24434000	28.42027000
183.99998925	0.00000000	63.24434000	28.42027000
184.19998923	0.00000000	63.20127000	28.42027000
184.39998922	0.00000000	62.86909000	28.46333000
184.59998921	0.00000000	62.45694000	28.79552000
184.79998920	0.00000000	62.49385000	29.16461000
184.99998919	0.00000000	62.45694000	28.79552000
185.19998918	0.00000000	62.86909000	28.46333000
185.39998916	0.00000000	63.20127000	28.42027000
185.59998915	0.00000000	63.24434000	28.42027000
185.79998914	0.00000000	63.24434000	28.42027000
185.99998913	0.00000000	63.24434000	28.42027000
186.19998912	0.00000000	63.24434000	28.42027000
186.39998910	0.00000000	63.24434000	28.42027000
186.59998909	0.00000000	63.24434000	28.42027000
186.79998908	0.00000000	63.20127000	28.42027000
186.99998907	0.00000000	62.82603000	28.42027000
187.19998906	0.00000000	62.08169000	28.46333000
187.39998904	0.00000000	61.75566000	28.83858000
187.59998903	0.00000000	62.08169000	29.58292000
187.79998902	0.00000000	62.82603000	29.90895000
187.99998901	0.00000000	63.20127000	29.58292000
188.19998900	0.00000000	63.24434000	28.83858000
188.39998899	0.00000000	63.24434000	28.46333000
188.59998897	0.00000000	63.24434000	28.42027000
188.79998896	0.00000000	63.24434000	28.42027000
188.99998895	0.00000000	63.24434000	28.42027000
189.19998894	0.00000000	63.24434000	28.42027000
189.39998893	0.00000000	63.24434000	28.42027000
189.59998891	0.00000000	63.24434000	28.42027000
189.79998890	0.00000000	63.24434000	28.42027000
189.99998889	0.00000000	63.24434000	28.42027000
190.19998888	0.00000000	63.24434000	28.46333000
190.39998887	0.00000000	63.24434000	28.83858000
190.59998885	0.00000000	63.24434000	29.58292000
190.79998884	0.00000000	63.24434000	29.95817000
190.99998883	0.00000000	63.24434000	30.00123000
191.19998882	0.00000000	63.24434000	30.00123000
191.39998881	0.00000000	63.24434000	30.00123000
191.59998880	0.00000000	63.24434000	30.00123000
191.79998878	0.00000000	63.24434000	30.00123000
191.99998877	0.00000000	63.24434000	29.95817000
192.19998876	0.00000000	63.24434000	29.62598000
192.39998875	0.00000000	63.24434000	29.21383000
192.59998874	0.00000000	63.24434000	29.20767000
192.79998872	0.00000000	63.24434000	28.79552000
192.99998871	0.00000000	63.24434000	28.51255000
193.19998870	0.00000000	63.24434000	28.83858000
193.39998869	0.00000000	63.24434000	29.58292000
193.59998868	0.00000000	63.24434000	29.95817000
193.79998866	0.00000000	63.24434000	30.00123000
193.99998865	0.00000000	63.24434000	30.00123000
194.19998864	0.00000000	63.24434000	30.00123000
194.39998863	0.00000000	63.24434000	30.00123000
194.59998862	0.00000000	63.24434000	30.00123000
194.79998861	0.00000000	63.24434000	30.00123000
194.99998859	0.00000000	63.24434000	29.95817000
195.19998858	0.00000000	63.24434000	29.58292000
195.39998857	0.00000000	63.24434000	28.83858000
195.59998856	0.00000000	63.24434000	28.46333000
195.79998855	0.00000000	63.24434000	28.42027000
195.99998853	0.00000000	63.24434000	28.42027000
