Time	Channel A	Channel B	Channel C
(us)	(V)	(mV)	(mV)

-4.49999956	0.00000000	-6.32381900	4.73671200
-4.29999957	0.00000000	-6.32381900	4.73671200
-4.09999958	0.00000000	-6.32381900	4.73671200
-3.89999959	0.00000000	-6.32381900	4.73671200
-3.69999960	0.00000000	-6.32381900	4.73671200
-3.49999962	0.00000000	-6.32381900	4.73671200
-3.29999963	0.00000000	-6.32381900	4.73671200
-3.09999964	0.00000000	-6.32381900	4.73671200
-2.89999965	0.00000000	-6.32381900	4.73671200
-2.69999966	0.00000000	-6.32381900	4.73671200
-2.49999968	0.00000000	-6.32381900	4.73671200
-2.29999969	0.00000000	-6.32381900	4.73671200
-2.09999970	0.00000000	-6.32381900	4.73671200
-1.89999971	0.00000000	-6.32381900	4.73671200
-1.69999972	0.00000000	-6.32381900	4.73671200
-1.49999973	0.00000000	-6.36687900	4.73671200
-1.29999975	0.00000000	-6.69906400	4.73671200
-1.09999976	0.00000000	-7.06815900	4.73671200
-0.89999977	0.00000000	-6.69906400	4.73671200
-0.69999978	0.00000000	-6.36687900	4.73671200
-0.49999979	0.00000000	-6.32381900	4.73671200
-0.29999981	0.15871060	-6.36687900	4.73671200
-0.09999982	0.63668800	-6.69906400	4.73671200
0.10000017	0.95533960	-7.06815900	4.73671200
0.30000016	0.95533960	-6.69906400	4.73671200
0.50000015	0.95533960	-6.36687900	4.73671200
0.70000013	0.47736220	-6.32381900	4.73671200
0.90000012	-0.31803640	-6.32381900	4.73671200
1.10000011	-1.27399100	-6.32381900	4.73671200
1.30000010	-2.22994600	-6.32381900	4.73671200
1.50000009	-2.70792300	-6.32381900	4.73671200
1.70000008	-2.54859700	-6.32381900	4.73671200
1.90000006	-1.59264300	-6.32381900	4.73671200
2.10000005	0.00000000	-6.32381900	4.73671200
2.30000004	2.07062000	-6.32381900	4.73671200
2.50000003	4.14124000	-6.32381900	4.73671200
2.70000002	5.25652100	-6.32381900	4.73671200
2.90000000	5.09719500	-6.36687900	4.73671200
3.09999999	3.50393700	-6.69906400	4.73671200
3.29999998	0.79601380	-7.06815900	4.73671200
3.49999997	-2.70792300	-6.69906400	4.73671200
3.69999996	-5.89382400	-6.36687900	4.73671200
3.89999994	-7.64579200	-6.32381900	4.77977300
4.09999993	-7.80511800	-6.32381900	5.15501900
4.29999992	-5.73449800	-6.32381900	5.85014700
4.49999991	-2.07062000	-6.32381900	5.85014700
4.69999990	2.38927200	-6.32381900	5.15501900
4.89999989	6.37180100	-6.32381900	4.77977300
5.09999987	8.92039900	-6.36687900	4.73671200
5.29999986	9.39837600	-6.69906400	4.73671200
5.49999985	7.32714100	-7.11122000	4.73671200
5.69999984	3.50393700	-7.07431000	4.73671200
5.89999983	-1.27399100	-7.11122000	4.73671200
6.09999981	-5.73449800	-6.69906400	4.73671200
6.29999980	-8.76107300	-6.36687900	4.73671200
6.49999979	-9.39837600	-6.32381900	4.77977300
6.69999978	-7.80511800	-6.32381900	5.15501900
6.89999977	-4.30056600	-6.32381900	5.89320800
7.09999975	0.00000000	-6.32381900	6.21924200
7.29999974	3.98191400	-6.32381900	5.89320800
7.49999973	6.84916400	-6.32381900	5.15501900
7.69999972	7.80511800	-6.36687900	4.77977300
7.89999971	6.69045300	-6.69906400	4.73671200
8.09999970	4.14124000	-7.06815900	4.73671200
8.29999968	0.95533960	-6.69906400	4.73671200
8.49999967	-2.22994600	-6.36687900	4.73671200
8.69999966	-4.45989200	-6.32381900	4.73671200
8.89999965	-5.25652100	-6.32381900	4.73671200
9.09999964	-4.61921700	-6.32381900	4.73671200
9.29999962	-3.18590100	-6.32381900	4.73671200
9.49999961	-1.11466500	-6.32381900	4.73671200
9.69999960	0.79601380	-6.32381900	4.73671200
9.89999959	1.91129400	-6.32381900	4.73671200
10.09999958	2.54859700	-6.32381900	4.73671200
10.29999956	2.38927200	-6.32381900	4.73671200
10.49999955	1.59264300	-6.32381900	4.73671200
10.69999954	0.79601380	-6.32381900	4.73671200
10.89999953	0.00000000	-6.32381900	4.73671200
11.09999952	-0.63668800	-6.32381900	4.73671200
11.29999951	-0.95533960	-6.32381900	4.73671200
11.49999949	-0.95533960	-6.32381900	4.73671200
11.69999948	-0.79601380	-6.32381900	4.73671200
11.89999947	-0.47736220	-6.32381900	4.73671200
12.09999946	-0.15871060	-6.32381900	4.73671200
12.29999945	-0.15871060	-6.32381900	4.73671200
12.49999943	-0.15871060	-6.32381900	4.73671200
12.69999942	0.00000000	-6.32381900	4.73671200
12.89999941	0.00000000	-6.32381900	4.73671200
13.09999940	0.00000000	-6.32381900	4.73671200
13.29999939	0.15871060	-6.32381900	4.73671200
13.49999937	0.00000000	-6.32381900	4.73671200
13.69999936	0.00000000	-6.32381900	4.73671200
13.89999935	0.00000000	-6.32381900	4.73671200
14.09999934	0.00000000	-6.32381900	4.73671200
14.29999933	-0.15871060	-6.32381900	4.73671200
14.49999932	-0.15871060	-6.32381900	4.73671200
14.69999930	0.00000000	-6.32381900	4.73671200
14.89999929	0.00000000	-6.32381900	4.73671200
15.09999928	0.00000000	-6.32381900	4.73671200
15.29999927	0.00000000	-6.36687900	4.73671200
15.49999926	0.00000000	-6.69906400	4.73671200
15.69999924	0.00000000	-7.06815900	4.73671200
15.89999923	0.00000000	-6.69906400	4.73671200
16.09999922	0.00000000	-6.36687900	4.73671200
16.29999921	0.00000000	-6.32381900	4.73671200
16.49999920	0.00000000	-6.32381900	4.73671200
16.69999919	-0.15871060	-6.32381900	4.73671200
16.89999917	0.00000000	-6.28075700	4.73671200
17.09999916	0.00000000	-5.90551100	4.73671200
17.29999915	0.00000000	-5.16117100	4.73671200
17.49999914	0.00000000	-4.78592500	4.73671200
17.69999913	0.00000000	-4.78592500	4.73671200
17.89999911	0.00000000	-5.21038300	4.73671200
18.09999910	0.00000000	-6.36687900	4.73671200
18.29999909	0.00000000	-7.90477300	4.73671200
18.49999908	0.00000000	-9.48572700	4.73671200
18.69999907	0.00000000	-11.02362000	4.73671200
18.89999905	0.00000000	-12.13706000	4.73671200
19.09999904	0.00000000	-12.13706000	4.73671200
19.29999903	0.00000000	-10.93135000	4.73671200
19.49999902	0.00000000	-8.55684000	4.73671200
19.69999901	0.00000000	-4.69980300	4.73671200
19.89999900	0.00000000	-0.46751960	4.73671200
20.09999898	0.00000000	2.98351400	4.73671200
20.29999897	0.00000000	4.92741100	4.73671200
20.49999896	0.00000000	4.47219400	4.73671200
20.69999895	0.00000000	1.72244100	4.73671200
20.89999894	0.00000000	-3.80782500	4.73671200
21.09999892	0.00000000	-11.48499000	4.73671200
21.29999891	0.00000000	-19.58046000	4.73671200
21.49999890	0.00000000	-25.67667000	4.73671200
21.69999889	0.00000000	-27.95275000	4.73671200
21.89999888	0.00000000	-25.21530000	4.73671200
22.09999886	0.00000000	-17.81496000	4.73671200
22.29999885	0.00000000	-6.93282500	4.73671200
22.49999884	0.00000000	5.81323800	4.73671200
22.69999883	0.00000000	17.35359000	4.73671200
22.89999882	0.00000000	24.61245000	4.73671200
23.09999881	0.00000000	25.26452000	4.77977300
23.29999879	0.00000000	17.87033000	5.15501900
23.49999878	0.00000000	3.58636800	5.89320800
23.69999877	0.00000000	-14.18553000	6.26845500
23.89999876	0.00000000	-31.53912000	6.31151500
24.09999875	0.00000000	-44.28518000	6.31151500
24.29999873	0.00000000	-49.22490000	6.26845500
24.49999872	0.00000000	-44.89419000	5.85014700
24.69999871	0.00000000	-30.93627000	4.64443900
24.89999870	0.00000000	-10.46998000	2.78051200
25.09999869	0.00000000	11.95866000	0.87967510
25.29999867	0.00000000	31.59449000	0.09227362
25.49999866	0.00000000	43.08563000	0.09227362
25.69999865	0.00000000	43.08563000	0.92888770
25.89999864	0.00000000	31.50221000	3.29109200
26.09999863	0.00000000	11.02977000	6.72982200
26.29999862	0.00000000	-13.67495000	10.62992000
26.49999860	0.00000000	-36.89099000	14.07480000
26.69999859	0.00000000	-53.45718000	16.35089000
26.89999858	0.00000000	-59.63951000	16.25861000
27.09999857	0.00000000	-53.45718000	13.18898000
27.29999856	0.00000000	-36.89099000	7.75713500
27.49999854	0.00000000	-13.67495000	1.11343500
27.69999853	0.00000000	10.98671000	-6.22539300
27.89999852	0.00000000	31.08391000	-12.68455000
28.09999851	0.00000000	41.97219000	-15.70497000
28.29999850	0.00000000	42.01525000	-14.12401000
28.49999848	0.00000000	31.59449000	-7.89862200
28.69999847	0.00000000	13.07825000	2.12844500
28.89999846	0.00000000	-8.93208600	13.74262000
29.09999845	0.00000000	-29.40452000	24.53248000
29.29999844	0.00000000	-43.77460000	32.19119000
29.49999843	0.00000000	-49.26796000	34.09818000
29.69999841	0.00000000	-45.82308000	29.82283000
29.89999840	0.00000000	-34.23966000	20.06643000
30.09999839	0.00000000	-17.30438000	5.80708600
30.29999838	0.00000000	0.47367120	-9.61491000
30.49999837	0.00000000	15.26206000	-22.34867000
30.69999835	0.00000000	24.61245000	-30.05659000
30.89999834	0.00000000	27.31299000	-30.38878000
31.09999833	0.00000000	22.74852000	-23.04995000
31.29999832	0.00000000	12.33391000	-9.52263600
31.49999831	0.00000000	-0.79355310	7.47416300
31.69999829	0.00000000	-14.37008000	24.10802000
31.89999828	0.00000000	-25.16609000	37.26009000
32.09999827	0.00000000	-31.07160000	44.13755000
32.29999826	0.00000000	-31.48991000	42.59965000
32.49999825	0.00000000	-26.88238000	32.98474000
32.69999824	0.00000000	-18.37475000	17.93184000
32.89999822	0.00000000	-7.94783400	0.51058070
33.09999821	0.00000000	2.09768700	-15.74803000
33.29999820	0.00000000	9.44881800	-27.73745000
33.49999819	0.00000000	12.61073000	-33.12623000
33.69999818	0.00000000	11.49114000	-30.43184000
33.89999816	0.00000000	6.84055100	-20.39862000
34.09999815	0.00000000	-0.46751960	-5.33956700
34.29999814	0.00000000	-8.55684000	11.65723000
34.49999813	0.00000000	-15.12057000	26.71629000
34.69999812	0.00000000	-19.02067000	36.74950000
34.89999810	0.00000000	-19.39591000	39.48696000
35.09999809	0.00000000	-16.36934000	34.51648000
35.29999808	0.00000000	-11.02362000	23.73892000
35.49999807	0.00000000	-5.21038300	9.43036400
35.69999806	0.00000000	-0.17839570	-5.20423200
35.89999805	0.00000000	3.26033400	-16.81841000
36.09999803	0.00000000	3.63558100	-23.00074000
36.29999802	0.00000000	0.98425190	-22.58243000
36.49999801	0.00000000	-3.58021600	-15.32972000
36.69999800	0.00000000	-8.59990100	-3.43873000
36.89999799	0.00000000	-12.46924000	9.25196800
37.09999797	0.00000000	-14.78838000	20.02337000
37.29999796	0.00000000	-14.78838000	25.78740000
37.49999795	0.00000000	-12.46924000	25.13533000
37.69999794	0.00000000	-8.59990100	19.37131000
37.89999793	0.00000000	-3.62942900	10.12549000
38.09999791	0.00000000	0.55979330	-0.55979330
38.29999790	0.00000000	2.56520700	-8.92593500
38.49999789	0.00000000	2.60826800	-12.08169000
38.69999788	0.00000000	1.02731300	-9.85482200
38.89999787	0.00000000	-2.09153500	-3.67249000
39.09999786	0.00000000	-6.32381900	5.15501900
39.29999784	0.00000000	-10.55610000	14.30241000
39.49999783	0.00000000	-13.67495000	20.44168000
39.69999782	0.00000000	-15.25591000	21.97957000
39.89999781	0.00000000	-15.25591000	18.49163000
40.09999780	0.00000000	-13.67495000	10.45152000
40.29999778	0.00000000	-10.55610000	0.51058070
40.49999777	0.00000000	-6.32381900	-8.27386800
40.69999776	0.00000000	-2.09153500	-13.28740000
40.89999775	0.00000000	1.07037400	-12.92446000
41.09999774	0.00000000	2.98351400	-7.94783400
41.29999772	0.00000000	3.34645700	0.55364170
41.49999771	0.00000000	1.40255900	10.49459000
41.69999770	0.00000000	-1.99926200	18.90994000
41.89999769	0.00000000	-5.90551100	23.18528000
42.09999768	0.00000000	-9.39345400	22.48400000
42.29999767	0.00000000	-12.18012000	17.88263000
42.49999765	0.00000000	-14.09326000	10.53765000
42.69999764	0.00000000	-14.83760000	2.08538400
42.89999763	0.00000000	-13.67495000	-5.20423200
43.09999762	0.00000000	-11.02362000	-9.47957600
43.29999761	0.00000000	-7.94783400	-9.89788300
43.49999759	0.00000000	-5.21038300	-6.87130900
43.69999758	0.00000000	-3.25418300	-1.48868100
43.89999757	0.00000000	-2.09153500	4.69365100
44.09999756	0.00000000	-2.04847400	10.45152000
44.29999755	0.00000000	-2.78666300	14.30241000
44.49999753	0.00000000	-3.53715500	15.14518000
44.69999752	0.00000000	-4.32455700	13.65650000
44.89999751	0.00000000	-4.69980300	10.58686000
45.09999750	0.00000000	-4.74286400	6.72982200
45.29999749	0.00000000	-4.78592500	3.24803100
45.49999748	0.00000000	-5.25344500	0.51058070
45.69999746	0.00000000	-6.83439900	-0.97810030
45.89999745	0.00000000	-9.52879000	-0.64591530
46.09999744	0.00000000	-12.60458000	1.24877000
46.29999743	0.00000000	-15.25591000	3.53100400
46.49999742	0.00000000	-16.36934000	5.89320800
46.69999740	0.00000000	-15.16363000	7.80019600
46.89999739	0.00000000	-11.67569000	9.00590400
47.09999738	0.00000000	-6.23154500	9.33809000
47.29999737	0.00000000	-0.04306102	8.58759800
47.49999736	0.00000000	5.72711600	6.68676100
47.69999734	0.00000000	9.49187900	4.73671200
47.89999733	0.00000000	9.49187900	2.78051200
48.09999732	0.00000000	5.63484200	0.87967510
48.29999731	0.00000000	-0.97194880	0.13533460
48.49999730	0.00000000	-9.48572700	0.46136810
48.69999729	0.00000000	-17.90723000	1.66707700
48.89999727	0.00000000	-23.67741000	3.61712600
49.09999726	0.00000000	-25.21530000	6.31151500
49.29999725	0.00000000	-22.13952000	9.00590400
49.49999724	0.00000000	-15.21284000	10.91289000
49.69999723	0.00000000	-6.32381900	11.65723000
49.89999721	0.00000000	2.56520700	10.49459000
50.09999720	0.00000000	9.49187900	7.80019600
50.29999719	0.00000000	12.56767000	4.31840500
50.49999718	0.00000000	11.02977000	0.46751960
50.69999717	0.00000000	5.21653500	-2.55905500
50.89999715	0.00000000	-3.62942900	-3.76476400
51.09999714	0.00000000	-13.20743000	-2.97736200
51.29999713	0.00000000	-20.51550000	-0.64591530
51.49999712	0.00000000	-23.63435000	3.20497000
51.69999711	0.00000000	-22.09646000	7.43110200
51.89999710	0.00000000	-16.36934000	10.91289000
52.09999708	0.00000000	-8.28001900	13.23819000
52.29999707	0.00000000	-0.22760820	13.61343000
52.49999706	0.00000000	5.95472400	12.07554000
52.69999705	0.00000000	8.28617100	8.96284400
52.89999704	0.00000000	6.74827700	4.77977300
53.09999702	0.00000000	1.76550200	0.92888770
53.29999701	0.00000000	-5.53026500	-1.39640700
53.49999700	0.00000000	-12.37697000	-2.18380900
53.69999699	0.00000000	-17.07062000	-1.02116100
53.89999698	0.00000000	-18.23942000	1.62401600
54.09999696	0.00000000	-16.32628000	4.68750000
54.29999695	0.00000000	-11.67569000	7.38188900
54.49999694	0.00000000	-5.16117100	8.91978400
54.69999693	0.00000000	0.93503930	8.96284400
54.89999692	0.00000000	4.79207600	7.84940900
55.09999691	0.00000000	5.16732200	6.31151500
55.29999689	0.00000000	2.14074800	4.77977300
55.49999688	0.00000000	-3.20497000	3.62327700
55.69999687	0.00000000	-8.97514600	3.24803100
55.89999686	0.00000000	-13.63189000	3.66633800
56.09999685	0.00000000	-16.36934000	5.15501900
56.29999683	0.00000000	-16.70152000	7.05585600
56.49999682	0.00000000	-14.37008000	8.13238100
56.69999681	0.00000000	-9.44266700	8.12622900
56.89999680	0.00000000	-4.09079700	6.17618100
57.09999679	0.00000000	-0.17839570	3.19881900
57.29999677	0.00000000	2.14074800	0.46751960
57.49999676	0.00000000	2.14074800	-1.43946800
57.69999675	0.00000000	-0.13533460	-2.18380900
57.89999674	0.00000000	-3.58021600	-0.93503930
58.09999673	0.00000000	-7.43725300	2.50369100
58.29999672	0.00000000	-10.51304000	7.47416300
58.49999670	0.00000000	-12.09400000	12.07554000
58.69999669	0.00000000	-12.09400000	15.18824000
58.89999668	0.00000000	-10.59916000	16.30167000
59.09999667	0.00000000	-8.28001900	14.67766000
59.29999666	0.00000000	-5.94857300	10.07628000
59.49999664	0.00000000	-3.67249000	3.57406500
59.69999663	0.00000000	-2.50984200	-2.55905500
59.89999662	0.00000000	-2.82972400	-6.82824800
60.09999661	0.00000000	-3.58021600	-8.36614100
60.29999660	0.00000000	-4.78592500	-6.78518600
60.49999658	0.00000000	-6.28075700	-2.14074800
60.69999657	0.00000000	-7.43725300	4.77977300
60.89999656	0.00000000	-7.81250000	12.07554000
61.09999655	0.00000000	-7.48646600	17.83957000
61.29999654	0.00000000	-6.69906400	20.53395000
61.49999653	0.00000000	-5.94857300	19.37131000
61.69999651	0.00000000	-5.16117100	14.76993000
61.89999650	0.00000000	-4.83513700	7.80019600
62.09999649	0.00000000	-5.21038300	0.09227362
62.29999648	0.00000000	-6.32381900	-6.78518600
62.49999647	0.00000000	-7.43725300	-10.63607000
62.69999645	0.00000000	-7.86171200	-10.27313000
62.89999644	0.00000000	-7.90477300	-6.45300100
63.09999643	0.00000000	-7.86171200	0.13533460
63.29999642	0.00000000	-7.43725300	7.80019600
63.49999641	0.00000000	-6.28075700	14.76993000
63.69999639	0.00000000	-4.78592500	19.37131000
63.89999638	0.00000000	-3.62942900	20.57702000
64.09999637	0.00000000	-3.25418300	18.25787000
64.29999636	0.00000000	-3.62942900	13.28125000
64.49999635	0.00000000	-4.78592500	6.68676100
64.69999634	0.00000000	-6.32381900	0.17839570
64.89999632	0.00000000	-7.86171200	-4.87819900
65.09999631	0.00000000	-8.97514600	-7.24655500
65.29999630	0.00000000	-9.01820900	-7.29576700
65.49999629	0.00000000	-8.28001900	-5.33956700
65.69999628	0.00000000	-7.48646600	-1.48868100
65.89999626	0.00000000	-6.32381900	3.15575800
66.09999625	0.00000000	-5.21038300	7.80019600
66.29999624	0.00000000	-4.78592500	11.65723000
66.49999623	0.00000000	-4.83513700	13.65650000
66.69999622	0.00000000	-5.62869100	14.07480000
66.89999620	0.00000000	-7.48646600	13.28125000
67.09999619	0.00000000	-8.97514600	10.96211000
67.29999618	0.00000000	-9.39345400	7.89247000
67.49999617	0.00000000	-8.97514600	4.77977300
67.69999616	0.00000000	-7.43725300	1.99311000
67.89999615	0.00000000	-5.11811000	-0.37524600
68.09999613	0.00000000	-2.82972400	-2.69439000
68.29999612	0.00000000	-0.92888770	-4.18307100
68.49999611	0.00000000	-0.59670270	-4.18307100
68.69999610	0.00000000	-2.09153500	-2.60211600
68.89999609	0.00000000	-4.83513700	0.46751960
69.09999607	0.00000000	-8.32308000	4.31840500
69.29999606	0.00000000	-12.13706000	7.89247000
69.49999605	0.00000000	-14.78838000	11.38041000
69.69999604	0.00000000	-15.21284000	14.43775000
69.89999603	0.00000000	-13.67495000	15.51427000
70.09999601	0.00000000	-10.51304000	14.39468000
70.29999600	0.00000000	-5.85629900	10.91289000
70.49999599	0.00000000	-0.51058070	6.31151500
70.69999598	0.00000000	3.72170300	1.62401600
70.89999597	0.00000000	5.67790300	-2.60211600
71.09999596	0.00000000	5.25959600	-5.29650500
71.29999594	0.00000000	2.14074800	-5.67175200
71.49999593	0.00000000	-3.25418300	-3.76476400
71.69999592	0.00000000	-9.39345400	0.09227362
71.89999591	0.00000000	-14.83760000	4.73671200
72.09999590	0.00000000	-18.28248000	9.38115100
72.29999588	0.00000000	-19.11294000	13.14591000
72.49999587	0.00000000	-17.11983000	14.35162000
72.69999586	0.00000000	-12.92446000	12.86909000
72.89999585	0.00000000	-7.11737200	10.21161000
73.09999584	0.00000000	-1.71628900	6.72982200
73.29999582	0.00000000	2.60826800	3.66633800
73.49999581	0.00000000	5.21653500	1.66707700
73.69999580	0.00000000	4.84128900	0.55364170
73.89999579	0.00000000	1.44562000	0.92888770
74.09999578	0.00000000	-3.16190900	2.73745100
74.29999577	0.00000000	-7.81250000	4.22613100
74.49999575	0.00000000	-11.71875000	4.69365100
74.69999574	0.00000000	-14.05020000	4.69365100
74.89999573	0.00000000	-14.78838000	4.31840500
75.09999572	0.00000000	-13.25664000	3.53100400
75.29999571	0.00000000	-9.86097400	2.82357300
75.49999569	0.00000000	-6.41609200	2.46063000
75.69999568	0.00000000	-3.67249000	3.29109200
75.89999567	0.00000000	-2.09153500	5.19808000
76.09999566	0.00000000	-1.67322800	7.89247000
76.29999565	0.00000000	-2.04847400	10.53765000
76.49999563	0.00000000	-3.20497000	12.03248000
76.69999562	0.00000000	-4.69980300	11.65723000
76.89999561	0.00000000	-5.85629900	9.33809000
77.09999560	0.00000000	-6.28075700	5.89320800
77.29999559	0.00000000	-6.32381900	1.99311000
77.49999558	0.00000000	-6.32381900	-1.48868100
77.69999556	0.00000000	-6.32381900	-4.18307100
77.89999555	0.00000000	-6.36687900	-5.25344500
78.09999554	0.00000000	-6.74212600	-3.71555100
78.29999553	0.00000000	-7.52952700	0.13533460
78.49999552	0.00000000	-8.28001900	5.15501900
78.69999550	0.00000000	-9.01820900	10.53765000
78.89999549	0.00000000	-8.97514600	14.76993000
79.09999548	0.00000000	-7.81250000	16.71998000
79.29999547	0.00000000	-5.90551100	16.35089000
79.49999546	0.00000000	-3.58021600	13.61343000
79.69999544	0.00000000	-1.67322800	9.00590400
79.89999543	0.00000000	-0.51058070	3.62327700
80.09999542	0.00000000	-0.55364170	-1.02116100
80.29999541	0.00000000	-2.09153500	-4.13385800
80.49999540	0.00000000	-4.78592500	-5.29650500
80.69999539	0.00000000	-7.86171200	-4.18307100
80.89999537	0.00000000	-10.55610000	-1.48868100
81.09999536	0.00000000	-12.09400000	1.99311000
81.29999535	0.00000000	-12.09400000	5.89320800
81.49999534	0.00000000	-10.55610000	9.38115100
81.69999533	0.00000000	-7.90477300	12.07554000
81.89999531	0.00000000	-5.16117100	13.28125000
82.09999530	0.00000000	-2.82972400	12.91215000
82.29999529	0.00000000	-0.92888770	11.74951000
82.49999528	0.00000000	-0.55364170	9.38115100
82.69999527	0.00000000	-1.67322800	6.36072800
82.89999525	0.00000000	-3.58021600	3.57406500
83.09999524	0.00000000	-5.90551100	1.20570900
83.29999523	0.00000000	-7.81250000	-1.11343500
83.49999522	0.00000000	-9.01820900	-2.60211600
83.69999521	0.00000000	-9.39345400	-2.60211600
83.89999520	0.00000000	-9.01820900	-1.07037400
84.09999518	0.00000000	-7.90477300	1.62401600
84.29999517	0.00000000	-6.74212600	4.77977300
84.49999516	0.00000000	-5.94857300	8.26771600
84.69999515	0.00000000	-5.16117100	11.70029000
84.89999514	0.00000000	-4.78592500	13.61343000
85.09999512	0.00000000	-4.74286400	13.65650000
85.29999511	0.00000000	-4.74286400	12.07554000
85.49999510	0.00000000	-4.69980300	8.96284400
85.69999509	0.00000000	-4.36761800	4.69365100
85.89999508	0.00000000	-3.99852300	0.13533460
86.09999506	0.00000000	-4.36761800	-3.34645700
86.29999505	0.00000000	-4.74286400	-4.55831700
86.49999504	0.00000000	-5.21038300	-4.18307100
86.69999503	0.00000000	-6.32381900	-2.14074800
86.89999502	0.00000000	-7.48646600	2.08538400
87.09999501	0.00000000	-8.28001900	7.38188900
87.29999499	0.00000000	-9.01820900	11.65723000
87.49999498	0.00000000	-8.97514600	14.03174000
87.69999497	0.00000000	-7.86171200	14.76993000
87.89999496	0.00000000	-6.32381900	13.18898000
88.09999495	0.00000000	-4.74286400	9.38115100
88.29999493	0.00000000	-3.25418300	4.73671200
88.49999492	0.00000000	-2.46678100	0.09227362
88.69999491	0.00000000	-2.82972400	-3.71555100
88.89999490	0.00000000	-3.58021600	-5.20423200
89.09999489	0.00000000	-4.78592500	-3.67249000
89.29999487	0.00000000	-6.32381900	0.51058070
89.49999486	0.00000000	-7.86171200	5.89320800
89.69999485	0.00000000	-8.97514600	10.86983000
89.89999484	0.00000000	-8.97514600	14.34547000
90.09999483	0.00000000	-7.90477300	15.09596000
90.29999482	0.00000000	-6.74212600	13.23819000
90.49999480	0.00000000	-5.94857300	9.33809000
90.69999479	0.00000000	-5.16117100	4.36146600
90.89999478	0.00000000	-4.78592500	-0.64591530
91.09999477	0.00000000	-4.74286400	-4.09079700
91.29999476	0.00000000	-4.78592500	-5.20423200
91.49999474	0.00000000	-5.16117100	-3.29724400
91.69999473	0.00000000	-5.85629900	1.24877000
91.89999472	0.00000000	-5.85629900	6.26845500
92.09999471	0.00000000	-5.16117100	10.91289000
92.29999470	0.00000000	-4.78592500	14.34547000
92.49999468	0.00000000	-4.78592500	15.05290000
92.69999467	0.00000000	-5.16117100	12.81373000
92.89999466	0.00000000	-5.94857300	8.22465500
93.09999465	0.00000000	-6.74212600	3.24803100
93.29999464	0.00000000	-7.90477300	-1.02116100
93.49999463	0.00000000	-8.97514600	-3.67249000
93.69999461	0.00000000	-9.01820900	-3.71555100
93.89999460	0.00000000	-8.28001900	-1.39640700
94.09999459	0.00000000	-7.43725300	2.41756900
94.29999458	0.00000000	-5.85629900	7.05585600
94.49999457	0.00000000	-3.58021600	10.86983000
94.69999455	0.00000000	-1.67322800	13.18898000
94.89999454	0.00000000	-0.51058070	13.14591000
95.09999453	0.00000000	-0.55364170	10.49459000
95.29999452	0.00000000	-2.09153500	6.31151500
95.49999451	0.00000000	-4.78592500	2.08538400
95.69999449	0.00000000	-7.86171200	-0.97810030
95.89999448	0.00000000	-10.59916000	-2.18380900
96.09999447	0.00000000	-12.51230000	-1.39640700
96.29999446	0.00000000	-13.25664000	0.88582670
96.49999445	0.00000000	-12.09400000	4.31840500
96.69999444	0.00000000	-9.39345400	7.38188900
96.89999442	0.00000000	-5.90551100	9.33809000
97.09999441	0.00000000	-2.04847400	10.11934000
97.29999440	0.00000000	1.02731300	9.38115100
97.49999439	0.00000000	2.60826800	7.84940900
97.69999438	0.00000000	2.56520700	5.89320800
97.89999436	0.00000000	0.65206690	3.61712600
98.09999435	0.00000000	-2.82972400	2.08538400
98.29999434	0.00000000	-6.69906400	1.66707700
98.49999433	0.00000000	-10.59916000	2.04232300
98.69999432	0.00000000	-13.63189000	3.15575800
98.89999430	0.00000000	-14.78838000	4.31840500
99.09999429	0.00000000	-13.67495000	5.11195900
99.29999428	0.00000000	-11.02362000	5.89320800
99.49999427	0.00000000	-7.90477300	6.26845500
99.69999426	0.00000000	-4.74286400	6.31151500
99.89999425	0.00000000	-1.62401600	6.35457700
100.09999423	0.00000000	1.02731300	6.72982200
100.29999422	0.00000000	2.18996000	7.47416300
100.49999421	0.00000000	1.44562000	7.84940900
100.69999420	0.00000000	-0.51058070	7.84940900
100.89999419	0.00000000	-3.58021600	7.42495000
101.09999417	0.00000000	-7.01894700	6.22539300
101.29999416	0.00000000	-9.39345400	4.36146600
101.49999415	0.00000000	-10.97441000	2.41141700
101.69999414	0.00000000	-11.76181000	1.24877000
101.89999413	0.00000000	-11.34966000	0.51058070
102.09999411	0.00000000	-10.18086000	0.92888770
102.29999410	0.00000000	-7.86171200	2.82972400
102.49999409	0.00000000	-5.21038300	5.15501900
102.69999408	0.00000000	-3.20497000	7.89247000
102.89999407	0.00000000	-1.67322800	10.49459000
103.09999406	0.00000000	-0.88582670	11.65723000
103.29999404	0.00000000	-1.29798200	10.91289000
103.49999403	0.00000000	-2.41756900	9.00590400
103.69999402	0.00000000	-4.41067900	6.26845500
103.89999401	0.00000000	-6.65600300	3.19881900
104.09999400	0.00000000	-8.59990100	0.51058070
104.29999398	0.00000000	-9.39345400	-1.02116100
104.49999397	0.00000000	-9.44266700	-1.02116100
104.69999396	0.00000000	-9.01820900	0.51058070
104.89999395	0.00000000	-7.86171200	3.19881900
105.09999394	0.00000000	-6.32381900	6.26845500
105.29999392	0.00000000	-4.78592500	8.96284400
105.49999391	0.00000000	-3.62942900	10.49459000
105.69999390	0.00000000	-3.25418300	10.49459000
105.89999389	0.00000000	-3.62942900	9.00590400
106.09999388	0.00000000	-4.74286400	6.68676100
106.29999387	0.00000000	-5.90551100	4.36146600
106.49999385	0.00000000	-6.69906400	2.04232300
106.69999384	0.00000000	-7.48646600	0.55364170
106.89999383	0.00000000	-7.81250000	0.55364170
107.09999382	0.00000000	-7.43725300	2.04232300
107.29999381	0.00000000	-6.32381900	4.31840500
107.49999379	0.00000000	-5.16117100	6.26845500
107.69999378	0.00000000	-4.36761800	7.80019600
107.89999377	0.00000000	-3.62942900	8.54453700
108.09999376	0.00000000	-3.62942900	7.80019600
108.29999375	0.00000000	-4.36761800	6.31151500
108.49999374	0.00000000	-5.16117100	4.73671200
108.69999372	0.00000000	-6.32381900	3.19881900
108.89999371	0.00000000	-7.43725300	2.08538400
109.09999370	0.00000000	-7.81250000	2.04232300
109.29999369	0.00000000	-7.48646600	2.82357300
109.49999368	0.00000000	-6.69906400	3.99237200
109.69999366	0.00000000	-5.90551100	5.93626900
109.89999365	0.00000000	-4.74286400	7.75713500
110.09999364	0.00000000	-3.62942900	8.58759800
110.29999363	0.00000000	-3.25418300	8.22465500
110.49999362	0.00000000	-3.62942900	7.47416300
110.69999360	0.00000000	-4.74286400	6.26845500
110.89999359	0.00000000	-5.90551100	4.73671200
111.09999358	0.00000000	-6.69906400	3.19881900
111.29999357	0.00000000	-7.48646600	2.04232300
111.49999356	0.00000000	-7.86171200	1.66707700
111.69999355	0.00000000	-7.86171200	1.99311000
111.89999353	0.00000000	-7.48646600	2.78051200
112.09999352	0.00000000	-6.69906400	3.57406500
112.29999351	0.00000000	-5.94857300	4.73671200
112.49999350	0.00000000	-5.16117100	5.85014700
112.69999349	0.00000000	-4.78592500	6.26845500
112.89999347	0.00000000	-4.74286400	6.31151500
113.09999346	0.00000000	-4.74286400	6.31151500
113.29999345	0.00000000	-4.78592500	6.26845500
113.49999344	0.00000000	-5.16117100	5.89320800
113.69999343	0.00000000	-5.90551100	5.15501900
113.89999341	0.00000000	-6.28075700	4.77977300
114.09999340	0.00000000	-6.32381900	4.69365100
114.29999339	0.00000000	-6.32381900	4.36146600
114.49999338	0.00000000	-6.32381900	3.94931100
114.69999337	0.00000000	-6.32381900	3.94315900
114.89999336	0.00000000	-6.32381900	3.53100400
115.09999334	0.00000000	-6.28075700	3.19881900
115.29999333	0.00000000	-5.90551100	3.19881900
115.49999332	0.00000000	-5.16117100	3.57406500
115.69999331	0.00000000	-4.83513700	4.36146600
115.89999330	0.00000000	-5.11811000	5.11195900
116.09999328	0.00000000	-5.53026500	5.93626900
116.29999327	0.00000000	-5.53641700	6.68676100
116.49999326	0.00000000	-5.94857300	7.42495000
116.69999325	0.00000000	-6.28075700	7.42495000
116.89999324	0.00000000	-6.32381900	6.68676100
117.09999322	0.00000000	-6.32381900	5.93626900
117.29999321	0.00000000	-6.28075700	5.11195900
117.49999320	0.00000000	-5.90551100	4.36146600
117.69999319	0.00000000	-5.16117100	3.53100400
117.89999318	0.00000000	-4.74286400	2.82357300
118.09999317	0.00000000	-4.36761800	2.41141700
118.29999315	0.00000000	-3.99852300	2.82357300
118.49999314	0.00000000	-4.41067900	3.57406500
118.69999313	0.00000000	-5.11811000	4.73671200
118.89999312	0.00000000	-5.94857300	5.85014700
119.09999311	0.00000000	-6.69906400	6.31151500
119.29999309	0.00000000	-7.48646600	6.72982200
119.49999308	0.00000000	-7.86171200	7.42495000
119.69999307	0.00000000	-7.86171200	7.42495000
119.89999306	0.00000000	-7.43725300	6.68676100
120.09999305	0.00000000	-6.32381900	5.93626900
120.29999303	0.00000000	-5.11811000	5.15501900
120.49999302	0.00000000	-3.99237200	4.77977300
120.69999301	0.00000000	-2.84202700	4.69365100
120.89999300	0.00000000	-2.82972400	4.31840500
121.09999299	0.00000000	-3.16190900	3.57406500
121.29999298	0.00000000	-3.62942900	3.24803100
121.49999296	0.00000000	-4.78592500	3.57406500
121.69999295	0.00000000	-6.32381900	4.31840500
121.89999294	0.00000000	-7.86171200	4.69365100
122.09999293	0.00000000	-8.97514600	4.77977300
122.29999292	0.00000000	-9.01820900	5.15501900
122.49999290	0.00000000	-8.28001900	5.89320800
122.69999289	0.00000000	-7.48646600	6.26845500
122.89999288	0.00000000	-6.28075700	6.31151500
123.09999287	0.00000000	-4.78592500	6.31151500
123.29999286	0.00000000	-3.62942900	6.26845500
123.49999284	0.00000000	-3.20497000	5.89320800
123.69999283	0.00000000	-3.16190900	5.15501900
123.89999282	0.00000000	-3.20497000	4.77977300
124.09999281	0.00000000	-3.58021600	4.69365100
124.29999280	0.00000000	-4.36761800	4.36146600
124.49999279	0.00000000	-5.16117100	3.99237200
124.69999277	0.00000000	-6.32381900	4.36146600
124.89999276	0.00000000	-7.43725300	4.69365100
125.09999275	0.00000000	-7.86171200	4.77977300
125.29999274	0.00000000	-7.86171200	5.15501900
125.49999273	0.00000000	-7.48646600	5.89320800
125.69999271	0.00000000	-6.69906400	6.26845500
125.89999270	0.00000000	-5.94857300	6.31151500
126.09999269	0.00000000	-5.11811000	6.31151500
126.29999268	0.00000000	-4.36761800	6.31151500
126.49999267	0.00000000	-3.58021600	6.26845500
126.69999265	0.00000000	-3.20497000	5.89320800
126.89999264	0.00000000	-3.20497000	5.15501900
127.09999263	0.00000000	-3.62942900	4.77977300
127.29999262	0.00000000	-4.78592500	4.73671200
127.49999261	0.00000000	-6.28075700	4.73671200
127.69999260	0.00000000	-7.43725300	4.73671200
127.89999258	0.00000000	-7.86171200	4.73671200
128.09999257	0.00000000	-7.86171200	4.77977300
128.29999256	0.00000000	-7.43725300	5.15501900
128.49999255	0.00000000	-6.32381900	5.89320800
128.69999254	0.00000000	-5.16117100	6.26845500
128.89999252	0.00000000	-4.36761800	6.31151500
129.09999251	0.00000000	-3.58021600	6.26845500
129.29999250	0.00000000	-3.25418300	5.89320800
129.49999249	0.00000000	-3.58021600	5.15501900
129.69999248	0.00000000	-4.36761800	4.73671200
129.89999246	0.00000000	-5.16117100	4.36146600
130.09999245	0.00000000	-6.32381900	3.99237200
130.29999244	0.00000000	-7.43725300	4.36146600
130.49999243	0.00000000	-7.81250000	4.73671200
130.69999242	0.00000000	-7.43725300	5.15501900
130.89999241	0.00000000	-6.32381900	5.89320800
131.09999239	0.00000000	-5.21038300	6.26845500
131.29999238	0.00000000	-4.74286400	6.31151500
131.49999237	0.00000000	-4.32455700	6.26845500
131.69999236	0.00000000	-3.62942900	5.89320800
131.89999235	0.00000000	-3.62942900	5.15501900
132.09999233	0.00000000	-4.36761800	4.77977300
132.29999232	0.00000000	-5.11811000	4.69365100
132.49999231	0.00000000	-5.90551100	4.36146600
132.69999230	0.00000000	-6.28075700	3.99237200
132.89999229	0.00000000	-6.32381900	4.40452700
133.09999227	0.00000000	-6.32381900	5.11195900
133.29999226	0.00000000	-6.32381900	5.89320800
133.49999225	0.00000000	-6.28075700	6.26845500
133.69999224	0.00000000	-5.94857300	6.31151500
133.89999223	0.00000000	-5.57947800	6.31151500
134.09999222	0.00000000	-5.94857300	6.26845500
134.29999220	0.00000000	-6.28075700	5.85014700
134.49999219	0.00000000	-6.32381900	4.68750000
134.69999218	0.00000000	-6.28075700	3.29109200
134.89999217	0.00000000	-5.90551100	2.83587600
135.09999216	0.00000000	-5.16117100	3.52485200
135.29999214	0.00000000	-4.78592500	3.53100400
135.49999213	0.00000000	-4.74286400	3.62327700
135.69999212	0.00000000	-4.74286400	4.36146600
135.89999211	0.00000000	-4.83513700	5.11195900
136.09999210	0.00000000	-5.53641700	5.89320800
136.29999208	0.00000000	-6.64370100	6.26845500
136.49999207	0.00000000	-6.65600300	6.31151500
136.69999206	0.00000000	-6.36687900	6.31151500
136.89999205	0.00000000	-6.32381900	6.26845500
137.09999204	0.00000000	-6.28075700	5.89320800
137.29999203	0.00000000	-5.90551100	5.11195900
137.49999201	0.00000000	-5.11811000	4.36146600
137.69999200	0.00000000	-4.41067900	3.57406500
137.89999199	0.00000000	-3.99852300	3.19881900
138.09999198	0.00000000	-4.36761800	3.15575800
138.29999197	0.00000000	-4.74286400	3.19881900
138.49999195	0.00000000	-5.16117100	3.57406500
138.69999194	0.00000000	-5.90551100	4.31840500
138.89999193	0.00000000	-6.28075700	4.73671200
139.09999192	0.00000000	-6.32381900	5.15501900
139.29999191	0.00000000	-6.32381900	5.89320800
139.49999189	0.00000000	-6.28075700	6.26845500
139.69999188	0.00000000	-5.90551100	6.31151500
139.89999187	0.00000000	-5.16117100	6.26845500
140.09999186	0.00000000	-4.78592500	5.89320800
140.29999185	0.00000000	-4.74286400	5.15501900
140.49999184	0.00000000	-4.74286400	4.73671200
140.69999182	0.00000000	-4.74286400	4.36146600
140.89999181	0.00000000	-4.78592500	3.94931100
141.09999180	0.00000000	-5.16117100	3.98622000
141.29999179	0.00000000	-5.90551100	3.94931100
141.49999178	0.00000000	-6.28075700	4.36146600
141.69999176	0.00000000	-6.32381900	4.73671200
141.89999175	0.00000000	-6.28075700	5.15501900
142.09999174	0.00000000	-5.90551100	5.93626900
142.29999173	0.00000000	-5.16117100	6.64370100
142.49999172	0.00000000	-4.78592500	7.05585600
142.69999170	0.00000000	-4.74286400	6.64370100
142.89999169	0.00000000	-4.74286400	5.93626900
143.09999168	0.00000000	-4.78592500	5.11195900
143.29999167	0.00000000	-5.11811000	4.36146600
143.49999166	0.00000000	-5.53026500	3.57406500
143.69999165	0.00000000	-5.53641700	3.19881900
143.89999163	0.00000000	-5.90551100	3.19881900
144.09999162	0.00000000	-5.85629900	3.57406500
144.29999161	0.00000000	-5.16117100	4.36146600
144.49999160	0.00000000	-4.78592500	5.11195900
144.69999159	0.00000000	-4.74286400	5.89320800
144.89999157	0.00000000	-4.74286400	6.26845500
145.09999156	0.00000000	-4.74286400	6.31151500
145.29999155	0.00000000	-4.78592500	6.31151500
145.49999154	0.00000000	-5.16117100	6.26845500
145.69999153	0.00000000	-5.90551100	5.89320800
145.89999151	0.00000000	-6.28075700	5.15501900
146.09999150	0.00000000	-6.32381900	4.73671200
146.29999149	0.00000000	-6.28075700	4.36146600
146.49999148	0.00000000	-5.90551100	3.99237200
146.69999147	0.00000000	-5.16117100	4.36146600
146.89999146	0.00000000	-4.78592500	4.69365100
147.09999144	0.00000000	-4.74286400	4.77977300
147.29999143	0.00000000	-4.74286400	5.15501900
147.49999142	0.00000000	-4.74286400	5.89320800
147.69999141	0.00000000	-4.74286400	6.26845500
147.89999140	0.00000000	-4.78592500	6.31151500
148.09999138	0.00000000	-5.16117100	6.31151500
148.29999137	0.00000000	-5.90551100	6.26845500
148.49999136	0.00000000	-6.28075700	5.89320800
148.69999135	0.00000000	-6.32381900	5.15501900
148.89999134	0.00000000	-6.28075700	4.73671200
149.09999132	0.00000000	-5.90551100	4.36146600
149.29999131	0.00000000	-5.16117100	3.99237200
149.49999130	0.00000000	-4.78592500	4.36146600
149.69999129	0.00000000	-4.74286400	4.69365100
149.89999128	0.00000000	-4.74286400	4.77977300
150.09999127	0.00000000	-4.74286400	5.15501900
150.29999125	0.00000000	-4.74286400	5.89320800
150.49999124	0.00000000	-4.74286400	6.26845500
150.69999123	0.00000000	-4.78592500	6.31151500
150.89999122	0.00000000	-5.11811000	6.26845500
151.09999121	0.00000000	-5.53026500	5.89320800
151.29999119	0.00000000	-5.53641700	5.15501900
151.49999118	0.00000000	-5.94857300	4.77977300
151.69999117	0.00000000	-6.28075700	4.73671200
151.89999116	0.00000000	-6.32381900	4.73671200
152.09999115	0.00000000	-6.28075700	4.73671200
152.29999113	0.00000000	-5.85629900	4.77977300
152.49999112	0.00000000	-4.78592500	5.11195900
152.69999111	0.00000000	-4.04773600	5.51796200
152.89999110	0.00000000	-4.36761800	5.48105300
153.09999109	0.00000000	-4.69980300	5.51796200
153.29999108	0.00000000	-4.74286400	5.15501900
153.49999106	0.00000000	-4.78592500	5.19808000
153.69999105	0.00000000	-5.16117100	5.89320800
153.89999104	0.00000000	-5.90551100	6.26845500
154.09999103	0.00000000	-6.28075700	6.26845500
154.29999102	0.00000000	-6.32381900	5.89320800
154.49999100	0.00000000	-6.32381900	5.15501900
154.69999099	0.00000000	-6.32381900	4.77977300
154.89999098	0.00000000	-6.28075700	4.73671200
155.09999097	0.00000000	-5.90551100	4.73671200
155.29999096	0.00000000	-5.16117100	4.73671200
155.49999094	0.00000000	-4.78592500	4.73671200
155.69999093	0.00000000	-4.74286400	4.73671200
155.89999092	0.00000000	-4.74286400	4.73671200
156.09999091	0.00000000	-4.74286400	4.77977300
156.29999090	0.00000000	-4.78592500	5.15501900
156.49999089	0.00000000	-5.16117100	5.89320800
156.69999087	0.00000000	-5.90551100	6.26845500
156.89999086	0.00000000	-6.28075700	6.31151500
157.09999085	0.00000000	-6.32381900	6.31151500
157.29999084	0.00000000	-6.32381900	6.26845500
157.49999083	0.00000000	-6.32381900	5.89320800
157.69999081	0.00000000	-6.32381900	5.15501900
157.89999080	0.00000000	-6.28075700	4.77977300
158.09999079	0.00000000	-5.90551100	4.73671200
158.29999078	0.00000000	-5.16117100	4.73671200
158.49999077	0.00000000	-4.78592500	4.73671200
158.69999075	0.00000000	-4.74286400	4.73671200
158.89999074	0.00000000	-4.74286400	4.73671200
159.09999073	0.00000000	-4.74286400	4.77977300
159.29999072	0.00000000	-4.74286400	5.15501900
159.49999071	0.00000000	-4.78592500	5.89320800
159.69999070	0.00000000	-5.11811000	6.26845500
159.89999068	0.00000000	-5.53026500	6.31151500
160.09999067	0.00000000	-5.49335600	6.31151500
160.29999066	0.00000000	-5.57332700	6.26845500
160.49999065	0.00000000	-5.49335600	5.89320800
160.69999064	0.00000000	-5.53026500	5.15501900
160.89999062	0.00000000	-5.11811000	4.77977300
161.09999061	0.00000000	-4.78592500	4.73671200
161.29999060	0.00000000	-4.74286400	4.73671200
161.49999059	0.00000000	-4.74286400	4.73671200
161.69999058	0.00000000	-4.74286400	4.73671200
161.89999056	0.00000000	-4.74286400	4.73671200
162.09999055	0.00000000	-4.74286400	4.77977300
162.29999054	0.00000000	-4.74286400	5.15501900
162.49999053	0.00000000	-4.74286400	5.85014700
162.69999052	0.00000000	-4.74286400	5.89320800
162.89999051	0.00000000	-4.78592500	5.57332700
163.09999049	0.00000000	-5.11811000	5.93626900
163.29999048	0.00000000	-5.53026500	6.21924200
163.49999047	0.00000000	-5.53641700	5.89320800
163.69999046	0.00000000	-5.94857300	5.15501900
163.89999045	0.00000000	-6.28075700	4.77977300
164.09999043	0.00000000	-6.28075700	4.73671200
164.29999042	0.00000000	-5.90551100	4.73671200
164.49999041	0.00000000	-5.16117100	4.73671200
164.69999040	0.00000000	-4.78592500	4.73671200
164.89999039	0.00000000	-4.74286400	4.73671200
165.09999037	0.00000000	-4.74286400	4.73671200
165.29999036	0.00000000	-4.74286400	4.73671200
165.49999035	0.00000000	-4.74286400	4.73671200
165.69999034	0.00000000	-4.74286400	4.73671200
165.89999033	0.00000000	-4.74286400	4.73671200
166.09999032	0.00000000	-4.78592500	4.73671200
166.29999030	0.00000000	-5.16117100	4.73671200
166.49999029	0.00000000	-5.90551100	4.73671200
166.69999028	0.00000000	-6.28075700	4.73671200
166.89999027	0.00000000	-6.28075700	4.73671200
167.09999026	0.00000000	-5.90551100	4.73671200
167.29999024	0.00000000	-5.16117100	4.73671200
167.49999023	0.00000000	-4.78592500	4.73671200
167.69999022	0.00000000	-4.74286400	4.73671200
167.89999021	0.00000000	-4.74286400	4.73671200
168.09999020	0.00000000	-4.74286400	4.73671200
168.29999018	0.00000000	-4.74286400	4.73671200
168.49999017	0.00000000	-4.74286400	4.73671200
168.69999016	0.00000000	-4.74286400	4.73671200
168.89999015	0.00000000	-4.78592500	4.73671200
169.09999014	0.00000000	-5.11811000	4.73671200
169.29999013	0.00000000	-5.48720400	4.73671200
169.49999011	0.00000000	-5.11811000	4.73671200
169.69999010	0.00000000	-4.78592500	4.73671200
169.89999009	0.00000000	-4.74286400	4.73671200
170.09999008	0.00000000	-4.74286400	4.73671200
170.29999007	0.00000000	-4.74286400	4.77977300
170.49999005	0.00000000	-4.74286400	5.11195900
170.69999004	0.00000000	-4.74286400	5.47490100
170.89999003	0.00000000	-4.74286400	5.11195900
171.09999002	0.00000000	-4.74286400	4.77977300
171.29999001	0.00000000	-4.74286400	4.73671200
171.49998999	0.00000000	-4.74286400	4.73671200
171.69998998	0.00000000	-4.74286400	4.73671200
171.89998997	0.00000000	-4.74286400	4.73671200
172.09998996	0.00000000	-4.74286400	4.73671200
172.29998995	0.00000000	-4.74286400	4.73671200
172.49998994	0.00000000	-4.74286400	4.73671200
172.69998992	0.00000000	-4.74286400	4.73671200
172.89998991	0.00000000	-4.74286400	4.73671200
173.09998990	0.00000000	-4.74286400	4.73671200
173.29998989	0.00000000	-4.74286400	4.73671200
173.49998988	0.00000000	-4.74286400	4.73671200
173.69998986	0.00000000	-4.74286400	4.73671200
173.89998985	0.00000000	-4.74286400	4.73671200
174.09998984	0.00000000	-4.74286400	4.73671200
174.29998983	0.00000000	-4.74286400	4.73671200
174.49998982	0.00000000	-4.74286400	4.73671200
174.69998980	0.00000000	-4.74286400	4.73671200
174.89998979	0.00000000	-4.74286400	4.73671200
175.09998978	0.00000000	-4.74286400	4.73671200
175.29998977	0.00000000	-4.74286400	4.73671200
175.49998976	0.00000000	-4.74286400	4.73671200
175.69998975	0.00000000	-4.78592500	4.73671200
175.89998973	0.00000000	-5.11811000	4.73671200
176.09998972	0.00000000	-5.48720400	4.73671200
176.29998971	0.00000000	-5.11811000	4.77977300
176.49998970	0.00000000	-4.78592500	5.11195900
176.69998969	0.00000000	-4.74286400	5.47490100
176.89998967	0.00000000	-4.74286400	5.11195900
177.09998966	0.00000000	-4.74286400	4.77977300
177.29998965	0.00000000	-4.74286400	4.73671200
177.49998964	0.00000000	-4.74286400	4.73671200
177.69998963	0.00000000	-4.74286400	4.73671200
177.89998961	0.00000000	-4.74286400	4.73671200
178.09998960	0.00000000	-4.74286400	4.73671200
178.29998959	0.00000000	-4.74286400	4.73671200
178.49998958	0.00000000	-4.74286400	4.73671200
178.69998957	0.00000000	-4.74286400	4.73671200
178.89998956	0.00000000	-4.74286400	4.77977300
179.09998954	0.00000000	-4.74286400	5.11195900
179.29998953	0.00000000	-4.74286400	5.47490100
179.49998952	0.00000000	-4.74286400	5.11195900
179.69998951	0.00000000	-4.74286400	4.77977300
179.89998950	0.00000000	-4.74286400	4.73671200
180.09998948	0.00000000	-4.74286400	4.73671200
180.29998947	0.00000000	-4.74286400	4.73671200
180.49998946	0.00000000	-4.74286400	4.73671200
180.69998945	0.00000000	-4.74286400	4.73671200
180.89998944	0.00000000	-4.74286400	4.73671200
181.09998942	0.00000000	-4.74286400	4.73671200
181.29998941	0.00000000	-4.74286400	4.77977300
181.49998940	0.00000000	-4.74286400	5.15501900
181.69998939	0.00000000	-4.74286400	5.89320800
181.89998938	0.00000000	-4.74286400	6.26845500
182.09998937	0.00000000	-4.74286400	6.31151500
182.29998935	0.00000000	-4.74286400	6.26845500
182.49998934	0.00000000	-4.74286400	5.89320800
182.69998933	0.00000000	-4.74286400	5.15501900
182.89998932	0.00000000	-4.74286400	4.77977300
183.09998931	0.00000000	-4.74286400	4.73671200
183.29998929	0.00000000	-4.74286400	4.73671200
183.49998928	0.00000000	-4.74286400	4.73671200
183.69998927	0.00000000	-4.78592500	4.73671200
183.89998926	0.00000000	-5.11811000	4.73671200
184.09998925	0.00000000	-5.48720400	4.77977300
184.29998923	0.00000000	-5.16117100	5.11195900
184.49998922	0.00000000	-5.16117100	5.51796200
184.69998921	0.00000000	-5.48720400	5.53026500
184.89998920	0.00000000	-5.11811000	5.93626900
185.09998919	0.00000000	-4.78592500	6.26845500
185.29998918	0.00000000	-4.74286400	6.26845500
185.49998916	0.00000000	-4.74286400	5.89320800
185.69998915	0.00000000	-4.74286400	5.15501900
185.89998914	0.00000000	-4.74286400	4.77977300
186.09998913	0.00000000	-4.74286400	4.73671200
186.29998912	0.00000000	-4.74286400	4.73671200
186.49998910	0.00000000	-4.74286400	4.73671200
186.69998909	0.00000000	-4.74286400	4.73671200
186.89998908	0.00000000	-4.74286400	4.73671200
187.09998907	0.00000000	-4.74286400	4.77977300
187.29998906	0.00000000	-4.74286400	5.15501900
187.49998904	0.00000000	-4.74286400	5.89320800
187.69998903	0.00000000	-4.74286400	6.26845500
187.89998902	0.00000000	-4.74286400	6.31151500
188.09998901	0.00000000	-4.74286400	6.26845500
188.29998900	0.00000000	-4.74286400	5.89320800
188.49998899	0.00000000	-4.74286400	5.15501900
188.69998897	0.00000000	-4.74286400	4.77977300
188.89998896	0.00000000	-4.74286400	4.73671200
189.09998895	0.00000000	-4.74286400	4.73671200
189.29998894	0.00000000	-4.74286400	4.73671200
189.49998893	0.00000000	-4.74286400	4.73671200
189.69998891	0.00000000	-4.74286400	4.73671200
189.89998890	0.00000000	-4.74286400	4.73671200
190.09998889	0.00000000	-4.74286400	4.73671200
190.29998888	0.00000000	-4.74286400	4.77977300
190.49998887	0.00000000	-4.74286400	5.11195900
190.69998885	0.00000000	-4.74286400	5.51796200
190.89998884	0.00000000	-4.78592500	5.48105300
191.09998883	0.00000000	-5.11811000	5.51796200
191.29998882	0.00000000	-5.48720400	5.11195900
191.49998881	0.00000000	-5.11811000	4.77977300
191.69998880	0.00000000	-4.78592500	4.73671200
191.89998878	0.00000000	-4.74286400	4.73671200
192.09998877	0.00000000	-4.74286400	4.73671200
192.29998876	0.00000000	-4.74286400	4.73671200
192.49998875	0.00000000	-4.74286400	4.73671200
192.69998874	0.00000000	-4.74286400	4.73671200
192.89998872	0.00000000	-4.74286400	4.73671200
193.09998871	0.00000000	-4.74286400	4.73671200
193.29998870	0.00000000	-4.74286400	4.73671200
193.49998869	0.00000000	-4.74286400	4.77977300
193.69998868	0.00000000	-4.74286400	5.11195900
193.89998866	0.00000000	-4.74286400	5.51796200
194.09998865	0.00000000	-4.74286400	5.53026500
194.29998864	0.00000000	-4.74286400	5.93626900
194.49998863	0.00000000	-4.74286400	6.21924200
194.69998862	0.00000000	-4.74286400	5.89320800
194.89998861	0.00000000	-4.74286400	5.15501900
195.09998859	0.00000000	-4.74286400	4.77977300
195.29998858	0.00000000	-4.74286400	4.73671200
195.49998857	0.00000000	-4.74286400	4.77977300
195.69998856	0.00000000	-4.78592500	5.11195900
195.89998855	0.00000000	-5.11811000	5.47490100
196.09998853	0.00000000	-5.48720400	5.11195900
