Time	Channel A	Channel B	Channel C
(us)	(V)	(mV)	(mV)

-4.49999956	0.00000000	-53.34030000	-10.67298000
-4.29999957	0.00000000	-52.64517000	-10.31004000
-4.09999958	0.00000000	-52.64517000	-10.67298000
-3.89999959	0.00000000	-53.34030000	-11.00517000
-3.69999960	0.00000000	-53.71555000	-11.04823000
-3.49999962	0.00000000	-53.71555000	-11.04823000
-3.29999963	0.00000000	-53.34030000	-11.04823000
-3.09999964	0.00000000	-52.64517000	-11.04823000
-2.89999965	0.00000000	-52.64517000	-11.04823000
-2.69999966	0.00000000	-53.34030000	-11.04823000
-2.49999968	0.00000000	-53.71555000	-11.04823000
-2.29999969	0.00000000	-53.75861000	-11.04823000
-2.09999970	0.00000000	-53.75861000	-11.04823000
-1.89999971	0.00000000	-53.75861000	-11.04823000
-1.69999972	0.00000000	-53.75861000	-11.04823000
-1.49999973	0.00000000	-53.75861000	-11.04823000
-1.29999975	0.00000000	-53.75861000	-11.04823000
-1.09999976	0.00000000	-53.75861000	-11.04823000
-0.89999977	0.00000000	-53.75861000	-11.04823000
-0.69999978	0.00000000	-53.71555000	-11.04823000
-0.49999979	0.00000000	-53.38336000	-11.04823000
-0.29999981	0.31803640	-53.01427000	-11.04823000
-0.09999982	0.63668800	-53.38336000	-11.04823000
0.10000017	0.95533960	-53.71555000	-11.04823000
0.30000016	1.11466500	-53.75861000	-11.04823000
0.50000015	0.79601380	-53.75861000	-11.04823000
0.70000013	0.15871060	-53.75861000	-11.04823000
0.90000012	-0.63668800	-53.71555000	-11.04823000
1.10000011	-1.59264300	-53.34030000	-11.04823000
1.30000010	-2.38927200	-52.59596000	-11.04823000
1.50000009	-2.86724900	-52.22071000	-11.04823000
1.70000008	-2.38927200	-52.17765000	-11.00517000
1.90000006	-1.11466500	-52.17765000	-10.67298000
2.10000005	0.79601380	-52.17765000	-10.31004000
2.30000004	2.86724900	-52.17765000	-10.67298000
2.50000003	4.61921700	-52.17765000	-11.00517000
2.70000002	5.41584600	-52.22071000	-11.04823000
2.90000000	4.77854300	-52.59596000	-11.04823000
3.09999999	2.54859700	-53.29109000	-11.04823000
3.29999998	-0.47736220	-53.34030000	-11.04823000
3.49999997	-3.98191400	-52.97121000	-11.00517000
3.69999996	-6.69045300	-52.96506000	-10.62992000
3.89999994	-7.96444400	-52.55290000	-9.89173200
4.09999993	-7.32714100	-52.22071000	-9.51648500
4.29999992	-4.45989200	-52.17765000	-9.47342500
4.49999991	-0.47736220	-52.17765000	-9.47342500
4.69999990	3.82258900	-52.17765000	-9.51648500
4.89999989	7.48646600	-52.17765000	-9.89173200
5.09999987	9.39837600	-52.17765000	-10.62992000
5.29999986	8.76107300	-52.22071000	-11.00517000
5.49999985	6.05315000	-52.55290000	-11.04823000
5.69999984	1.75196900	-52.92200000	-11.04823000
5.89999983	-2.86724900	-52.55290000	-11.04823000
6.09999981	-7.00848900	-52.22071000	-11.00517000
6.29999980	-9.23905000	-52.17765000	-10.62992000
6.49999979	-9.07972400	-52.17765000	-9.89173200
6.69999978	-6.84916400	-52.17765000	-9.51648500
6.89999977	-2.86724900	-52.22071000	-9.51648500
7.09999975	1.43331700	-52.55290000	-9.89173200
7.29999974	5.25652100	-52.92200000	-10.58686000
7.49999973	7.32714100	-52.55290000	-10.62992000
7.69999972	7.64579200	-52.22071000	-10.31004000
7.89999971	6.05315000	-52.17765000	-10.67298000
8.09999970	3.02657500	-52.17765000	-11.00517000
8.29999968	-0.31803640	-52.17765000	-11.04823000
8.49999967	-3.18590100	-52.17765000	-11.04823000
8.69999966	-4.77854300	-52.17765000	-11.04823000
8.89999965	-5.25652100	-52.17765000	-11.04823000
9.09999964	-4.14124000	-52.17765000	-11.00517000
9.29999962	-2.38927200	-52.17765000	-10.67298000
9.49999961	-0.47736220	-52.17765000	-10.26698000
9.69999960	1.27399100	-52.17765000	-10.30389000
9.89999959	2.22994600	-52.17765000	-10.26698000
10.09999958	2.54859700	-52.17765000	-10.67298000
10.29999956	2.07062000	-52.17765000	-11.00517000
10.49999955	1.27399100	-52.17765000	-11.04823000
10.69999954	0.47736220	-52.17765000	-11.04823000
10.89999953	-0.31803640	-52.17765000	-11.04823000
11.09999952	-0.79601380	-52.17765000	-11.04823000
11.29999951	-0.95533960	-52.17765000	-11.04823000
11.49999949	-0.95533960	-52.17765000	-11.04823000
11.69999948	-0.63668800	-52.17765000	-11.04823000
11.89999947	-0.31803640	-52.22071000	-11.04823000
12.09999946	-0.15871060	-52.55290000	-11.04823000
12.29999945	-0.15871060	-52.92200000	-11.04823000
12.49999943	-0.15871060	-52.59596000	-11.04823000
12.69999942	0.00000000	-52.59596000	-11.00517000
12.89999941	0.00000000	-52.92200000	-10.67298000
13.09999940	0.00000000	-52.55290000	-10.31004000
13.29999939	0.00000000	-52.22071000	-10.67298000
13.49999937	0.00000000	-52.17765000	-11.00517000
13.69999936	0.00000000	-52.17765000	-11.04823000
13.89999935	0.00000000	-52.17765000	-11.04823000
14.09999934	-0.15871060	-52.17765000	-11.04823000
14.29999933	-0.15871060	-52.17765000	-11.04823000
14.49999932	-0.15871060	-52.17765000	-11.04823000
14.69999930	0.00000000	-52.17765000	-11.04823000
14.89999929	0.00000000	-52.17765000	-11.00517000
15.09999928	0.00000000	-52.17765000	-10.67298000
15.29999927	0.00000000	-52.22071000	-10.31004000
15.49999926	0.00000000	-52.55290000	-10.67298000
15.69999924	0.00000000	-52.92200000	-10.95595000
15.89999923	0.00000000	-52.55290000	-10.67298000
16.09999922	0.00000000	-52.22071000	-10.31004000
16.29999921	-0.15871060	-52.17765000	-10.67298000
16.49999920	-0.15871060	-52.17765000	-11.00517000
16.69999919	0.00000000	-52.13459000	-11.04823000
16.89999917	0.00000000	-51.75935000	-11.04823000
17.09999916	0.00000000	-51.01501000	-11.04823000
17.29999915	0.00000000	-50.63976000	-11.04823000
17.49999914	0.00000000	-50.59670000	-11.00517000
17.69999913	0.00000000	-50.63976000	-10.62992000
17.89999911	0.00000000	-51.06422000	-9.93479300
18.09999910	0.00000000	-52.22071000	-9.89173200
18.29999909	0.00000000	-53.75861000	-10.21161000
18.49999908	0.00000000	-55.29650000	-9.89173200
18.69999907	0.00000000	-56.50221000	-9.93479300
18.89999905	0.00000000	-57.25270000	-10.58686000
19.09999904	0.00000000	-57.57259000	-10.58686000
19.29999903	0.00000000	-56.32381000	-9.93479300
19.49999902	0.00000000	-53.24803000	-9.93479300
19.69999901	0.00000000	-49.01575000	-10.62992000
19.89999900	0.00000000	-44.78346000	-11.00517000
20.09999898	0.00000000	-41.70767000	-11.00517000
20.29999897	0.00000000	-40.55118000	-10.67298000
20.49999896	0.00000000	-41.79995000	-10.31004000
20.69999895	0.00000000	-45.71235000	-10.67298000
20.89999894	0.00000000	-52.31299000	-10.95595000
21.09999892	0.00000000	-59.99631000	-10.67298000
21.29999891	0.00000000	-67.01525000	-10.31004000
21.49999890	0.00000000	-71.91190000	-10.67298000
21.69999889	0.00000000	-73.01919000	-11.00517000
21.89999888	0.00000000	-68.70078000	-11.04823000
22.09999886	0.00000000	-60.18085000	-11.04823000
22.29999885	0.00000000	-48.50517000	-11.04823000
22.49999884	0.00000000	-35.80217000	-11.04823000
22.69999883	0.00000000	-25.46752000	-11.04823000
22.89999882	0.00000000	-20.49089000	-11.00517000
23.09999881	0.00000000	-22.85925000	-10.62992000
23.29999879	0.00000000	-32.21579000	-9.84867000
23.49999878	0.00000000	-47.33637000	-9.14124000
23.69999877	0.00000000	-65.47736000	-8.72908400
23.89999876	0.00000000	-82.00049000	-9.09817800
24.09999875	0.00000000	-92.79034000	-9.43036400
24.29999873	0.00000000	-94.66042000	-9.51648500
24.49999872	0.00000000	-86.89099000	-9.93479300
24.69999871	0.00000000	-70.60777000	-11.14050000
24.89999870	0.00000000	-48.97269000	-13.00443000
25.09999869	0.00000000	-27.00541000	-14.90526000
25.29999867	0.00000000	-10.02707000	-15.64960000
25.49999866	0.00000000	-2.34375000	-15.27436000
25.69999865	0.00000000	-5.88090500	-13.69956000
25.89999864	0.00000000	-20.58317000	-10.96211000
26.09999863	0.00000000	-43.28863000	-7.47416300
26.29999862	0.00000000	-68.04256000	-3.62327700
26.49999860	0.00000000	-89.30856000	-0.55364170
26.69999859	0.00000000	-102.79900000	0.93503930
26.89999858	0.00000000	-104.71210000	0.09227362
27.09999857	0.00000000	-94.70349000	-3.80167300
27.29999856	0.00000000	-75.39369000	-9.98400600
27.49999854	0.00000000	-51.06422000	-17.32283000
27.69999853	0.00000000	-27.51599000	-24.24335000
27.89999852	0.00000000	-10.07013000	-28.89395000
28.09999851	0.00000000	-2.34375000	-30.38263000
28.29999850	0.00000000	-5.79478300	-27.91584000
28.49999848	0.00000000	-19.65428000	-20.53395000
28.69999847	0.00000000	-40.08366000	-9.38115100
28.89999846	0.00000000	-62.09399000	2.55905500
29.09999845	0.00000000	-80.69636000	12.59227000
29.29999844	0.00000000	-92.00910000	18.35630000
29.49999843	0.00000000	-94.79577000	18.31324000
29.69999841	0.00000000	-88.98252000	12.08169000
29.89999840	0.00000000	-75.86122000	0.42445860
30.09999839	0.00000000	-58.45841000	-14.62844000
30.29999838	0.00000000	-40.68036000	-30.00738000
30.49999837	0.00000000	-26.35334000	-41.57849000
30.69999835	0.00000000	-18.58391000	-46.59818000
30.89999834	0.00000000	-18.49163000	-44.26673000
31.09999833	0.00000000	-25.38140000	-34.51648000
31.29999832	0.00000000	-36.96481000	-19.13140000
31.49999831	0.00000000	-50.55364000	-1.34719500
31.69999829	0.00000000	-63.71801000	14.45620000
31.89999828	0.00000000	-73.76968000	25.31988000
32.09999827	0.00000000	-78.46948000	28.76476000
32.29999826	0.00000000	-77.39911000	24.16338000
32.49999825	0.00000000	-71.57972000	12.50615000
32.69999824	0.00000000	-62.27239000	-4.04158400
32.89999822	0.00000000	-51.06422000	-21.82578000
33.09999821	0.00000000	-40.68036000	-36.56496000
33.29999820	0.00000000	-33.70448000	-46.22293000
33.49999819	0.00000000	-31.69906000	-48.49901000
33.69999818	0.00000000	-34.35654000	-42.36589000
33.89999816	0.00000000	-40.54502000	-30.05044000
34.09999815	0.00000000	-49.05881000	-14.16708000
34.29999814	0.00000000	-57.85556000	2.09153500
34.49999813	0.00000000	-64.41313000	15.56963000
34.69999812	0.00000000	-66.79379000	23.27756000
34.89999810	0.00000000	-65.34202000	22.95768000
35.09999809	0.00000000	-61.10974000	15.66191000
35.29999808	0.00000000	-55.29650000	3.29724400
35.49999807	0.00000000	-49.15108000	-11.74951000
35.69999806	0.00000000	-44.13140000	-25.59670000
35.89999805	0.00000000	-41.79995000	-35.30389000
36.09999803	0.00000000	-42.17519000	-38.74877000
36.29999802	0.00000000	-45.29404000	-35.34695000
36.49999801	0.00000000	-50.59670000	-26.10728000
36.69999800	0.00000000	-55.99163000	-13.83489000
36.89999799	0.00000000	-59.85482000	-1.48253000
37.09999797	0.00000000	-61.80487000	7.67716500
37.29999796	0.00000000	-61.01746000	11.20202000
37.49999795	0.00000000	-57.94783000	8.18774500
37.69999794	0.00000000	-53.34030000	0.55979330
37.89999793	0.00000000	-48.36368000	-9.43036400
38.09999791	0.00000000	-44.86958000	-19.00221000
38.29999790	0.00000000	-43.24557000	-25.13533000
38.49999789	0.00000000	-43.28863000	-26.34104000
38.69999788	0.00000000	-45.24483000	-22.48400000
38.89999787	0.00000000	-49.10802000	-14.85605000
39.09999786	0.00000000	-53.71555000	-5.66560000
39.29999784	0.00000000	-57.99089000	2.00541300
39.49999783	0.00000000	-61.06668000	6.18848400
39.69999782	0.00000000	-62.22318000	5.39493100
39.89999781	0.00000000	-61.10974000	-0.68897630
40.09999780	0.00000000	-58.40920000	-9.51648500
40.29999778	0.00000000	-54.87204000	-18.76845000
40.49999777	0.00000000	-50.59670000	-26.38410000
40.69999776	0.00000000	-46.36442000	-29.40452000
40.89999775	0.00000000	-43.24557000	-26.80241000
41.09999774	0.00000000	-41.70767000	-19.88189000
41.29999772	0.00000000	-42.08292000	-10.62992000
41.49999771	0.00000000	-44.40821000	-1.06422200
41.69999770	0.00000000	-47.90231000	5.85629900
41.89999769	0.00000000	-52.17765000	8.18774500
42.09999768	0.00000000	-56.40993000	5.94857300
42.29999767	0.00000000	-59.48573000	-0.22145670
42.49999765	0.00000000	-60.69144000	-8.26771600
42.69999764	0.00000000	-59.94709000	-16.39395000
42.89999763	0.00000000	-58.03395000	-22.52707000
43.09999762	0.00000000	-55.29650000	-25.27067000
43.29999761	0.00000000	-52.22071000	-24.15723000
43.49999759	0.00000000	-49.52633000	-19.97416000
43.69999758	0.00000000	-47.94537000	-14.16708000
43.89999757	0.00000000	-47.47785000	-8.02780400
44.09999756	0.00000000	-47.47785000	-3.01427100
44.29999755	0.00000000	-47.85310000	-0.63976370
44.49999753	0.00000000	-48.59744000	-0.59670270
44.69999752	0.00000000	-49.01575000	-2.54675200
44.89999751	0.00000000	-49.43405000	-6.35457700
45.09999750	0.00000000	-50.22145000	-10.53765000
45.29999749	0.00000000	-51.01501000	-13.65650000
45.49999748	0.00000000	-52.26993000	-15.27436000
45.69999746	0.00000000	-54.22613000	-15.69267000
45.89999745	0.00000000	-56.92052000	-15.27436000
46.09999744	0.00000000	-59.57185000	-13.74262000
46.29999743	0.00000000	-61.10974000	-11.46653000
46.49999742	0.00000000	-61.06668000	-9.47342500
46.69999740	0.00000000	-59.11048000	-7.51722400
46.89999739	0.00000000	-55.20423000	-5.66560000
47.09999738	0.00000000	-50.12918000	-5.29035400
47.29999737	0.00000000	-44.31594000	-6.40378900
47.49999736	0.00000000	-39.01329000	-8.31077700
47.69999734	0.00000000	-36.36196000	-10.67298000
47.89999733	0.00000000	-37.52460000	-12.95522000
48.09999732	0.00000000	-42.17519000	-14.85605000
48.29999731	0.00000000	-49.52633000	-15.23130000
48.49999730	0.00000000	-57.99089000	-14.16092000
48.69999729	0.00000000	-65.29897000	-12.58612000
48.89999727	0.00000000	-69.58046000	-10.58686000
49.09999726	0.00000000	-69.91264000	-7.89247000
49.29999725	0.00000000	-66.04330000	-5.24729300
49.49999724	0.00000000	-58.32308000	-3.70939900
49.69999723	0.00000000	-49.05881000	-3.70939900
49.89999721	0.00000000	-40.21899000	-5.29035400
50.09999720	0.00000000	-34.07972000	-8.35998900
50.29999719	0.00000000	-32.91092000	-12.21087000
50.49999718	0.00000000	-36.31274000	-15.60654000
50.69999717	0.00000000	-43.28863000	-17.59966000
50.89999715	0.00000000	-52.17765000	-17.60581000
51.09999714	0.00000000	-60.97440000	-16.48622000
51.29999713	0.00000000	-67.15674000	-14.07480000
51.49999712	0.00000000	-68.70693000	-10.58686000
51.69999711	0.00000000	-66.04330000	-6.35457700
51.89999710	0.00000000	-59.48573000	-2.59596400
52.09999708	0.00000000	-51.10728000	-1.01501000
52.29999707	0.00000000	-43.75615000	-1.75319900
52.49999706	0.00000000	-39.10556000	-4.08464600
52.69999705	0.00000000	-37.94291000	-7.93553100
52.89999704	0.00000000	-40.63730000	-12.16166000
53.09999702	0.00000000	-46.36442000	-15.60654000
53.29999701	0.00000000	-53.29109000	-17.55044000
53.49999700	0.00000000	-59.43651000	-17.18750000
53.69999699	0.00000000	-63.29355000	-15.32357000
53.89999698	0.00000000	-63.66880000	-12.62918000
54.09999696	0.00000000	-60.59916000	-9.93479300
54.29999695	0.00000000	-54.87204000	-7.98474400
54.49999694	0.00000000	-48.36368000	-6.82209600
54.69999693	0.00000000	-43.38090000	-6.86515700
54.89999692	0.00000000	-41.01255000	-8.35383800
55.09999691	0.00000000	-41.79995000	-10.58686000
55.29999689	0.00000000	-45.24483000	-12.11860000
55.49999688	0.00000000	-50.59670000	-12.53691000
55.69999687	0.00000000	-55.99163000	-12.11860000
55.89999686	0.00000000	-59.85482000	-10.58686000
56.09999685	0.00000000	-61.76181000	-8.35383800
56.29999683	0.00000000	-60.59916000	-6.82209600
56.49999682	0.00000000	-56.82825000	-6.44685000
56.69999681	0.00000000	-52.22071000	-7.24040300
56.89999680	0.00000000	-47.94537000	-9.55954600
57.09999679	0.00000000	-44.86958000	-12.62918000
57.29999677	0.00000000	-43.66388000	-15.69882000
57.49999676	0.00000000	-44.45127000	-17.92569000
57.69999675	0.00000000	-46.73966000	-17.88263000
57.89999674	0.00000000	-50.22145000	-15.23130000
58.09999673	0.00000000	-53.66634000	-10.95595000
58.29999672	0.00000000	-56.36687000	-5.93626900
58.49999670	0.00000000	-57.52953000	-0.97194880
58.69999669	0.00000000	-56.78519000	2.00541300
58.89999668	0.00000000	-54.92125000	1.67322800
59.09999667	0.00000000	-52.59596000	-1.80241100
59.29999666	0.00000000	-50.63976000	-7.19734200
59.49999664	0.00000000	-49.10802000	-13.79183000
59.69999663	0.00000000	-48.32062000	-19.88189000
59.89999662	0.00000000	-48.68356000	-23.73892000
60.09999661	0.00000000	-49.43405000	-24.10802000
60.29999660	0.00000000	-50.59670000	-21.03838000
60.49999658	0.00000000	-51.71013000	-15.23130000
60.69999657	0.00000000	-52.13459000	-7.89247000
60.89999656	0.00000000	-52.17765000	-0.59670270
61.09999655	0.00000000	-52.13459000	4.74286400
61.29999654	0.00000000	-51.75935000	6.27460600
61.49999653	0.00000000	-51.01501000	3.58636800
61.69999651	0.00000000	-50.63976000	-2.54675200
61.89999650	0.00000000	-50.68897000	-10.62992000
62.09999649	0.00000000	-51.43332000	-18.35015000
62.29999648	0.00000000	-52.92200000	-24.15723000
62.49999647	0.00000000	-53.71555000	-26.80241000
62.69999645	0.00000000	-54.13385000	-25.27067000
62.89999644	0.00000000	-54.45374000	-19.92495000
63.09999643	0.00000000	-53.66634000	-12.62918000
63.29999642	0.00000000	-52.17765000	-5.24729300
63.49999641	0.00000000	-50.59670000	0.93503930
63.69999639	0.00000000	-49.05881000	4.74286400
63.89999638	0.00000000	-47.94537000	4.74286400
64.09999637	0.00000000	-47.94537000	0.97810030
64.29999636	0.00000000	-49.05881000	-4.77977300
64.49999635	0.00000000	-50.63976000	-11.00517000
64.69999634	0.00000000	-52.55290000	-16.85531000
64.89999632	0.00000000	-54.45374000	-21.46284000
65.09999631	0.00000000	-55.20423000	-23.78199000
65.29999630	0.00000000	-54.87204000	-22.99459000
65.49999629	0.00000000	-53.71555000	-19.59892000
65.69999628	0.00000000	-52.17765000	-14.58538000
65.89999626	0.00000000	-50.63976000	-9.56569900
66.09999625	0.00000000	-49.48326000	-5.24729300
66.29999624	0.00000000	-49.15108000	-2.12844500
66.49999623	0.00000000	-49.90157000	-0.55364170
66.69999622	0.00000000	-51.80241000	-0.55364170
66.89999620	0.00000000	-53.62328000	-2.08538400
67.09999619	0.00000000	-54.45374000	-4.82283400
67.29999618	0.00000000	-54.09079000	-8.26771600
67.49999617	0.00000000	-53.29109000	-11.79257000
67.69999616	0.00000000	-51.71013000	-14.53617000
67.89999615	0.00000000	-49.43405000	-16.90453000
68.09999613	0.00000000	-47.52707000	-18.43627000
68.29999612	0.00000000	-46.36442000	-18.85458000
68.49999611	0.00000000	-46.40748000	-18.39321000
68.69999610	0.00000000	-47.98843000	-16.43701000
68.89999609	0.00000000	-51.06422000	-12.96137000
69.09999607	0.00000000	-54.92125000	-9.05511800
69.29999606	0.00000000	-58.36614000	-4.77977300
69.49999605	0.00000000	-60.64222000	-0.97194880
69.69999604	0.00000000	-60.64222000	0.97810030
69.89999603	0.00000000	-58.32308000	0.97810030
70.09999601	0.00000000	-54.45374000	-1.02116100
70.29999600	0.00000000	-49.39099000	-5.24729300
70.49999599	0.00000000	-44.40821000	-10.62992000
70.69999598	0.00000000	-40.55118000	-15.64960000
70.89999597	0.00000000	-39.05635000	-19.54970000
71.09999596	0.00000000	-40.59424000	-21.41363000
71.29999594	0.00000000	-44.82652000	-20.66314000
71.49999593	0.00000000	-50.63976000	-17.23056000
71.69999592	0.00000000	-56.78519000	-12.62918000
71.89999591	0.00000000	-61.80487000	-7.93553100
72.09999590	0.00000000	-64.13631000	-3.70939900
72.29999588	0.00000000	-63.80413000	-1.06422200
72.49999587	0.00000000	-61.06668000	-1.01501000
72.69999586	0.00000000	-56.40993000	-3.24803100
72.89999585	0.00000000	-50.59670000	-6.31151500
73.09999584	0.00000000	-44.82652000	-9.42421200
73.29999582	0.00000000	-40.59424000	-12.11860000
73.49999581	0.00000000	-39.05635000	-13.69956000
73.69999580	0.00000000	-40.59424000	-14.11786000
73.89999579	0.00000000	-44.78346000	-13.74262000
74.09999578	0.00000000	-50.12918000	-12.58612000
74.29999577	0.00000000	-54.82898000	-11.09744000
74.49999575	0.00000000	-58.36614000	-9.98400600
74.69999574	0.00000000	-60.64222000	-9.98400600
74.89999573	0.00000000	-60.64222000	-11.09744000
75.09999572	0.00000000	-58.40920000	-12.58612000
75.29999571	0.00000000	-55.29650000	-13.65650000
75.49999569	0.00000000	-51.84547000	-13.28125000
75.69999568	0.00000000	-48.73892000	-11.38041000
75.89999567	0.00000000	-47.19488000	-9.05511800
76.09999566	0.00000000	-46.69045000	-6.31151500
76.29999565	0.00000000	-47.15182000	-3.70939900
76.49999563	0.00000000	-48.22834000	-2.54675200
76.69999562	0.00000000	-49.80315000	-3.33415300
76.89999561	0.00000000	-50.92888000	-5.66560000
77.09999560	0.00000000	-51.75935000	-9.56569900
77.29999559	0.00000000	-52.13459000	-14.16708000
77.49999558	0.00000000	-52.17765000	-18.39321000
77.69999556	0.00000000	-52.17765000	-21.03838000
77.89999555	0.00000000	-52.22071000	-21.03838000
78.09999554	0.00000000	-52.59596000	-18.30093000
78.29999553	0.00000000	-53.34030000	-13.32431000
78.49999552	0.00000000	-53.71555000	-7.19734200
78.69999550	0.00000000	-53.71555000	-2.17765700
78.89999549	0.00000000	-53.29109000	0.97810030
79.09999548	0.00000000	-52.08538000	2.09153500
79.29999547	0.00000000	-50.17839000	0.55979330
79.49999546	0.00000000	-47.90231000	-3.29109200
79.69999544	0.00000000	-46.36442000	-8.31077700
79.89999543	0.00000000	-45.98917000	-13.69956000
80.09999542	0.00000000	-46.73966000	-17.93184000
80.29999541	0.00000000	-48.68356000	-19.93110000
80.49999540	0.00000000	-51.01501000	-19.93110000
80.69999539	0.00000000	-53.75861000	-18.01796000
80.89999537	0.00000000	-56.36687000	-14.53617000
81.09999536	0.00000000	-57.52953000	-10.67298000
81.29999535	0.00000000	-56.78519000	-6.77903500
81.49999534	0.00000000	-54.87204000	-3.70939900
81.69999533	0.00000000	-52.17765000	-2.08538400
81.89999531	0.00000000	-49.48326000	-1.66707700
82.09999530	0.00000000	-47.52707000	-2.08538400
82.29999529	0.00000000	-46.36442000	-3.66633800
82.49999528	0.00000000	-46.36442000	-6.36072800
82.69999527	0.00000000	-47.52707000	-9.47342500
82.89999525	0.00000000	-49.43405000	-12.58612000
83.09999524	0.00000000	-51.71013000	-15.32357000
83.29999523	0.00000000	-53.29109000	-17.23056000
83.49999522	0.00000000	-54.09079000	-18.01796000
83.69999521	0.00000000	-54.50295000	-17.23056000
83.89999520	0.00000000	-54.09079000	-15.32357000
84.09999518	0.00000000	-53.34030000	-12.53691000
84.29999517	0.00000000	-52.17765000	-9.05511800
84.49999516	0.00000000	-51.06422000	-5.19808000
84.69999515	0.00000000	-50.63976000	-2.17765700
84.89999514	0.00000000	-50.59670000	-0.97194880
85.09999512	0.00000000	-50.63976000	-1.71013800
85.29999511	0.00000000	-50.92888000	-3.66633800
85.49999510	0.00000000	-50.91658000	-6.82209600
85.69999509	0.00000000	-49.80930000	-11.04823000
85.89999508	0.00000000	-49.10802000	-15.27436000
86.09999506	0.00000000	-49.05881000	-18.39321000
86.29999505	0.00000000	-49.48326000	-19.88189000
86.49999504	0.00000000	-50.63976000	-19.08834000
86.69999503	0.00000000	-52.13459000	-15.64960000
86.89999502	0.00000000	-53.29109000	-11.04823000
87.09999501	0.00000000	-53.71555000	-6.40378900
87.29999499	0.00000000	-53.75861000	-2.54675200
87.49999498	0.00000000	-53.66634000	-0.63976370
87.69999497	0.00000000	-52.87278000	-1.01501000
87.89999496	0.00000000	-51.01501000	-3.70939900
88.09999495	0.00000000	-49.48326000	-7.93553100
88.29999493	0.00000000	-48.64050000	-12.53691000
88.49999492	0.00000000	-47.90231000	-16.43701000
88.69999491	0.00000000	-47.94537000	-18.71924000
88.89999490	0.00000000	-49.05881000	-19.08834000
89.09999489	0.00000000	-50.59670000	-16.76919000
89.29999487	0.00000000	-52.13459000	-12.58612000
89.49999486	0.00000000	-53.29109000	-7.93553100
89.69999485	0.00000000	-53.71555000	-3.70939900
89.89999484	0.00000000	-53.71555000	-1.06422200
90.09999483	0.00000000	-53.29109000	-1.01501000
90.29999482	0.00000000	-52.13459000	-3.33415300
90.49999480	0.00000000	-50.63976000	-7.19734200
90.69999479	0.00000000	-49.48326000	-12.21087000
90.89999478	0.00000000	-49.05881000	-16.72613000
91.09999477	0.00000000	-49.05881000	-19.04527000
91.29999476	0.00000000	-49.43405000	-18.30093000
91.49999474	0.00000000	-50.17839000	-15.27436000
91.69999473	0.00000000	-50.55364000	-11.00517000
91.89999472	0.00000000	-50.59670000	-6.40378900
92.09999471	0.00000000	-50.59670000	-2.54675200
92.29999470	0.00000000	-50.59670000	-0.63976370
92.49999468	0.00000000	-50.63976000	-1.01501000
92.69999467	0.00000000	-51.01501000	-3.75246000
92.89999466	0.00000000	-51.75935000	-8.31077700
93.09999465	0.00000000	-52.17765000	-13.28125000
93.29999464	0.00000000	-52.59596000	-16.72613000
93.49999463	0.00000000	-53.34030000	-17.97490000
93.69999461	0.00000000	-53.62328000	-17.14444000
93.89999460	0.00000000	-52.87278000	-14.43775000
94.09999459	0.00000000	-50.97194000	-9.84867000
94.29999458	0.00000000	-49.05881000	-5.33341500
94.49999457	0.00000000	-47.47785000	-2.59596400
94.69999455	0.00000000	-46.32135000	-2.17150600
94.89999454	0.00000000	-45.94611000	-3.70939900
95.09999453	0.00000000	-46.36442000	-6.77903500
95.29999452	0.00000000	-47.94537000	-10.62992000
95.49999451	0.00000000	-50.63976000	-14.07480000
95.69999449	0.00000000	-53.71555000	-16.39395000
95.89999448	0.00000000	-56.40993000	-16.76919000
96.09999447	0.00000000	-57.94783000	-15.23130000
96.29999446	0.00000000	-57.94783000	-12.16166000
96.49999445	0.00000000	-56.36687000	-8.35998900
96.69999444	0.00000000	-53.29109000	-5.33341500
96.89999442	0.00000000	-49.43405000	-4.12770700
97.09999441	0.00000000	-45.94611000	-4.82283400
97.29999440	0.00000000	-43.24557000	-6.36072800
97.49999439	0.00000000	-42.13213000	-8.31077700
97.69999438	0.00000000	-43.24557000	-10.62992000
97.89999436	0.00000000	-45.94611000	-12.53691000
98.09999435	0.00000000	-49.43405000	-13.69956000
98.29999434	0.00000000	-53.34030000	-13.69956000
98.49999433	0.00000000	-56.78519000	-12.58612000
98.69999432	0.00000000	-59.11048000	-11.09744000
98.89999430	0.00000000	-59.48573000	-9.93479300
99.09999429	0.00000000	-57.94783000	-9.47342500
99.29999428	0.00000000	-54.87204000	-9.09817800
99.49999427	0.00000000	-51.01501000	-8.72908400
99.69999426	0.00000000	-47.52707000	-9.05511800
99.89999425	0.00000000	-44.78346000	-9.00590400
100.09999423	0.00000000	-43.24557000	-8.31077700
100.29999422	0.00000000	-43.24557000	-7.93553100
100.49999421	0.00000000	-44.78346000	-7.89247000
100.69999420	0.00000000	-47.47785000	-7.93553100
100.89999419	0.00000000	-50.55364000	-8.35998900
101.09999417	0.00000000	-53.29109000	-9.51648500
101.29999416	0.00000000	-55.24729000	-11.04823000
101.49999415	0.00000000	-56.45300000	-12.62918000
101.69999414	0.00000000	-56.78519000	-14.11786000
101.89999413	0.00000000	-55.99163000	-14.81299000
102.09999411	0.00000000	-53.71555000	-13.65650000
102.29999410	0.00000000	-51.01501000	-11.04823000
102.49999409	0.00000000	-48.68356000	-8.31077700
102.69999408	0.00000000	-46.73966000	-5.98548200
102.89999407	0.00000000	-45.94611000	-4.03543200
103.09999406	0.00000000	-45.89690000	-3.33415300
103.29999404	0.00000000	-46.36442000	-4.08464600
103.49999403	0.00000000	-47.90231000	-6.40378900
103.69999402	0.00000000	-50.17839000	-9.47342500
103.89999401	0.00000000	-52.13459000	-12.53691000
104.09999400	0.00000000	-53.71555000	-14.85605000
104.29999398	0.00000000	-54.82898000	-15.64960000
104.49999397	0.00000000	-54.82898000	-15.27436000
104.69999396	0.00000000	-53.71555000	-13.69956000
104.89999395	0.00000000	-52.17765000	-11.00517000
105.09999394	0.00000000	-50.59670000	-7.93553100
105.29999392	0.00000000	-49.05881000	-5.29035400
105.49999391	0.00000000	-47.94537000	-4.12770700
105.69999390	0.00000000	-47.94537000	-4.82283400
105.89999389	0.00000000	-49.01575000	-6.36072800
106.09999388	0.00000000	-50.17839000	-8.31077700
106.29999387	0.00000000	-50.97194000	-10.62992000
106.49999385	0.00000000	-51.75935000	-12.49385000
106.69999384	0.00000000	-52.13459000	-13.32431000
106.89999383	0.00000000	-52.13459000	-12.91215000
107.09999382	0.00000000	-51.71013000	-11.79257000
107.29999381	0.00000000	-50.59670000	-9.84867000
107.49999379	0.00000000	-49.48326000	-7.98474400
107.69999378	0.00000000	-49.05881000	-6.77903500
107.89999377	0.00000000	-49.05881000	-6.40378900
108.09999376	0.00000000	-49.48326000	-6.82209600
108.29999375	0.00000000	-50.63976000	-8.31077700
108.49999374	0.00000000	-52.08538000	-10.21161000
108.69999372	0.00000000	-52.92200000	-11.38041000
108.89999371	0.00000000	-52.92815000	-12.16166000
109.09999370	0.00000000	-52.92200000	-12.11860000
109.29999369	0.00000000	-52.08538000	-11.00517000
109.49999368	0.00000000	-50.59670000	-9.47342500
109.69999366	0.00000000	-49.10802000	-7.93553100
109.89999365	0.00000000	-48.32062000	-6.77903500
110.09999364	0.00000000	-48.64050000	-6.40378900
110.29999363	0.00000000	-49.01575000	-6.77903500
110.49999362	0.00000000	-49.43405000	-7.93553100
110.69999360	0.00000000	-50.22145000	-9.47342500
110.89999359	0.00000000	-50.97194000	-11.00517000
111.09999358	0.00000000	-51.75935000	-12.16166000
111.29999357	0.00000000	-52.13459000	-12.58612000
111.49999356	0.00000000	-52.17765000	-12.58612000
111.69999355	0.00000000	-52.13459000	-12.16166000
111.89999353	0.00000000	-51.75935000	-11.04823000
112.09999352	0.00000000	-50.97194000	-9.89173200
112.29999351	0.00000000	-50.22145000	-9.09817800
112.49999350	0.00000000	-49.43405000	-8.31077700
112.69999349	0.00000000	-49.10802000	-7.93553100
112.89999347	0.00000000	-49.43405000	-7.93553100
113.09999346	0.00000000	-50.17839000	-8.31077700
113.29999345	0.00000000	-50.55364000	-9.05511800
113.49999344	0.00000000	-50.59670000	-9.43036400
113.69999343	0.00000000	-50.59670000	-9.51648500
113.89999341	0.00000000	-50.59670000	-9.89173200
114.09999340	0.00000000	-50.59670000	-10.62992000
114.29999339	0.00000000	-50.59670000	-11.00517000
114.49999338	0.00000000	-50.59670000	-11.04823000
114.69999337	0.00000000	-50.59670000	-11.04823000
114.89999336	0.00000000	-50.59670000	-11.04823000
115.09999334	0.00000000	-50.59670000	-11.04823000
115.29999333	0.00000000	-50.59670000	-11.04823000
115.49999332	0.00000000	-50.59670000	-11.00517000
115.69999331	0.00000000	-50.59670000	-10.62992000
115.89999330	0.00000000	-50.59670000	-9.84867000
116.09999328	0.00000000	-50.63976000	-9.05511800
116.29999327	0.00000000	-51.01501000	-7.98474400
116.49999326	0.00000000	-51.71013000	-7.57258800
116.69999325	0.00000000	-51.71013000	-8.30462600
116.89999324	0.00000000	-51.01501000	-8.64296200
117.09999322	0.00000000	-50.63976000	-9.14124000
117.29999321	0.00000000	-50.50443000	-9.84867000
117.49999320	0.00000000	-49.80315000	-10.62992000
117.69999319	0.00000000	-48.69586000	-11.00517000
117.89999318	0.00000000	-48.68356000	-11.04823000
118.09999317	0.00000000	-48.97269000	-11.04823000
118.29999315	0.00000000	-49.05881000	-11.00517000
118.49999314	0.00000000	-49.43405000	-10.58686000
118.69999313	0.00000000	-50.22145000	-9.47342500
118.89999312	0.00000000	-50.97194000	-8.35998900
119.09999311	0.00000000	-51.80241000	-7.93553100
119.29999309	0.00000000	-52.50984000	-7.89247000
119.49999308	0.00000000	-52.87278000	-7.89247000
119.69999307	0.00000000	-52.13459000	-7.89247000
119.89999306	0.00000000	-51.01501000	-7.93553100
120.09999305	0.00000000	-50.17839000	-8.31077700
120.29999303	0.00000000	-49.01575000	-9.05511800
120.49999302	0.00000000	-47.90231000	-9.47342500
120.69999301	0.00000000	-47.47785000	-9.89173200
120.89999300	0.00000000	-47.47785000	-10.62992000
121.09999299	0.00000000	-47.90231000	-11.00517000
121.29999298	0.00000000	-49.05881000	-11.00517000
121.49999296	0.00000000	-50.55364000	-10.62992000
121.69999295	0.00000000	-51.75935000	-9.89173200
121.89999294	0.00000000	-52.55290000	-9.47342500
122.09999293	0.00000000	-53.29109000	-9.05511800
122.29999292	0.00000000	-53.24803000	-8.31077700
122.49999290	0.00000000	-52.17765000	-7.93553100
122.69999289	0.00000000	-50.97194000	-7.89247000
122.89999288	0.00000000	-49.80315000	-7.89247000
123.09999287	0.00000000	-48.27140000	-7.89247000
123.29999286	0.00000000	-47.52707000	-7.93553100
123.49999284	0.00000000	-47.43479000	-8.31077700
123.69999283	0.00000000	-47.47785000	-9.05511800
123.89999282	0.00000000	-47.85310000	-9.47342500
124.09999281	0.00000000	-48.64050000	-9.89173200
124.29999280	0.00000000	-49.39099000	-10.62992000
124.49999279	0.00000000	-50.22145000	-10.95595000
124.69999277	0.00000000	-50.97194000	-10.62992000
124.89999276	0.00000000	-51.75935000	-9.89173200
125.09999275	0.00000000	-52.13459000	-9.47342500
125.29999274	0.00000000	-52.13459000	-9.05511800
125.49999273	0.00000000	-51.75935000	-8.31077700
125.69999271	0.00000000	-50.97194000	-7.93553100
125.89999270	0.00000000	-50.22145000	-7.89247000
126.09999269	0.00000000	-49.39099000	-7.89247000
126.29999268	0.00000000	-48.64050000	-7.93553100
126.49999267	0.00000000	-47.85310000	-8.31077700
126.69999265	0.00000000	-47.52707000	-9.09817800
126.89999264	0.00000000	-47.90231000	-9.84867000
127.09999263	0.00000000	-49.05881000	-10.62992000
127.29999262	0.00000000	-50.55364000	-11.00517000
127.49999261	0.00000000	-51.75935000	-11.04823000
127.69999260	0.00000000	-52.50984000	-11.04823000
127.89999258	0.00000000	-52.92200000	-11.00517000
128.09999257	0.00000000	-52.50984000	-10.62992000
128.29999256	0.00000000	-51.75935000	-9.89173200
128.49999255	0.00000000	-50.55364000	-9.47342500
128.69999254	0.00000000	-49.05881000	-9.09817800
128.89999252	0.00000000	-47.90231000	-8.72908400
129.09999251	0.00000000	-47.52707000	-9.09817800
129.29999250	0.00000000	-47.85310000	-9.47342500
129.49999249	0.00000000	-48.64050000	-9.89173200
129.69999248	0.00000000	-49.43405000	-10.58686000
129.89999246	0.00000000	-50.59670000	-10.58686000
130.09999245	0.00000000	-51.71013000	-9.89173200
130.29999244	0.00000000	-52.13459000	-9.51648500
130.49999243	0.00000000	-52.13459000	-9.47342500
130.69999242	0.00000000	-51.71013000	-9.47342500
130.89999241	0.00000000	-50.59670000	-9.47342500
131.09999239	0.00000000	-49.48326000	-9.47342500
131.29999238	0.00000000	-49.05881000	-9.47342500
131.49999237	0.00000000	-49.01575000	-9.47342500
131.69999236	0.00000000	-49.01575000	-9.47342500
131.89999235	0.00000000	-49.05881000	-9.51648500
132.09999233	0.00000000	-49.43405000	-9.84867000
132.29999232	0.00000000	-50.17839000	-10.21161000
132.49999231	0.00000000	-50.55364000	-9.79945900
132.69999230	0.00000000	-50.59670000	-9.09817800
132.89999229	0.00000000	-50.59670000	-8.31077700
133.09999227	0.00000000	-50.59670000	-7.93553100
133.29999226	0.00000000	-50.55364000	-7.84940900
133.49999225	0.00000000	-50.17839000	-7.51722400
133.69999224	0.00000000	-49.48326000	-7.14812900
133.89999223	0.00000000	-49.43405000	-7.51722400
134.09999222	0.00000000	-49.80315000	-7.89247000
134.29999220	0.00000000	-49.76624000	-8.31077700
134.49999219	0.00000000	-49.80315000	-9.09817800
134.69999218	0.00000000	-49.39099000	-9.84867000
134.89999217	0.00000000	-49.05881000	-10.62992000
135.09999216	0.00000000	-49.01575000	-11.00517000
135.29999214	0.00000000	-49.01575000	-11.00517000
135.49999213	0.00000000	-49.01575000	-10.62992000
135.69999212	0.00000000	-49.05881000	-9.84867000
135.89999211	0.00000000	-49.43405000	-9.09817800
136.09999210	0.00000000	-50.17839000	-8.31077700
136.29999208	0.00000000	-50.59670000	-7.93553100
136.49999207	0.00000000	-50.97194000	-7.89247000
136.69999206	0.00000000	-51.34104000	-7.89247000
136.89999205	0.00000000	-50.97194000	-7.93553100
137.09999204	0.00000000	-50.59670000	-8.31077700
137.29999203	0.00000000	-50.12918000	-9.09817800
137.49999201	0.00000000	-49.05881000	-9.84867000
137.69999200	0.00000000	-48.32062000	-10.62992000
137.89999199	0.00000000	-48.64050000	-11.00517000
138.09999198	0.00000000	-48.97269000	-11.04823000
138.29999197	0.00000000	-49.05881000	-11.00517000
138.49999195	0.00000000	-49.43405000	-10.62992000
138.69999194	0.00000000	-50.17839000	-9.89173200
138.89999193	0.00000000	-50.59670000	-9.47342500
139.09999192	0.00000000	-50.97194000	-9.05511800
139.29999191	0.00000000	-51.34104000	-8.31077700
139.49999189	0.00000000	-50.92888000	-7.93553100
139.69999188	0.00000000	-50.22145000	-7.89247000
139.89999187	0.00000000	-49.43405000	-7.93553100
140.09999186	0.00000000	-49.01575000	-8.31077700
140.29999185	0.00000000	-48.64050000	-9.09817800
140.49999184	0.00000000	-48.27140000	-9.84867000
140.69999182	0.00000000	-48.64050000	-10.62992000
140.89999181	0.00000000	-49.01575000	-11.00517000
141.09999180	0.00000000	-49.43405000	-11.00517000
141.29999179	0.00000000	-50.17839000	-10.62992000
141.49999178	0.00000000	-50.55364000	-9.84867000
141.69999176	0.00000000	-50.55364000	-9.09817800
141.89999175	0.00000000	-50.17839000	-8.26771600
142.09999174	0.00000000	-49.43405000	-7.56028500
142.29999173	0.00000000	-49.05881000	-7.10506800
142.49999172	0.00000000	-49.01575000	-7.14197800
142.69999170	0.00000000	-49.01575000	-7.14812900
142.89999169	0.00000000	-49.01575000	-7.93553100
143.09999168	0.00000000	-49.05881000	-9.05511800
143.29999167	0.00000000	-49.43405000	-9.84867000
143.49999166	0.00000000	-50.17839000	-10.62992000
143.69999165	0.00000000	-50.55364000	-11.00517000
143.89999163	0.00000000	-50.59670000	-11.00517000
144.09999162	0.00000000	-50.55364000	-10.62992000
144.29999161	0.00000000	-50.17839000	-9.84867000
144.49999160	0.00000000	-49.43405000	-9.09817800
144.69999159	0.00000000	-49.05881000	-8.31077700
144.89999157	0.00000000	-49.01575000	-7.93553100
145.09999156	0.00000000	-49.01575000	-7.89247000
145.29999155	0.00000000	-49.05881000	-7.93553100
145.49999154	0.00000000	-49.43405000	-8.31077700
145.69999153	0.00000000	-50.17839000	-9.05511800
145.89999151	0.00000000	-50.55364000	-9.47342500
146.09999150	0.00000000	-50.59670000	-9.84867000
146.29999149	0.00000000	-50.55364000	-10.25467000
146.49999148	0.00000000	-50.17839000	-10.21776000
146.69999147	0.00000000	-49.43405000	-10.25467000
146.89999146	0.00000000	-49.05881000	-9.84867000
147.09999144	0.00000000	-49.01575000	-9.51648500
147.29999143	0.00000000	-49.01575000	-9.43036400
147.49999142	0.00000000	-49.01575000	-9.05511800
147.69999141	0.00000000	-49.01575000	-8.31077700
147.89999140	0.00000000	-49.05881000	-7.93553100
148.09999138	0.00000000	-49.43405000	-7.93553100
148.29999137	0.00000000	-50.17839000	-8.31077700
148.49999136	0.00000000	-50.55364000	-9.05511800
148.69999135	0.00000000	-50.55364000	-9.43036400
148.89999134	0.00000000	-50.17839000	-9.47342500
149.09999132	0.00000000	-49.43405000	-9.47342500
149.29999131	0.00000000	-49.05881000	-9.51648500
149.49999130	0.00000000	-48.97269000	-9.84867000
149.69999129	0.00000000	-48.64050000	-10.16855000
149.89999128	0.00000000	-48.27140000	-9.42421200
150.09999127	0.00000000	-48.64050000	-8.35998900
150.29999125	0.00000000	-48.97269000	-7.98474400
150.49999124	0.00000000	-49.01575000	-8.26771600
150.69999123	0.00000000	-49.01575000	-8.63681000
150.89999122	0.00000000	-49.05881000	-8.26771600
151.09999121	0.00000000	-49.43405000	-7.98474400
151.29999119	0.00000000	-50.17839000	-8.31077700
151.49999118	0.00000000	-50.50443000	-9.05511800
151.69999117	0.00000000	-50.17839000	-9.43036400
151.89999116	0.00000000	-49.43405000	-9.47342500
152.09999115	0.00000000	-49.05881000	-9.47342500
152.29999113	0.00000000	-49.01575000	-9.47342500
152.49999112	0.00000000	-49.01575000	-9.47342500
152.69999111	0.00000000	-49.01575000	-9.47342500
152.89999110	0.00000000	-49.01575000	-9.43036400
153.09999109	0.00000000	-49.01575000	-9.05511800
153.29999108	0.00000000	-49.01575000	-8.31077700
153.49999106	0.00000000	-49.05881000	-7.93553100
153.69999105	0.00000000	-49.43405000	-7.89247000
153.89999104	0.00000000	-50.17839000	-7.89247000
154.09999103	0.00000000	-50.55364000	-7.93553100
154.29999102	0.00000000	-50.59670000	-8.31077700
154.49999100	0.00000000	-50.59670000	-9.00590400
154.69999099	0.00000000	-50.55364000	-9.05511800
154.89999098	0.00000000	-50.17839000	-8.72908400
155.09999097	0.00000000	-49.43405000	-9.09817800
155.29999096	0.00000000	-49.05881000	-9.43036400
155.49999094	0.00000000	-48.97269000	-9.47342500
155.69999093	0.00000000	-48.64050000	-9.47342500
155.89999092	0.00000000	-48.27140000	-9.47342500
156.09999091	0.00000000	-48.64050000	-9.43036400
156.29999090	0.00000000	-48.97269000	-9.05511800
156.49999089	0.00000000	-49.05881000	-8.31077700
156.69999087	0.00000000	-49.43405000	-7.93553100
156.89999086	0.00000000	-50.17839000	-7.89247000
157.09999085	0.00000000	-50.55364000	-7.89247000
157.29999084	0.00000000	-50.55364000	-7.89247000
157.49999083	0.00000000	-50.17839000	-7.93553100
157.69999081	0.00000000	-49.43405000	-8.31077700
157.89999080	0.00000000	-49.01575000	-9.05511800
158.09999079	0.00000000	-48.64050000	-9.43036400
158.29999078	0.00000000	-48.27140000	-9.47342500
158.49999077	0.00000000	-48.64050000	-9.47342500
158.69999075	0.00000000	-48.97269000	-9.47342500
158.89999074	0.00000000	-49.01575000	-9.47342500
159.09999073	0.00000000	-49.01575000	-9.43036400
159.29999072	0.00000000	-49.01575000	-9.05511800
159.49999071	0.00000000	-49.01575000	-8.31077700
159.69999070	0.00000000	-49.01575000	-7.93553100
159.89999068	0.00000000	-49.01575000	-7.89247000
160.09999067	0.00000000	-49.01575000	-7.89247000
160.29999066	0.00000000	-49.05881000	-7.93553100
160.49999065	0.00000000	-49.43405000	-8.31077700
160.69999064	0.00000000	-50.12918000	-9.05511800
160.89999062	0.00000000	-50.12918000	-9.43036400
161.09999061	0.00000000	-49.43405000	-9.47342500
161.29999060	0.00000000	-49.05881000	-9.47342500
161.49999059	0.00000000	-49.01575000	-9.47342500
161.69999058	0.00000000	-49.01575000	-9.47342500
161.89999056	0.00000000	-49.01575000	-9.43036400
162.09999055	0.00000000	-49.01575000	-9.05511800
162.29999054	0.00000000	-49.01575000	-8.31077700
162.49999053	0.00000000	-49.01575000	-7.93553100
162.69999052	0.00000000	-49.01575000	-7.89247000
162.89999051	0.00000000	-49.05881000	-7.89247000
163.09999049	0.00000000	-49.43405000	-7.89247000
163.29999048	0.00000000	-50.17839000	-7.93553100
163.49999047	0.00000000	-50.50443000	-8.31077700
163.69999046	0.00000000	-50.17839000	-9.05511800
163.89999045	0.00000000	-49.43405000	-9.43036400
164.09999043	0.00000000	-49.05881000	-9.47342500
164.29999042	0.00000000	-49.01575000	-9.47342500
164.49999041	0.00000000	-48.97269000	-9.47342500
164.69999040	0.00000000	-48.59744000	-9.47342500
164.89999039	0.00000000	-47.85310000	-9.47342500
165.09999037	0.00000000	-47.52707000	-9.47342500
165.29999036	0.00000000	-47.85310000	-9.47342500
165.49999035	0.00000000	-48.59744000	-9.43036400
165.69999034	0.00000000	-48.97269000	-9.09817800
165.89999033	0.00000000	-49.01575000	-8.68602300
166.09999032	0.00000000	-49.05881000	-8.67987200
166.29999030	0.00000000	-49.43405000	-8.31077700
166.49999029	0.00000000	-50.17839000	-8.35998900
166.69999028	0.00000000	-50.50443000	-9.05511800
166.89999027	0.00000000	-50.17839000	-9.43036400
167.09999026	0.00000000	-49.43405000	-9.47342500
167.29999024	0.00000000	-49.05881000	-9.47342500
167.49999023	0.00000000	-49.01575000	-9.47342500
167.69999022	0.00000000	-49.01575000	-9.47342500
167.89999021	0.00000000	-49.01575000	-9.47342500
168.09999020	0.00000000	-49.01575000	-9.47342500
168.29999018	0.00000000	-49.01575000	-9.47342500
168.49999017	0.00000000	-49.01575000	-9.43036400
168.69999016	0.00000000	-49.01575000	-9.09817800
168.89999015	0.00000000	-49.01575000	-8.72908400
169.09999014	0.00000000	-49.01575000	-9.09817800
169.29999013	0.00000000	-49.01575000	-9.43036400
169.49999011	0.00000000	-49.01575000	-9.47342500
169.69999010	0.00000000	-49.01575000	-9.47342500
169.89999009	0.00000000	-49.01575000	-9.47342500
170.09999008	0.00000000	-49.01575000	-9.43036400
170.29999007	0.00000000	-49.01575000	-9.09817800
170.49999005	0.00000000	-49.01575000	-8.72908400
170.69999004	0.00000000	-49.01575000	-9.09817800
170.89999003	0.00000000	-49.01575000	-9.43036400
171.09999002	0.00000000	-49.01575000	-9.47342500
171.29999001	0.00000000	-49.01575000	-9.47342500
171.49998999	0.00000000	-49.01575000	-9.47342500
171.69998998	0.00000000	-49.01575000	-9.47342500
171.89998997	0.00000000	-49.01575000	-9.47342500
172.09998996	0.00000000	-49.01575000	-9.43036400
172.29998995	0.00000000	-49.01575000	-9.09817800
172.49998994	0.00000000	-49.01575000	-8.68602300
172.69998992	0.00000000	-49.01575000	-8.67987200
172.89998991	0.00000000	-49.01575000	-8.26771600
173.09998990	0.00000000	-49.01575000	-7.93553100
173.29998989	0.00000000	-49.01575000	-7.89247000
173.49998988	0.00000000	-49.01575000	-7.89247000
173.69998986	0.00000000	-49.01575000	-7.93553100
173.89998985	0.00000000	-49.01575000	-8.31077700
174.09998984	0.00000000	-49.01575000	-9.05511800
174.29998983	0.00000000	-49.01575000	-9.43036400
174.49998982	0.00000000	-49.01575000	-9.43036400
174.69998980	0.00000000	-49.01575000	-9.09817800
174.89998979	0.00000000	-49.01575000	-8.68602300
175.09998978	0.00000000	-49.01575000	-8.67987200
175.29998977	0.00000000	-49.01575000	-8.26771600
175.49998976	0.00000000	-49.01575000	-7.93553100
175.69998975	0.00000000	-49.01575000	-7.89247000
175.89998973	0.00000000	-49.01575000	-7.89247000
176.09998972	0.00000000	-49.01575000	-7.89247000
176.29998971	0.00000000	-49.01575000	-7.89247000
176.49998970	0.00000000	-49.01575000	-7.93553100
176.69998969	0.00000000	-49.01575000	-8.31077700
176.89998967	0.00000000	-49.01575000	-9.05511800
177.09998966	0.00000000	-49.01575000	-9.43036400
177.29998965	0.00000000	-49.01575000	-9.47342500
177.49998964	0.00000000	-49.01575000	-9.47342500
177.69998963	0.00000000	-49.01575000	-9.47342500
177.89998961	0.00000000	-49.01575000	-9.47342500
178.09998960	0.00000000	-49.01575000	-9.43036400
178.29998959	0.00000000	-49.01575000	-9.05511800
178.49998958	0.00000000	-49.01575000	-8.31077700
178.69998957	0.00000000	-49.01575000	-7.98474400
178.89998956	0.00000000	-48.97269000	-8.26771600
179.09998954	0.00000000	-48.64050000	-8.67987200
179.29998953	0.00000000	-48.27140000	-8.64296200
179.49998952	0.00000000	-48.59744000	-8.67987200
179.69998951	0.00000000	-48.59744000	-8.26771600
179.89998950	0.00000000	-48.27140000	-7.98474400
180.09998948	0.00000000	-48.64050000	-8.31077700
180.29998947	0.00000000	-48.97269000	-9.05511800
180.49998946	0.00000000	-49.01575000	-9.43036400
180.69998945	0.00000000	-48.97269000	-9.47342500
180.89998944	0.00000000	-48.64050000	-9.43036400
181.09998942	0.00000000	-48.27140000	-9.05511800
181.29998941	0.00000000	-48.59744000	-8.31077700
181.49998940	0.00000000	-48.59744000	-7.93553100
181.69998939	0.00000000	-48.22834000	-7.89247000
181.89998938	0.00000000	-48.26525000	-7.89247000
182.09998937	0.00000000	-48.18528000	-7.89247000
182.29998935	0.00000000	-48.22219000	-7.93553100
182.49998934	0.00000000	-47.85310000	-8.26771600
182.69998933	0.00000000	-47.85310000	-8.63681000
182.89998932	0.00000000	-48.17913000	-8.31077700
183.09998931	0.00000000	-47.85310000	-8.35998900
183.29998929	0.00000000	-47.90231000	-9.05511800
183.49998928	0.00000000	-48.59744000	-9.38115100
183.69998927	0.00000000	-48.97269000	-9.05511800
183.89998926	0.00000000	-49.01575000	-8.31077700
184.09998925	0.00000000	-49.01575000	-7.93553100
184.29998923	0.00000000	-49.01575000	-7.89247000
184.49998922	0.00000000	-49.01575000	-7.89247000
184.69998921	0.00000000	-49.01575000	-7.89247000
184.89998920	0.00000000	-48.97269000	-7.89247000
185.09998919	0.00000000	-48.64050000	-7.89247000
185.29998918	0.00000000	-48.22834000	-7.89247000
185.49998916	0.00000000	-48.22219000	-7.93553100
185.69998915	0.00000000	-47.81004000	-8.31077700
185.89998914	0.00000000	-47.47785000	-9.05511800
186.09998913	0.00000000	-47.47785000	-9.43036400
186.29998912	0.00000000	-47.85310000	-9.47342500
186.49998910	0.00000000	-48.59744000	-9.47342500
186.69998909	0.00000000	-48.97269000	-9.47342500
186.89998908	0.00000000	-49.01575000	-9.43036400
187.09998907	0.00000000	-49.01575000	-9.05511800
187.29998906	0.00000000	-49.01575000	-8.31077700
187.49998904	0.00000000	-49.01575000	-7.93553100
187.69998903	0.00000000	-49.01575000	-7.89247000
187.89998902	0.00000000	-49.01575000	-7.89247000
188.09998901	0.00000000	-48.97269000	-7.89247000
188.29998900	0.00000000	-48.64050000	-7.93553100
188.49998899	0.00000000	-48.22834000	-8.31077700
188.69998897	0.00000000	-48.22219000	-9.05511800
188.89998896	0.00000000	-47.81004000	-9.43036400
189.09998895	0.00000000	-47.52707000	-9.47342500
189.29998894	0.00000000	-47.81004000	-9.47342500
189.49998893	0.00000000	-48.22219000	-9.47342500
189.69998891	0.00000000	-48.22834000	-9.43036400
189.89998890	0.00000000	-48.64050000	-9.05511800
190.09998889	0.00000000	-48.97269000	-8.31077700
190.29998888	0.00000000	-49.01575000	-7.93553100
190.49998887	0.00000000	-49.01575000	-7.89247000
190.69998885	0.00000000	-48.97269000	-7.89247000
190.89998884	0.00000000	-48.64050000	-7.89247000
191.09998883	0.00000000	-48.22834000	-7.89247000
191.29998882	0.00000000	-48.22219000	-7.89247000
191.49998881	0.00000000	-47.81004000	-7.89247000
191.69998880	0.00000000	-47.47785000	-7.89247000
191.89998878	0.00000000	-47.43479000	-7.93553100
192.09998877	0.00000000	-47.43479000	-8.31077700
192.29998876	0.00000000	-47.43479000	-9.05511800
192.49998875	0.00000000	-47.47785000	-9.43036400
192.69998874	0.00000000	-47.85310000	-9.47342500
192.89998872	0.00000000	-48.59744000	-9.47342500
193.09998871	0.00000000	-48.97269000	-9.47342500
193.29998870	0.00000000	-49.01575000	-9.43036400
193.49998869	0.00000000	-49.01575000	-9.05511800
193.69998868	0.00000000	-48.97269000	-8.31077700
193.89998866	0.00000000	-48.59744000	-7.93553100
194.09998865	0.00000000	-47.85310000	-7.89247000
194.29998864	0.00000000	-47.47785000	-7.89247000
194.49998863	0.00000000	-47.43479000	-7.89247000
194.69998862	0.00000000	-47.43479000	-7.89247000
194.89998861	0.00000000	-47.43479000	-7.89247000
195.09998859	0.00000000	-47.43479000	-7.93553100
195.29998858	0.00000000	-47.47785000	-8.31077700
195.49998857	0.00000000	-47.85310000	-9.05511800
195.69998856	0.00000000	-48.59744000	-9.38115100
195.89998855	0.00000000	-48.97269000	-9.05511800
196.09998853	0.00000000	-48.97269000	-8.31077700
