Time	Channel A	Channel B	Channel C
(us)	(V)	(mV)	(mV)

-4.49999956	0.00000000	34.78716000	3.15575800
-4.29999957	0.00000000	34.78716000	3.19881900
-4.09999958	0.00000000	34.83022000	3.53100400
-3.89999959	0.00000000	35.16240000	3.90009800
-3.69999960	0.00000000	35.53149000	3.53100400
-3.49999962	0.00000000	35.16240000	3.19881900
-3.29999963	0.00000000	34.83022000	3.15575800
-3.09999964	0.00000000	34.78716000	3.15575800
-2.89999965	0.00000000	34.78716000	3.15575800
-2.69999966	0.00000000	34.78716000	3.15575800
-2.49999968	0.00000000	34.78716000	3.15575800
-2.29999969	0.00000000	34.78716000	3.15575800
-2.09999970	0.00000000	34.78716000	3.15575800
-1.89999971	0.00000000	34.78716000	3.15575800
-1.69999972	0.00000000	34.78716000	3.15575800
-1.49999973	0.00000000	34.78716000	3.19881900
-1.29999975	0.00000000	34.78716000	3.53100400
-1.09999976	0.00000000	34.78716000	3.90009800
-0.89999977	0.00000000	34.78716000	3.53100400
-0.69999978	0.00000000	34.78716000	3.19881900
-0.49999979	0.00000000	34.78716000	3.15575800
-0.29999981	0.31803640	34.78716000	3.15575800
-0.09999982	0.63668800	34.78716000	3.15575800
0.10000017	0.95533960	34.78716000	3.15575800
0.30000016	0.95533960	34.78716000	3.15575800
0.50000015	0.79601380	34.78716000	3.15575800
0.70000013	0.15871060	34.78716000	3.15575800
0.90000012	-0.63668800	34.78716000	3.15575800
1.10000011	-1.75196900	34.78716000	3.19881900
1.30000010	-2.54859700	34.78716000	3.57406500
1.50000009	-2.86724900	34.78716000	4.31840500
1.70000008	-2.22994600	34.78716000	4.69365100
1.90000006	-0.95533960	34.78716000	4.73671200
2.10000005	0.95533960	34.78716000	4.73671200
2.30000004	3.02657500	34.78716000	4.73671200
2.50000003	4.77854300	34.78716000	4.69365100
2.70000002	5.41584600	34.78716000	4.31840500
2.90000000	4.61921700	34.78716000	3.57406500
3.09999999	2.38927200	34.78716000	3.19881900
3.29999998	-0.79601380	34.78716000	3.15575800
3.49999997	-4.14124000	34.78716000	3.15575800
3.69999996	-6.84916400	34.78716000	3.15575800
3.89999994	-7.96444400	34.78716000	3.19881900
4.09999993	-7.00848900	34.78716000	3.57406500
4.29999992	-4.30056600	34.78716000	4.31840500
4.49999991	-0.15871060	34.78716000	4.64443900
4.69999990	4.30056600	34.78716000	4.31840500
4.89999989	7.80511800	34.78716000	3.57406500
5.09999987	9.39837600	34.78716000	3.19881900
5.29999986	8.76107300	34.78716000	3.15575800
5.49999985	5.89382400	34.78716000	3.15575800
5.69999984	1.43331700	34.78716000	3.15575800
5.89999983	-3.50393700	34.78716000	3.15575800
6.09999981	-7.32714100	34.78716000	3.15575800
6.29999980	-9.39837600	34.78716000	3.19881900
6.49999979	-9.07972400	34.78716000	3.57406500
6.69999978	-6.53112700	34.78716000	4.31840500
6.89999977	-2.54859700	34.78716000	4.69365100
7.09999975	1.91129400	34.78716000	4.69365100
7.29999974	5.57517200	34.78716000	4.31840500
7.49999973	7.48646600	34.78716000	3.57406500
7.69999972	7.48646600	34.78716000	3.19881900
7.89999971	5.73449800	34.78716000	3.15575800
8.09999970	2.70792300	34.78716000	3.15575800
8.29999968	-0.63668800	34.78716000	3.15575800
8.49999967	-3.34522600	34.78716000	3.15575800
8.69999966	-4.93786900	34.78716000	3.15575800
8.89999965	-5.09719500	34.78716000	3.15575800
9.09999964	-4.14124000	34.78716000	3.19881900
9.29999962	-2.22994600	34.78716000	3.53100400
9.49999961	-0.31803640	34.78716000	3.90009800
9.69999960	1.43331700	34.78716000	3.53100400
9.89999959	2.38927200	34.78716000	3.19881900
10.09999958	2.54859700	34.78716000	3.15575800
10.29999956	2.07062000	34.78716000	3.15575800
10.49999955	1.27399100	34.78716000	3.15575800
10.69999954	0.31803640	34.78716000	3.15575800
10.89999953	-0.31803640	34.78716000	3.15575800
11.09999952	-0.79601380	34.78716000	3.15575800
11.29999951	-0.95533960	34.78716000	3.15575800
11.49999949	-0.95533960	34.78716000	3.15575800
11.69999948	-0.63668800	34.78716000	3.15575800
11.89999947	-0.31803640	34.78716000	3.15575800
12.09999946	-0.15871060	34.78716000	3.15575800
12.29999945	-0.15871060	34.78716000	3.15575800
12.49999943	0.00000000	34.78716000	3.15575800
12.69999942	0.00000000	34.78716000	3.15575800
12.89999941	0.00000000	34.78716000	3.15575800
13.09999940	0.00000000	34.78716000	3.15575800
13.29999939	0.00000000	34.78716000	3.15575800
13.49999937	0.00000000	34.78716000	3.15575800
13.69999936	0.00000000	34.78716000	3.15575800
13.89999935	-0.15871060	34.78716000	3.15575800
14.09999934	-0.15871060	34.78716000	3.15575800
14.29999933	-0.15871060	34.78716000	3.15575800
14.49999932	-0.15871060	34.78716000	3.15575800
14.69999930	0.00000000	34.78716000	3.15575800
14.89999929	0.00000000	34.78716000	3.15575800
15.09999928	0.00000000	34.78716000	3.15575800
15.29999927	0.00000000	34.78716000	3.15575800
15.49999926	0.00000000	34.78716000	3.15575800
15.69999924	0.00000000	34.78716000	3.15575800
15.89999923	0.00000000	34.74409000	3.15575800
16.09999922	0.00000000	34.41191000	3.15575800
16.29999921	-0.15871060	34.04282000	3.15575800
16.49999920	-0.15871060	34.41191000	3.15575800
16.69999919	-0.15871060	34.78716000	3.15575800
16.89999917	0.00000000	35.20546000	3.15575800
17.09999916	0.00000000	35.94980000	3.15575800
17.29999915	0.00000000	36.32505000	3.15575800
17.49999914	0.00000000	36.36811000	3.15575800
17.69999913	0.00000000	36.32505000	3.15575800
17.89999911	0.00000000	35.90059000	3.15575800
18.09999910	0.00000000	34.73794000	3.15575800
18.29999909	0.00000000	33.20005000	3.15575800
18.49999908	0.00000000	31.61909000	3.15575800
18.69999907	0.00000000	30.08120000	3.15575800
18.89999905	0.00000000	28.96776000	3.15575800
19.09999904	0.00000000	29.01082000	3.19881900
19.29999903	0.00000000	30.59178000	3.53100400
19.49999902	0.00000000	33.71063000	3.90009800
19.69999901	0.00000000	37.94907000	3.53100400
19.89999900	0.00000000	42.18134000	3.19881900
20.09999898	0.00000000	45.25713000	3.15575800
20.29999897	0.00000000	46.37057000	3.15575800
20.49999896	0.00000000	44.78961000	3.15575800
20.69999895	0.00000000	40.46506000	3.15575800
20.89999894	0.00000000	33.85827000	3.15575800
21.09999892	0.00000000	25.76279000	3.15575800
21.29999891	0.00000000	18.49778000	3.15575800
21.49999890	0.00000000	14.22244000	3.15575800
21.69999889	0.00000000	13.93947000	3.15575800
21.89999888	0.00000000	18.27018000	3.15575800
22.09999886	0.00000000	27.61442000	3.15575800
22.29999885	0.00000000	39.94832000	3.15575800
22.49999884	0.00000000	52.69439000	3.15575800
22.69999883	0.00000000	62.65378000	3.15575800
22.89999882	0.00000000	66.84301000	3.19881900
23.09999881	0.00000000	63.72416000	3.57406500
23.29999879	0.00000000	53.58636000	4.31840500
23.49999878	0.00000000	38.09055000	4.69365100
23.69999877	0.00000000	19.94956000	4.73671200
23.89999876	0.00000000	3.80167300	4.73671200
24.09999875	0.00000000	-6.20078700	4.69365100
24.29999873	0.00000000	-7.32037400	4.26919300
24.49999872	0.00000000	1.23646700	3.11269700
24.69999871	0.00000000	17.93799000	1.57480300
24.89999870	0.00000000	39.94832000	0.04306102
25.09999869	0.00000000	62.27854000	-1.11343500
25.29999867	0.00000000	78.80167000	-1.48253000
25.49999866	0.00000000	85.35925000	-1.06422200
25.69999865	0.00000000	79.96431000	0.51058070
25.89999864	0.00000000	64.14247000	3.24803100
26.09999863	0.00000000	41.67076000	6.72982200
26.29999862	0.00000000	16.96604000	10.58686000
26.49999860	0.00000000	-4.24458600	13.60728000
26.69999859	0.00000000	-16.57849000	14.76993000
26.89999858	0.00000000	-17.41511000	13.56422000
27.09999857	0.00000000	-6.57603300	9.99015700
27.29999856	0.00000000	13.10900000	3.80782500
27.49999854	0.00000000	37.43848000	-3.90009800
27.69999853	0.00000000	60.60531000	-10.82677000
27.89999852	0.00000000	77.26993000	-15.84030000
28.09999851	0.00000000	84.24581000	-17.23671000
28.29999850	0.00000000	80.01353000	-13.74877000
28.49999848	0.00000000	65.77264000	-5.62253900
28.69999847	0.00000000	45.30019000	5.20423200
28.89999846	0.00000000	23.28986000	16.81225000
29.09999845	0.00000000	4.73056000	26.80241000
29.29999844	0.00000000	-6.20078700	32.52337000
29.49999843	0.00000000	-8.20620100	32.10507000
29.69999841	0.00000000	-1.64247000	25.09227000
29.89999840	0.00000000	12.26624000	12.72761000
30.09999839	0.00000000	29.99508000	-2.69439000
30.29999838	0.00000000	47.44094000	-17.37205000
30.49999837	0.00000000	60.98056000	-28.20497000
30.69999835	0.00000000	68.00565000	-33.12623000
30.89999834	0.00000000	67.31053000	-30.01353000
31.09999833	0.00000000	60.04552000	-19.24212000
31.29999832	0.00000000	48.41904000	-3.76476400
31.49999831	0.00000000	34.83022000	13.65650000
31.69999829	0.00000000	21.70891000	29.45374000
31.89999828	0.00000000	12.03248000	39.86220000
32.09999827	0.00000000	8.07701800	42.59965000
32.29999826	0.00000000	9.56569900	37.16781000
32.49999825	0.00000000	15.76033000	24.80315000
32.69999824	0.00000000	25.43061000	7.80634800
32.89999822	0.00000000	36.27584000	-9.94094400
33.09999821	0.00000000	46.32751000	-24.66781000
33.29999820	0.00000000	53.25418000	-33.54453000
33.49999819	0.00000000	55.21038000	-34.70718000
33.69999818	0.00000000	52.18381000	-27.78666000
33.89999816	0.00000000	45.30019000	-14.68381000
34.09999815	0.00000000	36.82948000	1.58095500
34.29999814	0.00000000	29.06004000	17.79650000
34.49999813	0.00000000	23.19759000	30.56717000
34.69999812	0.00000000	20.12795000	37.12475000
34.89999810	0.00000000	20.54626000	36.37426000
35.09999809	0.00000000	24.73548000	28.29109000
35.29999808	0.00000000	31.24384000	15.23130000
35.49999807	0.00000000	37.77067000	0.51058070
35.69999806	0.00000000	42.79035000	-12.96752000
35.89999805	0.00000000	44.74655000	-22.25640000
36.09999803	0.00000000	43.62696000	-24.95694000
36.29999802	0.00000000	40.18209000	-21.13681000
36.49999801	0.00000000	35.16240000	-11.52190000
36.69999800	0.00000000	30.17347000	1.11343500
36.89999799	0.00000000	26.31643000	13.05364000
37.09999797	0.00000000	24.77854000	21.55512000
37.29999796	0.00000000	25.89198000	24.62475000
37.49999795	0.00000000	28.96776000	21.60433000
37.69999794	0.00000000	33.24926000	13.56422000
37.89999793	0.00000000	37.89985000	3.24803100
38.09999791	0.00000000	42.09522000	-6.36687900
38.29999790	0.00000000	44.37131000	-12.50000000
38.49999789	0.00000000	43.62696000	-13.66265000
38.69999788	0.00000000	40.60039000	-9.43036400
38.89999787	0.00000000	36.36811000	-1.02116100
39.09999786	0.00000000	32.08661000	8.87672100
39.29999784	0.00000000	28.54946000	16.91068000
39.49999783	0.00000000	25.80585000	20.39862000
39.69999782	0.00000000	24.31102000	18.86688000
39.89999781	0.00000000	24.73548000	12.72761000
40.09999780	0.00000000	27.42987000	3.53100400
40.29999778	0.00000000	31.61909000	-5.67175200
40.49999777	0.00000000	35.90059000	-12.59227000
40.69999776	0.00000000	39.43774000	-15.24360000
40.89999775	0.00000000	42.18134000	-12.59227000
41.09999774	0.00000000	43.67618000	-5.67175200
41.29999772	0.00000000	43.30093000	3.57406500
41.49999771	0.00000000	40.97564000	13.14591000
41.69999770	0.00000000	37.48154000	20.02337000
41.89999769	0.00000000	33.20005000	22.02264000
42.09999768	0.00000000	29.01082000	19.32825000
42.29999767	0.00000000	26.26722000	12.81988000
42.49999765	0.00000000	25.43061000	3.99237200
42.69999764	0.00000000	25.80585000	-4.04773600
42.89999763	0.00000000	27.38681000	-9.52263600
43.09999762	0.00000000	30.08120000	-11.47269000
43.29999761	0.00000000	33.15699000	-9.98400600
43.49999759	0.00000000	35.90059000	-5.71481200
43.69999758	0.00000000	37.81373000	0.37524600
43.89999757	0.00000000	38.64419000	6.54527500
44.09999756	0.00000000	38.28125000	10.82677000
44.29999755	0.00000000	37.57381000	13.18898000
44.49999753	0.00000000	36.78642000	13.14591000
44.69999752	0.00000000	36.41117000	10.53765000
44.89999751	0.00000000	36.32505000	6.68676100
45.09999750	0.00000000	35.94980000	2.82972400
45.29999749	0.00000000	35.16240000	-0.64591530
45.49999748	0.00000000	34.27657000	-2.55905500
45.69999746	0.00000000	32.32037000	-2.64517700
45.89999745	0.00000000	29.25074000	-1.48868100
46.09999744	0.00000000	26.59326000	0.41830710
46.29999743	0.00000000	24.64321000	2.73745100
46.49999742	0.00000000	24.36024000	4.68750000
46.69999740	0.00000000	26.31643000	6.26845500
46.89999739	0.00000000	30.59178000	7.38188900
47.09999738	0.00000000	36.36811000	7.38188900
47.29999737	0.00000000	42.18134000	6.22539300
47.49999736	0.00000000	46.78888000	4.31840500
47.69999734	0.00000000	49.06496000	1.99311000
47.89999733	0.00000000	47.85925000	0.09227362
48.09999732	0.00000000	43.20866000	-1.11343500
48.29999731	0.00000000	35.85752000	-1.48253000
48.49999730	0.00000000	27.38681000	-1.06422200
48.69999729	0.00000000	20.07874000	0.55364170
48.89999727	0.00000000	15.84646000	3.57406500
49.09999726	0.00000000	15.88952000	7.01279500
49.29999725	0.00000000	20.50320000	9.33809000
49.49999724	0.00000000	28.59252000	10.53765000
49.69999723	0.00000000	37.85679000	10.45152000
49.89999721	0.00000000	46.37057000	8.54453700
50.09999720	0.00000000	52.09768000	5.06274600
50.29999719	0.00000000	53.25418000	1.20570900
50.49999718	0.00000000	49.39714000	-2.64517700
50.69999717	0.00000000	41.76304000	-5.29650500
50.89999715	0.00000000	32.46186000	-5.71481200
51.09999714	0.00000000	24.02805000	-4.18307100
51.29999713	0.00000000	18.22096000	-1.07037400
51.49999712	0.00000000	17.05217000	3.15575800
51.69999711	0.00000000	20.07874000	7.38188900
51.89999710	0.00000000	26.27337000	10.49459000
52.09999708	0.00000000	34.36884000	12.03248000
52.29999707	0.00000000	42.00295000	11.61417000
52.49999706	0.00000000	47.02263000	8.91978400
52.69999705	0.00000000	47.81619000	4.73671200
52.89999704	0.00000000	44.78961000	0.51058070
53.09999702	0.00000000	38.97638000	-2.60211600
53.29999701	0.00000000	31.71137000	-4.14000900
53.49999700	0.00000000	25.19685000	-3.76476400
53.69999699	0.00000000	21.70891000	-1.48868100
53.89999698	0.00000000	21.70891000	1.53174200
54.09999696	0.00000000	25.15379000	4.26919300
54.29999695	0.00000000	31.29306000	6.17618100
54.49999694	0.00000000	37.77067000	6.96358300
54.69999693	0.00000000	42.79035000	6.22539300
54.89999692	0.00000000	44.74655000	4.73671200
55.09999691	0.00000000	43.62696000	3.15575800
55.29999689	0.00000000	40.13902000	1.66707700
55.49999688	0.00000000	34.78716000	0.92888770
55.69999687	0.00000000	29.43528000	1.66707700
55.89999686	0.00000000	25.89198000	3.19881900
56.09999685	0.00000000	24.36024000	5.11195900
56.29999683	0.00000000	25.15379000	6.96358300
56.49999682	0.00000000	28.59252000	7.29576700
56.69999681	0.00000000	33.15699000	5.80093500
56.89999680	0.00000000	37.43848000	3.11269700
57.09999679	0.00000000	40.51427000	0.00000000
57.29999677	0.00000000	41.67076000	-3.02042300
57.49999676	0.00000000	40.55733000	-4.87819900
57.69999675	0.00000000	37.90600000	-4.13385800
57.89999674	0.00000000	34.78716000	-1.44562000
58.09999673	0.00000000	31.71137000	2.46063000
58.29999672	0.00000000	29.38607000	7.47416300
58.49999670	0.00000000	28.59252000	12.03248000
58.69999669	0.00000000	28.96776000	14.72072000
58.89999668	0.00000000	30.50566000	14.67766000
59.09999667	0.00000000	32.78174000	11.56496000
59.29999666	0.00000000	34.69488000	5.80708600
59.49999664	0.00000000	35.90059000	-1.07037400
59.69999663	0.00000000	36.27584000	-6.87130900
59.89999662	0.00000000	35.94980000	-10.31619000
60.09999661	0.00000000	35.16240000	-10.68528000
60.29999660	0.00000000	34.36884000	-7.20349400
60.49999658	0.00000000	33.24926000	-1.07037400
60.69999657	0.00000000	32.50492000	6.26845500
60.89999656	0.00000000	32.82480000	13.18898000
61.09999655	0.00000000	33.20005000	17.79650000
61.29999654	0.00000000	33.61835000	18.95300000
61.49999653	0.00000000	34.36884000	16.21555000
61.69999651	0.00000000	34.69488000	10.07628000
61.89999650	0.00000000	34.36884000	1.99311000
62.09999649	0.00000000	33.57529000	-5.67175200
62.29999648	0.00000000	32.82480000	-11.10359000
62.49999647	0.00000000	31.99434000	-13.05364000
62.69999645	0.00000000	31.28691000	-11.47884000
62.89999644	0.00000000	30.92396000	-6.45915300
63.09999643	0.00000000	31.71137000	1.20570900
63.29999642	0.00000000	33.20005000	8.87057000
63.49999641	0.00000000	34.78716000	14.72687000
63.69999639	0.00000000	36.27584000	17.83957000
63.89999638	0.00000000	37.06324000	17.79035000
64.09999637	0.00000000	36.70029000	14.35162000
64.29999636	0.00000000	35.94980000	8.21850300
64.49999635	0.00000000	34.69488000	1.66707700
64.69999634	0.00000000	32.82480000	-4.18307100
64.89999632	0.00000000	30.92396000	-8.40920300
65.09999631	0.00000000	30.17347000	-9.99015700
65.29999630	0.00000000	30.50566000	-8.82750900
65.49999629	0.00000000	31.66215000	-5.38262700
65.69999628	0.00000000	33.20005000	-0.37524600
65.89999626	0.00000000	34.73794000	4.64443900
66.09999625	0.00000000	35.85752000	8.91978400
66.29999624	0.00000000	35.85752000	11.65723000
66.49999623	0.00000000	34.73794000	12.49385000
66.69999622	0.00000000	33.20005000	12.16166000
66.89999620	0.00000000	31.66215000	10.91289000
67.09999619	0.00000000	30.50566000	8.58759800
67.29999618	0.00000000	30.17347000	5.11195900
67.49999617	0.00000000	30.96703000	1.66707700
67.69999616	0.00000000	33.24926000	-1.15649600
67.89999615	0.00000000	35.90059000	-3.48179100
68.09999613	0.00000000	37.85679000	-5.43184000
68.29999612	0.00000000	39.01944000	-6.13312000
68.49999611	0.00000000	38.93332000	-5.38262700
68.69999610	0.00000000	37.02018000	-3.02042300
68.89999609	0.00000000	33.53223000	0.46751960
69.09999607	0.00000000	29.70595000	4.73671200
69.29999606	0.00000000	26.22416000	8.96284400
69.49999605	0.00000000	24.31102000	12.11860000
69.69999604	0.00000000	24.31102000	14.03174000
69.89999603	0.00000000	26.26722000	14.30241000
70.09999601	0.00000000	30.21653000	11.60802000
70.29999600	0.00000000	35.58071000	6.68676100
70.49999599	0.00000000	41.29552000	1.62401600
70.69999598	0.00000000	44.74655000	-3.06963600
70.89999597	0.00000000	45.20792000	-6.87746000
71.09999596	0.00000000	43.25172000	-8.40920300
71.29999594	0.00000000	38.97638000	-7.29576700
71.49999593	0.00000000	33.20005000	-4.22613100
71.69999592	0.00000000	27.38681000	0.04306102
71.89999591	0.00000000	22.77928000	4.69365100
72.09999590	0.00000000	20.45399000	8.91978400
72.29999588	0.00000000	21.19833000	11.61417000
72.49999587	0.00000000	24.26796000	11.98327000
72.69999586	0.00000000	28.96776000	10.11934000
72.89999585	0.00000000	34.73794000	6.68676100
73.09999584	0.00000000	40.13902000	3.24803100
73.29999582	0.00000000	43.62696000	0.51058070
73.49999581	0.00000000	44.78961000	-1.02116100
73.69999580	0.00000000	43.25172000	-1.06422200
73.89999579	0.00000000	39.43774000	0.04306102
74.09999578	0.00000000	34.78716000	1.57480300
74.29999577	0.00000000	30.13041000	3.06348400
74.49999575	0.00000000	26.26722000	3.80782500
74.69999574	0.00000000	24.36024000	3.06348400
74.89999573	0.00000000	24.68627000	1.62401600
75.09999572	0.00000000	27.01156000	0.46136810
75.29999571	0.00000000	30.41338000	0.09227362
75.49999569	0.00000000	33.90133000	0.51058070
75.69999568	0.00000000	36.27584000	2.08538400
75.89999567	0.00000000	37.85679000	4.73671200
76.09999566	0.00000000	38.60113000	7.43110200
76.29999565	0.00000000	37.85679000	9.33809000
76.49999563	0.00000000	36.36811000	10.11934000
76.69999562	0.00000000	34.78716000	9.29502900
76.89999561	0.00000000	33.24926000	6.96358300
77.09999560	0.00000000	32.08661000	3.06963600
77.29999559	0.00000000	31.71137000	-1.48868100
77.49999558	0.00000000	31.99434000	-5.33956700
77.69999556	0.00000000	32.36343000	-7.24655500
77.89999555	0.00000000	31.99434000	-6.87746000
78.09999554	0.00000000	31.61909000	-4.14000900
78.29999553	0.00000000	31.20078000	0.46136810
78.49999552	0.00000000	30.45644000	5.85014700
78.69999550	0.00000000	30.13041000	10.49459000
78.89999549	0.00000000	30.54872000	13.60728000
79.09999548	0.00000000	32.12967000	14.72687000
79.29999547	0.00000000	34.69488000	13.18898000
79.49999546	0.00000000	36.68799000	9.33809000
79.69999544	0.00000000	37.49385000	4.36146600
79.89999543	0.00000000	38.26894000	-0.69512790
80.09999542	0.00000000	37.77067000	-4.55831700
80.29999541	0.00000000	35.90059000	-6.92052100
80.49999540	0.00000000	33.15699000	-7.24655500
80.69999539	0.00000000	30.13041000	-5.38262700
80.89999537	0.00000000	27.80512000	-1.90698800
81.09999536	0.00000000	27.05462000	1.95004900
81.29999535	0.00000000	27.80512000	5.85014700
81.49999534	0.00000000	30.08120000	8.91978400
81.69999533	0.00000000	32.78174000	10.53765000
81.89999531	0.00000000	35.11319000	10.91289000
82.09999530	0.00000000	37.06324000	10.16855000
82.29999529	0.00000000	37.81373000	8.21850300
82.49999528	0.00000000	37.48154000	5.89320800
82.69999527	0.00000000	36.32505000	3.11269700
82.89999525	0.00000000	34.73794000	0.04306102
83.09999524	0.00000000	32.82480000	-2.64517700
83.29999523	0.00000000	30.92396000	-4.22613100
83.49999522	0.00000000	30.13041000	-4.64443900
83.69999521	0.00000000	30.08120000	-4.22613100
83.89999520	0.00000000	30.50566000	-2.60211600
84.09999518	0.00000000	31.61909000	0.46751960
84.29999517	0.00000000	32.73252000	4.31840500
84.49999516	0.00000000	33.15699000	7.80019600
84.69999515	0.00000000	33.20005000	10.53765000
84.89999514	0.00000000	33.20005000	12.03248000
85.09999512	0.00000000	33.20005000	11.65723000
85.29999511	0.00000000	33.24311000	9.33809000
85.49999510	0.00000000	33.61835000	5.85014700
85.69999509	0.00000000	34.36884000	1.57480300
85.89999508	0.00000000	34.74409000	-2.64517700
86.09999506	0.00000000	34.74409000	-5.71481200
86.29999505	0.00000000	34.31963000	-6.87130900
86.49999504	0.00000000	33.15699000	-5.71481200
86.69999503	0.00000000	31.66215000	-2.60211600
86.89999502	0.00000000	30.50566000	1.99311000
87.09999501	0.00000000	30.08120000	6.96358300
87.29999499	0.00000000	30.08120000	10.45152000
87.49999498	0.00000000	30.50566000	12.03248000
87.69999497	0.00000000	31.66215000	11.61417000
87.89999496	0.00000000	33.20005000	8.91978400
88.09999495	0.00000000	34.73794000	4.69365100
88.29999493	0.00000000	35.90059000	0.04306102
88.49999492	0.00000000	36.27584000	-4.14000900
88.69999491	0.00000000	35.90059000	-6.45300100
88.89999490	0.00000000	34.73794000	-6.09005900
89.09999489	0.00000000	33.20005000	-3.76476400
89.29999487	0.00000000	31.66215000	0.51058070
89.49999486	0.00000000	30.50566000	5.80093500
89.69999485	0.00000000	30.08120000	10.03322000
89.89999484	0.00000000	30.08120000	11.98327000
90.09999483	0.00000000	30.50566000	11.61417000
90.29999482	0.00000000	31.66215000	8.91978400
90.49999480	0.00000000	33.15699000	4.69365100
90.69999479	0.00000000	34.31963000	0.09227362
90.89999478	0.00000000	34.74409000	-3.76476400
91.09999477	0.00000000	34.74409000	-5.67175200
91.29999476	0.00000000	34.36884000	-5.29650500
91.49999474	0.00000000	33.61835000	-2.60211600
91.69999473	0.00000000	33.24311000	1.62401600
91.89999472	0.00000000	33.20005000	6.21924200
92.09999471	0.00000000	33.20005000	10.07628000
92.29999470	0.00000000	33.20005000	11.94021000
92.49999468	0.00000000	33.15699000	11.18971000
92.69999467	0.00000000	32.78174000	7.75713500
92.89999466	0.00000000	32.03740000	3.15575800
93.09999465	0.00000000	31.61909000	-1.43946800
93.29999464	0.00000000	31.20078000	-4.87204700
93.49999463	0.00000000	30.50566000	-5.67175200
93.69999461	0.00000000	30.50566000	-4.18307100
93.89999460	0.00000000	31.28691000	-1.07037400
94.09999459	0.00000000	32.46186000	3.15575800
94.29999458	0.00000000	34.41191000	7.33882900
94.49999457	0.00000000	36.27584000	10.03322000
94.69999455	0.00000000	37.48154000	10.45152000
94.89999454	0.00000000	37.81373000	8.91978400
95.09999453	0.00000000	37.06324000	5.80093500
95.29999452	0.00000000	35.11319000	1.62401600
95.49999451	0.00000000	32.78174000	-2.18380900
95.69999449	0.00000000	30.03814000	-4.14000900
95.89999448	0.00000000	27.38681000	-4.18307100
96.09999447	0.00000000	25.84892000	-2.60211600
96.29999446	0.00000000	25.89198000	0.46751960
96.49999445	0.00000000	27.80512000	4.22613100
96.69999444	0.00000000	31.29306000	6.92052100
96.89999442	0.00000000	35.11319000	7.75713500
97.09999441	0.00000000	38.64419000	7.42495000
97.29999440	0.00000000	40.93258000	6.22539300
97.49999439	0.00000000	41.71998000	4.31840500
97.69999438	0.00000000	40.51427000	1.99311000
97.89999436	0.00000000	37.48154000	0.13533460
98.09999435	0.00000000	33.57529000	-0.69512790
98.29999434	0.00000000	29.70595000	-0.32603340
98.49999433	0.00000000	26.22416000	0.41830710
98.69999432	0.00000000	24.31102000	1.57480300
98.89999430	0.00000000	24.26796000	2.68823800
99.09999429	0.00000000	25.84892000	3.15575800
99.29999428	0.00000000	28.92470000	3.53100400
99.49999427	0.00000000	32.78174000	3.90009800
99.69999426	0.00000000	36.27584000	3.57406500
99.89999425	0.00000000	39.01944000	3.62327700
100.09999423	0.00000000	40.55733000	4.36146600
100.29999422	-0.15871060	40.55733000	5.06274600
100.49999421	0.00000000	39.01944000	5.47490100
100.69999420	0.00000000	36.31890000	5.06274600
100.89999419	0.00000000	33.20005000	4.31840500
101.09999417	0.00000000	30.13041000	3.11269700
101.29999416	0.00000000	27.80512000	1.57480300
101.49999415	0.00000000	26.96850000	0.04306102
101.69999414	0.00000000	26.96850000	-1.11343500
101.89999413	0.00000000	27.76206000	-1.48253000
102.09999411	0.00000000	29.70595000	-1.02116100
102.29999410	0.00000000	31.99434000	0.88582670
102.49999409	0.00000000	34.36884000	3.94315900
102.69999408	0.00000000	36.27584000	6.60063900
102.89999407	0.00000000	37.48154000	8.58759800
103.09999406	0.00000000	37.81373000	9.29502900
103.29999404	0.00000000	37.02018000	8.54453700
103.49999403	0.00000000	34.73794000	6.22539300
103.69999402	0.00000000	32.08661000	3.15575800
103.89999401	0.00000000	30.13041000	0.04306102
104.09999400	0.00000000	28.92470000	-2.60211600
104.29999398	0.00000000	28.54946000	-3.76476400
104.49999397	0.00000000	28.92470000	-3.02042300
104.69999396	0.00000000	30.08120000	-1.11343500
104.89999395	0.00000000	31.61909000	1.62401600
105.09999394	0.00000000	33.15699000	4.64443900
105.29999392	0.00000000	34.31963000	6.96358300
105.49999391	0.00000000	34.74409000	7.75713500
105.69999390	0.00000000	34.74409000	7.38188900
105.89999389	0.00000000	34.31963000	5.85014700
106.09999388	0.00000000	33.20005000	3.57406500
106.29999387	0.00000000	32.03740000	1.62401600
106.49999385	0.00000000	31.24384000	0.04306102
106.69999384	0.00000000	30.50566000	-1.06422200
106.89999383	0.00000000	30.54872000	-1.02116100
107.09999382	0.00000000	31.61909000	0.46751960
107.29999381	0.00000000	32.78174000	2.73745100
107.49999379	0.00000000	33.57529000	4.64443900
107.69999378	0.00000000	34.31963000	5.80093500
107.89999377	0.00000000	34.31963000	5.80093500
108.09999376	0.00000000	33.57529000	4.68750000
108.29999375	0.00000000	32.78174000	3.15575800
108.49999374	0.00000000	31.61909000	1.62401600
108.69999372	0.00000000	30.50566000	0.46136810
108.89999371	0.00000000	30.13041000	0.04306102
109.09999370	0.00000000	30.50566000	0.09227362
109.29999369	0.00000000	31.61909000	0.87967510
109.49999368	0.00000000	32.78174000	2.78051200
109.69999366	0.00000000	33.57529000	4.64443900
109.89999365	0.00000000	34.36884000	5.85014700
110.09999364	0.00000000	34.74409000	6.21924200
110.29999363	0.00000000	34.74409000	5.85014700
110.49999362	0.00000000	34.31963000	4.68750000
110.69999360	0.00000000	33.20005000	3.15575800
110.89999359	0.00000000	32.08661000	1.62401600
111.09999358	0.00000000	31.61909000	0.41830710
111.29999357	0.00000000	31.24384000	-0.32603340
111.49999356	0.00000000	30.87475000	-0.69512790
111.69999355	0.00000000	31.28691000	0.09227362
111.89999353	0.00000000	31.99434000	1.53174200
112.09999352	0.00000000	32.78174000	2.73745100
112.29999351	0.00000000	33.15699000	3.53100400
112.49999350	0.00000000	33.20005000	4.31840500
112.69999349	0.00000000	33.15699000	4.64443900
112.89999347	0.00000000	32.82480000	4.31840500
113.09999346	0.00000000	32.41265000	3.57406500
113.29999345	0.00000000	32.40649000	3.19881900
113.49999344	0.00000000	31.99434000	3.15575800
113.69999343	0.00000000	31.66215000	3.11269700
113.89999341	0.00000000	31.61909000	2.73745100
114.09999340	0.00000000	31.66215000	1.99311000
114.29999339	0.00000000	31.99434000	1.61786400
114.49999338	0.00000000	32.36343000	1.57480300
114.69999337	0.00000000	32.03740000	1.53174200
114.89999336	0.00000000	32.08661000	1.19955700
115.09999334	0.00000000	32.78174000	0.83661410
115.29999333	0.00000000	33.15699000	1.19955700
115.49999332	0.00000000	33.20005000	1.57480300
115.69999331	0.00000000	33.20005000	1.99311000
115.89999330	0.00000000	33.15699000	2.78051200
116.09999328	0.00000000	32.78174000	3.53100400
116.29999327	0.00000000	32.03740000	4.31840500
116.49999326	0.00000000	31.66215000	4.69365100
116.69999325	0.00000000	31.61909000	4.69365100
116.89999324	0.00000000	31.61909000	4.31840500
117.09999322	0.00000000	31.66215000	3.53100400
117.29999321	0.00000000	32.03740000	2.73745100
117.49999320	0.00000000	32.82480000	1.57480300
117.69999319	0.00000000	33.57529000	0.46136810
117.89999318	0.00000000	34.36884000	0.09227362
118.09999317	0.00000000	34.69488000	0.41830710
118.29999315	0.00000000	34.31963000	1.19955700
118.49999314	0.00000000	33.20005000	1.95004900
118.69999313	0.00000000	32.03740000	2.78051200
118.89999312	0.00000000	31.24384000	3.53100400
119.09999311	0.00000000	30.41338000	4.31840500
119.29999309	0.00000000	29.70595000	4.69365100
119.49999308	0.00000000	29.34301000	4.73671200
119.69999307	0.00000000	30.13041000	4.69365100
119.89999306	0.00000000	31.61909000	4.31840500
120.09999305	0.00000000	33.15699000	3.53100400
120.29999303	0.00000000	34.36884000	2.78051200
120.49999302	0.00000000	35.11934000	1.99311000
120.69999301	0.00000000	35.53149000	1.61786400
120.89999300	0.00000000	35.11934000	1.57480300
121.09999299	0.00000000	34.36884000	1.57480300
121.29999298	0.00000000	33.15699000	1.57480300
121.49999296	0.00000000	31.66215000	1.57480300
121.69999295	0.00000000	30.50566000	1.61786400
121.89999294	0.00000000	30.03814000	1.99311000
122.09999293	0.00000000	29.66289000	2.73745100
122.29999292	0.00000000	29.34301000	3.11269700
122.49999290	0.00000000	30.13041000	3.19881900
122.69999289	0.00000000	31.57603000	3.53100400
122.89999288	0.00000000	32.78174000	3.90009800
123.09999287	0.00000000	33.57529000	3.53100400
123.29999286	0.00000000	34.36884000	3.19881900
123.49999284	0.00000000	34.74409000	3.11269700
123.69999283	0.00000000	34.78716000	2.73745100
123.89999282	0.00000000	34.74409000	1.99311000
124.09999281	0.00000000	34.31963000	1.61786400
124.29999280	0.00000000	33.20005000	1.57480300
124.49999279	0.00000000	32.03740000	1.57480300
124.69999277	0.00000000	31.24384000	1.57480300
124.89999276	0.00000000	30.45644000	1.61786400
125.09999275	0.00000000	30.08120000	1.99311000
125.29999274	0.00000000	30.08120000	2.73745100
125.49999273	0.00000000	30.45644000	3.11269700
125.69999271	0.00000000	31.24384000	3.15575800
125.89999270	0.00000000	32.03740000	3.15575800
126.09999269	0.00000000	33.20005000	3.15575800
126.29999268	0.00000000	34.31963000	3.15575800
126.49999267	0.00000000	34.74409000	3.11269700
126.69999265	0.00000000	34.74409000	2.73745100
126.89999264	0.00000000	34.31963000	1.99311000
127.09999263	0.00000000	33.20005000	1.61786400
127.29999262	0.00000000	32.03740000	1.57480300
127.49999261	0.00000000	31.24384000	1.57480300
127.69999260	0.00000000	30.45644000	1.57480300
127.89999258	0.00000000	30.08120000	1.61786400
128.09999257	0.00000000	30.08120000	1.99311000
128.29999256	0.00000000	30.50566000	2.73745100
128.49999255	0.00000000	31.66215000	3.11269700
128.69999254	0.00000000	33.15699000	3.15575800
128.89999252	0.00000000	34.31963000	3.15575800
129.09999251	0.00000000	34.69488000	3.15575800
129.29999250	0.00000000	34.31963000	3.11269700
129.49999249	0.00000000	33.20005000	2.73745100
129.69999248	0.00000000	32.03740000	1.99311000
129.89999246	0.00000000	31.24384000	1.61786400
130.09999245	0.00000000	30.45644000	1.61786400
130.29999244	0.00000000	30.08120000	1.99311000
130.49999243	0.00000000	30.08120000	2.73745100
130.69999242	0.00000000	30.50566000	3.11269700
130.89999241	0.00000000	31.61909000	3.15575800
131.09999239	0.00000000	32.73252000	3.15575800
131.29999238	0.00000000	33.15699000	3.11269700
131.49999237	0.00000000	33.20005000	2.78051200
131.69999236	0.00000000	33.20005000	2.36835600
131.89999235	0.00000000	33.15699000	2.36220500
132.09999233	0.00000000	32.78174000	1.95004900
132.29999232	0.00000000	32.03740000	1.61786400
132.49999231	0.00000000	31.66215000	1.57480300
132.69999230	0.00000000	31.61909000	1.61786400
132.89999229	0.00000000	31.61909000	1.99311000
133.09999227	0.00000000	31.61909000	2.73745100
133.29999226	0.00000000	31.61909000	3.15575800
133.49999225	0.00000000	31.61909000	3.57406500
133.69999224	0.00000000	31.61909000	4.26919300
133.89999223	0.00000000	31.61909000	4.22613100
134.09999222	0.00000000	31.61909000	3.15575800
134.29999220	0.00000000	31.61909000	2.04232300
134.49999219	0.00000000	31.66215000	1.57480300
134.69999218	0.00000000	31.99434000	1.15649600
134.89999217	0.00000000	32.40649000	0.41830710
135.09999216	0.00000000	32.41265000	0.09227362
135.29999214	0.00000000	32.82480000	0.41830710
135.49999213	0.00000000	33.10777000	1.19955700
135.69999212	0.00000000	32.78174000	1.95004900
135.89999211	0.00000000	32.03740000	2.73745100
136.09999210	0.00000000	31.61909000	3.11269700
136.29999208	0.00000000	31.20078000	3.15575800
136.49999207	0.00000000	30.50566000	3.15575800
136.69999206	0.00000000	30.50566000	3.15575800
136.89999205	0.00000000	31.20078000	3.11269700
137.09999204	0.00000000	31.61909000	2.78051200
137.29999203	0.00000000	32.03740000	2.36835600
137.49999201	0.00000000	32.78174000	2.36220500
137.69999200	0.00000000	33.15699000	1.90698800
137.89999199	0.00000000	33.20005000	1.24877000
138.09999198	0.00000000	33.15699000	0.83661410
138.29999197	0.00000000	32.78174000	1.19955700
138.49999195	0.00000000	31.99434000	1.57480300
138.69999194	0.00000000	31.24384000	1.99311000
138.89999193	0.00000000	30.45644000	2.73745100
139.09999192	0.00000000	30.08120000	3.11269700
139.29999191	0.00000000	30.08120000	3.19881900
139.49999189	0.00000000	30.45644000	3.57406500
139.69999188	0.00000000	31.24384000	4.26919300
139.89999187	0.00000000	31.99434000	4.26919300
140.09999186	0.00000000	32.78174000	3.53100400
140.29999185	0.00000000	33.15699000	2.78051200
140.49999184	0.00000000	33.15699000	1.95004900
140.69999182	0.00000000	32.78174000	1.19955700
140.89999181	0.00000000	32.03740000	0.41830710
141.09999180	0.00000000	31.66215000	0.09227362
141.29999179	0.00000000	31.61909000	0.46136810
141.49999178	0.00000000	31.61909000	1.57480300
141.69999176	0.00000000	31.61909000	2.73745100
141.89999175	0.00000000	31.61909000	3.53100400
142.09999174	0.00000000	31.66215000	4.31840500
142.29999173	0.00000000	31.99434000	4.64443900
142.49999172	0.00000000	32.36343000	4.31840500
142.69999170	0.00000000	31.99434000	3.53100400
142.89999169	0.00000000	31.66215000	2.78051200
143.09999168	0.00000000	31.61909000	1.95004900
143.29999167	0.00000000	31.57603000	1.19955700
143.49999166	0.00000000	31.24384000	0.41830710
143.69999165	0.00000000	30.87475000	0.09227362
143.89999163	0.00000000	31.24384000	0.41830710
144.09999162	0.00000000	31.57603000	1.19955700
144.29999161	0.00000000	31.66215000	1.95004900
144.49999160	0.00000000	32.03740000	2.78051200
144.69999159	0.00000000	32.73252000	3.48794300
144.89999157	0.00000000	32.78174000	3.90009800
145.09999156	0.00000000	32.41265000	3.53100400
145.29999155	0.00000000	32.40649000	3.19881900
145.49999154	0.00000000	31.99434000	3.11269700
145.69999153	0.00000000	31.66215000	2.73745100
145.89999151	0.00000000	31.61909000	1.99311000
146.09999150	0.00000000	31.61909000	1.61786400
146.29999149	0.00000000	31.61909000	1.57480300
146.49999148	0.00000000	31.61909000	1.57480300
146.69999147	0.00000000	31.66215000	1.57480300
146.89999146	0.00000000	32.03740000	1.61786400
147.09999144	0.00000000	32.78174000	1.99311000
147.29999143	0.00000000	33.10777000	2.73745100
147.49999142	0.00000000	32.78174000	3.11269700
147.69999141	0.00000000	32.03740000	3.15575800
147.89999140	0.00000000	31.66215000	3.15575800
148.09999138	0.00000000	31.57603000	3.15575800
148.29999137	0.00000000	31.24384000	3.15575800
148.49999136	0.00000000	30.87475000	3.11269700
148.69999135	0.00000000	31.24384000	2.73745100
148.89999134	0.00000000	31.57603000	1.99311000
149.09999132	0.00000000	31.61909000	1.61786400
149.29999131	0.00000000	31.61909000	1.57480300
149.49999130	0.00000000	31.66215000	1.57480300
149.69999129	0.00000000	31.99434000	1.61786400
149.89999128	0.00000000	32.36343000	1.99311000
150.09999127	0.00000000	31.99434000	2.73745100
150.29999125	0.00000000	31.66215000	3.11269700
150.49999124	0.00000000	31.61909000	3.15575800
150.69999123	0.00000000	31.61909000	3.15575800
150.89999122	0.00000000	31.57603000	3.15575800
151.09999121	0.00000000	31.24384000	3.15575800
151.29999119	0.00000000	30.87475000	3.11269700
151.49999118	0.00000000	31.24384000	2.73745100
151.69999117	0.00000000	31.57603000	1.99311000
151.89999116	0.00000000	31.61909000	1.61786400
152.09999115	0.00000000	31.61909000	1.57480300
152.29999113	0.00000000	31.61909000	1.57480300
152.49999112	0.00000000	31.61909000	1.57480300
152.69999111	0.00000000	31.61909000	1.61786400
152.89999110	0.00000000	31.61909000	1.99311000
153.09999109	0.00000000	31.61909000	2.73745100
153.29999108	0.00000000	31.61909000	3.11269700
153.49999106	0.00000000	31.61909000	3.15575800
153.69999105	0.00000000	31.57603000	3.15575800
153.89999104	0.00000000	31.20078000	3.15575800
154.09999103	0.00000000	30.45644000	3.15575800
154.29999102	0.00000000	30.08120000	3.15575800
154.49999100	0.00000000	30.08120000	3.15575800
154.69999099	0.00000000	30.45644000	3.11269700
154.89999098	0.00000000	31.20078000	2.73745100
155.09999097	0.00000000	31.61909000	1.99311000
155.29999096	0.00000000	31.99434000	1.61786400
155.49999094	0.00000000	32.40649000	1.57480300
155.69999093	0.00000000	32.41265000	1.57480300
155.89999092	0.00000000	32.78174000	1.61786400
156.09999091	0.00000000	32.73252000	1.99311000
156.29999090	0.00000000	32.03740000	2.73745100
156.49999089	0.00000000	31.61909000	3.11269700
156.69999087	0.00000000	31.20078000	3.15575800
156.89999086	0.00000000	30.45644000	3.15575800
157.09999085	0.00000000	30.08120000	3.15575800
157.29999084	0.00000000	30.08120000	3.15575800
157.49999083	0.00000000	30.45644000	3.11269700
157.69999081	0.00000000	31.20078000	2.73745100
157.89999080	0.00000000	31.57603000	1.99311000
158.09999079	0.00000000	31.61909000	1.61786400
158.29999078	0.00000000	31.61909000	1.57480300
158.49999077	0.00000000	31.61909000	1.57480300
158.69999075	0.00000000	31.61909000	1.57480300
158.89999074	0.00000000	31.61909000	1.61786400
159.09999073	0.00000000	31.61909000	1.99311000
159.29999072	0.00000000	31.61909000	2.73745100
159.49999071	0.00000000	31.61909000	3.11269700
159.69999070	0.00000000	31.61909000	3.15575800
159.89999068	0.00000000	31.57603000	3.15575800
160.09999067	0.00000000	31.20078000	3.15575800
160.29999066	0.00000000	30.50566000	3.15575800
160.49999065	0.00000000	30.45644000	3.11269700
160.69999064	0.00000000	30.82554000	2.73745100
160.89999062	0.00000000	30.83169000	1.99311000
161.09999061	0.00000000	31.24384000	1.61786400
161.29999060	0.00000000	31.57603000	1.57480300
161.49999059	0.00000000	31.61909000	1.57480300
161.69999058	0.00000000	31.61909000	1.57480300
161.89999056	0.00000000	31.61909000	1.61786400
162.09999055	0.00000000	31.61909000	1.99311000
162.29999054	0.00000000	31.61909000	2.73745100
162.49999053	0.00000000	31.61909000	3.11269700
162.69999052	0.00000000	31.61909000	3.15575800
162.89999051	0.00000000	31.57603000	3.15575800
163.09999049	0.00000000	31.20078000	3.15575800
163.29999048	0.00000000	30.45644000	3.15575800
163.49999047	0.00000000	30.08120000	3.11269700
163.69999046	0.00000000	30.03814000	2.73745100
163.89999045	0.00000000	30.03814000	1.99311000
164.09999043	0.00000000	30.08120000	1.61786400
164.29999042	0.00000000	30.45644000	1.57480300
164.49999041	0.00000000	31.20078000	1.57480300
164.69999040	0.00000000	31.57603000	1.57480300
164.89999039	0.00000000	31.61909000	1.57480300
165.09999037	0.00000000	31.61909000	1.61786400
165.29999036	0.00000000	31.61909000	1.95004900
165.49999035	0.00000000	31.61909000	2.36220500
165.69999034	0.00000000	31.61909000	2.36835600
165.89999033	0.00000000	31.57603000	2.78051200
166.09999032	0.00000000	31.24384000	3.06348400
166.29999030	0.00000000	30.83169000	2.73745100
166.49999029	0.00000000	30.82554000	1.99311000
166.69999028	0.00000000	30.45644000	1.61786400
166.89999027	0.00000000	30.50566000	1.57480300
167.09999026	0.00000000	31.20078000	1.57480300
167.29999024	0.00000000	31.57603000	1.57480300
167.49999023	0.00000000	31.61909000	1.57480300
167.69999022	0.00000000	31.61909000	1.57480300
167.89999021	0.00000000	31.61909000	1.57480300
168.09999020	0.00000000	31.61909000	1.61786400
168.29999018	0.00000000	31.61909000	1.95004900
168.49999017	0.00000000	31.61909000	2.36220500
168.69999016	0.00000000	31.61909000	2.32529500
168.89999015	0.00000000	31.61909000	2.36220500
169.09999014	0.00000000	31.61909000	1.95004900
169.29999013	0.00000000	31.61909000	1.61786400
169.49999011	0.00000000	31.61909000	1.61786400
169.69999010	0.00000000	31.61909000	1.99311000
169.89999009	0.00000000	31.61909000	2.73745100
170.09999008	0.00000000	31.61909000	3.06348400
170.29999007	0.00000000	31.61909000	2.73745100
170.49999005	0.00000000	31.61909000	2.04232300
170.69999004	0.00000000	31.61909000	1.99311000
170.89999003	0.00000000	31.61909000	2.31914400
171.09999002	0.00000000	31.61909000	1.95004900
171.29999001	0.00000000	31.61909000	1.61786400
171.49998999	0.00000000	31.61909000	1.57480300
171.69998998	0.00000000	31.61909000	1.57480300
171.89998997	0.00000000	31.61909000	1.57480300
172.09998996	0.00000000	31.61909000	1.57480300
172.29998995	0.00000000	31.61909000	1.57480300
172.49998994	0.00000000	31.61909000	1.57480300
172.69998992	0.00000000	31.57603000	1.61786400
172.89998991	0.00000000	31.24384000	1.95004900
173.09998990	0.00000000	30.87475000	2.36220500
173.29998989	0.00000000	31.24384000	2.32529500
173.49998988	0.00000000	31.57603000	2.36220500
173.69998986	0.00000000	31.61909000	1.95004900
173.89998985	0.00000000	31.61909000	1.66707700
174.09998984	0.00000000	31.61909000	1.95004900
174.29998983	0.00000000	31.61909000	2.31914400
174.49998982	0.00000000	31.61909000	1.95004900
174.69998980	0.00000000	31.61909000	1.61786400
174.89998979	0.00000000	31.57603000	1.57480300
175.09998978	0.00000000	31.24384000	1.57480300
175.29998977	0.00000000	30.87475000	1.61786400
175.49998976	0.00000000	31.20078000	1.95004900
175.69998975	0.00000000	31.20078000	2.31914400
175.89998973	0.00000000	30.87475000	1.99311000
176.09998972	0.00000000	31.24384000	1.99311000
176.29998971	0.00000000	31.57603000	2.36220500
176.49998970	0.00000000	31.61909000	2.32529500
176.69998969	0.00000000	31.61909000	2.36220500
176.89998967	0.00000000	31.61909000	1.95004900
177.09998966	0.00000000	31.57603000	1.61786400
177.29998965	0.00000000	31.24384000	1.57480300
177.49998964	0.00000000	30.83169000	1.57480300
177.69998963	0.00000000	30.82554000	1.57480300
177.89998961	0.00000000	30.41338000	1.57480300
178.09998960	0.00000000	30.08120000	1.57480300
178.29998959	0.00000000	30.08120000	1.61786400
178.49998958	0.00000000	30.45644000	1.99311000
178.69998957	0.00000000	31.20078000	2.73745100
178.89998956	0.00000000	31.57603000	3.06348400
179.09998954	0.00000000	31.61909000	2.73745100
179.29998953	0.00000000	31.61909000	1.99311000
179.49998952	0.00000000	31.61909000	1.61786400
179.69998951	0.00000000	31.61909000	1.57480300
179.89998950	0.00000000	31.61909000	1.57480300
180.09998948	0.00000000	31.61909000	1.57480300
180.29998947	0.00000000	31.61909000	1.57480300
180.49998946	0.00000000	31.57603000	1.57480300
180.69998945	0.00000000	31.24384000	1.57480300
180.89998944	0.00000000	30.83169000	1.61786400
181.09998942	0.00000000	30.86860000	1.99311000
181.29998941	0.00000000	30.83169000	2.73745100
181.49998940	0.00000000	31.24384000	3.11269700
181.69998939	0.00000000	31.57603000	3.15575800
181.89998938	0.00000000	31.61909000	3.11269700
182.09998937	0.00000000	31.61909000	2.73745100
182.29998935	0.00000000	31.61909000	1.99311000
182.49998934	0.00000000	31.61909000	1.61786400
182.69998933	0.00000000	31.61909000	1.57480300
182.89998932	0.00000000	31.61909000	1.57480300
183.09998931	0.00000000	31.61909000	1.57480300
183.29998929	0.00000000	31.61909000	1.57480300
183.49998928	0.00000000	31.61909000	1.57480300
183.69998927	0.00000000	31.57603000	1.57480300
183.89998926	0.00000000	31.20078000	1.57480300
184.09998925	0.00000000	30.45644000	1.61786400
184.29998923	0.00000000	30.08120000	1.99311000
184.49998922	0.00000000	30.03814000	2.73745100
184.69998921	0.00000000	30.03814000	3.11269700
184.89998920	0.00000000	30.08120000	3.15575800
185.09998919	0.00000000	30.45644000	3.11269700
185.29998918	0.00000000	31.20078000	2.73745100
185.49998916	0.00000000	31.57603000	1.99311000
185.69998915	0.00000000	31.57603000	1.61786400
185.89998914	0.00000000	31.24384000	1.57480300
186.09998913	0.00000000	30.87475000	1.57480300
186.29998912	0.00000000	31.24384000	1.57480300
186.49998910	0.00000000	31.57603000	1.57480300
186.69998909	0.00000000	31.57603000	1.61786400
186.89998908	0.00000000	31.24384000	1.99311000
187.09998907	0.00000000	30.83169000	2.73745100
187.29998906	0.00000000	30.82554000	3.11269700
187.49998904	0.00000000	30.41338000	3.15575800
187.69998903	0.00000000	30.08120000	3.15575800
187.89998902	0.00000000	30.03814000	3.15575800
188.09998901	0.00000000	30.03814000	3.11269700
188.29998900	0.00000000	30.08120000	2.73745100
188.49998899	0.00000000	30.45644000	1.99311000
188.69998897	0.00000000	31.20078000	1.61786400
188.89998896	0.00000000	31.57603000	1.57480300
189.09998895	0.00000000	31.61909000	1.57480300
189.29998894	0.00000000	31.61909000	1.57480300
189.49998893	0.00000000	31.57603000	1.57480300
189.69998891	0.00000000	31.20078000	1.61786400
189.89998890	0.00000000	30.45644000	1.99311000
190.09998889	0.00000000	30.08120000	2.73745100
190.29998888	0.00000000	30.03814000	3.11269700
190.49998887	0.00000000	30.08120000	3.15575800
190.69998885	0.00000000	30.41338000	3.15575800
190.89998884	0.00000000	30.82554000	3.15575800
191.09998883	0.00000000	30.83169000	3.15575800
191.29998882	0.00000000	31.24384000	3.11269700
191.49998881	0.00000000	31.52682000	2.73745100
191.69998880	0.00000000	31.24384000	1.99311000
191.89998878	0.00000000	30.87475000	1.61786400
192.09998877	0.00000000	31.20078000	1.57480300
192.29998876	0.00000000	31.15157000	1.57480300
192.49998875	0.00000000	30.45644000	1.57480300
192.69998874	0.00000000	30.08120000	1.57480300
192.89998872	0.00000000	30.08120000	1.61786400
193.09998871	0.00000000	30.41338000	1.95004900
193.29998870	0.00000000	30.78248000	2.31914400
193.49998869	0.00000000	30.41338000	1.95004900
193.69998868	0.00000000	30.08120000	1.66707700
193.89998866	0.00000000	30.08120000	1.99311000
194.09998865	0.00000000	30.45644000	2.68823800
194.29998864	0.00000000	31.20078000	2.68823800
194.49998863	0.00000000	31.57603000	1.99311000
194.69998862	0.00000000	31.57603000	1.61786400
194.89998861	0.00000000	31.24384000	1.57480300
195.09998859	0.00000000	30.87475000	1.57480300
195.29998858	0.00000000	31.20078000	1.57480300
195.49998857	0.00000000	31.15157000	1.57480300
195.69998856	0.00000000	30.45644000	1.57480300
195.89998855	0.00000000	30.08120000	1.57480300
196.09998853	0.00000000	30.03814000	1.57480300
