Time	Channel A	Channel B	Channel C
(us)	(V)	(mV)	(mV)

-4.59999956	0.00000000	-11.06668000	-9.47342500
-4.39999957	0.00000000	-11.06668000	-9.47342500
-4.19999958	0.00000000	-11.06668000	-9.47342500
-3.99999959	0.00000000	-11.06668000	-9.47342500
-3.79999960	0.00000000	-11.06668000	-9.47342500
-3.59999962	0.00000000	-11.06668000	-9.47342500
-3.39999963	0.00000000	-11.06668000	-9.47342500
-3.19999964	0.00000000	-11.06668000	-9.47342500
-2.99999965	0.00000000	-11.06668000	-9.47342500
-2.79999966	0.00000000	-11.06668000	-9.47342500
-2.59999968	0.00000000	-11.06668000	-9.47342500
-2.39999969	0.00000000	-11.06668000	-9.47342500
-2.19999970	0.00000000	-11.06668000	-9.47342500
-1.99999971	0.00000000	-11.06668000	-9.47342500
-1.79999972	0.00000000	-11.06668000	-9.51648500
-1.59999973	0.00000000	-11.06668000	-9.84867000
-1.39999975	0.00000000	-11.06668000	-10.21161000
-1.19999976	0.00000000	-11.06668000	-9.84867000
-0.99999977	0.00000000	-11.06668000	-9.51648500
-0.79999978	0.00000000	-11.06668000	-9.47342500
-0.59999979	0.00000000	-11.06668000	-9.47342500
-0.39999981	0.15871060	-11.06668000	-9.47342500
-0.19999982	0.47736220	-11.06668000	-9.47342500
0.00000017	0.79601380	-11.06668000	-9.47342500
0.20000016	0.95533960	-11.06668000	-9.47342500
0.40000015	0.95533960	-11.06668000	-9.47342500
0.60000013	0.63668800	-11.06668000	-9.47342500
0.80000012	0.00000000	-11.06668000	-9.47342500
1.00000011	-0.95533960	-11.06668000	-9.47342500
1.20000010	-1.91129400	-11.06668000	-9.47342500
1.40000009	-2.70792300	-11.06668000	-9.47342500
1.60000008	-2.70792300	-11.06668000	-9.47342500
1.80000006	-2.07062000	-11.06668000	-9.47342500
2.00000005	-0.47736220	-11.06668000	-9.47342500
2.20000004	1.59264300	-11.06668000	-9.47342500
2.40000003	3.66326300	-11.06668000	-9.47342500
2.60000002	4.93786900	-11.06668000	-9.47342500
2.80000000	5.25652100	-11.06668000	-9.51648500
2.99999999	4.14124000	-11.06668000	-9.84867000
3.19999998	1.59264300	-11.06668000	-10.21161000
3.39999997	-1.75196900	-11.06668000	-9.84867000
3.59999996	-4.93786900	-11.06668000	-9.51648500
3.79999994	-7.32714100	-11.06668000	-9.47342500
3.99999993	-7.96444400	-11.06668000	-9.47342500
4.19999992	-6.53112700	-11.06668000	-9.43036400
4.39999991	-3.34522600	-11.06668000	-9.09817800
4.59999990	0.95533960	-11.06668000	-8.72908400
4.79999989	5.25652100	-11.06668000	-9.09817800
4.99999987	8.28309500	-11.06668000	-9.47342500
5.19999986	9.55770200	-11.06668000	-9.89173200
5.39999985	8.12377000	-11.06668000	-10.62992000
5.59999984	4.77854300	-11.06668000	-11.00517000
5.79999983	0.15871060	-11.06668000	-11.04823000
5.99999981	-4.45989200	-11.06668000	-11.00517000
6.19999980	-7.96444400	-11.10974000	-10.58686000
6.39999979	-9.39837600	-11.44193000	-9.51648500
6.59999978	-8.60174700	-11.81102000	-8.77829600
6.79999977	-5.57517200	-11.44193000	-9.09817800
6.99999975	-1.43331700	-11.10974000	-9.43036400
7.19999974	2.86724900	-11.06668000	-9.51648500
7.39999973	6.21247500	-11.06668000	-9.89173200
7.59999972	7.64579200	-11.06668000	-10.62992000
7.79999971	7.32714100	-11.06668000	-11.00517000
7.99999970	5.09719500	-11.06668000	-11.04823000
8.19999968	1.91129400	-11.06668000	-11.04823000
8.39999967	-1.27399100	-11.06668000	-11.00517000
8.59999966	-3.82258900	-11.06668000	-10.62992000
8.79999965	-5.09719500	-11.06668000	-9.93479300
8.99999964	-4.93786900	-11.06668000	-9.89173200
9.19999962	-3.66326300	-11.06668000	-10.25467000
9.39999961	-1.75196900	-11.06668000	-10.21776000
9.59999960	0.15871060	-11.10974000	-10.30389000
9.79999959	1.59264300	-11.44193000	-10.26698000
9.99999958	2.38927200	-11.81102000	-10.67298000
10.19999956	2.38927200	-11.44193000	-11.00517000
10.39999955	1.91129400	-11.10974000	-11.04823000
10.59999954	0.95533960	-11.06668000	-11.04823000
10.79999953	0.15871060	-11.06668000	-11.04823000
10.99999952	-0.47736220	-11.10974000	-11.04823000
11.19999951	-0.79601380	-11.48499000	-11.00517000
11.39999949	-0.95533960	-12.18012000	-10.62992000
11.59999948	-0.79601380	-12.18012000	-9.93479300
11.79999947	-0.63668800	-11.53420000	-9.93479300
11.99999946	-0.31803640	-11.53420000	-10.62992000
12.19999945	-0.15871060	-12.18012000	-10.95595000
12.39999943	-0.15871060	-12.22933000	-10.67298000
12.59999942	0.00000000	-11.90330000	-10.31004000
12.79999941	0.00000000	-12.22933000	-10.67298000
12.99999940	0.00000000	-12.18012000	-11.00517000
13.19999939	0.15871060	-11.48499000	-11.04823000
13.39999937	0.00000000	-11.15896000	-11.04823000
13.59999936	0.00000000	-11.44193000	-11.04823000
13.79999935	0.00000000	-11.81102000	-11.04823000
13.99999934	-0.15871060	-11.44193000	-11.00517000
14.19999933	-0.15871060	-11.10974000	-10.62992000
14.39999932	-0.15871060	-11.06668000	-9.89173200
14.59999930	-0.15871060	-11.06668000	-9.56569900
14.79999929	0.00000000	-11.06668000	-9.84867000
14.99999928	0.00000000	-11.10974000	-10.25467000
15.19999927	0.00000000	-11.44193000	-10.21776000
15.39999926	0.00000000	-11.81102000	-10.25467000
15.59999924	0.00000000	-11.48499000	-9.89173200
15.79999923	0.00000000	-11.53420000	-9.93479300
15.99999922	0.00000000	-12.22933000	-10.62992000
16.19999921	0.00000000	-12.60458000	-11.00517000
16.39999920	0.00000000	-12.60458000	-11.04823000
16.59999919	-0.15871060	-12.22933000	-11.04823000
16.79999917	-0.15871060	-11.48499000	-11.04823000
16.99999916	0.00000000	-11.06668000	-11.04823000
17.19999915	0.00000000	-10.64838000	-11.04823000
17.39999914	0.00000000	-9.90403500	-11.00517000
17.59999913	0.00000000	-9.57800100	-10.67298000
17.79999911	0.00000000	-9.95324800	-10.31004000
17.99999910	0.00000000	-11.06668000	-10.67298000
18.19999909	0.00000000	-12.27239000	-11.00517000
18.39999908	0.00000000	-13.48425000	-11.04823000
18.59999907	0.00000000	-15.39124000	-11.00517000
18.79999905	0.00000000	-16.87992000	-10.67298000
18.99999904	0.00000000	-17.25517000	-10.26698000
19.19999903	0.00000000	-16.46161000	-10.30389000
19.39999902	0.00000000	-14.13632000	-10.21776000
19.59999901	0.00000000	-11.02362000	-10.30389000
19.79999900	0.00000000	-7.48646600	-10.21776000
19.99999898	0.00000000	-3.67249000	-10.30389000
20.19999897	0.00000000	-1.02116100	-10.21776000
20.39999896	0.00000000	-0.64591530	-10.30389000
20.59999895	0.00000000	-2.64517700	-10.26698000
20.79999894	0.00000000	-7.34498000	-10.62992000
20.99999892	0.00000000	-14.32087000	-10.58686000
21.19999891	0.00000000	-22.04109000	-9.93479300
21.39999890	0.00000000	-28.93085000	-9.93479300
21.59999889	0.00000000	-32.70177000	-10.62992000
21.79999888	0.00000000	-31.53912000	-11.00517000
21.99999886	0.00000000	-25.67667000	-11.04823000
22.19999885	0.00000000	-15.95103000	-11.04823000
22.39999884	0.00000000	-3.53715500	-11.04823000
22.59999883	0.00000000	8.70447700	-11.00517000
22.79999882	0.00000000	17.53814000	-10.62992000
22.99999881	0.00000000	19.77731000	-9.89173200
23.19999879	0.00000000	14.75148000	-9.51648500
23.39999878	0.00000000	3.08193900	-9.47342500
23.59999877	0.00000000	-13.20128000	-9.47342500
23.79999876	0.00000000	-30.97933000	-9.47342500
23.99999875	0.00000000	-46.33366000	-9.47342500
24.19999873	0.00000000	-54.75516000	-9.51648500
24.39999872	0.00000000	-53.54945000	-9.93479300
24.59999871	0.00000000	-42.66117000	-11.09744000
24.79999870	0.00000000	-23.72047000	-12.62918000
24.99999869	0.00000000	-0.97194880	-14.21014000
25.19999867	0.00000000	19.86959000	-15.69882000
25.39999866	0.00000000	34.15354000	-16.43701000
25.59999865	0.00000000	38.29970000	-15.64960000
25.79999864	-0.15871060	30.57333000	-13.74262000
25.99999863	0.00000000	12.43233000	-10.96211000
26.19999862	0.00000000	-11.48499000	-7.47416300
26.39999860	0.00000000	-35.86368000	-3.62327700
26.59999859	0.00000000	-55.17347000	-0.59670270
26.79999858	0.00000000	-65.18208000	0.51673230
26.99999857	0.00000000	-63.22588000	-1.10728300
27.19999856	0.00000000	-49.40330000	-5.75172200
27.39999854	0.00000000	-27.76821000	-12.72146000
27.59999853	0.00000000	-3.38951800	-20.43553000
27.79999852	0.00000000	18.98991000	-27.35605000
27.99999851	0.00000000	33.64296000	-31.53912000
28.19999850	0.00000000	37.22933000	-31.49606000
28.39999848	0.00000000	29.92126000	-26.80241000
28.59999847	0.00000000	13.72416000	-17.88263000
28.79999846	0.00000000	-7.52952700	-6.31766700
28.99999845	0.00000000	-28.79552000	5.25344500
29.19999844	0.00000000	-45.82308000	14.12401000
29.39999843	0.00000000	-54.75516000	18.31324000
29.59999841	0.00000000	-54.06004000	16.31397000
29.79999840	0.00000000	-44.88804000	7.81250000
29.99999839	0.00000000	-29.76747000	-5.33341500
30.19999838	0.00000000	-12.36466000	-20.43553000
30.39999837	0.00000000	4.28764700	-34.69488000
30.59999835	0.00000000	16.28937000	-44.64198000
30.79999834	0.00000000	21.40748000	-47.33637000
30.99999833	0.00000000	19.49434000	-41.94759000
31.19999832	0.00000000	11.02977000	-29.95817000
31.39999831	0.00000000	-1.71628900	-13.69956000
31.59999829	0.00000000	-15.63115000	3.67249000
31.79999828	0.00000000	-28.04503000	18.35630000
31.99999827	0.00000000	-36.19587000	27.18381000
32.19999826	0.00000000	-38.98253000	27.97121000
32.39999825	0.00000000	-36.28199000	20.26329000
32.59999824	0.00000000	-28.93085000	6.40994000
32.79999822	0.00000000	-18.50394000	-10.67913000
32.99999821	0.00000000	-7.29576700	-27.68824000
33.19999820	0.00000000	1.96235200	-41.57849000
33.39999819	0.00000000	7.40034400	-48.87426000
33.59999818	0.00000000	7.82480200	-47.76082000
33.79999816	0.00000000	3.63558100	-38.92716000
33.99999815	0.00000000	-3.67249000	-24.61860000
34.19999814	0.00000000	-12.18012000	-8.02780400
34.39999813	0.00000000	-19.90650000	7.48646600
34.59999812	0.00000000	-25.34449000	18.68233000
34.79999810	0.00000000	-27.25763000	23.69586000
34.99999809	0.00000000	-25.39370000	21.00148000
35.19999808	0.00000000	-20.41708000	11.38656000
35.39999807	0.00000000	-14.27165000	-2.46063000
35.59999806	0.00000000	-8.45841400	-17.50738000
35.79999805	0.00000000	-4.22613100	-29.87205000
35.99999803	0.00000000	-2.68823800	-37.26009000
36.19999802	0.00000000	-4.18307100	-38.42273000
36.39999801	0.00000000	-8.04010800	-33.03395000
36.59999800	0.00000000	-13.02288000	-22.66855000
36.79999799	0.00000000	-18.04257000	-9.98400600
36.99999797	0.00000000	-21.48745000	1.53789400
37.19999796	0.00000000	-22.65010000	8.83366100
37.39999795	0.00000000	-21.11220000	10.03937000
37.59999794	0.00000000	-17.29823000	5.11811000
37.79999793	0.00000000	-12.64764000	-3.66633800
37.99999791	0.00000000	-8.04010800	-13.65650000
38.19999790	0.00000000	-4.60137700	-22.15797000
38.39999789	0.00000000	-3.80782500	-27.13459000
38.59999788	0.00000000	-5.29650500	-27.49754000
38.79999787	0.00000000	-8.41535400	-22.57628000
38.99999786	0.00000000	-12.64764000	-14.49311000
39.19999784	0.00000000	-16.92298000	-5.65329700
39.39999783	0.00000000	-20.41708000	2.32529500
39.59999782	0.00000000	-22.74237000	5.67790300
39.79999781	0.00000000	-23.11762000	3.07578700
39.99999780	0.00000000	-21.57972000	-4.21998000
40.19999778	0.00000000	-18.46087000	-14.16708000
40.39999777	0.00000000	-14.22859000	-23.68971000
40.59999776	0.00000000	-9.99630800	-29.49680000
40.79999775	0.00000000	-6.79133800	-30.29035000
40.99999774	0.00000000	-4.50295200	-26.42716000
41.19999772	0.00000000	-3.39566900	-18.35015000
41.39999771	0.00000000	-4.92125900	-8.40305000
41.59999770	0.00000000	-7.90477300	0.46751960
41.79999769	0.00000000	-11.10974000	6.23154500
41.99999768	0.00000000	-14.64690000	7.39419200
42.19999767	0.00000000	-18.46087000	3.58636800
42.39999765	0.00000000	-21.16142000	-3.66633800
42.59999764	0.00000000	-21.95497000	-12.16781000
42.79999763	0.00000000	-21.20448000	-19.88189000
42.99999762	0.00000000	-18.87918000	-25.27067000
43.19999761	0.00000000	-15.85261000	-26.80241000
43.39999759	0.00000000	-13.06594000	-24.20029000
43.59999758	0.00000000	-10.78371000	-18.85458000
43.79999757	0.00000000	-9.20890700	-12.67224000
43.99999756	0.00000000	-9.15354300	-6.86515700
44.19999755	0.00000000	-9.48572700	-2.63902500
44.39999753	0.00000000	-9.90403500	-1.05807100
44.59999752	0.00000000	-10.64838000	-2.17765700
44.79999751	0.00000000	-11.02362000	-5.19808000
44.99999750	0.00000000	-11.10974000	-9.05511800
45.19999749	0.00000000	-11.53420000	-12.53691000
45.39999748	0.00000000	-12.69070000	-15.27436000
45.59999746	0.00000000	-14.27165000	-16.81225000
45.79999745	0.00000000	-16.27707000	-16.85531000
45.99999744	0.00000000	-18.97145000	-15.69882000
46.19999743	0.00000000	-21.57972000	-13.79183000
46.39999742	0.00000000	-22.74237000	-11.42347000
46.59999740	0.00000000	-21.95497000	-9.14124000
46.79999739	0.00000000	-19.58046000	-7.24040300
46.99999738	0.00000000	-15.25591000	-6.82209600
47.19999737	0.00000000	-9.48572700	-7.51722400
47.39999736	0.00000000	-3.71555100	-8.35998900
47.59999734	0.00000000	0.51673230	-9.98400600
47.79999733	0.00000000	2.00541300	-12.58612000
47.99999732	0.00000000	0.00615157	-14.90526000
48.19999731	0.00000000	-5.76402500	-16.06791000
48.39999730	0.00000000	-13.85334000	-16.43701000
48.59999729	0.00000000	-21.95497000	-15.27436000
48.79999727	0.00000000	-28.55561000	-13.00443000
48.99999726	0.00000000	-31.95743000	-10.62992000
49.19999725	0.00000000	-31.16388000	-7.89247000
49.39999724	0.00000000	-25.76895000	-5.29035400
49.59999723	0.00000000	-17.29823000	-4.12770700
49.79999721	0.00000000	-7.99704600	-4.91510800
49.99999720	0.00000000	0.42445860	-7.19734200
50.19999719	0.00000000	5.40108300	-10.67298000
50.39999718	0.00000000	5.03198800	-14.16092000
50.59999717	0.00000000	0.09842519	-17.27977000
50.79999715	0.00000000	-8.04010800	-19.55585000
50.99999714	0.00000000	-17.25517000	-19.88189000
51.19999713	0.00000000	-25.34449000	-17.97490000
51.39999712	0.00000000	-29.95817000	-14.16708000
51.59999711	0.00000000	-30.00123000	-9.93479300
51.79999710	0.00000000	-25.81201000	-6.40378900
51.99999708	0.00000000	-18.87918000	-3.70939900
52.19999707	0.00000000	-11.15896000	-2.59596400
52.39999706	0.00000000	-4.22613100	-3.75246000
52.59999705	0.00000000	-0.03690945	-6.82209600
52.79999704	0.00000000	-0.03690945	-11.04823000
52.99999702	0.00000000	-4.22613100	-15.23130000
53.19999701	0.00000000	-11.06668000	-17.92569000
53.39999700	0.00000000	-17.99951000	-18.43627000
53.59999699	0.00000000	-23.06841000	-17.64887000
53.79999698	0.00000000	-25.76895000	-16.06176000
53.99999696	0.00000000	-25.30143000	-13.00443000
54.19999695	0.00000000	-21.11220000	-10.02707000
54.39999694	0.00000000	-14.64690000	-8.44611200
54.59999693	0.00000000	-8.50147600	-8.35998900
54.79999692	0.00000000	-4.22613100	-9.14124000
54.99999691	0.00000000	-2.73745100	-10.31004000
55.19999689	0.00000000	-4.64443900	-12.21087000
55.39999688	0.00000000	-9.57800100	-13.65650000
55.59999687	0.00000000	-15.29897000	-13.69956000
55.79999686	0.00000000	-19.99877000	-12.58612000
55.99999685	0.00000000	-23.06841000	-11.04823000
56.19999683	0.00000000	-23.85581000	-9.51648500
56.39999682	0.00000000	-21.95497000	-8.40305000
56.59999681	0.00000000	-18.50394000	-8.44611200
56.79999680	0.00000000	-14.22859000	-9.98400600
56.99999679	0.00000000	-9.99630800	-12.67224000
57.19999677	0.00000000	-6.92052100	-15.74188000
57.39999676	0.00000000	-5.76402500	-18.43627000
57.59999675	0.00000000	-6.92052100	-19.88189000
57.79999674	0.00000000	-9.95324800	-19.08834000
57.99999673	0.00000000	-13.81028000	-15.64960000
58.19999672	0.00000000	-17.25517000	-11.04823000
58.39999670	0.00000000	-19.58046000	-6.35457700
58.59999669	0.00000000	-19.99877000	-2.17765700
58.79999668	0.00000000	-18.87918000	0.04921259
58.99999667	0.00000000	-16.97219000	-1.10728300
59.19999666	0.00000000	-14.64690000	-5.33341500
59.39999664	0.00000000	-12.73991000	-11.46653000
59.59999663	0.00000000	-11.53420000	-18.01796000
59.79999662	0.00000000	-11.15896000	-23.03765000
59.99999661	0.00000000	-11.53420000	-25.73203000
60.19999660	0.00000000	-12.69070000	-25.27067000
60.39999658	0.00000000	-14.18553000	-21.03838000
60.59999657	0.00000000	-15.34203000	-14.11786000
60.79999656	0.00000000	-15.71727000	-6.44685000
60.99999655	0.00000000	-15.39124000	0.09842519
61.19999654	0.00000000	-14.60384000	3.58021600
61.39999653	0.00000000	-13.85334000	3.58021600
61.59999651	0.00000000	-13.11516000	0.04921259
61.79999650	0.00000000	-13.11516000	-6.86515700
61.99999649	0.00000000	-13.85334000	-15.27436000
62.19999648	0.00000000	-14.64690000	-22.61934000
62.39999647	0.00000000	-15.80955000	-27.26993000
62.59999645	0.00000000	-16.92298000	-28.42643000
62.79999644	0.00000000	-17.29823000	-25.68897000
62.99999643	0.00000000	-16.92298000	-19.54970000
63.19999642	0.00000000	-15.76649000	-11.46653000
63.39999641	0.00000000	-14.22859000	-3.80167300
63.59999639	0.00000000	-12.69070000	1.67322800
63.79999638	0.00000000	-11.53420000	4.00467500
63.99999637	0.00000000	-11.15896000	3.21112200
64.19999636	0.00000000	-11.53420000	-1.01501000
64.39999635	0.00000000	-12.69070000	-7.51722400
64.59999634	0.00000000	-14.22859000	-14.07480000
64.79999632	0.00000000	-15.76649000	-19.55585000
64.99999631	0.00000000	-16.92298000	-23.04380000
65.19999630	0.00000000	-17.29823000	-24.20029000
65.39999629	0.00000000	-16.92298000	-22.66855000
65.59999628	0.00000000	-15.76649000	-18.85458000
65.79999626	0.00000000	-14.27165000	-14.21014000
65.99999625	0.00000000	-13.11516000	-9.56569900
66.19999624	0.00000000	-12.73991000	-5.66560000
66.39999623	0.00000000	-13.06594000	-3.33415300
66.59999622	0.00000000	-13.89641000	-2.54675200
66.79999620	0.00000000	-15.06521000	-3.66633800
66.99999619	0.00000000	-16.92298000	-5.89320800
67.19999618	0.00000000	-18.04257000	-7.93553100
67.39999617	0.00000000	-17.67347000	-10.35310000
67.59999616	0.00000000	-16.50467000	-13.79183000
67.79999615	0.00000000	-14.18553000	-16.90453000
67.99999613	0.00000000	-11.53420000	-19.27288000
68.19999612	0.00000000	-9.62106200	-21.17372000
68.39999611	0.00000000	-8.83366100	-21.50590000
68.59999610	0.00000000	-9.66412400	-20.01722000
68.79999609	0.00000000	-11.99557000	-17.27977000
68.99999607	0.00000000	-15.85261000	-13.74262000
69.19999606	0.00000000	-20.04183000	-9.47342500
69.39999605	0.00000000	-23.11762000	-5.24729300
69.59999604	0.00000000	-24.32333000	-2.17765700
69.79999603	0.00000000	-23.48671000	-1.01501000
69.99999601	0.00000000	-20.78617000	-2.17765700
70.19999600	0.00000000	-16.14173000	-5.29035400
70.39999599	0.00000000	-11.15896000	-9.93479300
70.59999598	0.00000000	-6.87746000	-15.32357000
70.79999597	0.00000000	-4.18307100	-19.92495000
70.99999596	0.00000000	-3.80782500	-22.66855000
71.19999594	0.00000000	-5.76402500	-23.08686000
71.39999593	0.00000000	-10.08243000	-21.50590000
71.59999592	0.00000000	-16.18479000	-18.01796000
71.79999591	0.00000000	-22.31791000	-13.04749000
71.99999590	0.00000000	-26.23031000	-8.44611200
72.19999588	0.00000000	-27.81127000	-5.29035400
72.39999587	0.00000000	-26.97465000	-3.75246000
72.59999586	0.00000000	-23.11762000	-4.12770700
72.79999585	0.00000000	-17.39050000	-6.40378900
72.99999584	0.00000000	-11.57726000	-9.47342500
73.19999582	0.00000000	-6.92052100	-12.58612000
73.39999581	0.00000000	-4.18307100	-15.23130000
73.59999580	0.00000000	-3.80782500	-16.43701000
73.79999579	0.00000000	-5.76402500	-16.06791000
73.99999578	0.00000000	-9.99630800	-14.99139000
74.19999577	0.00000000	-15.34203000	-13.42274000
74.39999575	0.00000000	-19.99877000	-12.34621000
74.59999574	0.00000000	-23.11762000	-11.88484000
74.79999573	0.00000000	-24.27411000	-12.29700000
74.99999572	0.00000000	-23.16068000	-13.04749000
75.19999571	0.00000000	-20.50935000	-14.21014000
75.39999569	0.00000000	-17.39050000	-15.23130000
75.59999568	0.00000000	-14.27165000	-14.85605000
75.79999567	0.00000000	-11.57726000	-12.95522000
75.99999566	0.00000000	-10.03937000	-10.62992000
76.19999565	0.00000000	-9.99630800	-7.93553100
76.39999563	0.00000000	-11.10974000	-5.66560000
76.59999562	0.00000000	-12.64764000	-4.95816900
76.79999561	0.00000000	-14.18553000	-6.12696800
76.99999560	0.00000000	-15.34203000	-9.60875900
77.19999559	0.00000000	-15.76649000	-14.16708000
77.39999558	0.00000000	-15.80955000	-18.43627000
77.59999556	0.00000000	-15.80955000	-21.54897000
77.79999555	0.00000000	-15.80955000	-23.03765000
77.99999554	0.00000000	-15.85261000	-22.24409000
78.19999553	0.00000000	-16.27707000	-18.76845000
78.39999552	0.00000000	-17.39050000	-13.74262000
78.59999550	0.00000000	-18.46087000	-7.98474400
78.79999549	0.00000000	-18.46087000	-3.01427100
78.99999548	0.00000000	-17.34744000	-0.63976370
79.19999547	0.00000000	-15.76649000	-0.59670270
79.39999546	0.00000000	-13.81028000	-2.59596400
79.59999544	0.00000000	-11.53420000	-6.82209600
79.79999543	0.00000000	-10.03937000	-12.16166000
79.99999542	0.00000000	-9.99630800	-16.85531000
80.19999541	0.00000000	-11.15896000	-20.34941000
80.39999540	0.00000000	-13.11516000	-22.29331000
80.59999539	0.00000000	-15.80955000	-21.88115000
80.79999537	0.00000000	-18.50394000	-19.59892000
80.99999536	0.00000000	-20.41708000	-15.74188000
81.19999535	0.00000000	-21.20448000	-11.51575000
81.39999534	0.00000000	-20.41708000	-8.02780400
81.59999533	0.00000000	-18.46087000	-5.61638700
81.79999531	0.00000000	-15.43430000	-4.45374000
81.99999530	0.00000000	-12.37082000	-4.08464600
82.19999529	0.00000000	-10.82677000	-5.24729300
82.39999528	0.00000000	-10.37155000	-7.51722400
82.59999527	0.00000000	-11.15896000	-9.89173200
82.79999525	0.00000000	-12.69070000	-12.67224000
82.99999524	0.00000000	-14.64690000	-15.74188000
83.19999523	0.00000000	-16.92298000	-18.43627000
83.39999522	0.00000000	-18.46087000	-19.97416000
83.59999521	0.00000000	-18.87918000	-20.01722000
83.79999520	0.00000000	-18.50394000	-18.85458000
83.99999518	0.00000000	-17.39050000	-16.85531000
84.19999517	0.00000000	-16.27707000	-13.74262000
84.39999516	0.00000000	-15.85261000	-9.89173200
84.59999515	0.00000000	-15.80955000	-6.44685000
84.79999514	0.00000000	-15.80955000	-4.08464600
84.99999512	0.00000000	-15.76649000	-3.33415300
85.19999511	0.00000000	-15.39124000	-4.12770700
85.39999510	0.00000000	-14.64690000	-6.86515700
85.59999509	0.00000000	-14.27165000	-11.09129000
85.79999508	0.00000000	-14.22859000	-15.74188000
85.99999506	0.00000000	-14.27165000	-19.97416000
86.19999505	0.00000000	-14.64690000	-22.66855000
86.39999504	0.00000000	-15.43430000	-23.03765000
86.59999503	0.00000000	-16.22785000	-21.13066000
86.79999502	0.00000000	-17.39050000	-17.27362000
86.99999501	0.00000000	-18.50394000	-12.62918000
87.19999499	0.00000000	-18.92839000	-7.98474400
87.39999498	0.00000000	-18.92839000	-4.17076700
87.59999497	0.00000000	-18.50394000	-2.63902500
87.79999496	0.00000000	-17.34744000	-3.79552100
87.99999495	0.00000000	-15.80955000	-7.24040300
88.19999493	0.00000000	-14.27165000	-12.21087000
88.39999492	0.00000000	-13.11516000	-16.85531000
88.59999491	0.00000000	-12.73991000	-20.34941000
88.79999490	0.00000000	-13.11516000	-22.24409000
88.99999489	0.00000000	-14.27165000	-21.46284000
89.19999487	0.00000000	-15.80955000	-18.39321000
89.39999486	0.00000000	-17.34744000	-13.79183000
89.59999485	0.00000000	-18.50394000	-8.77829600
89.79999484	0.00000000	-18.87918000	-4.95816900
89.99999483	0.00000000	-18.50394000	-3.01427100
90.19999482	0.00000000	-17.39050000	-3.79552100
90.39999480	0.00000000	-16.22785000	-6.86515700
90.59999479	0.00000000	-15.43430000	-11.46653000
90.79999478	0.00000000	-14.64690000	-16.43701000
90.99999477	0.00000000	-14.27165000	-19.92495000
91.19999476	0.00000000	-14.27165000	-21.46284000
91.39999474	0.00000000	-14.64690000	-20.66314000
91.59999473	0.00000000	-15.39124000	-17.23056000
91.79999472	0.00000000	-15.76649000	-12.62918000
91.99999471	0.00000000	-15.80955000	-7.98474400
92.19999470	0.00000000	-15.80955000	-4.17076700
92.39999468	0.00000000	-15.80955000	-2.68208600
92.59999467	0.00000000	-15.85261000	-4.17076700
92.79999466	0.00000000	-16.22785000	-7.98474400
92.99999465	0.00000000	-17.01525000	-12.58612000
93.19999464	0.00000000	-17.76575000	-16.85531000
93.39999463	0.00000000	-18.55315000	-19.92495000
93.59999461	0.00000000	-18.87918000	-21.04454000
93.79999460	0.00000000	-18.50394000	-19.50664000
93.99999459	0.00000000	-17.34744000	-15.69882000
94.19999458	0.00000000	-15.80955000	-11.14050000
94.39999457	0.00000000	-14.22859000	-7.28346400
94.59999455	0.00000000	-12.69070000	-5.33341500
94.79999454	0.00000000	-11.53420000	-5.29035400
94.99999453	0.00000000	-11.20202000	-6.86515700
95.19999452	0.00000000	-11.99557000	-9.98400600
95.39999451	0.00000000	-14.32087000	-14.16708000
95.59999449	0.00000000	-17.39050000	-17.93184000
95.79999448	0.00000000	-20.46014000	-19.50664000
95.99999447	0.00000000	-22.78543000	-18.81152000
96.19999446	0.00000000	-23.53592000	-16.85531000
96.39999445	0.00000000	-22.78543000	-13.79183000
96.59999444	0.00000000	-20.41708000	-10.35310000
96.79999442	0.00000000	-16.97219000	-8.07086500
96.99999441	0.00000000	-13.11516000	-7.24040300
97.19999440	0.00000000	-9.99630800	-8.02780400
97.39999439	0.00000000	-8.08316900	-9.89173200
97.59999438	0.00000000	-7.72022600	-12.21087000
97.79999436	0.00000000	-9.62106200	-14.11786000
97.99999435	0.00000000	-12.69070000	-15.32357000
98.19999434	0.00000000	-16.22785000	-15.69267000
98.39999433	0.00000000	-20.08489000	-15.32357000
98.59999432	0.00000000	-23.16068000	-14.21014000
98.79999430	0.00000000	-24.74163000	-13.09670000
98.99999429	0.00000000	-24.74163000	-12.62918000
99.19999428	0.00000000	-23.16068000	-12.25394000
99.39999427	0.00000000	-20.08489000	-11.88484000
99.59999426	0.00000000	-16.22785000	-12.21087000
99.79999425	0.00000000	-12.73991000	-12.16166000
99.99999423	0.00000000	-10.03937000	-11.46653000
100.19999422	0.00000000	-8.87672100	-11.04823000
100.39999421	0.00000000	-9.62106200	-10.67298000
100.59999420	0.00000000	-11.53420000	-10.31004000
100.79999419	0.00000000	-14.27165000	-10.72219000
100.99999417	0.00000000	-17.34744000	-11.46653000
101.19999416	0.00000000	-20.08489000	-12.72146000
101.39999415	0.00000000	-22.04109000	-14.62844000
101.59999414	0.00000000	-23.20374000	-16.85531000
101.79999413	0.00000000	-23.16068000	-18.01796000
101.99999411	0.00000000	-21.66585000	-17.64887000
102.19999410	0.00000000	-19.34670000	-16.48622000
102.39999409	0.00000000	-17.01525000	-14.11786000
102.59999408	0.00000000	-14.69611000	-11.09744000
102.79999407	0.00000000	-13.15822000	-8.40305000
102.99999406	0.00000000	-12.69070000	-6.86515700
103.19999404	0.00000000	-12.73991000	-6.86515700
103.39999403	0.00000000	-13.53346000	-8.40305000
103.59999402	0.00000000	-15.43430000	-11.09744000
103.79999401	0.00000000	-17.34744000	-14.16092000
103.99999400	0.00000000	-18.92839000	-16.90453000
104.19999398	0.00000000	-20.08489000	-18.81152000
104.39999397	0.00000000	-20.46014000	-19.55585000
104.59999396	0.00000000	-20.08489000	-18.39321000
104.79999395	0.00000000	-18.92839000	-15.78494000
104.99999394	0.00000000	-17.39050000	-13.04749000
105.19999392	0.00000000	-15.85261000	-10.67298000
105.39999391	0.00000000	-14.69611000	-8.40305000
105.59999390	0.00000000	-14.32087000	-7.28346400
105.79999389	0.00000000	-14.64690000	-8.02780400
105.99999388	0.00000000	-15.43430000	-9.93479300
106.19999387	0.00000000	-16.22785000	-12.62918000
106.39999385	0.00000000	-17.39050000	-15.27436000
106.59999384	0.00000000	-18.50394000	-16.81225000
106.79999383	0.00000000	-18.87918000	-16.85531000
106.99999382	0.00000000	-18.55315000	-15.74188000
107.19999381	0.00000000	-17.76575000	-14.21014000
107.39999379	0.00000000	-17.01525000	-12.62918000
107.59999378	0.00000000	-16.22785000	-11.09744000
107.79999377	0.00000000	-15.85261000	-9.98400600
107.99999376	0.00000000	-15.85261000	-9.98400600
108.19999375	0.00000000	-16.27707000	-11.09744000
108.39999374	0.00000000	-17.39050000	-12.62918000
108.59999372	0.00000000	-18.55315000	-14.16092000
108.79999371	0.00000000	-19.30364000	-15.32357000
108.99999370	0.00000000	-19.71580000	-15.69267000
109.19999369	0.00000000	-19.30364000	-15.32357000
109.39999368	0.00000000	-18.55315000	-14.16092000
109.59999366	0.00000000	-17.34744000	-12.62918000
109.79999365	0.00000000	-15.85261000	-11.04823000
109.99999364	0.00000000	-14.73917000	-9.55954600
110.19999363	0.00000000	-14.69611000	-8.82135800
110.39999362	0.00000000	-15.43430000	-9.55954600
110.59999360	0.00000000	-16.22785000	-11.04823000
110.79999359	0.00000000	-17.39050000	-12.62918000
110.99999358	0.00000000	-18.50394000	-14.16092000
111.19999357	0.00000000	-18.92839000	-15.32357000
111.39999356	0.00000000	-18.97145000	-15.74188000
111.59999355	0.00000000	-18.92839000	-15.74188000
111.79999353	0.00000000	-18.55315000	-15.32357000
111.99999352	0.00000000	-17.76575000	-14.21014000
112.19999351	0.00000000	-17.01525000	-13.04749000
112.39999350	0.00000000	-16.22785000	-12.25394000
112.59999349	0.00000000	-15.85261000	-11.46653000
112.79999347	0.00000000	-15.85261000	-11.14050000
112.99999346	0.00000000	-16.22785000	-11.46653000
113.19999345	0.00000000	-16.97219000	-12.21087000
113.39999344	0.00000000	-17.34744000	-12.58612000
113.59999343	0.00000000	-17.39050000	-12.67224000
113.79999341	0.00000000	-17.43356000	-13.04749000
113.99999340	0.00000000	-17.76575000	-13.79183000
114.19999339	0.00000000	-18.13484000	-14.16708000
114.39999338	0.00000000	-17.76575000	-14.21014000
114.59999337	0.00000000	-17.43356000	-14.21014000
114.79999336	0.00000000	-17.39050000	-14.21014000
114.99999334	0.00000000	-17.39050000	-14.21014000
115.19999333	0.00000000	-17.39050000	-14.21014000
115.39999332	0.00000000	-17.39050000	-14.21014000
115.59999331	0.00000000	-17.39050000	-14.16708000
115.79999330	0.00000000	-17.39050000	-13.74262000
115.99999328	0.00000000	-17.43356000	-12.62918000
116.19999327	0.00000000	-17.80881000	-11.51575000
116.39999326	0.00000000	-18.55315000	-11.09129000
116.59999325	0.00000000	-18.92839000	-11.04823000
116.79999324	0.00000000	-18.97145000	-11.09129000
116.99999322	0.00000000	-18.92839000	-11.51575000
117.19999321	0.00000000	-18.55315000	-12.62918000
117.39999320	0.00000000	-17.76575000	-13.79183000
117.59999319	0.00000000	-17.01525000	-14.58538000
117.79999318	0.00000000	-16.22785000	-15.36663000
117.99999317	0.00000000	-15.85261000	-15.74188000
118.19999315	0.00000000	-15.85261000	-15.74188000
118.39999314	0.00000000	-16.27707000	-15.32357000
118.59999313	0.00000000	-17.39050000	-14.21014000
118.79999312	0.00000000	-18.55315000	-13.09670000
118.99999311	0.00000000	-19.34670000	-12.62918000
119.19999309	0.00000000	-20.13410000	-12.21087000
119.39999308	0.00000000	-20.50935000	-11.51575000
119.59999307	0.00000000	-20.50935000	-11.51575000
119.79999306	0.00000000	-20.08489000	-12.21087000
119.99999305	0.00000000	-18.97145000	-12.58612000
120.19999303	0.00000000	-17.80881000	-12.72146000
120.39999302	0.00000000	-16.97219000	-13.42274000
120.59999301	0.00000000	-15.85261000	-14.53002000
120.79999300	0.00000000	-15.11442000	-14.53617000
120.99999299	0.00000000	-15.47736000	-14.25320000
121.19999298	0.00000000	-16.22785000	-14.25320000
121.39999296	0.00000000	-17.43356000	-14.58538000
121.59999295	0.00000000	-18.92839000	-14.90526000
121.79999294	0.00000000	-20.08489000	-14.16092000
121.99999293	0.00000000	-20.50935000	-13.09670000
122.19999292	0.00000000	-20.55241000	-12.67224000
122.39999290	0.00000000	-20.50935000	-12.58612000
122.59999289	0.00000000	-20.08489000	-12.21087000
122.79999288	0.00000000	-18.92839000	-11.51575000
122.99999287	0.00000000	-17.43356000	-11.51575000
123.19999286	0.00000000	-16.27707000	-12.21087000
123.39999284	0.00000000	-15.85261000	-12.62918000
123.59999283	0.00000000	-15.80955000	-13.04749000
123.79999282	0.00000000	-15.85261000	-13.79183000
123.99999281	0.00000000	-16.22785000	-14.16708000
124.19999280	0.00000000	-17.01525000	-14.21014000
124.39999279	0.00000000	-17.80881000	-14.21014000
124.59999277	0.00000000	-18.97145000	-14.21014000
124.79999276	0.00000000	-20.08489000	-14.21014000
124.99999275	0.00000000	-20.50935000	-14.16708000
125.19999274	0.00000000	-20.55241000	-13.79183000
125.39999273	0.00000000	-20.50935000	-13.00443000
125.59999271	0.00000000	-20.13410000	-12.25394000
125.79999270	0.00000000	-19.34670000	-11.46653000
125.99999269	0.00000000	-18.55315000	-11.09129000
126.19999268	0.00000000	-17.39050000	-11.09129000
126.39999267	0.00000000	-16.27707000	-11.46653000
126.59999265	0.00000000	-15.85261000	-12.25394000
126.79999264	0.00000000	-15.85261000	-13.00443000
126.99999263	0.00000000	-16.27707000	-13.79183000
127.19999262	0.00000000	-17.43356000	-14.16708000
127.39999261	0.00000000	-18.92839000	-14.21014000
127.59999260	0.00000000	-20.08489000	-14.21014000
127.79999258	0.00000000	-20.50935000	-14.21014000
127.99999257	0.00000000	-20.55241000	-14.16708000
128.19999256	0.00000000	-20.50935000	-13.79183000
128.39999255	0.00000000	-20.08489000	-13.04749000
128.59999254	0.00000000	-18.97145000	-12.67224000
128.79999252	0.00000000	-17.80881000	-12.62918000
128.99999251	0.00000000	-17.01525000	-12.62918000
129.19999250	0.00000000	-16.27707000	-12.67224000
129.39999249	0.00000000	-16.27707000	-13.04749000
129.59999248	0.00000000	-17.01525000	-13.79183000
129.79999246	0.00000000	-17.80881000	-14.16708000
129.99999245	0.00000000	-18.97145000	-14.21014000
130.19999244	0.00000000	-20.08489000	-14.21014000
130.39999243	0.00000000	-20.50935000	-14.16708000
130.59999242	0.00000000	-20.50935000	-13.79183000
130.79999241	0.00000000	-20.08489000	-13.04749000
130.99999239	0.00000000	-18.97145000	-12.67224000
131.19999238	0.00000000	-17.85802000	-12.62918000
131.39999237	0.00000000	-17.43356000	-12.67224000
131.59999236	0.00000000	-17.39050000	-13.04749000
131.79999235	0.00000000	-17.43356000	-13.79183000
131.99999233	0.00000000	-17.80881000	-14.21014000
132.19999232	0.00000000	-18.55315000	-14.58538000
132.39999231	0.00000000	-18.97145000	-14.94833000
132.59999230	0.00000000	-19.34670000	-14.58538000
132.79999229	0.00000000	-19.71580000	-14.21014000
132.99999227	0.00000000	-19.34670000	-13.79183000
133.19999226	0.00000000	-19.01451000	-13.00443000
133.39999225	0.00000000	-18.97145000	-12.25394000
133.59999224	0.00000000	-18.97145000	-11.51575000
133.79999223	0.00000000	-18.97145000	-11.51575000
133.99999222	0.00000000	-18.97145000	-12.25394000
134.19999220	0.00000000	-18.97145000	-13.00443000
134.39999219	0.00000000	-18.97145000	-13.83489000
134.59999218	0.00000000	-18.97145000	-14.58538000
134.79999217	0.00000000	-18.92839000	-15.36663000
134.99999216	0.00000000	-18.59621000	-15.74188000
135.19999214	0.00000000	-18.18405000	-15.74188000
135.39999213	0.00000000	-18.17790000	-15.36663000
135.59999212	0.00000000	-17.80881000	-14.58538000
135.79999211	0.00000000	-17.85802000	-13.83489000
135.99999210	0.00000000	-18.59621000	-13.04749000
136.19999208	0.00000000	-19.34670000	-12.72146000
136.39999207	0.00000000	-20.13410000	-12.96137000
136.59999206	0.00000000	-20.50935000	-12.99828000
136.79999205	0.00000000	-20.55241000	-12.26009000
136.99999204	0.00000000	-20.50935000	-12.34621000
137.19999203	0.00000000	-20.13410000	-13.04749000
137.39999201	0.00000000	-19.34670000	-14.16092000
137.59999200	0.00000000	-18.59621000	-14.94833000
137.79999199	0.00000000	-17.80881000	-15.00369000
137.99999198	0.00000000	-17.48277000	-15.40969000
138.19999197	0.00000000	-17.80881000	-15.69267000
138.39999195	0.00000000	-18.59621000	-15.36663000
138.59999194	0.00000000	-19.34670000	-14.62844000
138.79999193	0.00000000	-20.13410000	-14.21014000
138.99999192	0.00000000	-20.50935000	-13.79183000
139.19999191	0.00000000	-20.55241000	-13.04749000
139.39999189	0.00000000	-20.50935000	-12.67224000
139.59999188	0.00000000	-20.13410000	-12.62918000
139.79999187	0.00000000	-19.38976000	-12.62918000
139.99999186	0.00000000	-18.97145000	-12.67224000
140.19999185	0.00000000	-18.55315000	-13.04749000
140.39999184	0.00000000	-17.85802000	-13.83489000
140.59999182	0.00000000	-17.85802000	-14.58538000
140.79999181	0.00000000	-18.55315000	-15.36663000
140.99999180	0.00000000	-18.92839000	-15.69267000
141.19999179	0.00000000	-19.01451000	-15.36663000
141.39999178	0.00000000	-19.34670000	-14.62844000
141.59999176	0.00000000	-19.71580000	-14.21014000
141.79999175	0.00000000	-19.34670000	-13.74262000
141.99999174	0.00000000	-19.01451000	-12.62918000
142.19999173	0.00000000	-18.97145000	-11.51575000
142.39999172	0.00000000	-18.97145000	-11.14050000
142.59999170	0.00000000	-18.97145000	-11.46653000
142.79999169	0.00000000	-18.97145000	-12.25394000
142.99999168	0.00000000	-18.97145000	-13.00443000
143.19999167	0.00000000	-19.01451000	-13.83489000
143.39999166	0.00000000	-19.34670000	-14.58538000
143.59999165	0.00000000	-19.71580000	-15.36663000
143.79999163	0.00000000	-19.34670000	-15.69267000
143.99999162	0.00000000	-19.01451000	-15.36663000
144.19999161	0.00000000	-18.97145000	-14.58538000
144.39999160	0.00000000	-18.97145000	-13.83489000
144.59999159	0.00000000	-18.97145000	-13.04749000
144.79999157	0.00000000	-18.97145000	-12.67224000
144.99999156	0.00000000	-18.97145000	-12.62918000
145.19999155	0.00000000	-18.97145000	-12.62918000
145.39999154	0.00000000	-18.97145000	-12.67224000
145.59999153	0.00000000	-19.01451000	-13.04749000
145.79999151	0.00000000	-19.38976000	-13.83489000
145.99999150	0.00000000	-20.13410000	-14.58538000
146.19999149	0.00000000	-20.50935000	-15.36663000
146.39999148	0.00000000	-20.50935000	-15.74188000
146.59999147	0.00000000	-20.13410000	-15.74188000
146.79999146	0.00000000	-19.38976000	-15.36663000
146.99999144	0.00000000	-19.01451000	-14.62844000
147.19999143	0.00000000	-18.97145000	-14.25320000
147.39999142	0.00000000	-18.97145000	-14.16708000
147.59999141	0.00000000	-18.97145000	-13.79183000
147.79999140	0.00000000	-19.01451000	-13.04749000
147.99999138	0.00000000	-19.38976000	-12.72146000
148.19999137	0.00000000	-20.13410000	-13.04749000
148.39999136	0.00000000	-20.50935000	-13.79183000
148.59999135	0.00000000	-20.55241000	-14.16708000
148.79999134	0.00000000	-20.55241000	-14.21014000
148.99999132	0.00000000	-20.50935000	-14.25320000
149.19999131	0.00000000	-20.13410000	-14.62844000
149.39999130	0.00000000	-19.38976000	-15.32357000
149.59999129	0.00000000	-19.01451000	-15.32357000
149.79999128	0.00000000	-18.97145000	-14.62844000
149.99999127	0.00000000	-18.97145000	-14.25320000
150.19999125	0.00000000	-18.97145000	-14.21014000
150.39999124	0.00000000	-19.01451000	-14.21014000
150.59999123	0.00000000	-19.38976000	-14.16708000
150.79999122	0.00000000	-20.13410000	-13.83489000
150.99999121	0.00000000	-20.50935000	-13.46580000
151.19999119	0.00000000	-20.55241000	-13.83489000
151.39999118	0.00000000	-20.55241000	-14.16708000
151.59999117	0.00000000	-20.55241000	-14.21014000
151.79999116	0.00000000	-20.55241000	-14.21014000
151.99999115	0.00000000	-20.50935000	-14.21014000
152.19999113	0.00000000	-20.13410000	-14.21014000
152.39999112	0.00000000	-19.43897000	-14.25320000
152.59999111	0.00000000	-19.38976000	-14.53617000
152.79999110	0.00000000	-19.71580000	-14.57308000
152.99999109	0.00000000	-19.34670000	-13.79798000
153.19999108	0.00000000	-19.01451000	-13.45964000
153.39999106	0.00000000	-19.01451000	-13.00443000
153.59999105	0.00000000	-19.38976000	-12.67224000
153.79999104	0.00000000	-20.13410000	-12.62918000
153.99999103	0.00000000	-20.50935000	-12.67224000
154.19999102	0.00000000	-20.55241000	-13.00443000
154.39999100	0.00000000	-20.55241000	-13.41658000
154.59999099	0.00000000	-20.50935000	-13.42274000
154.79999098	0.00000000	-20.17716000	-13.83489000
154.99999097	0.00000000	-19.76501000	-14.16708000
155.19999096	0.00000000	-19.75886000	-14.21014000
155.39999094	0.00000000	-19.34670000	-14.21014000
155.59999093	0.00000000	-19.01451000	-14.21014000
155.79999092	0.00000000	-18.97145000	-14.21014000
155.99999091	0.00000000	-19.01451000	-14.21014000
156.19999090	0.00000000	-19.34670000	-14.16708000
156.39999089	0.00000000	-19.75886000	-13.79183000
156.59999087	0.00000000	-19.76501000	-13.04749000
156.79999086	0.00000000	-20.17716000	-12.67224000
156.99999085	0.00000000	-20.50935000	-12.62918000
157.19999084	0.00000000	-20.55241000	-12.62918000
157.39999083	0.00000000	-20.55241000	-12.67224000
157.59999081	0.00000000	-20.55241000	-13.04749000
157.79999080	0.00000000	-20.50935000	-13.79183000
157.99999079	0.00000000	-20.13410000	-14.16708000
158.19999078	0.00000000	-19.38976000	-14.21014000
158.39999077	0.00000000	-19.01451000	-14.21014000
158.59999075	0.00000000	-18.97145000	-14.21014000
158.79999074	0.00000000	-18.97145000	-14.21014000
158.99999073	0.00000000	-19.01451000	-14.21014000
159.19999072	0.00000000	-19.38976000	-14.16708000
159.39999071	0.00000000	-20.13410000	-13.79183000
159.59999070	0.00000000	-20.50935000	-13.04749000
159.79999068	0.00000000	-20.55241000	-12.67224000
159.99999067	0.00000000	-20.55241000	-12.62918000
160.19999066	0.00000000	-20.55241000	-12.67224000
160.39999065	0.00000000	-20.55241000	-13.04749000
160.59999064	0.00000000	-20.55241000	-13.83489000
160.79999062	0.00000000	-20.55241000	-14.58538000
160.99999061	0.00000000	-20.55241000	-15.36663000
161.19999060	0.00000000	-20.55241000	-15.74188000
161.39999059	0.00000000	-20.55241000	-15.74188000
161.59999058	0.00000000	-20.50935000	-15.36663000
161.79999056	0.00000000	-20.13410000	-14.62844000
161.99999055	0.00000000	-19.43897000	-14.25320000
162.19999054	0.00000000	-19.43897000	-14.21014000
162.39999053	0.00000000	-20.13410000	-14.21014000
162.59999052	0.00000000	-20.50935000	-14.21014000
162.79999051	0.00000000	-20.55241000	-14.21014000
162.99999049	0.00000000	-20.55241000	-14.21014000
163.19999048	0.00000000	-20.55241000	-14.21014000
163.39999047	0.00000000	-20.55241000	-14.21014000
163.59999046	0.00000000	-20.59547000	-14.21014000
163.79999045	0.00000000	-20.97072000	-14.21014000
163.99999043	0.00000000	-21.66585000	-14.25320000
164.19999042	0.00000000	-21.66585000	-14.58538000
164.39999041	0.00000000	-20.97072000	-14.94833000
164.59999040	0.00000000	-20.59547000	-14.58538000
164.79999039	0.00000000	-20.55241000	-14.25320000
164.99999037	0.00000000	-20.55241000	-14.21014000
165.19999036	0.00000000	-20.55241000	-14.21014000
165.39999035	0.00000000	-20.55241000	-14.21014000
165.59999034	0.00000000	-20.55241000	-14.21014000
165.79999033	0.00000000	-20.55241000	-14.21014000
165.99999032	0.00000000	-20.59547000	-14.21014000
166.19999030	0.00000000	-20.97072000	-14.21014000
166.39999029	0.00000000	-21.66585000	-14.21014000
166.59999028	0.00000000	-21.71506000	-14.21014000
166.79999027	0.00000000	-21.34596000	-14.21014000
166.99999026	0.00000000	-21.33981000	-14.21014000
167.19999024	0.00000000	-20.92766000	-14.21014000
167.39999023	0.00000000	-20.59547000	-14.21014000
167.59999022	0.00000000	-20.55241000	-14.21014000
167.79999021	0.00000000	-20.55241000	-14.21014000
167.99999020	0.00000000	-20.55241000	-14.21014000
168.19999018	0.00000000	-20.55241000	-14.21014000
168.39999017	0.00000000	-20.55241000	-14.21014000
168.59999016	0.00000000	-20.55241000	-14.21014000
168.79999015	0.00000000	-20.59547000	-14.21014000
168.99999014	0.00000000	-20.88459000	-14.16708000
169.19999013	0.00000000	-20.92150000	-13.83489000
169.39999011	0.00000000	-20.18332000	-13.46580000
169.59999010	0.00000000	-20.22022000	-13.83489000
169.79999009	0.00000000	-20.50935000	-14.16708000
169.99999008	0.00000000	-20.55241000	-14.21014000
170.19999007	0.00000000	-20.55241000	-14.21014000
170.39999005	0.00000000	-20.55241000	-14.21014000
170.59999004	0.00000000	-20.55241000	-14.21014000
170.79999003	0.00000000	-20.55241000	-14.21014000
170.99999002	0.00000000	-20.55241000	-14.21014000
171.19999001	0.00000000	-20.55241000	-14.21014000
171.39998999	0.00000000	-20.55241000	-14.21014000
171.59998998	0.00000000	-20.55241000	-14.21014000
171.79998997	0.00000000	-20.55241000	-14.21014000
171.99998996	0.00000000	-20.55241000	-14.21014000
172.19998995	0.00000000	-20.55241000	-14.21014000
172.39998994	0.00000000	-20.55241000	-14.21014000
172.59998992	0.00000000	-20.55241000	-14.21014000
172.79998991	0.00000000	-20.55241000	-14.21014000
172.99998990	0.00000000	-20.55241000	-14.21014000
173.19998989	0.00000000	-20.55241000	-14.21014000
173.39998988	0.00000000	-20.55241000	-14.21014000
173.59998986	0.00000000	-20.55241000	-14.21014000
173.79998985	0.00000000	-20.55241000	-14.21014000
173.99998984	0.00000000	-20.55241000	-14.21014000
174.19998983	0.00000000	-20.55241000	-14.21014000
174.39998982	0.00000000	-20.55241000	-14.21014000
174.59998980	0.00000000	-20.55241000	-14.21014000
174.79998979	0.00000000	-20.55241000	-14.21014000
174.99998978	0.00000000	-20.55241000	-14.21014000
175.19998977	0.00000000	-20.55241000	-14.21014000
175.39998976	0.00000000	-20.55241000	-14.21014000
175.59998975	0.00000000	-20.55241000	-14.21014000
175.79998973	0.00000000	-20.55241000	-14.21014000
175.99998972	0.00000000	-20.55241000	-14.21014000
176.19998971	0.00000000	-20.55241000	-14.21014000
176.39998970	0.00000000	-20.55241000	-14.21014000
176.59998969	0.00000000	-20.55241000	-14.21014000
176.79998967	0.00000000	-20.55241000	-14.21014000
176.99998966	0.00000000	-20.55241000	-14.21014000
177.19998965	0.00000000	-20.55241000	-14.21014000
177.39998964	0.00000000	-20.59547000	-14.21014000
177.59998963	0.00000000	-20.97072000	-14.21014000
177.79998961	0.00000000	-21.71506000	-14.25320000
177.99998960	0.00000000	-22.04109000	-14.62844000
178.19998959	0.00000000	-21.75812000	-15.32357000
178.39998958	0.00000000	-21.38902000	-15.32357000
178.59998957	0.00000000	-21.71506000	-14.62844000
178.79998956	0.00000000	-21.71506000	-14.25320000
178.99998954	0.00000000	-21.34596000	-14.21014000
179.19998953	0.00000000	-21.38287000	-14.25320000
179.39998952	0.00000000	-21.34596000	-14.62844000
179.59998951	0.00000000	-21.75812000	-15.36663000
179.79998950	0.00000000	-22.09030000	-15.74188000
179.99998948	0.00000000	-22.13336000	-15.78494000
180.19998947	0.00000000	-22.13336000	-15.78494000
180.39998946	0.00000000	-22.09030000	-15.78494000
180.59998945	0.00000000	-21.75812000	-15.74188000
180.79998944	0.00000000	-21.38902000	-15.40969000
180.99998942	0.00000000	-21.75812000	-15.00369000
181.19998941	0.00000000	-22.09030000	-14.99139000
181.39998940	0.00000000	-22.13336000	-14.58538000
181.59998939	0.00000000	-22.13336000	-14.25320000
181.79998938	0.00000000	-22.13336000	-14.21014000
181.99998937	0.00000000	-22.13336000	-14.21014000
182.19998935	0.00000000	-22.13336000	-14.21014000
182.39998934	0.00000000	-22.13336000	-14.25320000
182.59998933	0.00000000	-22.13336000	-14.62844000
182.79998932	0.00000000	-22.13336000	-15.36663000
182.99998931	0.00000000	-22.13336000	-15.74188000
183.19998929	0.00000000	-22.13336000	-15.78494000
183.39998928	0.00000000	-22.13336000	-15.78494000
183.59998927	0.00000000	-22.13336000	-15.74188000
183.79998926	0.00000000	-22.13336000	-15.36663000
183.99998925	0.00000000	-22.13336000	-14.62844000
184.19998923	0.00000000	-22.13336000	-14.25320000
184.39998922	0.00000000	-22.13336000	-14.21014000
184.59998921	0.00000000	-22.13336000	-14.21014000
184.79998920	0.00000000	-22.13336000	-14.21014000
184.99998919	0.00000000	-22.13336000	-14.21014000
185.19998918	0.00000000	-22.09030000	-14.21014000
185.39998916	0.00000000	-21.75812000	-14.21014000
185.59998915	0.00000000	-21.34596000	-14.21014000
185.79998914	0.00000000	-21.33981000	-14.25320000
185.99998913	0.00000000	-20.92766000	-14.62844000
186.19998912	0.00000000	-20.64468000	-15.36663000
186.39998910	0.00000000	-20.97072000	-15.74188000
186.59998909	0.00000000	-21.71506000	-15.74188000
186.79998908	0.00000000	-22.09030000	-15.36663000
186.99998907	0.00000000	-22.13336000	-14.62844000
187.19998906	0.00000000	-22.13336000	-14.25320000
187.39998904	0.00000000	-22.13336000	-14.16708000
187.59998903	0.00000000	-22.13336000	-13.83489000
187.79998902	0.00000000	-22.13336000	-13.46580000
187.99998901	0.00000000	-22.13336000	-13.83489000
188.19998900	0.00000000	-22.09030000	-14.16708000
188.39998899	0.00000000	-21.75812000	-14.25320000
188.59998897	0.00000000	-21.34596000	-14.62844000
188.79998896	0.00000000	-21.38287000	-15.36663000
188.99998895	0.00000000	-21.34596000	-15.74188000
189.19998894	0.00000000	-21.75812000	-15.78494000
189.39998893	0.00000000	-22.09030000	-15.78494000
189.59998891	0.00000000	-22.13336000	-15.74188000
189.79998890	0.00000000	-22.13336000	-15.36663000
189.99998889	0.00000000	-22.13336000	-14.62844000
190.19998888	0.00000000	-22.13336000	-14.25320000
190.39998887	0.00000000	-22.13336000	-14.21014000
190.59998885	0.00000000	-22.13336000	-14.21014000
190.79998884	0.00000000	-22.13336000	-14.21014000
190.99998883	0.00000000	-22.13336000	-14.21014000
191.19998882	0.00000000	-22.13336000	-14.25320000
191.39998881	0.00000000	-22.13336000	-14.58538000
191.59998880	0.00000000	-22.13336000	-14.99139000
191.79998878	0.00000000	-22.13336000	-15.00369000
191.99998877	0.00000000	-22.13336000	-15.40969000
192.19998876	0.00000000	-22.13336000	-15.74188000
192.39998875	0.00000000	-22.13336000	-15.78494000
192.59998874	0.00000000	-22.13336000	-15.78494000
192.79998872	0.00000000	-22.13336000	-15.78494000
192.99998871	0.00000000	-22.13336000	-15.78494000
193.19998870	0.00000000	-22.13336000	-15.78494000
193.39998869	0.00000000	-22.17643000	-15.78494000
193.59998868	0.00000000	-22.50861000	-15.78494000
193.79998866	0.00000000	-22.87770000	-15.74188000
193.99998865	0.00000000	-22.50861000	-15.40969000
194.19998864	0.00000000	-22.17643000	-15.00369000
194.39998863	0.00000000	-22.13336000	-15.04060000
194.59998862	0.00000000	-22.13336000	-15.00369000
194.79998861	0.00000000	-22.13336000	-15.40969000
194.99998859	0.00000000	-22.13336000	-15.74188000
195.19998858	0.00000000	-22.17643000	-15.78494000
195.39998857	0.00000000	-22.50861000	-15.78494000
195.59998856	0.00000000	-22.87770000	-15.78494000
195.79998855	0.00000000	-22.50861000	-15.78494000
195.99998853	0.00000000	-22.17643000	-15.78494000
