Time	Channel A	Channel B	Channel C
(us)	(V)	(mV)	(mV)

-4.49999956	0.00000000	33.20005000	4.73671200
-4.29999957	0.00000000	33.20005000	4.73671200
-4.09999958	0.00000000	33.20005000	4.73671200
-3.89999959	0.00000000	33.24311000	4.73671200
-3.69999960	0.00000000	33.57529000	4.73671200
-3.49999962	0.00000000	33.94439000	4.73671200
-3.29999963	0.00000000	33.57529000	4.73671200
-3.09999964	0.00000000	33.24311000	4.73671200
-2.89999965	0.00000000	33.20005000	4.73671200
-2.69999966	0.00000000	33.20005000	4.73671200
-2.49999968	0.00000000	33.24311000	4.73671200
-2.29999969	0.00000000	33.57529000	4.73671200
-2.09999970	0.00000000	33.98745000	4.77977300
-1.89999971	0.00000000	33.95054000	5.11195900
-1.69999972	0.00000000	33.98745000	5.47490100
-1.49999973	0.00000000	33.57529000	5.11195900
-1.29999975	0.00000000	33.24311000	4.77977300
-1.09999976	0.00000000	33.20005000	4.73671200
-0.89999977	0.00000000	33.20005000	4.73671200
-0.69999978	0.00000000	33.20005000	4.73671200
-0.49999979	0.00000000	33.20005000	4.73671200
-0.29999981	0.47736220	33.20005000	4.73671200
-0.09999982	0.63668800	33.20005000	4.73671200
0.10000017	0.95533960	33.20005000	4.73671200
0.30000016	1.11466500	33.20005000	4.73671200
0.50000015	0.79601380	33.20005000	4.73671200
0.70000013	0.15871060	33.20005000	4.73671200
0.90000012	-0.63668800	33.20005000	4.73671200
1.10000011	-1.59264300	33.20005000	4.73671200
1.30000010	-2.38927200	33.20005000	4.73671200
1.50000009	-2.70792300	33.20005000	4.73671200
1.70000008	-2.22994600	33.20005000	4.73671200
1.90000006	-0.95533960	33.20005000	4.73671200
2.10000005	0.95533960	33.20005000	4.73671200
2.30000004	3.02657500	33.20005000	4.73671200
2.50000003	4.61921700	33.20005000	4.73671200
2.70000002	5.41584600	33.20005000	4.69365100
2.90000000	4.61921700	33.20005000	4.31840500
3.09999999	2.54859700	33.20005000	3.57406500
3.29999998	-0.63668800	33.20005000	3.19881900
3.49999997	-4.14124000	33.20005000	3.19881900
3.69999996	-6.84916400	33.20005000	3.57406500
3.89999994	-7.96444400	33.20005000	4.31840500
4.09999993	-7.16781500	33.20005000	4.73671200
4.29999992	-4.45989200	33.20005000	5.11195900
4.49999991	-0.31803640	33.20005000	5.47490100
4.69999990	4.14124000	33.20005000	5.11195900
4.89999989	7.64579200	33.20005000	4.73671200
5.09999987	9.39837600	33.20005000	4.31840500
5.29999986	8.92039900	33.20005000	3.57406500
5.49999985	5.89382400	33.20005000	3.19881900
5.69999984	1.59264300	33.20005000	3.19881900
5.89999983	-3.18590100	33.20005000	3.57406500
6.09999981	-7.16781500	33.20005000	4.31840500
6.29999980	-9.23905000	33.20005000	4.69365100
6.49999979	-9.07972400	33.20005000	4.73671200
6.69999978	-6.53112700	33.20005000	4.73671200
6.89999977	-2.70792300	33.20005000	4.73671200
7.09999975	1.59264300	33.20005000	4.73671200
7.29999974	5.41584600	33.20005000	4.73671200
7.49999973	7.48646600	33.20005000	4.69365100
7.69999972	7.64579200	33.20005000	4.31840500
7.89999971	5.89382400	33.20005000	3.57406500
8.09999970	2.86724900	33.20005000	3.24803100
8.29999968	-0.31803640	33.20005000	3.57406500
8.49999967	-3.18590100	33.20005000	4.31840500
8.69999966	-4.93786900	33.20005000	4.69365100
8.89999965	-5.09719500	33.20005000	4.73671200
9.09999964	-4.14124000	33.20005000	4.73671200
9.29999962	-2.38927200	33.20005000	4.73671200
9.49999961	-0.31803640	33.20005000	4.73671200
9.69999960	1.27399100	33.20005000	4.73671200
9.89999959	2.38927200	33.20005000	4.73671200
10.09999958	2.54859700	33.20005000	4.73671200
10.29999956	2.07062000	33.20005000	4.73671200
10.49999955	1.27399100	33.20005000	4.73671200
10.69999954	0.31803640	33.20005000	4.73671200
10.89999953	-0.31803640	33.20005000	4.73671200
11.09999952	-0.79601380	33.20005000	4.73671200
11.29999951	-0.95533960	33.20005000	4.73671200
11.49999949	-0.95533960	33.20005000	4.73671200
11.69999948	-0.63668800	33.20005000	4.73671200
11.89999947	-0.31803640	33.20005000	4.73671200
12.09999946	-0.15871060	33.20005000	4.73671200
12.29999945	-0.15871060	33.20005000	4.73671200
12.49999943	0.00000000	33.20005000	4.73671200
12.69999942	0.00000000	33.20005000	4.73671200
12.89999941	0.00000000	33.20005000	4.73671200
13.09999940	0.00000000	33.20005000	4.73671200
13.29999939	0.00000000	33.20005000	4.73671200
13.49999937	0.00000000	33.20005000	4.73671200
13.69999936	0.00000000	33.20005000	4.73671200
13.89999935	-0.15871060	33.20005000	4.73671200
14.09999934	-0.15871060	33.20005000	4.73671200
14.29999933	-0.15871060	33.20005000	4.73671200
14.49999932	-0.15871060	33.20005000	4.73671200
14.69999930	0.00000000	33.20005000	4.73671200
14.89999929	0.00000000	33.20005000	4.73671200
15.09999928	0.00000000	33.20005000	4.73671200
15.29999927	0.15871060	33.20005000	4.73671200
15.49999926	0.00000000	33.20005000	4.73671200
15.69999924	0.00000000	33.20005000	4.73671200
15.89999923	0.00000000	33.20005000	4.73671200
16.09999922	0.00000000	33.20005000	4.73671200
16.29999921	0.00000000	33.20005000	4.73671200
16.49999920	0.00000000	33.20005000	4.73671200
16.69999919	-0.15871060	33.24311000	4.73671200
16.89999917	0.00000000	33.61835000	4.73671200
17.09999916	0.00000000	34.36884000	4.73671200
17.29999915	0.00000000	34.74409000	4.73671200
17.49999914	0.00000000	34.78716000	4.73671200
17.69999913	0.00000000	34.74409000	4.73671200
17.89999911	0.00000000	34.31963000	4.73671200
18.09999910	0.00000000	33.15699000	4.73671200
18.29999909	0.00000000	31.61909000	4.73671200
18.49999908	0.00000000	30.03814000	4.73671200
18.69999907	0.00000000	28.50024000	4.73671200
18.89999905	0.00000000	27.38681000	4.73671200
19.09999904	0.00000000	27.42987000	4.73671200
19.29999903	0.00000000	28.96776000	4.73671200
19.49999902	0.00000000	31.75443000	4.73671200
19.69999901	0.00000000	35.58071000	4.73671200
19.89999900	0.00000000	39.84990000	4.73671200
20.09999898	0.00000000	42.88877000	4.73671200
20.29999897	0.00000000	44.41437000	4.73671200
20.49999896	0.00000000	43.16560000	4.73671200
20.69999895	0.00000000	38.92716000	4.73671200
20.89999894	0.00000000	32.68946000	4.73671200
21.09999892	0.00000000	25.29527000	4.73671200
21.29999891	0.00000000	18.03642000	4.73671200
21.49999890	0.00000000	13.05979000	4.73671200
21.69999889	0.00000000	12.35851000	4.73671200
21.89999888	0.00000000	16.26476000	4.73671200
22.09999886	0.00000000	24.87082000	4.73671200
22.29999885	0.00000000	36.82948000	4.73671200
22.49999884	0.00000000	49.53248000	4.73671200
22.69999883	0.00000000	59.53494000	4.73671200
22.89999882	0.00000000	64.14247000	4.73671200
23.09999881	0.00000000	62.14320000	4.73671200
23.29999879	0.00000000	53.16806000	4.77977300
23.49999878	0.00000000	38.41658000	5.15501900
23.69999877	0.00000000	20.68774000	5.89320800
23.89999876	0.00000000	4.08464600	6.26845500
24.09999875	0.00000000	-7.00049200	6.26845500
24.29999873	0.00000000	-9.63951700	5.85014700
24.49999872	0.00000000	-1.88238200	4.68750000
24.69999871	0.00000000	14.35777000	3.15575800
24.89999870	0.00000000	35.67298000	1.57480300
25.09999869	0.00000000	58.00320000	0.04306102
25.29999867	0.00000000	75.31373000	-1.06422200
25.49999866	0.00000000	83.04011000	-1.06422200
25.69999865	0.00000000	79.54601000	0.13533460
25.89999864	0.00000000	65.21899000	2.50369100
26.09999863	0.00000000	43.20866000	6.35457700
26.29999862	0.00000000	18.50394000	10.58686000
26.49999860	0.00000000	-3.13115100	14.03174000
26.69999859	0.00000000	-16.67077000	15.92642000
26.89999858	0.00000000	-19.36516000	15.09596000
27.09999857	0.00000000	-10.43922000	11.60802000
27.29999856	0.00000000	8.45226300	5.75787400
27.49999854	0.00000000	32.73868000	-1.58095500
27.69999853	0.00000000	56.32997000	-8.91978400
27.89999852	0.00000000	74.10802000	-14.63459000
28.09999851	0.00000000	82.28961000	-16.86147000
28.29999850	0.00000000	79.22613000	-14.12401000
28.49999848	0.00000000	66.51698000	-6.78518600
28.69999847	0.00000000	46.78888000	3.66633800
28.89999846	0.00000000	24.82775000	15.27436000
29.09999845	0.00000000	5.84399600	25.68897000
29.29999844	0.00000000	-6.20078700	32.60949000
29.49999843	0.00000000	-9.36269600	34.05511000
29.69999841	0.00000000	-3.64173200	28.98622000
29.89999840	0.00000000	9.10433000	17.74729000
30.09999839	0.00000000	25.76279000	2.69439000
30.29999838	0.00000000	43.11638000	-13.10285000
30.49999837	0.00000000	57.06815000	-25.83046000
30.69999835	0.00000000	64.51771000	-32.38804000
30.89999834	0.00000000	65.35433000	-31.59449000
31.09999833	0.00000000	59.53494000	-23.00689000
31.29999832	0.00000000	48.36983000	-7.99089500
31.49999831	0.00000000	34.87328000	10.16855000
31.69999829	0.00000000	22.03494000	27.13459000
31.89999828	0.00000000	12.35851000	39.53002000
32.09999827	0.00000000	7.24655500	44.50664000
32.29999826	0.00000000	7.65871000	41.06791000
32.49999825	0.00000000	13.01673000	29.87205000
32.69999824	0.00000000	22.31176000	13.61343000
32.89999822	0.00000000	33.11393000	-4.55831700
33.09999821	0.00000000	43.20866000	-21.13681000
33.29999820	0.00000000	50.51673000	-31.96973000
33.49999819	0.00000000	53.25418000	-35.12549000
33.69999818	0.00000000	51.02116000	-30.43184000
33.89999816	0.00000000	45.25713000	-18.49163000
34.09999815	0.00000000	37.48154000	-1.90698800
34.29999814	0.00000000	29.01082000	15.10212000
34.49999813	0.00000000	22.08415000	29.45374000
34.69999812	0.00000000	18.59006000	38.28125000
34.89999810	0.00000000	18.92224000	39.48696000
35.09999809	0.00000000	22.77928000	32.94168000
35.29999808	0.00000000	28.87549000	20.62008000
35.49999807	0.00000000	35.43922000	5.20423200
35.69999806	0.00000000	40.46506000	-9.47957600
35.89999805	0.00000000	43.20866000	-20.30635000
36.09999803	0.00000000	43.16560000	-25.27682000
36.29999802	0.00000000	40.08981000	-22.63164000
36.49999801	0.00000000	34.73794000	-13.47810000
36.69999800	0.00000000	29.01082000	-1.15649600
36.89999799	0.00000000	24.73548000	11.57111000
37.09999797	0.00000000	22.77928000	21.55512000
37.29999796	0.00000000	23.15453000	26.20571000
37.49999795	0.00000000	25.89198000	24.71703000
37.69999794	0.00000000	30.50566000	17.79035000
37.89999793	0.00000000	35.85752000	7.47416300
38.09999791	0.00000000	40.08981000	-3.21112200
38.29999790	0.00000000	42.04601000	-10.50689000
38.49999789	0.00000000	41.71998000	-12.50000000
38.69999788	0.00000000	39.39468000	-9.43036400
38.89999787	0.00000000	35.90059000	-2.14074800
39.09999786	0.00000000	31.66830000	7.38188900
39.29999784	0.00000000	27.76206000	15.84030000
39.49999783	0.00000000	25.05536000	20.81693000
39.69999782	0.00000000	23.48056000	21.13681000
39.89999781	0.00000000	23.89271000	15.74803000
40.09999780	0.00000000	25.80585000	6.26845500
40.29999778	0.00000000	28.96776000	-3.72170300
40.49999777	0.00000000	33.20005000	-11.42962000
40.69999776	0.00000000	37.43848000	-15.23745000
40.89999775	0.00000000	40.55733000	-13.66265000
41.09999774	0.00000000	42.09522000	-6.78518600
41.29999772	0.00000000	41.71998000	3.15575800
41.49999771	0.00000000	39.43774000	13.14591000
41.69999770	0.00000000	36.31890000	20.48474000
41.89999769	0.00000000	32.82480000	23.60359000
42.09999768	0.00000000	29.34301000	22.06570000
42.29999767	0.00000000	26.96850000	16.25861000
42.49999765	0.00000000	25.38755000	7.47416300
42.69999764	0.00000000	24.68627000	-1.72244100
42.89999763	0.00000000	25.80585000	-8.31692900
43.09999762	0.00000000	28.08194000	-11.47884000
43.29999761	0.00000000	30.41338000	-11.06053000
43.49999759	0.00000000	32.78174000	-6.87746000
43.69999758	0.00000000	34.69488000	-0.37524600
43.89999757	0.00000000	35.90059000	6.17618100
44.09999756	0.00000000	36.32505000	11.60802000
44.29999755	0.00000000	36.36811000	14.67766000
44.49999753	0.00000000	36.36811000	14.76993000
44.69999752	0.00000000	36.36811000	12.49385000
44.89999751	0.00000000	36.36811000	9.00590400
45.09999750	0.00000000	36.32505000	4.77977300
45.29999749	0.00000000	35.85752000	0.92888770
45.49999748	0.00000000	34.27657000	-1.39640700
45.69999746	0.00000000	31.53297000	-2.22687000
45.89999745	0.00000000	28.08194000	-1.43946800
46.09999744	0.00000000	24.60015000	0.41830710
46.29999743	0.00000000	22.31176000	2.73745100
46.49999742	0.00000000	21.57357000	4.68750000
46.69999740	0.00000000	23.19759000	6.31151500
46.89999739	0.00000000	27.47293000	7.80019600
47.09999738	0.00000000	33.61835000	8.54453700
47.29999737	0.00000000	40.22515000	7.80019600
47.49999736	0.00000000	45.62623000	6.26845500
47.69999734	0.00000000	49.02190000	4.31840500
47.89999733	0.00000000	48.60359000	1.99311000
48.09999732	0.00000000	43.95915000	0.09227362
48.29999731	0.00000000	36.64493000	-1.06422200
48.49999730	0.00000000	27.71899000	-1.02116100
48.69999729	0.00000000	19.66043000	0.51058070
48.89999727	0.00000000	14.22244000	3.19881900
49.09999726	0.00000000	12.72761000	6.26845500
49.29999725	0.00000000	15.84646000	9.00590400
49.49999724	0.00000000	23.19759000	10.91289000
49.69999723	0.00000000	33.15699000	11.65723000
49.89999721	0.00000000	42.79035000	10.45152000
50.09999720	0.00000000	49.39714000	7.42495000
50.29999719	0.00000000	52.09768000	3.53100400
50.49999718	0.00000000	50.14148000	-0.28297240
50.69999717	0.00000000	43.58390000	-3.38951800
50.89999715	0.00000000	34.36884000	-4.50910400
51.09999714	0.00000000	24.73548000	-3.76476400
51.29999713	0.00000000	17.42741000	-1.02116100
51.49999712	0.00000000	14.35777000	3.15575800
51.69999711	0.00000000	16.22170000	7.43110200
51.89999710	0.00000000	22.31176000	10.91289000
52.09999708	0.00000000	29.99508000	13.18898000
52.29999707	0.00000000	37.39542000	13.18898000
52.49999706	0.00000000	43.16560000	10.91289000
52.69999705	0.00000000	45.81693000	7.43110200
52.89999704	0.00000000	44.32209000	3.20497000
53.09999702	0.00000000	39.35162000	-0.64591530
53.29999701	0.00000000	32.82480000	-2.93430100
53.49999700	0.00000000	26.31643000	-3.38951800
53.69999699	0.00000000	22.08415000	-1.81471400
53.89999698	0.00000000	21.24139000	0.79355310
54.09999696	0.00000000	23.15453000	3.94315900
54.29999695	0.00000000	27.42987000	6.55142700
54.49999694	0.00000000	33.15699000	8.12622900
54.69999693	0.00000000	38.50886000	7.80019600
54.89999692	0.00000000	41.58464000	6.64370100
55.09999691	0.00000000	41.62770000	5.09965500
55.29999689	0.00000000	38.97638000	2.82972400
55.49999688	0.00000000	34.73794000	1.75319900
55.69999687	0.00000000	30.13041000	2.08538400
55.89999686	0.00000000	26.26722000	3.61712600
56.09999685	0.00000000	24.31102000	5.85014700
56.29999683	0.00000000	24.31102000	7.38188900
56.49999682	0.00000000	26.26722000	7.75713500
56.69999681	0.00000000	30.08735000	6.96358300
56.89999680	0.00000000	34.27657000	4.64443900
57.09999679	0.00000000	37.39542000	1.58095500
57.29999677	0.00000000	38.93332000	-1.48868100
57.49999676	0.00000000	38.55807000	-3.71555100
57.69999675	0.00000000	36.27584000	-3.71555100
57.89999674	0.00000000	33.24926000	-1.35334600
58.09999673	0.00000000	30.50566000	2.87893700
58.29999672	0.00000000	28.59252000	8.63681000
58.49999670	0.00000000	27.80512000	13.61343000
58.69999669	0.00000000	28.54946000	16.67692000
58.89999668	0.00000000	30.03814000	17.00295000
59.09999667	0.00000000	31.61909000	13.52116000
59.29999666	0.00000000	33.15699000	7.43110200
59.49999664	0.00000000	34.31963000	0.46751960
59.69999663	0.00000000	34.69488000	-5.71481200
59.89999662	0.00000000	34.31963000	-9.94094400
60.09999661	0.00000000	33.15699000	-11.01132000
60.29999660	0.00000000	31.66215000	-7.94783400
60.49999658	0.00000000	30.50566000	-1.44562000
60.69999657	0.00000000	30.13041000	6.26845500
60.89999656	0.00000000	30.50566000	13.61343000
61.09999655	0.00000000	31.66215000	18.95300000
61.29999654	0.00000000	33.15699000	20.48474000
61.49999653	0.00000000	34.31963000	17.83957000
61.69999651	0.00000000	34.69488000	12.03248000
61.89999650	0.00000000	34.31963000	4.31840500
62.09999649	0.00000000	33.15699000	-3.76476400
62.29999648	0.00000000	31.57603000	-9.94094400
62.49999647	0.00000000	29.70595000	-13.01058000
62.69999645	0.00000000	28.13730000	-12.21703000
62.89999644	0.00000000	27.74975000	-7.20349400
63.09999643	0.00000000	27.76206000	0.41830710
63.29999642	0.00000000	29.01082000	8.54453700
63.49999641	0.00000000	31.61909000	15.10212000
63.69999639	0.00000000	34.31963000	19.00221000
63.89999638	0.00000000	36.27584000	19.37131000
64.09999637	0.00000000	37.39542000	16.35089000
64.29999636	0.00000000	37.02018000	10.91289000
64.49999635	0.00000000	35.11319000	4.36146600
64.69999634	0.00000000	32.78174000	-2.18380900
64.89999632	0.00000000	30.08120000	-6.82824800
65.09999631	0.00000000	27.80512000	-8.82750900
65.29999630	0.00000000	27.05462000	-8.45226300
65.49999629	0.00000000	27.76206000	-5.71481200
65.69999628	0.00000000	29.66289000	-1.15649600
65.89999626	0.00000000	31.57603000	3.90009800
66.09999625	0.00000000	33.15699000	8.17544300
66.29999624	0.00000000	34.31963000	11.70029000
66.49999623	0.00000000	34.69488000	13.61343000
66.69999622	0.00000000	34.27657000	13.69956000
66.89999620	0.00000000	32.73868000	12.53691000
67.09999619	0.00000000	30.50566000	10.53765000
67.29999618	0.00000000	29.01082000	7.42495000
67.49999617	0.00000000	28.96776000	3.57406500
67.69999616	0.00000000	30.13041000	0.09227362
67.89999615	0.00000000	32.03740000	-2.69439000
68.09999613	0.00000000	34.31963000	-4.60137700
68.29999612	0.00000000	35.85752000	-5.38262700
68.49999611	0.00000000	36.23277000	-4.60137700
68.69999610	0.00000000	35.43922000	-2.64517700
68.89999609	0.00000000	33.11393000	0.51058070
69.09999607	0.00000000	30.03814000	4.73671200
69.29999606	0.00000000	26.91929000	9.00590400
69.49999605	0.00000000	24.26796000	12.49385000
69.69999604	0.00000000	23.15453000	14.81299000
69.89999603	0.00000000	24.31102000	15.14518000
70.09999601	0.00000000	27.42987000	13.23819000
70.29999600	0.00000000	32.03740000	9.33809000
70.49999599	0.00000000	37.06324000	4.36146600
70.69999598	0.00000000	40.88336000	-0.69512790
70.89999597	0.00000000	42.83341000	-4.55831700
71.09999596	0.00000000	42.04601000	-6.87746000
71.29999594	0.00000000	38.97638000	-6.82824800
71.49999593	0.00000000	34.31963000	-4.14000900
71.69999592	0.00000000	28.92470000	0.41830710
71.89999591	0.00000000	24.26796000	5.43184000
72.09999590	0.00000000	21.14911000	9.29502900
72.29999588	0.00000000	20.03568000	11.65723000
72.49999587	0.00000000	21.57357000	12.03248000
72.69999586	0.00000000	25.43061000	10.53765000
72.89999585	0.00000000	30.45644000	7.84940900
73.09999584	0.00000000	35.90059000	4.77977300
73.29999582	0.00000000	40.46506000	2.08538400
73.49999581	0.00000000	42.79035000	0.55364170
73.69999580	0.00000000	42.04601000	0.51058070
73.89999579	0.00000000	39.01944000	1.62401600
74.09999578	0.00000000	34.73794000	3.11269700
74.29999577	0.00000000	30.13041000	4.26919300
74.49999575	0.00000000	26.26722000	4.64443900
74.69999574	0.00000000	24.26796000	4.26919300
74.89999573	0.00000000	23.84965000	3.11269700
75.09999572	0.00000000	24.64321000	1.62401600
75.29999571	0.00000000	26.96850000	0.51058070
75.49999569	0.00000000	30.03814000	0.55364170
75.69999568	0.00000000	33.11393000	2.08538400
75.89999567	0.00000000	35.43922000	4.77977300
76.09999566	0.00000000	36.23277000	7.84940900
76.29999565	0.00000000	35.90059000	10.53765000
76.49999563	0.00000000	34.73794000	12.03248000
76.69999562	0.00000000	33.24926000	11.65723000
76.89999561	0.00000000	32.08661000	9.29502900
77.09999560	0.00000000	31.61909000	5.43184000
77.29999559	0.00000000	31.24384000	0.41830710
77.49999558	0.00000000	30.87475000	-4.18307100
77.69999556	0.00000000	31.20078000	-7.25270600
77.89999555	0.00000000	31.15157000	-7.99089500
78.09999554	0.00000000	30.41338000	-5.67175200
78.29999553	0.00000000	29.66289000	-1.11343500
78.49999552	0.00000000	28.87549000	4.31840500
78.69999550	0.00000000	28.54946000	9.38115100
78.89999549	0.00000000	28.92470000	13.61343000
79.09999548	0.00000000	30.13041000	15.92642000
79.29999547	0.00000000	32.03740000	15.51427000
79.49999546	0.00000000	34.36884000	12.81373000
79.69999544	0.00000000	36.27584000	7.80019600
79.89999543	0.00000000	37.43848000	2.08538400
80.09999542	0.00000000	37.39542000	-2.60211600
80.29999541	0.00000000	35.85752000	-5.75787400
80.49999540	0.00000000	33.15699000	-7.29576700
80.69999539	0.00000000	30.08120000	-6.87746000
80.89999537	0.00000000	27.38681000	-4.18307100
81.09999536	0.00000000	25.84892000	0.04306102
81.29999535	0.00000000	25.84892000	4.69365100
81.49999534	0.00000000	27.34375000	8.96284400
81.69999533	0.00000000	29.66289000	12.07554000
81.89999531	0.00000000	31.99434000	13.65650000
82.09999530	0.00000000	34.31963000	13.65650000
82.29999529	0.00000000	35.85752000	12.11860000
82.49999528	0.00000000	36.27584000	9.38115100
82.69999527	0.00000000	35.85752000	5.89320800
82.89999525	0.00000000	34.31963000	1.99311000
83.09999524	0.00000000	32.03740000	-1.48868100
83.29999523	0.00000000	30.13041000	-4.22613100
83.49999522	0.00000000	28.92470000	-5.71481200
83.69999521	0.00000000	28.54946000	-5.33956700
83.89999520	0.00000000	28.87549000	-3.06348400
84.09999518	0.00000000	29.61983000	0.04306102
84.29999517	0.00000000	30.03814000	3.57406500
84.49999516	0.00000000	30.45644000	7.47416300
84.69999515	0.00000000	31.20078000	10.96211000
84.89999514	0.00000000	31.57603000	13.60728000
85.09999512	0.00000000	31.66215000	14.35162000
85.29999511	0.00000000	32.03740000	12.45079000
85.49999510	0.00000000	32.78174000	8.96284400
85.69999509	0.00000000	33.20005000	4.31840500
85.89999508	0.00000000	33.57529000	-0.69512790
86.09999506	0.00000000	33.94439000	-4.55831700
86.29999505	0.00000000	33.53223000	-6.87746000
86.49999504	0.00000000	32.78174000	-6.82824800
86.69999503	0.00000000	31.57603000	-4.14000900
86.89999502	0.00000000	30.03814000	0.46136810
87.09999501	0.00000000	28.50024000	5.85014700
87.29999499	0.00000000	27.38681000	10.49459000
87.49999498	0.00000000	27.38681000	13.56422000
87.69999497	0.00000000	28.54946000	14.35162000
87.89999496	0.00000000	30.45644000	12.45079000
88.09999495	0.00000000	32.78174000	8.96284400
88.29999493	0.00000000	34.69488000	4.31840500
88.49999492	0.00000000	35.85752000	-0.69512790
88.69999491	0.00000000	35.85752000	-4.46604300
88.89999490	0.00000000	34.69488000	-6.03469500
89.09999489	0.00000000	32.78174000	-4.50910400
89.29999487	0.00000000	30.50566000	-1.07037400
89.49999486	0.00000000	28.96776000	3.57406500
89.69999485	0.00000000	28.50024000	8.54453700
89.89999484	0.00000000	28.50024000	11.98942000
90.09999483	0.00000000	28.92470000	13.18898000
90.29999482	0.00000000	30.08120000	11.98942000
90.49999480	0.00000000	31.57603000	8.54453700
90.69999479	0.00000000	32.73252000	3.57406500
90.89999478	0.00000000	33.15699000	-1.02116100
91.09999477	0.00000000	33.20005000	-4.13385800
91.29999476	0.00000000	33.15699000	-5.25344500
91.49999474	0.00000000	32.78174000	-3.71555100
91.69999473	0.00000000	32.03740000	0.09227362
91.89999472	0.00000000	31.66215000	4.69365100
92.09999471	0.00000000	31.61909000	8.91978400
92.29999470	0.00000000	31.61909000	11.61417000
92.49999468	0.00000000	31.61909000	11.98327000
92.69999467	0.00000000	31.57603000	10.07628000
92.89999466	0.00000000	31.20078000	6.21924200
93.09999465	0.00000000	30.41338000	1.62401600
93.29999464	0.00000000	29.66289000	-2.55905500
93.49999463	0.00000000	28.92470000	-4.87819900
93.69999461	0.00000000	28.92470000	-4.50910400
93.89999460	0.00000000	29.70595000	-2.22687000
94.09999459	0.00000000	30.87475000	1.66707700
94.29999458	0.00000000	32.78174000	6.21924200
94.49999457	0.00000000	34.36884000	10.03322000
94.69999455	0.00000000	35.53765000	11.56496000
94.89999454	0.00000000	36.64493000	10.49459000
95.09999453	0.00000000	36.18971000	7.80019600
95.29999452	0.00000000	34.31963000	4.31840500
95.49999451	0.00000000	31.57603000	0.46751960
95.69999449	0.00000000	28.50024000	-2.55905500
95.89999448	0.00000000	25.80585000	-3.71555100
96.09999447	0.00000000	24.26796000	-2.55905500
96.29999446	0.00000000	24.26796000	0.46751960
96.49999445	0.00000000	25.80585000	4.26919300
96.69999444	0.00000000	28.54946000	7.33882900
96.89999442	0.00000000	32.03740000	8.91978400
97.09999441	0.00000000	35.90059000	8.96284400
97.29999440	0.00000000	38.93332000	7.80019600
97.49999439	0.00000000	40.13902000	5.89320800
97.69999438	0.00000000	39.35162000	3.57406500
97.89999436	0.00000000	37.06324000	1.66707700
98.09999435	0.00000000	33.53223000	0.46136810
98.29999434	0.00000000	29.66289000	0.09227362
98.49999433	0.00000000	25.80585000	0.46136810
98.69999432	0.00000000	23.15453000	1.62401600
98.89999430	0.00000000	22.68701000	3.11269700
99.09999429	0.00000000	23.84965000	4.26919300
99.29999428	0.00000000	26.18110000	4.69365100
99.49999427	0.00000000	29.70595000	4.73671200
99.69999426	0.00000000	33.53223000	4.73671200
99.89999425	0.00000000	37.02018000	4.73671200
100.09999423	0.00000000	38.93332000	4.77977300
100.29999422	0.00000000	39.01944000	5.15501900
100.49999421	0.00000000	37.81373000	5.89320800
100.69999420	0.00000000	35.52534000	6.21924200
100.89999419	0.00000000	32.41265000	5.85014700
101.09999417	0.00000000	29.70595000	4.68750000
101.29999416	0.00000000	27.29453000	3.15575800
101.49999415	0.00000000	25.43061000	1.62401600
101.69999414	0.00000000	24.64321000	0.46136810
101.89999413	0.00000000	25.43061000	0.09227362
102.09999411	0.00000000	27.34375000	0.46136810
102.29999410	0.00000000	30.03814000	1.66707700
102.49999409	0.00000000	32.73868000	3.61712600
102.69999408	0.00000000	34.69488000	6.26845500
102.89999407	0.00000000	35.90059000	8.58759800
103.09999406	0.00000000	36.27584000	9.71333600
103.29999404	0.00000000	35.85752000	9.70103300
103.49999403	0.00000000	34.31963000	7.75713500
103.69999402	0.00000000	32.03740000	4.73671200
103.89999401	0.00000000	30.08120000	1.62401600
104.09999400	0.00000000	28.50024000	-1.07037400
104.29999398	0.00000000	27.38681000	-2.55905500
104.49999397	0.00000000	27.38681000	-2.22687000
104.69999396	0.00000000	28.50024000	-0.33218500
104.89999395	0.00000000	30.03814000	1.99311000
105.09999394	0.00000000	31.57603000	4.73671200
105.29999392	0.00000000	32.73252000	7.38188900
105.49999391	0.00000000	33.15699000	8.91978400
105.69999390	0.00000000	33.20005000	8.91978400
105.89999389	0.00000000	33.15699000	7.43110200
106.09999388	0.00000000	32.73252000	5.11195900
106.29999387	0.00000000	31.57603000	2.82972400
106.49999385	0.00000000	30.13041000	0.87967510
106.69999384	0.00000000	29.34301000	0.13533460
106.89999383	0.00000000	29.70595000	0.46136810
107.09999382	0.00000000	30.41338000	1.66707700
107.29999381	0.00000000	31.24384000	3.53100400
107.49999379	0.00000000	31.99434000	5.43184000
107.69999378	0.00000000	32.73252000	6.21924200
107.89999377	0.00000000	32.73252000	6.26845500
108.09999376	0.00000000	31.99434000	5.80093500
108.29999375	0.00000000	31.20078000	4.31840500
108.49999374	0.00000000	30.03814000	2.41141700
108.69999372	0.00000000	28.92470000	1.24877000
108.89999371	0.00000000	28.54946000	0.46136810
109.09999370	0.00000000	28.87549000	0.51058070
109.29999369	0.00000000	29.66289000	1.62401600
109.49999368	0.00000000	30.45644000	3.15575800
109.69999366	0.00000000	31.61909000	4.73671200
109.89999365	0.00000000	32.73252000	6.26845500
110.09999364	0.00000000	33.15699000	7.38188900
110.29999363	0.00000000	33.15699000	7.38188900
110.49999362	0.00000000	32.73252000	6.26845500
110.69999360	0.00000000	31.57603000	4.73671200
110.89999359	0.00000000	30.08120000	3.15575800
111.09999358	0.00000000	28.92470000	1.62401600
111.29999357	0.00000000	28.50024000	0.46136810
111.49999356	0.00000000	28.50024000	0.09227362
111.69999355	0.00000000	28.92470000	0.46136810
111.89999353	0.00000000	30.03814000	1.62401600
112.09999352	0.00000000	31.15157000	3.11269700
112.29999351	0.00000000	31.61909000	4.31840500
112.49999350	0.00000000	31.99434000	5.06274600
112.69999349	0.00000000	32.36343000	5.47490100
112.89999347	0.00000000	31.95128000	5.11195900
113.09999346	0.00000000	31.24384000	4.77977300
113.29999345	0.00000000	30.45644000	4.69365100
113.49999344	0.00000000	30.08120000	4.31840500
113.69999343	0.00000000	30.03814000	3.57406500
113.89999341	0.00000000	30.03814000	3.19881900
114.09999340	0.00000000	30.03814000	3.15575800
114.29999339	0.00000000	30.08120000	3.15575800
114.49999338	0.00000000	30.45644000	3.15575800
114.69999337	0.00000000	31.20078000	3.11269700
114.89999336	0.00000000	31.57603000	2.73745100
115.09999334	0.00000000	31.61909000	2.04232300
115.29999333	0.00000000	31.61909000	2.04232300
115.49999332	0.00000000	31.61909000	2.73745100
115.69999331	0.00000000	31.57603000	3.15575800
115.89999330	0.00000000	31.20078000	3.57406500
116.09999328	0.00000000	30.45644000	4.31840500
116.29999327	0.00000000	30.08120000	4.73671200
116.49999326	0.00000000	30.03814000	5.11195900
116.69999325	0.00000000	30.03814000	5.47490100
116.89999324	0.00000000	30.08120000	5.06274600
117.09999322	0.00000000	30.45644000	4.36146600
117.29999321	0.00000000	31.20078000	3.53100400
117.49999320	0.00000000	31.61909000	2.78051200
117.69999319	0.00000000	32.03740000	1.99311000
117.89999318	0.00000000	32.73252000	1.61786400
118.09999317	0.00000000	32.73252000	1.57480300
118.29999315	0.00000000	32.03740000	1.61786400
118.49999314	0.00000000	31.61909000	2.04232300
118.69999313	0.00000000	31.15157000	3.15575800
118.89999312	0.00000000	30.03814000	4.26919300
119.09999311	0.00000000	28.92470000	4.69365100
119.29999309	0.00000000	28.50024000	4.73671200
119.49999308	0.00000000	28.50024000	4.73671200
119.69999307	0.00000000	28.87549000	4.73671200
119.89999306	0.00000000	29.66289000	4.73671200
120.09999305	0.00000000	30.45644000	4.69365100
120.29999303	0.00000000	31.61909000	4.31840500
120.49999302	0.00000000	32.78174000	3.57406500
120.69999301	0.00000000	33.53223000	3.19881900
120.89999300	0.00000000	33.90133000	3.11269700
121.09999299	0.00000000	33.11393000	2.73745100
121.29999298	0.00000000	31.66215000	2.04232300
121.49999296	0.00000000	30.45644000	2.04232300
121.69999295	0.00000000	29.61983000	2.73745100
121.89999294	0.00000000	28.50024000	3.11269700
122.09999293	0.00000000	27.76206000	3.19881900
122.29999292	0.00000000	28.12500000	3.57406500
122.49999290	0.00000000	28.83243000	4.31840500
122.69999289	0.00000000	29.66289000	4.69365100
122.89999288	0.00000000	30.45644000	4.73671200
123.09999287	0.00000000	31.61909000	4.73671200
123.29999286	0.00000000	32.73252000	4.73671200
123.49999284	0.00000000	33.10777000	4.69365100
123.69999283	0.00000000	32.78174000	4.31840500
123.89999282	0.00000000	32.03740000	3.53100400
124.09999281	0.00000000	31.61909000	2.78051200
124.29999280	0.00000000	31.20078000	1.99311000
124.49999279	0.00000000	30.41338000	1.66707700
124.69999277	0.00000000	29.66289000	1.99311000
124.89999276	0.00000000	28.87549000	2.73745100
125.09999275	0.00000000	28.50024000	3.15575800
125.29999274	0.00000000	28.45718000	3.57406500
125.49999273	0.00000000	28.50024000	4.31840500
125.69999271	0.00000000	28.92470000	4.69365100
125.89999270	0.00000000	30.03814000	4.73671200
126.09999269	0.00000000	31.15157000	4.73671200
126.29999268	0.00000000	31.66215000	4.73671200
126.49999267	0.00000000	32.36959000	4.69365100
126.69999265	0.00000000	33.10777000	4.31840500
126.89999264	0.00000000	32.36959000	3.57406500
127.09999263	0.00000000	31.66215000	3.19881900
127.29999262	0.00000000	31.15157000	3.15575800
127.49999261	0.00000000	29.99508000	3.15575800
127.69999260	0.00000000	28.54946000	3.15575800
127.89999258	0.00000000	27.76206000	3.19881900
128.09999257	0.00000000	28.12500000	3.53100400
128.29999256	0.00000000	28.87549000	3.94315900
128.49999255	0.00000000	30.03814000	3.94931100
128.69999254	0.00000000	31.20078000	4.36146600
128.89999252	0.00000000	31.99434000	4.64443900
129.09999251	0.00000000	32.73252000	4.31840500
129.29999250	0.00000000	32.73252000	3.57406500
129.49999249	0.00000000	31.99434000	3.19881900
129.69999248	0.00000000	31.20078000	3.15575800
129.89999246	0.00000000	30.03814000	3.15575800
130.09999245	0.00000000	28.92470000	3.15575800
130.29999244	0.00000000	28.50024000	3.15575800
130.49999243	0.00000000	28.45718000	3.15575800
130.69999242	0.00000000	28.50024000	3.15575800
130.89999241	0.00000000	28.92470000	3.19881900
131.09999239	0.00000000	30.03814000	3.57406500
131.29999238	0.00000000	31.15157000	4.26919300
131.49999237	0.00000000	31.57603000	4.26919300
131.69999236	0.00000000	31.61909000	3.53100400
131.89999235	0.00000000	31.57603000	2.78051200
132.09999233	0.00000000	31.20078000	1.99311000
132.29999232	0.00000000	30.45644000	1.61786400
132.49999231	0.00000000	30.08120000	1.61786400
132.69999230	0.00000000	30.03814000	1.99311000
132.89999229	0.00000000	30.03814000	2.78051200
133.09999227	0.00000000	30.03814000	3.53100400
133.29999226	0.00000000	30.03814000	4.31840500
133.49999225	0.00000000	30.03814000	4.69365100
133.69999224	0.00000000	30.03814000	4.73671200
133.89999223	0.00000000	30.03814000	4.73671200
134.09999222	0.00000000	30.03814000	4.69365100
134.29999220	0.00000000	30.03814000	4.26919300
134.49999219	0.00000000	30.03814000	3.15575800
134.69999218	0.00000000	30.08120000	2.04232300
134.89999217	0.00000000	30.45644000	1.61786400
135.09999216	0.00000000	31.20078000	1.57480300
135.29999214	0.00000000	31.57603000	1.61786400
135.49999213	0.00000000	31.57603000	1.99311000
135.69999212	0.00000000	31.20078000	2.78051200
135.89999211	0.00000000	30.45644000	3.53100400
136.09999210	0.00000000	30.03814000	4.31840500
136.29999208	0.00000000	29.61983000	4.69365100
136.49999207	0.00000000	28.92470000	4.73671200
136.69999206	0.00000000	28.92470000	4.73671200
136.89999205	0.00000000	29.61983000	4.69365100
137.09999204	0.00000000	29.99508000	4.31840500
137.29999203	0.00000000	30.08120000	3.53100400
137.49999201	0.00000000	30.45644000	2.78051200
137.69999200	0.00000000	31.20078000	1.99311000
137.89999199	0.00000000	31.57603000	1.61786400
138.09999198	0.00000000	31.61909000	1.57480300
138.29999197	0.00000000	31.57603000	1.61786400
138.49999195	0.00000000	31.20078000	1.99311000
138.69999194	0.00000000	30.41338000	2.73745100
138.89999193	0.00000000	29.66289000	3.15575800
139.09999192	0.00000000	28.87549000	3.57406500
139.29999191	0.00000000	28.54946000	4.31840500
139.49999189	0.00000000	28.87549000	4.69365100
139.69999188	0.00000000	29.61983000	4.73671200
139.89999187	0.00000000	30.03814000	4.73671200
140.09999186	0.00000000	30.45644000	4.69365100
140.29999185	0.00000000	31.20078000	4.26919300
140.49999184	0.00000000	31.57603000	3.15575800
140.69999182	0.00000000	31.57603000	2.04232300
140.89999181	0.00000000	31.20078000	1.61786400
141.09999180	0.00000000	30.45644000	1.57480300
141.29999179	0.00000000	30.08120000	1.61786400
141.49999178	0.00000000	30.03814000	2.04232300
141.69999176	0.00000000	30.03814000	3.15575800
141.89999175	0.00000000	30.03814000	4.26919300
142.09999174	0.00000000	30.08120000	4.73671200
142.29999173	0.00000000	30.45644000	5.11195900
142.49999172	0.00000000	31.20078000	5.47490100
142.69999170	0.00000000	31.52682000	5.11195900
142.89999169	0.00000000	31.20078000	4.73671200
143.09999168	0.00000000	30.45644000	4.26919300
143.29999167	0.00000000	30.08120000	3.15575800
143.49999166	0.00000000	30.03814000	2.04232300
143.69999165	0.00000000	30.03814000	1.61786400
143.89999163	0.00000000	30.03814000	1.61786400
144.09999162	0.00000000	30.03814000	1.99311000
144.29999161	0.00000000	30.03814000	2.78051200
144.49999160	0.00000000	30.03814000	3.53100400
144.69999159	0.00000000	30.08120000	4.31840500
144.89999157	0.00000000	30.41338000	4.69365100
145.09999156	0.00000000	30.78248000	4.73671200
145.29999155	0.00000000	30.41338000	4.73671200
145.49999154	0.00000000	30.08120000	4.69365100
145.69999153	0.00000000	29.99508000	4.31840500
145.89999151	0.00000000	29.66289000	3.57406500
146.09999150	0.00000000	29.29380000	3.15575800
146.29999149	0.00000000	29.66289000	2.73745100
146.49999148	0.00000000	29.99508000	1.99311000
146.69999147	0.00000000	30.08120000	1.66707700
146.89999146	0.00000000	30.45644000	1.99311000
147.09999144	0.00000000	31.20078000	2.78051200
147.29999143	0.00000000	31.52682000	3.53100400
147.49999142	0.00000000	31.20078000	4.31840500
147.69999141	0.00000000	30.45644000	4.69365100
147.89999140	0.00000000	30.08120000	4.69365100
148.09999138	0.00000000	29.99508000	4.31840500
148.29999137	0.00000000	29.61983000	3.57406500
148.49999136	0.00000000	28.92470000	3.19881900
148.69999135	0.00000000	28.92470000	3.15575800
148.89999134	0.00000000	29.61983000	3.15575800
149.09999132	0.00000000	29.99508000	3.15575800
149.29999131	0.00000000	30.03814000	3.11269700
149.49999130	0.00000000	30.08120000	2.78051200
149.69999129	0.00000000	30.45644000	2.41141700
149.89999128	0.00000000	31.15157000	2.78051200
150.09999127	0.00000000	31.15157000	3.15575800
150.29999125	0.00000000	30.45644000	3.53100400
150.49999124	0.00000000	30.08120000	3.94315900
150.69999123	0.00000000	30.03814000	3.94931100
150.89999122	0.00000000	30.03814000	4.31840500
151.09999121	0.00000000	30.03814000	4.26919300
151.29999119	0.00000000	30.03814000	3.57406500
151.49999118	0.00000000	30.03814000	3.19881900
151.69999117	0.00000000	30.03814000	3.15575800
151.89999116	0.00000000	30.03814000	3.15575800
152.09999115	0.00000000	30.08120000	3.15575800
152.29999113	0.00000000	30.41338000	3.15575800
152.49999112	0.00000000	30.82554000	3.15575800
152.69999111	0.00000000	30.78863000	3.15575800
152.89999110	0.00000000	30.82554000	3.15575800
153.09999109	0.00000000	30.41338000	3.15575800
153.29999108	0.00000000	30.08120000	3.15575800
153.49999106	0.00000000	30.03814000	3.15575800
153.69999105	0.00000000	30.03814000	3.15575800
153.89999104	0.00000000	30.03814000	3.15575800
154.09999103	0.00000000	29.99508000	3.15575800
154.29999102	0.00000000	29.61983000	3.15575800
154.49999100	0.00000000	28.92470000	3.15575800
154.69999099	0.00000000	28.92470000	3.15575800
154.89999098	0.00000000	29.61983000	3.15575800
155.09999097	0.00000000	29.99508000	3.15575800
155.29999096	0.00000000	30.03814000	3.15575800
155.49999094	0.00000000	30.03814000	3.15575800
155.69999093	0.00000000	30.08120000	3.15575800
155.89999092	0.00000000	30.41338000	3.15575800
156.09999091	0.00000000	30.78248000	3.19881900
156.29999090	0.00000000	30.41338000	3.57406500
156.49999089	0.00000000	30.08120000	4.31840500
156.69999087	0.00000000	30.03814000	4.69365100
156.89999086	0.00000000	29.99508000	4.73671200
157.09999085	0.00000000	29.61983000	4.73671200
157.29999084	0.00000000	28.87549000	4.73671200
157.49999083	0.00000000	28.54946000	4.69365100
157.69999081	0.00000000	28.87549000	4.31840500
157.89999080	0.00000000	29.61983000	3.57406500
158.09999079	0.00000000	29.99508000	3.15575800
158.29999078	0.00000000	30.08120000	2.78051200
158.49999077	0.00000000	30.41338000	2.36835600
158.69999075	0.00000000	30.78248000	2.40526600
158.89999074	0.00000000	30.41338000	2.36835600
159.09999073	0.00000000	30.08120000	2.78051200
159.29999072	0.00000000	30.03814000	3.11269700
159.49999071	0.00000000	30.03814000	3.19881900
159.69999070	0.00000000	30.03814000	3.57406500
159.89999068	0.00000000	29.99508000	4.31840500
160.09999067	0.00000000	29.66289000	4.64443900
160.29999066	0.00000000	29.29380000	4.31840500
160.49999065	0.00000000	29.66289000	3.57406500
160.69999064	0.00000000	29.99508000	3.19881900
160.89999062	0.00000000	30.03814000	3.15575800
161.09999061	0.00000000	30.03814000	3.11269700
161.29999060	0.00000000	30.03814000	2.78051200
161.49999059	0.00000000	30.03814000	2.41141700
161.69999058	0.00000000	30.03814000	2.78051200
161.89999056	0.00000000	30.03814000	3.11269700
162.09999055	0.00000000	30.03814000	3.15575800
162.29999054	0.00000000	30.03814000	3.19881900
162.49999053	0.00000000	30.03814000	3.53100400
162.69999052	0.00000000	30.03814000	3.94315900
162.89999051	0.00000000	30.03814000	3.90625000
163.09999049	0.00000000	29.99508000	3.94315900
163.29999048	0.00000000	29.61983000	3.53100400
163.49999047	0.00000000	28.87549000	3.19881900
163.69999046	0.00000000	28.50024000	3.15575800
163.89999045	0.00000000	28.45718000	3.15575800
164.09999043	0.00000000	28.45718000	3.15575800
164.29999042	0.00000000	28.50024000	3.15575800
164.49999041	0.00000000	28.87549000	3.15575800
164.69999040	0.00000000	29.61983000	3.15575800
164.89999039	0.00000000	29.99508000	3.15575800
165.09999037	0.00000000	30.03814000	3.15575800
165.29999036	0.00000000	30.03814000	3.15575800
165.49999035	0.00000000	30.03814000	3.15575800
165.69999034	0.00000000	30.03814000	3.15575800
165.89999033	0.00000000	30.03814000	3.15575800
166.09999032	0.00000000	29.99508000	3.15575800
166.29999030	0.00000000	29.61983000	3.15575800
166.49999029	0.00000000	28.87549000	3.15575800
166.69999028	0.00000000	28.50024000	3.15575800
166.89999027	0.00000000	28.45718000	3.15575800
167.09999026	0.00000000	28.45718000	3.15575800
167.29999024	0.00000000	28.50024000	3.15575800
167.49999023	0.00000000	28.87549000	3.15575800
167.69999022	0.00000000	29.61983000	3.15575800
167.89999021	0.00000000	29.99508000	3.15575800
168.09999020	0.00000000	30.03814000	3.15575800
168.29999018	0.00000000	30.03814000	3.15575800
168.49999017	0.00000000	30.03814000	3.15575800
168.69999016	0.00000000	30.03814000	3.15575800
168.89999015	0.00000000	30.03814000	3.15575800
169.09999014	0.00000000	29.99508000	3.15575800
169.29999013	0.00000000	29.66289000	3.15575800
169.49999011	0.00000000	29.29380000	3.15575800
169.69999010	0.00000000	29.61983000	3.15575800
169.89999009	0.00000000	29.61983000	3.15575800
170.09999008	0.00000000	29.29380000	3.15575800
170.29999007	0.00000000	29.66289000	3.15575800
170.49999005	0.00000000	29.99508000	3.15575800
170.69999004	0.00000000	30.03814000	3.15575800
170.89999003	0.00000000	30.03814000	3.15575800
171.09999002	0.00000000	30.03814000	3.15575800
171.29999001	0.00000000	30.03814000	3.15575800
171.49998999	0.00000000	30.03814000	3.15575800
171.69998998	0.00000000	30.03814000	3.15575800
171.89998997	0.00000000	30.03814000	3.15575800
172.09998996	0.00000000	30.03814000	3.15575800
172.29998995	0.00000000	29.99508000	3.15575800
172.49998994	0.00000000	29.66289000	3.15575800
172.69998992	0.00000000	29.29380000	3.15575800
172.89998991	0.00000000	29.66289000	3.15575800
173.09998990	0.00000000	29.99508000	3.15575800
173.29998989	0.00000000	30.03814000	3.15575800
173.49998988	0.00000000	30.03814000	3.15575800
173.69998986	0.00000000	30.03814000	3.15575800
173.89998985	0.00000000	30.03814000	3.15575800
174.09998984	0.00000000	30.03814000	3.15575800
174.29998983	0.00000000	30.03814000	3.15575800
174.49998982	0.00000000	30.03814000	3.15575800
174.69998980	0.00000000	30.03814000	3.15575800
174.89998979	0.00000000	30.03814000	3.15575800
175.09998978	0.00000000	30.03814000	3.15575800
175.29998977	0.00000000	29.99508000	3.15575800
175.49998976	0.00000000	29.66289000	3.15575800
175.69998975	0.00000000	29.29380000	3.15575800
175.89998973	0.00000000	29.66289000	3.15575800
176.09998972	0.00000000	29.94586000	3.15575800
176.29998971	0.00000000	29.66289000	3.15575800
176.49998970	0.00000000	29.29380000	3.15575800
176.69998969	0.00000000	29.66289000	3.15575800
176.89998967	0.00000000	29.99508000	3.15575800
177.09998966	0.00000000	30.03814000	3.15575800
177.29998965	0.00000000	30.03814000	3.15575800
177.49998964	0.00000000	29.99508000	3.15575800
177.69998963	0.00000000	29.66289000	3.15575800
177.89998961	0.00000000	29.25074000	3.15575800
178.09998960	0.00000000	29.28765000	3.15575800
178.29998959	0.00000000	29.25074000	3.15575800
178.49998958	0.00000000	29.61983000	3.15575800
178.69998957	0.00000000	29.61983000	3.15575800
178.89998956	0.00000000	29.29380000	3.15575800
179.09998954	0.00000000	29.66289000	3.15575800
179.29998953	0.00000000	29.99508000	3.15575800
179.49998952	0.00000000	30.03814000	3.15575800
179.69998951	0.00000000	30.03814000	3.15575800
179.89998950	0.00000000	30.03814000	3.15575800
180.09998948	0.00000000	30.03814000	3.15575800
180.29998947	0.00000000	29.99508000	3.15575800
180.49998946	0.00000000	29.61983000	3.15575800
180.69998945	0.00000000	28.92470000	3.15575800
180.89998944	0.00000000	28.87549000	3.15575800
181.09998942	0.00000000	29.24459000	3.15575800
181.29998941	0.00000000	29.20767000	3.15575800
181.49998940	0.00000000	29.28765000	3.15575800
181.69998939	0.00000000	29.20767000	3.15575800
181.89998938	0.00000000	29.28765000	3.15575800
182.09998937	0.00000000	29.25074000	3.15575800
182.29998935	0.00000000	29.66289000	3.15575800
182.49998934	0.00000000	29.99508000	3.15575800
182.69998933	0.00000000	30.03814000	3.15575800
182.89998932	0.00000000	30.03814000	3.15575800
183.09998931	0.00000000	30.03814000	3.11269700
183.29998929	0.00000000	30.03814000	2.78051200
183.49998928	0.00000000	30.03814000	2.41141700
183.69998927	0.00000000	29.99508000	2.78051200
183.89998926	0.00000000	29.61983000	3.11269700
184.09998925	0.00000000	28.87549000	3.15575800
184.29998923	0.00000000	28.50024000	3.15575800
184.49998922	0.00000000	28.45718000	3.15575800
184.69998921	0.00000000	28.45718000	3.15575800
184.89998920	0.00000000	28.50024000	3.15575800
185.09998919	0.00000000	28.87549000	3.15575800
185.29998918	0.00000000	29.61983000	3.15575800
185.49998916	0.00000000	29.99508000	3.15575800
185.69998915	0.00000000	30.03814000	3.15575800
185.89998914	0.00000000	30.03814000	3.11269700
186.09998913	0.00000000	30.03814000	2.73745100
186.29998912	0.00000000	30.03814000	2.04232300
186.49998910	0.00000000	30.03814000	2.04232300
186.69998909	0.00000000	29.99508000	2.73745100
186.89998908	0.00000000	29.61983000	3.11269700
187.09998907	0.00000000	28.92470000	3.15575800
187.29998906	0.00000000	28.87549000	3.15575800
187.49998904	0.00000000	29.20152000	3.19881900
187.69998903	0.00000000	28.87549000	3.53100400
187.89998902	0.00000000	28.92470000	3.90009800
188.09998901	0.00000000	29.61983000	3.53100400
188.29998900	0.00000000	29.99508000	3.19881900
188.49998899	0.00000000	30.03814000	3.11269700
188.69998897	0.00000000	30.03814000	2.78051200
188.89998896	0.00000000	30.03814000	2.36835600
189.09998895	0.00000000	30.03814000	2.36220500
189.29998894	0.00000000	29.99508000	1.99311000
189.49998893	0.00000000	29.66289000	2.04232300
189.69998891	0.00000000	29.25074000	2.73745100
189.89998890	0.00000000	29.24459000	3.11269700
190.09998889	0.00000000	28.83243000	3.15575800
190.29998888	0.00000000	28.54946000	3.15575800
190.49998887	0.00000000	28.87549000	3.15575800
190.69998885	0.00000000	29.57062000	3.15575800
190.89998884	0.00000000	29.61983000	3.15575800
191.09998883	0.00000000	29.29380000	3.15575800
191.29998882	0.00000000	29.66289000	3.15575800
191.49998881	0.00000000	29.99508000	3.15575800
191.69998880	0.00000000	30.03814000	3.15575800
191.89998878	0.00000000	30.03814000	3.15575800
192.09998877	0.00000000	30.03814000	3.15575800
192.29998876	0.00000000	29.99508000	3.15575800
192.49998875	0.00000000	29.66289000	3.15575800
192.69998874	0.00000000	29.25074000	3.15575800
192.89998872	0.00000000	29.24459000	3.11269700
193.09998871	0.00000000	28.83243000	2.78051200
193.29998870	0.00000000	28.50024000	2.41141700
193.49998869	0.00000000	28.45718000	2.78051200
193.69998868	0.00000000	28.45718000	3.11269700
193.89998866	0.00000000	28.50024000	3.15575800
194.09998865	0.00000000	28.87549000	3.15575800
194.29998864	0.00000000	29.61983000	3.15575800
194.49998863	0.00000000	29.99508000	3.15575800
194.69998862	0.00000000	30.03814000	3.15575800
194.89998861	0.00000000	30.03814000	3.15575800
195.09998859	0.00000000	30.03814000	3.15575800
195.29998858	0.00000000	29.99508000	3.15575800
195.49998857	0.00000000	29.61983000	3.15575800
195.69998856	0.00000000	28.87549000	3.15575800
195.89998855	0.00000000	28.50024000	3.15575800
196.09998853	0.00000000	28.45718000	3.15575800
