Time	Channel A	Channel B	Channel C
(us)	(V)	(mV)	(mV)

-4.49999956	0.00000000	-9.48572700	-9.47342500
-4.29999957	0.00000000	-9.48572700	-9.47342500
-4.09999958	0.00000000	-9.48572700	-9.47342500
-3.89999959	0.00000000	-9.48572700	-9.47342500
-3.69999960	0.00000000	-9.48572700	-9.47342500
-3.49999962	0.00000000	-9.48572700	-9.47342500
-3.29999963	0.00000000	-9.48572700	-9.47342500
-3.09999964	0.00000000	-9.48572700	-9.47342500
-2.89999965	0.00000000	-9.48572700	-9.47342500
-2.69999966	0.00000000	-9.48572700	-9.47342500
-2.49999968	0.00000000	-9.48572700	-9.47342500
-2.29999969	0.00000000	-9.48572700	-9.47342500
-2.09999970	0.00000000	-9.48572700	-9.47342500
-1.89999971	0.00000000	-9.48572700	-9.47342500
-1.69999972	0.00000000	-9.48572700	-9.47342500
-1.49999973	0.00000000	-9.48572700	-9.47342500
-1.29999975	0.00000000	-9.48572700	-9.47342500
-1.09999976	0.00000000	-9.48572700	-9.47342500
-0.89999977	0.00000000	-9.48572700	-9.47342500
-0.69999978	0.00000000	-9.48572700	-9.47342500
-0.49999979	0.00000000	-9.48572700	-9.47342500
-0.29999981	0.15871060	-9.48572700	-9.47342500
-0.09999982	0.63668800	-9.48572700	-9.47342500
0.10000017	0.95533960	-9.48572700	-9.47342500
0.30000016	1.11466500	-9.48572700	-9.47342500
0.50000015	0.95533960	-9.48572700	-9.47342500
0.70000013	0.47736220	-9.48572700	-9.47342500
0.90000012	-0.15871060	-9.48572700	-9.47342500
1.10000011	-1.27399100	-9.48572700	-9.47342500
1.30000010	-2.07062000	-9.48572700	-9.47342500
1.50000009	-2.70792300	-9.48572700	-9.47342500
1.70000008	-2.54859700	-9.48572700	-9.47342500
1.90000006	-1.75196900	-9.48572700	-9.43036400
2.10000005	0.00000000	-9.48572700	-9.05511800
2.30000004	2.07062000	-9.48572700	-8.35998900
2.50000003	3.98191400	-9.48572700	-8.35998900
2.70000002	5.25652100	-9.48572700	-9.05511800
2.90000000	5.09719500	-9.48572700	-9.43036400
3.09999999	3.50393700	-9.48572700	-9.47342500
3.29999998	0.79601380	-9.52879000	-9.47342500
3.49999997	-2.70792300	-9.86097400	-9.47342500
3.69999996	-5.73449800	-10.23007000	-9.47342500
3.89999994	-7.64579200	-9.86097400	-9.47342500
4.09999993	-7.80511800	-9.52879000	-9.43036400
4.29999992	-5.73449800	-9.48572700	-9.05511800
4.49999991	-2.22994600	-9.44266700	-8.31077700
4.69999990	2.07062000	-9.11048200	-7.98474400
4.89999989	6.21247500	-8.74138700	-8.31077700
5.09999987	8.92039900	-9.15354300	-9.05511800
5.29999986	9.39837600	-9.81791200	-9.47342500
5.49999985	7.48646600	-10.23007000	-9.84867000
5.69999984	3.66326300	-9.86097400	-10.21161000
5.89999983	-1.11466500	-9.52879000	-9.84867000
6.09999981	-5.57517200	-9.48572700	-9.51648500
6.29999980	-8.60174700	-9.48572700	-9.43036400
6.49999979	-9.39837600	-9.48572700	-9.05511800
6.69999978	-7.96444400	-9.48572700	-8.31077700
6.89999977	-4.45989200	-9.48572700	-7.93553100
7.09999975	-0.15871060	-9.48572700	-7.93553100
7.29999974	3.98191400	-9.48572700	-8.31077700
7.49999973	6.84916400	-9.48572700	-9.05511800
7.69999972	7.80511800	-9.48572700	-9.43036400
7.89999971	6.84916400	-9.48572700	-9.47342500
8.09999970	4.30056600	-9.52879000	-9.47342500
8.29999968	0.95533960	-9.86097400	-9.47342500
8.49999967	-2.07062000	-10.23007000	-9.47342500
8.69999966	-4.30056600	-9.86097400	-9.47342500
8.89999965	-5.25652100	-9.52879000	-9.47342500
9.09999964	-4.61921700	-9.48572700	-9.47342500
9.29999962	-3.18590100	-9.48572700	-9.47342500
9.49999961	-1.11466500	-9.48572700	-9.47342500
9.69999960	0.63668800	-9.48572700	-9.47342500
9.89999959	1.91129400	-9.48572700	-9.47342500
10.09999958	2.54859700	-9.48572700	-9.47342500
10.29999956	2.38927200	-9.48572700	-9.47342500
10.49999955	1.59264300	-9.48572700	-9.47342500
10.69999954	0.79601380	-9.48572700	-9.47342500
10.89999953	0.00000000	-9.48572700	-9.47342500
11.09999952	-0.63668800	-9.48572700	-9.47342500
11.29999951	-0.95533960	-9.48572700	-9.47342500
11.49999949	-0.95533960	-9.48572700	-9.47342500
11.69999948	-0.79601380	-9.48572700	-9.47342500
11.89999947	-0.47736220	-9.48572700	-9.47342500
12.09999946	-0.15871060	-9.48572700	-9.47342500
12.29999945	-0.15871060	-9.48572700	-9.47342500
12.49999943	0.00000000	-9.48572700	-9.47342500
12.69999942	0.00000000	-9.52879000	-9.47342500
12.89999941	0.00000000	-9.86097400	-9.47342500
13.09999940	0.15871060	-10.27313000	-9.47342500
13.29999939	0.15871060	-10.23622000	-9.47342500
13.49999937	0.00000000	-10.27313000	-9.47342500
13.69999936	0.00000000	-9.86097400	-9.47342500
13.89999935	0.00000000	-9.52879000	-9.47342500
14.09999934	-0.15871060	-9.48572700	-9.47342500
14.29999933	-0.15871060	-9.48572700	-9.47342500
14.49999932	-0.15871060	-9.48572700	-9.47342500
14.69999930	0.00000000	-9.48572700	-9.47342500
14.89999929	0.00000000	-9.48572700	-9.47342500
15.09999928	0.00000000	-9.48572700	-9.47342500
15.29999927	0.00000000	-9.48572700	-9.47342500
15.49999926	0.00000000	-9.48572700	-9.47342500
15.69999924	0.00000000	-9.48572700	-9.47342500
15.89999923	0.00000000	-9.48572700	-9.47342500
16.09999922	0.00000000	-9.48572700	-9.47342500
16.29999921	0.00000000	-9.48572700	-9.47342500
16.49999920	-0.15871060	-9.48572700	-9.47342500
16.69999919	-0.15871060	-9.48572700	-9.47342500
16.89999917	0.00000000	-9.44266700	-9.47342500
17.09999916	-0.15871060	-9.06742000	-9.47342500
17.29999915	0.00000000	-8.32308000	-9.47342500
17.49999914	0.00000000	-7.94783400	-9.47342500
17.69999913	0.00000000	-7.94783400	-9.47342500
17.89999911	0.00000000	-8.32308000	-9.47342500
18.09999910	0.00000000	-9.15354300	-9.47342500
18.29999909	0.00000000	-10.32234000	-9.47342500
18.49999908	0.00000000	-12.27239000	-9.47342500
18.69999907	0.00000000	-14.13632000	-9.47342500
18.89999905	0.00000000	-15.29897000	-9.47342500
19.09999904	0.00000000	-15.29897000	-9.47342500
19.29999903	0.00000000	-14.13632000	-9.47342500
19.49999902	0.00000000	-12.18012000	-9.47342500
19.69999901	0.00000000	-9.35039300	-9.47342500
19.89999900	0.00000000	-5.53026500	-9.47342500
20.09999898	0.00000000	-1.34719500	-9.47342500
20.29999897	0.00000000	0.93503930	-9.47342500
20.49999896	0.00000000	0.93503930	-9.47342500
20.69999895	0.00000000	-1.48253000	-9.47342500
20.89999894	0.00000000	-6.92052100	-9.47342500
21.09999892	0.00000000	-14.22859000	-9.47342500
21.29999891	0.00000000	-21.62278000	-9.47342500
21.49999890	0.00000000	-27.72515000	-9.47342500
21.69999889	0.00000000	-30.73942000	-9.47342500
21.89999888	0.00000000	-28.74631000	-9.47342500
22.09999886	0.00000000	-22.13952000	-9.47342500
22.29999885	0.00000000	-11.62648000	-9.47342500
22.49999884	0.00000000	1.07037400	-9.47342500
22.69999883	0.00000000	12.61073000	-9.47342500
22.89999882	0.00000000	19.91265000	-9.43036400
23.09999881	0.00000000	21.03223000	-9.05511800
23.29999879	0.00000000	15.12672000	-8.31077700
23.49999878	0.00000000	2.70669300	-7.93553100
23.69999877	0.00000000	-14.32087000	-7.89247000
23.89999876	0.00000000	-32.04970000	-7.89247000
24.09999875	0.00000000	-46.28445000	-7.89247000
24.29999873	0.00000000	-53.13115000	-7.93553100
24.49999872	0.00000000	-49.96924000	-8.35998900
24.69999871	0.00000000	-36.84793000	-9.51648500
24.89999870	0.00000000	-16.75074000	-11.04823000
25.09999869	0.00000000	5.67790300	-12.62918000
25.29999867	0.00000000	25.73203000	-14.11786000
25.49999866	0.00000000	38.38583000	-14.85605000
25.69999865	0.00000000	39.92372000	-14.07480000
25.89999864	0.00000000	29.87205000	-12.11860000
26.09999863	0.00000000	10.56225000	-8.96284400
26.29999862	0.00000000	-13.76722000	-4.77977300
26.49999860	0.00000000	-37.30930000	-0.92888770
26.69999859	0.00000000	-54.71210000	1.39640700
26.89999858	0.00000000	-62.05708000	2.13459600
27.09999857	0.00000000	-57.82480000	0.46751960
27.29999856	0.00000000	-43.12254000	-4.17691900
27.49999854	0.00000000	-21.11835000	-11.14050000
27.69999853	0.00000000	3.21112200	-18.85458000
27.89999852	0.00000000	24.05881000	-25.77510000
28.09999851	0.00000000	36.85408000	-29.95817000
28.29999850	0.00000000	38.81028000	-29.91511000
28.49999848	0.00000000	29.96432000	-25.17839000
28.69999847	0.00000000	12.61073000	-15.88336000
28.89999846	0.00000000	-8.97514600	-3.57406500
29.09999845	0.00000000	-29.49065000	8.36614100
29.29999844	0.00000000	-44.66043000	17.24286000
29.49999843	0.00000000	-52.05462000	21.05069000
29.69999841	0.00000000	-50.52288000	18.31324000
29.89999840	0.00000000	-40.47121000	9.38730200
30.09999839	0.00000000	-24.32333000	-4.17691900
30.29999838	0.00000000	-6.18233200	-19.97416000
30.49999837	0.00000000	9.35654400	-34.23351000
30.69999835	0.00000000	19.86959000	-43.52854000
30.89999834	0.00000000	23.77584000	-46.17987000
31.09999833	0.00000000	20.33710000	-41.06791000
31.29999832	0.00000000	11.11590000	-28.34030000
31.49999831	0.00000000	-1.67322800	-11.00517000
31.69999829	0.00000000	-15.21284000	6.78518600
31.89999828	0.00000000	-26.83932000	21.46899000
32.09999827	0.00000000	-34.23966000	29.97047000
32.29999826	0.00000000	-36.19587000	30.34572000
32.49999825	0.00000000	-32.74483000	22.63164000
32.69999824	0.00000000	-24.65551000	8.27386800
32.89999822	0.00000000	-14.22859000	-9.84867000
33.09999821	0.00000000	-3.75861200	-28.00812000
33.29999820	0.00000000	4.74901600	-41.90453000
33.49999819	0.00000000	9.40575800	-48.87426000
33.69999818	0.00000000	9.44881800	-47.33637000
33.89999816	0.00000000	5.21653500	-37.72145000
34.09999815	0.00000000	-2.09153500	-22.66855000
34.29999814	0.00000000	-10.59916000	-5.29035400
34.49999813	0.00000000	-18.32554000	10.59301000
34.69999812	0.00000000	-23.67741000	21.79503000
34.89999810	0.00000000	-24.88312000	26.43947000
35.09999809	0.00000000	-21.86270000	22.95768000
35.29999808	0.00000000	-16.50467000	12.59227000
35.49999807	0.00000000	-9.95324800	-2.04232300
35.69999806	0.00000000	-4.18307100	-17.50738000
35.89999805	0.00000000	-0.64591530	-30.24729000
36.09999803	0.00000000	0.51673230	-37.95522000
36.29999802	0.00000000	-1.02116100	-38.33046000
36.49999801	0.00000000	-4.87819900	-31.49606000
36.69999800	0.00000000	-9.90403500	-19.97416000
36.89999799	0.00000000	-15.25591000	-6.91437000
37.09999797	0.00000000	-19.06988000	4.27534400
37.29999796	0.00000000	-19.86343000	10.87598000
37.49999795	0.00000000	-17.95029000	12.03863000
37.69999794	0.00000000	-13.71801000	7.43725300
37.89999793	0.00000000	-8.37229300	-1.75319900
38.09999791	0.00000000	-3.75861200	-12.45079000
38.29999790	0.00000000	-1.02116100	-21.64739000
38.49999789	0.00000000	-0.59670270	-26.24877000
38.69999788	0.00000000	-2.13459600	-25.13533000
38.89999787	0.00000000	-5.25344500	-19.04527000
39.09999786	0.00000000	-9.48572700	-9.84867000
39.29999784	0.00000000	-13.76107000	-0.68897630
39.49999783	0.00000000	-17.25517000	5.85629900
39.69999782	0.00000000	-19.58046000	7.76328700
39.89999781	0.00000000	-19.95571000	4.69980300
40.09999780	0.00000000	-18.41781000	-2.63902500
40.29999778	0.00000000	-15.29897000	-12.58612000
40.49999777	0.00000000	-11.06668000	-22.10876000
40.69999776	0.00000000	-6.83439900	-27.87278000
40.89999775	0.00000000	-3.67249000	-28.29724000
41.09999774	0.00000000	-1.71628900	-23.68971000
41.29999772	0.00000000	-0.92888770	-15.18824000
41.49999771	0.00000000	-1.75935000	-4.87204700
41.69999770	0.00000000	-4.09079700	4.32455700
41.89999769	0.00000000	-7.90477300	9.34424200
42.09999768	0.00000000	-11.76181000	9.43036400
42.29999767	0.00000000	-14.51156000	5.20423200
42.49999765	0.00000000	-16.50467000	-2.12844500
42.69999764	0.00000000	-17.25517000	-10.96211000
42.89999763	0.00000000	-16.87992000	-19.04527000
43.09999762	0.00000000	-15.34203000	-24.06496000
43.29999761	0.00000000	-13.02288000	-25.27067000
43.49999759	0.00000000	-10.69144000	-22.57628000
43.69999758	0.00000000	-8.37229300	-16.85531000
43.89999757	0.00000000	-6.83439900	-9.93479300
44.09999756	0.00000000	-6.36687900	-3.75861200
44.29999755	0.00000000	-6.32381900	0.46751960
44.49999753	0.00000000	-6.32381900	1.71628900
44.69999752	0.00000000	-6.32381900	0.23991140
44.89999751	0.00000000	-6.32381900	-2.46063000
45.09999750	0.00000000	-6.36687900	-6.35457700
45.29999749	0.00000000	-6.83439900	-10.53765000
45.49999748	0.00000000	-8.37229300	-13.65650000
45.69999746	0.00000000	-10.69144000	-15.23130000
45.89999745	0.00000000	-13.11516000	-15.23130000
46.09999744	0.00000000	-16.22785000	-13.74262000
46.29999743	0.00000000	-19.58046000	-11.42347000
46.49999742	0.00000000	-21.06914000	-9.09817800
46.69999740	0.00000000	-19.90650000	-6.72982200
46.89999739	0.00000000	-16.41855000	-4.87204700
47.09999738	0.00000000	-10.97441000	-4.08464600
47.29999737	0.00000000	-4.78592500	-4.82283400
47.49999736	0.00000000	1.02731300	-6.36072800
47.69999734	0.00000000	5.21653500	-8.31077700
47.89999733	0.00000000	6.32997000	-10.62992000
48.09999732	0.00000000	3.58636800	-12.58612000
48.29999731	0.00000000	-2.60211600	-14.11786000
48.49999730	0.00000000	-11.10974000	-14.85605000
48.69999729	0.00000000	-19.95571000	-14.07480000
48.89999727	0.00000000	-26.88238000	-12.16781000
49.09999726	0.00000000	-29.95817000	-9.42421200
49.29999725	0.00000000	-28.42027000	-6.36072800
49.49999724	0.00000000	-22.60704000	-3.66633800
49.69999723	0.00000000	-13.76107000	-2.17150600
49.89999721	0.00000000	-4.09079700	-2.54675200
50.09999720	0.00000000	4.01082700	-4.87204700
50.29999719	0.00000000	8.98129900	-8.31077700
50.49999718	0.00000000	8.98129900	-12.21087000
50.69999717	0.00000000	4.01082700	-15.64960000
50.89999715	0.00000000	-4.09079700	-17.97490000
51.09999714	0.00000000	-13.71801000	-18.30093000
51.29999713	0.00000000	-22.13952000	-16.39395000
51.49999712	0.00000000	-26.83932000	-12.53691000
51.69999711	0.00000000	-27.21457000	-7.93553100
51.89999710	0.00000000	-23.39444000	-3.70939900
52.09999708	0.00000000	-16.09252000	-1.01501000
52.29999707	0.00000000	-8.04010800	-0.55364170
52.49999706	0.00000000	-1.06422200	-1.75319900
52.69999705	0.00000000	3.12500000	-4.45989200
52.89999704	0.00000000	3.16806100	-8.67987200
53.09999702	0.00000000	-0.59670270	-12.49385000
53.29999701	0.00000000	-6.41609200	-15.27436000
53.49999700	0.00000000	-12.93061000	-16.76919000
53.69999699	0.00000000	-18.69463000	-16.39395000
53.89999698	0.00000000	-21.35212000	-14.11786000
54.09999696	0.00000000	-20.65084000	-11.04823000
54.29999695	0.00000000	-16.79380000	-7.98474400
54.49999694	0.00000000	-11.10974000	-5.70866100
54.69999693	0.00000000	-5.71481200	-5.29035400
54.89999692	0.00000000	-2.22687000	-6.36072800
55.09999691	0.00000000	-1.02116100	-7.89247000
55.29999689	0.00000000	-2.22687000	-9.42421200
55.49999688	0.00000000	-5.67175200	-10.58686000
55.69999687	0.00000000	-10.64838000	-10.91289000
55.89999686	0.00000000	-15.21284000	-10.16855000
56.09999685	0.00000000	-17.95029000	-8.26771600
56.29999683	0.00000000	-18.37475000	-6.40378900
56.49999682	0.00000000	-16.83686000	-5.24729300
56.69999681	0.00000000	-13.76107000	-5.33341500
56.89999680	0.00000000	-9.90403500	-7.24040300
57.09999679	0.00000000	-6.45915300	-10.67298000
57.29999677	0.00000000	-4.13385800	-14.11786000
57.49999676	0.00000000	-3.75861200	-16.81225000
57.69999675	0.00000000	-5.25344500	-17.88263000
57.89999674	0.00000000	-7.90477300	-16.35089000
58.09999673	0.00000000	-10.59916000	-12.49385000
58.29999672	0.00000000	-12.55536000	-7.47416300
58.49999670	0.00000000	-13.76107000	-2.08538400
58.69999669	0.00000000	-14.09326000	2.09768700
58.89999668	0.00000000	-13.34276000	3.62942900
59.09999667	0.00000000	-11.44193000	2.04847400
59.29999666	0.00000000	-9.57800100	-2.59596400
59.49999664	0.00000000	-8.37229300	-9.51648500
59.69999663	0.00000000	-7.94783400	-16.76919000
59.89999662	0.00000000	-7.99704600	-22.20103000
60.09999661	0.00000000	-8.74138700	-24.48326000
60.29999660	0.00000000	-10.27313000	-23.32062000
60.49999658	0.00000000	-11.39887000	-18.25787000
60.69999657	0.00000000	-12.18012000	-10.58686000
60.89999656	0.00000000	-12.13706000	-2.12844500
61.09999655	0.00000000	-11.02362000	4.74286400
61.29999654	0.00000000	-9.52879000	7.85556000
61.49999653	0.00000000	-8.37229300	6.74212600
61.69999651	0.00000000	-7.94783400	2.09153500
61.89999650	0.00000000	-7.94783400	-5.24729300
62.09999649	0.00000000	-8.37229300	-13.69956000
62.29999648	0.00000000	-9.57800100	-21.03838000
62.49999647	0.00000000	-11.44193000	-25.63976000
62.69999645	0.00000000	-13.34276000	-26.42716000
62.89999644	0.00000000	-14.13632000	-22.95152000
63.09999643	0.00000000	-14.13632000	-16.43701000
63.29999642	0.00000000	-13.34276000	-8.35998900
63.49999641	0.00000000	-11.39887000	-1.01501000
63.69999639	0.00000000	-9.11048200	4.04773600
63.89999638	0.00000000	-6.79133800	6.36687900
64.09999637	0.00000000	-5.29650500	5.16117100
64.29999636	0.00000000	-5.25344500	0.60285430
64.49999635	0.00000000	-6.41609200	-5.94242000
64.69999634	0.00000000	-8.32308000	-12.53691000
64.89999632	0.00000000	-10.64838000	-18.35015000
65.09999631	0.00000000	-12.60458000	-22.15797000
65.29999630	0.00000000	-14.13632000	-22.61934000
65.49999629	0.00000000	-14.88066000	-20.34941000
65.69999628	0.00000000	-14.09326000	-16.48622000
65.89999626	0.00000000	-12.22933000	-11.42347000
66.09999625	0.00000000	-9.90403500	-6.44685000
66.29999624	0.00000000	-8.04010800	-2.50369100
66.49999623	0.00000000	-7.25270600	-0.17839570
66.69999622	0.00000000	-7.99704600	0.65206690
66.89999620	0.00000000	-9.48572700	-0.13533460
67.09999619	0.00000000	-11.02362000	-2.04232300
67.29999618	0.00000000	-12.18012000	-4.77977300
67.49999617	0.00000000	-12.55536000	-7.89247000
67.69999616	0.00000000	-12.18012000	-11.04823000
67.89999615	0.00000000	-10.97441000	-14.16092000
68.09999613	0.00000000	-9.06742000	-16.85531000
68.29999612	0.00000000	-6.79133800	-18.43627000
68.49999611	0.00000000	-5.29650500	-18.81152000
68.69999610	0.00000000	-5.29650500	-17.97490000
68.89999609	0.00000000	-6.87746000	-15.23130000
69.09999607	0.00000000	-9.95324800	-11.00517000
69.29999606	0.00000000	-13.76107000	-6.35457700
69.49999605	0.00000000	-16.83686000	-2.08538400
69.69999604	0.00000000	-18.41781000	0.97810030
69.89999603	0.00000000	-18.37475000	2.13459600
70.09999601	0.00000000	-16.41855000	0.93503930
70.29999600	0.00000000	-12.55536000	-2.50369100
70.49999599	0.00000000	-7.94783400	-7.51722400
70.69999598	0.00000000	-3.67249000	-12.53691000
70.89999597	0.00000000	-0.59670270	-16.85531000
71.09999596	0.00000000	0.51673230	-19.88189000
71.29999594	0.00000000	-1.06422200	-20.66929000
71.49999593	0.00000000	-5.29650500	-18.71924000
71.69999592	0.00000000	-11.06668000	-14.90526000
71.89999591	0.00000000	-16.83686000	-9.89173200
72.09999590	0.00000000	-21.06914000	-5.29035400
72.29999588	0.00000000	-22.65010000	-2.17765700
72.49999587	0.00000000	-21.53666000	-0.97194880
72.69999586	0.00000000	-18.41781000	-1.75319900
72.89999585	0.00000000	-13.76107000	-4.03543200
73.09999584	0.00000000	-8.32308000	-7.47416300
73.29999582	0.00000000	-3.34030500	-10.49459000
73.49999581	0.00000000	0.09842519	-12.11860000
73.69999580	0.00000000	0.51673230	-12.53691000
73.89999579	0.00000000	-1.71628900	-12.16166000
74.09999578	0.00000000	-5.21038300	-11.04823000
74.29999577	0.00000000	-9.48572700	-9.89173200
74.49999575	0.00000000	-13.71801000	-9.14124000
74.69999574	0.00000000	-16.83686000	-8.77829600
74.89999573	0.00000000	-18.37475000	-9.55954600
75.09999572	0.00000000	-17.99951000	-11.00517000
75.29999571	0.00000000	-15.71727000	-12.16166000
75.49999569	0.00000000	-12.64764000	-12.53691000
75.69999568	0.00000000	-9.57800100	-12.07554000
75.89999567	0.00000000	-7.25270600	-10.11934000
76.09999566	0.00000000	-6.41609200	-6.68676100
76.29999565	0.00000000	-6.36687900	-3.29109200
76.49999563	0.00000000	-6.79133800	-0.97194880
76.69999562	0.00000000	-7.94783400	-0.63976370
76.89999561	0.00000000	-9.44266700	-2.54675200
77.09999560	0.00000000	-10.59916000	-6.40378900
77.29999559	0.00000000	-11.02362000	-11.04823000
77.49999558	0.00000000	-11.02362000	-15.69882000
77.69999556	0.00000000	-10.69144000	-19.50664000
77.89999555	0.00000000	-10.32234000	-21.04454000
78.09999554	0.00000000	-10.73450000	-19.92495000
78.29999553	0.00000000	-11.44193000	-16.76919000
78.49999552	0.00000000	-12.27239000	-11.74951000
78.69999550	0.00000000	-12.97982000	-5.61638700
78.89999549	0.00000000	-13.34276000	-0.59670270
79.09999548	0.00000000	-12.55536000	2.51599400
79.29999547	0.00000000	-11.02362000	3.25418300
79.49999546	0.00000000	-9.06742000	0.97810030
79.69999544	0.00000000	-6.79133800	-3.24803100
79.89999543	0.00000000	-5.29650500	-8.31077700
80.09999542	0.00000000	-5.25344500	-13.69956000
80.29999541	0.00000000	-6.41609200	-17.93184000
80.49999540	0.00000000	-8.37229300	-19.93110000
80.69999539	0.00000000	-11.06668000	-19.93110000
80.89999537	0.00000000	-13.76107000	-18.01796000
81.09999536	0.00000000	-15.67421000	-14.53617000
81.29999535	0.00000000	-16.46161000	-10.67298000
81.49999534	0.00000000	-15.67421000	-6.72982200
81.69999533	0.00000000	-13.76107000	-3.29109200
81.89999531	0.00000000	-11.06668000	-0.92888770
82.09999530	0.00000000	-8.37229300	-0.13533460
82.29999529	0.00000000	-6.41609200	-0.55364170
82.49999528	0.00000000	-5.25344500	-2.50369100
82.69999527	0.00000000	-5.29650500	-5.93626900
82.89999525	0.00000000	-6.79133800	-9.42421200
83.09999524	0.00000000	-9.06742000	-12.62918000
83.29999523	0.00000000	-10.97441000	-15.69882000
83.49999522	0.00000000	-12.18012000	-18.01796000
83.69999521	0.00000000	-12.60458000	-18.76845000
83.89999520	0.00000000	-12.60458000	-17.97490000
84.09999518	0.00000000	-12.22933000	-15.27436000
84.29999517	0.00000000	-11.48499000	-11.42347000
84.49999516	0.00000000	-11.10974000	-7.51722400
84.69999515	0.00000000	-11.02362000	-3.62327700
84.89999514	0.00000000	-10.64838000	-0.59670270
85.09999512	0.00000000	-9.90403500	0.60285430
85.29999511	0.00000000	-9.52879000	-0.17839570
85.49999510	0.00000000	-9.44266700	-2.54675200
85.69999509	0.00000000	-9.06742000	-6.82209600
85.89999508	0.00000000	-8.32308000	-12.16166000
86.09999506	0.00000000	-7.99704600	-16.76919000
86.29999505	0.00000000	-8.32308000	-19.50664000
86.49999504	0.00000000	-9.11048200	-19.93110000
86.69999503	0.00000000	-9.90403500	-18.35015000
86.89999502	0.00000000	-11.10974000	-14.85605000
87.09999501	0.00000000	-12.60458000	-9.84867000
87.29999499	0.00000000	-13.76107000	-4.87204700
87.49999498	0.00000000	-14.09326000	-0.97194880
87.69999497	0.00000000	-13.34276000	0.93503930
87.89999496	0.00000000	-11.44193000	0.55979330
88.09999495	0.00000000	-9.52879000	-2.17765700
88.29999493	0.00000000	-7.94783400	-6.77903500
88.49999492	0.00000000	-6.79133800	-12.11860000
88.69999491	0.00000000	-6.41609200	-16.35089000
88.89999490	0.00000000	-6.83439900	-18.35015000
89.09999489	0.00000000	-8.37229300	-18.35015000
89.29999487	0.00000000	-10.59916000	-16.35089000
89.49999486	0.00000000	-12.18012000	-12.11860000
89.69999485	0.00000000	-13.02288000	-6.82209600
89.89999484	0.00000000	-13.76107000	-2.59596400
90.09999483	0.00000000	-13.71801000	-0.59670270
90.29999482	0.00000000	-12.60458000	-0.63976370
90.49999480	0.00000000	-11.06668000	-2.97121000
90.69999479	0.00000000	-9.52879000	-7.56028500
90.89999478	0.00000000	-8.37229300	-12.49385000
91.09999477	0.00000000	-7.99704600	-16.39395000
91.29999476	0.00000000	-8.32308000	-18.30093000
91.49999474	0.00000000	-9.06742000	-17.92569000
91.69999473	0.00000000	-9.48572700	-15.18824000
91.89999472	0.00000000	-9.90403500	-10.62992000
92.09999471	0.00000000	-10.64838000	-5.66560000
92.29999470	0.00000000	-10.97441000	-2.17765700
92.49999468	0.00000000	-10.69144000	-0.63976370
92.69999467	0.00000000	-10.32234000	-1.43946800
92.89999466	0.00000000	-10.73450000	-4.87204700
93.09999465	0.00000000	-11.44193000	-9.43036400
93.29999464	0.00000000	-12.22933000	-13.69956000
93.49999463	0.00000000	-12.60458000	-16.72613000
93.69999461	0.00000000	-12.64764000	-17.50738000
93.89999460	0.00000000	-12.55536000	-15.60654000
94.09999459	0.00000000	-11.76181000	-12.16166000
94.29999458	0.00000000	-9.86097400	-7.93553100
94.49999457	0.00000000	-7.94783400	-4.08464600
94.69999455	0.00000000	-6.36687900	-1.80241100
94.89999454	0.00000000	-5.25344500	-1.39025600
95.09999453	0.00000000	-5.25344500	-3.37721400
95.29999452	0.00000000	-6.45915300	-7.14812900
95.49999451	0.00000000	-8.74138700	-11.74336000
95.69999449	0.00000000	-11.85408000	-15.18824000
95.89999448	0.00000000	-14.56078000	-16.76919000
96.09999447	0.00000000	-16.87992000	-16.39395000
96.29999446	0.00000000	-17.99951000	-14.11786000
96.49999445	0.00000000	-17.21210000	-11.04823000
96.69999444	0.00000000	-14.92372000	-7.93553100
96.89999442	0.00000000	-11.39887000	-5.24729300
97.09999441	0.00000000	-7.57258800	-3.75246000
97.29999440	0.00000000	-4.09079700	-4.12770700
97.49999439	0.00000000	-2.17765700	-6.36072800
97.69999438	0.00000000	-2.13459600	-9.00590400
97.89999436	0.00000000	-3.71555100	-11.00517000
98.09999435	0.00000000	-6.79133800	-12.53691000
98.29999434	0.00000000	-10.64838000	-13.28125000
98.49999433	0.00000000	-14.13632000	-12.53691000
98.69999432	0.00000000	-16.87992000	-11.04823000
98.89999430	0.00000000	-18.41781000	-9.51648500
99.09999429	0.00000000	-18.37475000	-8.35998900
99.29999428	0.00000000	-16.46161000	-7.93553100
99.49999427	0.00000000	-13.02288000	-7.89247000
99.69999426	0.00000000	-9.52879000	-7.89247000
99.89999425	0.00000000	-6.36687900	-7.89247000
100.09999423	0.00000000	-3.71555100	-7.89247000
100.29999422	0.00000000	-2.55290300	-7.89247000
100.49999421	0.00000000	-3.29724400	-7.89247000
100.69999420	0.00000000	-5.21038300	-7.89247000
100.89999419	0.00000000	-7.94783400	-7.93553100
101.09999417	0.00000000	-11.02362000	-8.35998900
101.29999416	0.00000000	-13.76107000	-9.51648500
101.49999415	0.00000000	-15.71727000	-11.00517000
101.69999414	0.00000000	-16.87992000	-12.16166000
101.89999413	0.00000000	-16.83686000	-12.58612000
102.09999411	0.00000000	-15.29897000	-12.58612000
102.29999410	0.00000000	-12.64764000	-12.11860000
102.49999409	0.00000000	-9.95324800	-10.53765000
102.69999408	0.00000000	-7.94783400	-7.89247000
102.89999407	0.00000000	-6.41609200	-5.24729300
103.09999406	0.00000000	-5.62869100	-3.70939900
103.29999404	0.00000000	-6.04084600	-3.66633800
103.49999403	0.00000000	-7.16043300	-4.82283400
103.69999402	0.00000000	-9.11048200	-6.77903500
103.89999401	0.00000000	-11.02362000	-9.47342500
104.09999400	0.00000000	-12.60458000	-12.16781000
104.29999398	0.00000000	-13.76107000	-14.07480000
104.49999397	0.00000000	-14.13632000	-14.85605000
104.69999396	0.00000000	-13.76107000	-14.07480000
104.89999395	0.00000000	-12.60458000	-12.16781000
105.09999394	0.00000000	-11.06668000	-9.47342500
105.29999392	0.00000000	-9.52879000	-6.82209600
105.49999391	0.00000000	-8.37229300	-5.24729300
105.69999390	0.00000000	-7.99704600	-4.82898600
105.89999389	0.00000000	-8.37229300	-5.24729300
106.09999388	0.00000000	-9.48572700	-6.77903500
106.29999387	0.00000000	-10.64838000	-9.05511800
106.49999385	0.00000000	-11.44193000	-10.96211000
106.69999384	0.00000000	-12.22933000	-12.16166000
106.89999383	0.00000000	-12.55536000	-12.53691000
107.09999382	0.00000000	-12.18012000	-12.11860000
107.29999381	0.00000000	-11.06668000	-10.58686000
107.49999379	0.00000000	-9.90403500	-8.35383800
107.69999378	0.00000000	-9.11048200	-6.82209600
107.89999377	0.00000000	-8.37229300	-6.40378900
108.09999376	0.00000000	-8.41535400	-6.77903500
108.29999375	0.00000000	-9.52879000	-7.93553100
108.49999374	0.00000000	-11.02362000	-9.47342500
108.69999372	0.00000000	-12.18012000	-11.00517000
108.89999371	0.00000000	-12.60458000	-12.07554000
109.09999370	0.00000000	-12.60458000	-11.79257000
109.29999369	0.00000000	-12.18012000	-10.68528000
109.49999368	0.00000000	-11.06668000	-10.25467000
109.69999366	0.00000000	-9.90403500	-9.38115100
109.89999365	0.00000000	-9.11048200	-7.89247000
110.09999364	0.00000000	-8.32308000	-6.40378900
110.29999363	0.00000000	-7.99704600	-5.66560000
110.49999362	0.00000000	-8.37229300	-6.40378900
110.69999360	0.00000000	-9.52879000	-7.89247000
110.89999359	0.00000000	-11.02362000	-9.47342500
111.09999358	0.00000000	-12.18012000	-11.00517000
111.29999357	0.00000000	-12.60458000	-12.16166000
111.49999356	0.00000000	-12.60458000	-12.53691000
111.69999355	0.00000000	-12.22933000	-12.21087000
111.89999353	0.00000000	-11.44193000	-11.42347000
112.09999352	0.00000000	-10.69144000	-10.62992000
112.29999351	0.00000000	-9.90403500	-9.47342500
112.49999350	0.00000000	-9.52879000	-8.35998900
112.69999349	0.00000000	-9.48572700	-7.93553100
112.89999347	0.00000000	-9.52879000	-7.89247000
113.09999346	0.00000000	-9.90403500	-7.93553100
113.29999345	0.00000000	-10.64838000	-8.31077700
113.49999344	0.00000000	-11.02362000	-9.05511800
113.69999343	0.00000000	-11.06668000	-9.43036400
113.89999341	0.00000000	-11.06668000	-9.47342500
114.09999340	0.00000000	-11.06668000	-9.47342500
114.29999339	0.00000000	-11.06668000	-9.47342500
114.49999338	0.00000000	-11.02362000	-9.51648500
114.69999337	0.00000000	-10.64838000	-9.89173200
114.89999336	0.00000000	-9.90403500	-10.62992000
115.09999334	0.00000000	-9.52879000	-10.95595000
115.29999333	0.00000000	-9.52879000	-10.67298000
115.49999332	0.00000000	-9.86097400	-10.26698000
115.69999331	0.00000000	-10.27313000	-10.25467000
115.89999330	0.00000000	-10.27928000	-9.79945900
116.09999328	0.00000000	-10.69144000	-9.09817800
116.29999327	0.00000000	-11.02362000	-8.31077700
116.49999326	0.00000000	-11.06668000	-7.93553100
116.69999325	0.00000000	-11.06668000	-7.89247000
116.89999324	0.00000000	-11.06668000	-7.93553100
117.09999322	0.00000000	-11.06668000	-8.31077700
117.29999321	0.00000000	-11.02362000	-9.09817800
117.49999320	0.00000000	-10.64838000	-9.84867000
117.69999319	0.00000000	-9.86097400	-10.62992000
117.89999318	0.00000000	-9.11048200	-11.00517000
118.09999317	0.00000000	-8.37229300	-11.04823000
118.29999315	0.00000000	-8.37229300	-11.04823000
118.49999314	0.00000000	-9.11048200	-11.00517000
118.69999313	0.00000000	-9.90403500	-10.62992000
118.89999312	0.00000000	-11.06668000	-9.84867000
119.09999311	0.00000000	-12.22933000	-9.09817800
119.29999309	0.00000000	-12.97982000	-8.31077700
119.49999308	0.00000000	-13.39198000	-7.93553100
119.69999307	0.00000000	-12.97982000	-7.89247000
119.89999306	0.00000000	-12.22933000	-7.89247000
120.09999305	0.00000000	-11.02362000	-7.93553100
120.29999303	0.00000000	-9.52879000	-8.31077700
120.49999302	0.00000000	-8.37229300	-9.05511800
120.69999301	0.00000000	-7.94783400	-9.43036400
120.89999300	0.00000000	-7.94783400	-9.51648500
121.09999299	0.00000000	-8.32308000	-9.89173200
121.29999298	0.00000000	-9.11048200	-10.62992000
121.49999296	0.00000000	-9.90403500	-11.00517000
121.69999295	0.00000000	-11.10974000	-11.00517000
121.89999294	0.00000000	-12.55536000	-10.62992000
122.09999293	0.00000000	-13.34276000	-9.89173200
122.29999292	0.00000000	-13.02288000	-9.47342500
122.49999290	0.00000000	-12.64764000	-9.05511800
122.69999289	0.00000000	-12.18012000	-8.31077700
122.89999288	0.00000000	-11.06668000	-7.93553100
123.09999287	0.00000000	-9.90403500	-7.89247000
123.29999286	0.00000000	-9.11048200	-7.93553100
123.49999284	0.00000000	-8.32308000	-8.35998900
123.69999283	0.00000000	-7.99704600	-9.47342500
123.89999282	0.00000000	-8.32308000	-10.58686000
124.09999281	0.00000000	-9.11048200	-11.00517000
124.29999280	0.00000000	-9.86097400	-11.04823000
124.49999279	0.00000000	-10.64838000	-11.04823000
124.69999277	0.00000000	-11.06668000	-11.04823000
124.89999276	0.00000000	-11.48499000	-11.00517000
125.09999275	0.00000000	-12.22933000	-10.62992000
125.29999274	0.00000000	-12.60458000	-9.84867000
125.49999273	0.00000000	-12.60458000	-9.14124000
125.69999271	0.00000000	-12.22933000	-8.68602300
125.89999270	0.00000000	-11.44193000	-8.67987200
126.09999269	0.00000000	-10.69144000	-8.26771600
126.29999268	0.00000000	-9.86097400	-7.98474400
126.49999267	0.00000000	-9.11048200	-8.31077700
126.69999265	0.00000000	-8.37229300	-9.05511800
126.89999264	0.00000000	-8.37229300	-9.43036400
127.09999263	0.00000000	-9.11048200	-9.51648500
127.29999262	0.00000000	-9.90403500	-9.89173200
127.49999261	0.00000000	-11.06668000	-10.62992000
127.69999260	0.00000000	-12.18012000	-11.00517000
127.89999258	0.00000000	-12.60458000	-11.00517000
128.09999257	0.00000000	-12.64764000	-10.62992000
128.29999256	0.00000000	-12.60458000	-9.89173200
128.49999255	0.00000000	-12.18012000	-9.47342500
128.69999254	0.00000000	-11.02362000	-9.05511800
128.89999252	0.00000000	-9.52879000	-8.35998900
129.09999251	0.00000000	-8.37229300	-8.35998900
129.29999250	0.00000000	-7.99704600	-9.05511800
129.49999249	0.00000000	-8.37229300	-9.43036400
129.69999248	0.00000000	-9.52879000	-9.51648500
129.89999246	0.00000000	-11.02362000	-9.84867000
130.09999245	0.00000000	-12.18012000	-10.21161000
130.29999244	0.00000000	-12.60458000	-9.84867000
130.49999243	0.00000000	-12.64764000	-9.51648500
130.69999242	0.00000000	-12.60458000	-9.47342500
130.89999241	0.00000000	-12.18012000	-9.43036400
131.09999239	0.00000000	-11.06668000	-9.05511800
131.29999238	0.00000000	-9.95324800	-8.35998900
131.49999237	0.00000000	-9.52879000	-8.35998900
131.69999236	0.00000000	-9.48572700	-9.05511800
131.89999235	0.00000000	-9.52879000	-9.47342500
132.09999233	0.00000000	-9.90403500	-9.89173200
132.29999232	0.00000000	-10.64838000	-10.62992000
132.49999231	0.00000000	-11.02362000	-11.00517000
132.69999230	0.00000000	-11.06668000	-11.00517000
132.89999229	0.00000000	-11.06668000	-10.62992000
133.09999227	0.00000000	-11.06668000	-9.84867000
133.29999226	0.00000000	-11.06668000	-9.09817800
133.49999225	0.00000000	-11.06668000	-8.31077700
133.69999224	0.00000000	-11.06668000	-7.93553100
133.89999223	0.00000000	-11.06668000	-7.89247000
134.09999222	0.00000000	-11.06668000	-7.93553100
134.29999220	0.00000000	-11.06668000	-8.31077700
134.49999219	0.00000000	-11.06668000	-9.09817800
134.69999218	0.00000000	-11.06668000	-9.84867000
134.89999217	0.00000000	-11.02362000	-10.62992000
135.09999216	0.00000000	-10.64838000	-11.00517000
135.29999214	0.00000000	-9.90403500	-11.04823000
135.49999213	0.00000000	-9.52879000	-11.00517000
135.69999212	0.00000000	-9.52879000	-10.62992000
135.89999211	0.00000000	-9.90403500	-9.84867000
136.09999210	0.00000000	-10.64838000	-9.09817800
136.29999208	0.00000000	-11.06668000	-8.31077700
136.49999207	0.00000000	-11.48499000	-7.93553100
136.69999206	0.00000000	-12.22933000	-7.89247000
136.89999205	0.00000000	-12.55536000	-7.93553100
137.09999204	0.00000000	-12.22933000	-8.31077700
137.29999203	0.00000000	-11.48499000	-9.09817800
137.49999201	0.00000000	-11.06668000	-9.79945900
137.69999200	0.00000000	-10.64838000	-10.21161000
137.89999199	0.00000000	-9.90403500	-9.89173200
138.09999198	0.00000000	-9.52879000	-9.93479300
138.29999197	0.00000000	-9.52879000	-10.62992000
138.49999195	0.00000000	-9.90403500	-10.95595000
138.69999194	0.00000000	-10.64838000	-10.62992000
138.89999193	0.00000000	-11.06668000	-9.89173200
139.09999192	0.00000000	-11.48499000	-9.47342500
139.29999191	0.00000000	-12.22933000	-9.05511800
139.49999189	0.00000000	-12.55536000	-8.31077700
139.69999188	0.00000000	-12.22933000	-7.93553100
139.89999187	0.00000000	-11.44193000	-7.93553100
140.09999186	0.00000000	-10.69144000	-8.31077700
140.29999185	0.00000000	-9.90403500	-9.05511800
140.49999184	0.00000000	-9.52879000	-9.47342500
140.69999182	0.00000000	-9.52879000	-9.89173200
140.89999181	0.00000000	-9.90403500	-10.62992000
141.09999180	0.00000000	-10.64838000	-11.00517000
141.29999179	0.00000000	-11.02362000	-11.04823000
141.49999178	0.00000000	-11.10974000	-11.00517000
141.69999176	0.00000000	-11.44193000	-10.58686000
141.89999175	0.00000000	-11.81102000	-9.47342500
142.09999174	0.00000000	-11.44193000	-8.35998900
142.29999173	0.00000000	-11.06668000	-7.93553100
142.49999172	0.00000000	-10.64838000	-7.89247000
142.69999170	0.00000000	-9.90403500	-7.89247000
142.89999169	0.00000000	-9.52879000	-7.93553100
143.09999168	0.00000000	-9.52879000	-8.35998900
143.29999167	0.00000000	-9.90403500	-9.47342500
143.49999166	0.00000000	-10.64838000	-10.58686000
143.69999165	0.00000000	-11.02362000	-11.00517000
143.89999163	0.00000000	-11.06668000	-11.00517000
144.09999162	0.00000000	-11.06668000	-10.62992000
144.29999161	0.00000000	-11.02362000	-9.89173200
144.49999160	0.00000000	-10.64838000	-9.47342500
144.69999159	0.00000000	-9.90403500	-9.05511800
144.89999157	0.00000000	-9.52879000	-8.31077700
145.09999156	0.00000000	-9.48572700	-7.93553100
145.29999155	0.00000000	-9.52879000	-7.93553100
145.49999154	0.00000000	-9.90403500	-8.31077700
145.69999153	0.00000000	-10.64838000	-9.09817800
145.89999151	0.00000000	-11.02362000	-9.84867000
146.09999150	0.00000000	-11.06668000	-10.62992000
146.29999149	0.00000000	-11.06668000	-11.00517000
146.49999148	0.00000000	-11.06668000	-11.04823000
146.69999147	0.00000000	-11.02362000	-11.04823000
146.89999146	0.00000000	-10.64838000	-11.00517000
147.09999144	0.00000000	-9.90403500	-10.62992000
147.29999143	0.00000000	-9.52879000	-9.84867000
147.49999142	0.00000000	-9.48572700	-9.09817800
147.69999141	0.00000000	-9.52879000	-8.31077700
147.89999140	0.00000000	-9.90403500	-7.93553100
148.09999138	0.00000000	-10.64838000	-7.93553100
148.29999137	0.00000000	-11.02362000	-8.31077700
148.49999136	0.00000000	-11.06668000	-9.05511800
148.69999135	0.00000000	-11.06668000	-9.43036400
148.89999134	0.00000000	-11.06668000	-9.47342500
149.09999132	0.00000000	-11.06668000	-9.47342500
149.29999131	0.00000000	-11.06668000	-9.51648500
149.49999130	0.00000000	-11.02362000	-9.84867000
149.69999129	0.00000000	-10.64838000	-10.21161000
149.89999128	0.00000000	-9.90403500	-9.84867000
150.09999127	0.00000000	-9.57800100	-9.51648500
150.29999125	0.00000000	-9.86097400	-9.43036400
150.49999124	0.00000000	-10.27313000	-9.05511800
150.69999123	0.00000000	-10.27928000	-8.35998900
150.89999122	0.00000000	-10.69144000	-8.35998900
151.09999121	0.00000000	-11.02362000	-9.05511800
151.29999119	0.00000000	-11.06668000	-9.43036400
151.49999118	0.00000000	-11.06668000	-9.51648500
151.69999117	0.00000000	-11.06668000	-9.84867000
151.89999116	0.00000000	-11.06668000	-10.21161000
152.09999115	0.00000000	-11.06668000	-9.84867000
152.29999113	0.00000000	-11.02362000	-9.51648500
152.49999112	0.00000000	-10.64838000	-9.47342500
152.69999111	0.00000000	-9.90403500	-9.47342500
152.89999110	0.00000000	-9.52879000	-9.43036400
153.09999109	0.00000000	-9.48572700	-9.09817800
153.29999108	0.00000000	-9.52879000	-8.72908400
153.49999106	0.00000000	-9.90403500	-9.09817800
153.69999105	0.00000000	-10.64838000	-9.43036400
153.89999104	0.00000000	-11.06668000	-9.47342500
154.09999103	0.00000000	-11.48499000	-9.47342500
154.29999102	0.00000000	-12.22933000	-9.47342500
154.49999100	0.00000000	-12.55536000	-9.47342500
154.69999099	0.00000000	-12.22933000	-9.47342500
154.89999098	0.00000000	-11.48499000	-9.47342500
155.09999097	0.00000000	-11.06668000	-9.47342500
155.29999096	0.00000000	-10.69144000	-9.51648500
155.49999094	0.00000000	-10.27928000	-9.84867000
155.69999093	0.00000000	-10.27313000	-10.21161000
155.89999092	0.00000000	-9.86097400	-9.84867000
156.09999091	0.00000000	-9.57800100	-9.51648500
156.29999090	0.00000000	-9.90403500	-9.47342500
156.49999089	0.00000000	-10.64838000	-9.47342500
156.69999087	0.00000000	-11.02362000	-9.43036400
156.89999086	0.00000000	-11.06668000	-9.05511800
157.09999085	0.00000000	-11.10974000	-8.31077700
157.29999084	0.00000000	-11.44193000	-7.98474400
157.49999083	0.00000000	-11.81102000	-8.31077700
157.69999081	0.00000000	-11.44193000	-9.05511800
157.89999080	0.00000000	-11.10974000	-9.43036400
158.09999079	0.00000000	-11.06668000	-9.47342500
158.29999078	0.00000000	-11.02362000	-9.51648500
158.49999077	0.00000000	-10.64838000	-9.84867000
158.69999075	0.00000000	-9.95324800	-10.25467000
158.89999074	0.00000000	-9.95324800	-10.21776000
159.09999073	0.00000000	-10.64838000	-10.25467000
159.29999072	0.00000000	-11.02362000	-9.84867000
159.49999071	0.00000000	-11.06668000	-9.47342500
159.69999070	0.00000000	-11.06668000	-9.05511800
159.89999068	0.00000000	-11.06668000	-8.31077700
160.09999067	0.00000000	-11.06668000	-7.93553100
160.29999066	0.00000000	-11.06668000	-7.93553100
160.49999065	0.00000000	-11.06668000	-8.31077700
160.69999064	0.00000000	-11.06668000	-9.05511800
160.89999062	0.00000000	-11.06668000	-9.43036400
161.09999061	0.00000000	-11.06668000	-9.47342500
161.29999060	0.00000000	-11.06668000	-9.51648500
161.49999059	0.00000000	-11.06668000	-9.84867000
161.69999058	0.00000000	-11.06668000	-10.21161000
161.89999056	0.00000000	-11.06668000	-9.84867000
162.09999055	0.00000000	-11.02362000	-9.51648500
162.29999054	0.00000000	-10.64838000	-9.47342500
162.49999053	0.00000000	-9.95324800	-9.47342500
162.69999052	0.00000000	-9.95324800	-9.43036400
162.89999051	0.00000000	-10.64838000	-9.09817800
163.09999049	0.00000000	-11.06668000	-8.72908400
163.29999048	0.00000000	-11.44193000	-9.09817800
163.49999047	0.00000000	-11.85408000	-9.43036400
163.69999046	0.00000000	-11.81717000	-9.47342500
163.89999045	0.00000000	-11.85408000	-9.47342500
164.09999043	0.00000000	-11.44193000	-9.47342500
164.29999042	0.00000000	-11.10974000	-9.47342500
164.49999041	0.00000000	-11.06668000	-9.51648500
164.69999040	0.00000000	-11.02362000	-9.84867000
164.89999039	0.00000000	-10.64838000	-10.21161000
165.09999037	0.00000000	-9.90403500	-9.84867000
165.29999036	0.00000000	-9.57800100	-9.51648500
165.49999035	0.00000000	-9.90403500	-9.47342500
165.69999034	0.00000000	-10.64838000	-9.56569900
165.89999033	0.00000000	-11.02362000	-10.22392000
166.09999032	0.00000000	-11.06668000	-10.90674000
166.29999030	0.00000000	-11.06668000	-9.84867000
166.49999029	0.00000000	-11.06668000	-8.82135800
166.69999028	0.00000000	-11.06668000	-9.09817800
166.89999027	0.00000000	-11.06668000	-9.43036400
167.09999026	0.00000000	-11.06668000	-9.47342500
167.29999024	0.00000000	-11.06668000	-9.47342500
167.49999023	0.00000000	-11.06668000	-9.47342500
167.69999022	0.00000000	-11.06668000	-9.47342500
167.89999021	0.00000000	-11.06668000	-9.47342500
168.09999020	0.00000000	-11.06668000	-9.47342500
168.29999018	0.00000000	-11.02362000	-9.47342500
168.49999017	0.00000000	-10.69144000	-9.47342500
168.69999016	0.00000000	-10.32234000	-9.47342500
168.89999015	0.00000000	-10.69144000	-9.47342500
169.09999014	0.00000000	-11.02362000	-9.47342500
169.29999013	0.00000000	-11.06668000	-9.47342500
169.49999011	0.00000000	-11.06668000	-9.47342500
169.69999010	0.00000000	-11.06668000	-9.47342500
169.89999009	0.00000000	-11.06668000	-9.47342500
170.09999008	0.00000000	-11.06668000	-9.47342500
170.29999007	0.00000000	-11.06668000	-9.47342500
170.49999005	0.00000000	-11.06668000	-9.47342500
170.69999004	0.00000000	-11.06668000	-9.47342500
170.89999003	0.00000000	-11.06668000	-9.47342500
171.09999002	0.00000000	-11.06668000	-9.47342500
171.29999001	0.00000000	-11.06668000	-9.47342500
171.49998999	0.00000000	-11.06668000	-9.47342500
171.69998998	0.00000000	-11.06668000	-9.47342500
171.89998997	0.00000000	-11.06668000	-9.47342500
172.09998996	0.00000000	-11.06668000	-9.47342500
172.29998995	0.00000000	-11.06668000	-9.47342500
172.49998994	0.00000000	-11.06668000	-9.47342500
172.69998992	0.00000000	-11.06668000	-9.47342500
172.89998991	0.00000000	-11.06668000	-9.47342500
173.09998990	0.00000000	-11.06668000	-9.47342500
173.29998989	0.00000000	-11.06668000	-9.47342500
173.49998988	0.00000000	-11.10974000	-9.47342500
173.69998986	0.00000000	-11.44193000	-9.47342500
173.89998985	0.00000000	-11.81102000	-9.47342500
174.09998984	0.00000000	-11.44193000	-9.47342500
174.29998983	0.00000000	-11.10974000	-9.47342500
174.49998982	0.00000000	-11.06668000	-9.47342500
174.69998980	0.00000000	-11.06668000	-9.47342500
174.89998979	0.00000000	-11.06668000	-9.47342500
175.09998978	0.00000000	-11.06668000	-9.47342500
175.29998977	0.00000000	-11.06668000	-9.47342500
175.49998976	0.00000000	-11.06668000	-9.47342500
175.69998975	0.00000000	-11.06668000	-9.47342500
175.89998973	0.00000000	-11.06668000	-9.47342500
176.09998972	0.00000000	-11.06668000	-9.47342500
176.29998971	0.00000000	-11.06668000	-9.47342500
176.49998970	0.00000000	-11.06668000	-9.47342500
176.69998969	0.00000000	-11.06668000	-9.47342500
176.89998967	0.00000000	-11.06668000	-9.47342500
177.09998966	0.00000000	-11.06668000	-9.47342500
177.29998965	0.00000000	-11.06668000	-9.47342500
177.49998964	0.00000000	-11.06668000	-9.47342500
177.69998963	0.00000000	-11.06668000	-9.47342500
177.89998961	0.00000000	-11.06668000	-9.47342500
178.09998960	0.00000000	-11.06668000	-9.47342500
178.29998959	0.00000000	-11.06668000	-9.47342500
178.49998958	0.00000000	-11.06668000	-9.47342500
178.69998957	0.00000000	-11.06668000	-9.47342500
178.89998956	0.00000000	-11.06668000	-9.47342500
179.09998954	0.00000000	-11.06668000	-9.47342500
179.29998953	0.00000000	-11.06668000	-9.47342500
179.49998952	0.00000000	-11.06668000	-9.47342500
179.69998951	0.00000000	-11.06668000	-9.47342500
179.89998950	0.00000000	-11.06668000	-9.47342500
180.09998948	0.00000000	-11.06668000	-9.51648500
180.29998947	0.00000000	-11.06668000	-9.84867000
180.49998946	0.00000000	-11.06668000	-10.21161000
180.69998945	0.00000000	-11.06668000	-9.84867000
180.89998944	0.00000000	-11.06668000	-9.51648500
181.09998942	0.00000000	-11.06668000	-9.47342500
181.29998941	0.00000000	-11.06668000	-9.47342500
181.49998940	0.00000000	-11.06668000	-9.47342500
181.69998939	0.00000000	-11.06668000	-9.47342500
181.89998938	0.00000000	-11.06668000	-9.47342500
182.09998937	0.00000000	-11.06668000	-9.47342500
182.29998935	0.00000000	-11.06668000	-9.47342500
182.49998934	0.00000000	-11.06668000	-9.47342500
182.69998933	0.00000000	-11.06668000	-9.47342500
182.89998932	0.00000000	-11.06668000	-9.47342500
183.09998931	0.00000000	-11.06668000	-9.47342500
183.29998929	0.00000000	-11.06668000	-9.47342500
183.49998928	0.00000000	-11.06668000	-9.51648500
183.69998927	0.00000000	-11.06668000	-9.84867000
183.89998926	0.00000000	-11.06668000	-10.21161000
184.09998925	0.00000000	-11.06668000	-9.84867000
184.29998923	0.00000000	-11.06668000	-9.51648500
184.49998922	0.00000000	-11.06668000	-9.47342500
184.69998921	0.00000000	-11.06668000	-9.47342500
184.89998920	0.00000000	-11.06668000	-9.47342500
185.09998919	0.00000000	-11.06668000	-9.47342500
185.29998918	0.00000000	-11.06668000	-9.47342500
185.49998916	0.00000000	-11.06668000	-9.47342500
185.69998915	0.00000000	-11.06668000	-9.47342500
185.89998914	0.00000000	-11.06668000	-9.51648500
186.09998913	0.00000000	-11.06668000	-9.89173200
186.29998912	0.00000000	-11.06668000	-10.62992000
186.49998910	0.00000000	-11.06668000	-10.95595000
186.69998909	0.00000000	-11.06668000	-10.62992000
186.89998908	0.00000000	-11.06668000	-9.89173200
187.09998907	0.00000000	-11.06668000	-9.51648500
187.29998906	0.00000000	-11.06668000	-9.47342500
187.49998904	0.00000000	-11.06668000	-9.43036400
187.69998903	0.00000000	-11.06668000	-9.05511800
187.89998902	0.00000000	-11.06668000	-8.35998900
188.09998901	0.00000000	-11.06668000	-8.35998900
188.29998900	0.00000000	-11.06668000	-9.05511800
188.49998899	0.00000000	-11.06668000	-9.43036400
188.69998897	0.00000000	-11.06668000	-9.47342500
188.89998896	0.00000000	-11.06668000	-9.51648500
189.09998895	0.00000000	-11.06668000	-9.89173200
189.29998894	0.00000000	-11.06668000	-10.58686000
189.49998893	0.00000000	-11.06668000	-10.58686000
189.69998891	0.00000000	-11.06668000	-9.89173200
189.89998890	0.00000000	-11.06668000	-9.51648500
190.09998889	0.00000000	-11.06668000	-9.47342500
190.29998888	0.00000000	-11.06668000	-9.47342500
190.49998887	0.00000000	-11.06668000	-9.47342500
190.69998885	0.00000000	-11.06668000	-9.47342500
190.89998884	0.00000000	-11.06668000	-9.47342500
191.09998883	0.00000000	-11.06668000	-9.47342500
191.29998882	0.00000000	-11.06668000	-9.47342500
191.49998881	0.00000000	-11.06668000	-9.47342500
191.69998880	0.00000000	-11.06668000	-9.47342500
191.89998878	0.00000000	-11.06668000	-9.47342500
192.09998877	0.00000000	-11.06668000	-9.47342500
192.29998876	0.00000000	-11.06668000	-9.47342500
192.49998875	0.00000000	-11.06668000	-9.47342500
192.69998874	0.00000000	-11.06668000	-9.51648500
192.89998872	0.00000000	-11.06668000	-9.84867000
193.09998871	0.00000000	-11.06668000	-10.21161000
193.29998870	0.00000000	-11.06668000	-9.84867000
193.49998869	0.00000000	-11.10974000	-9.51648500
193.69998868	0.00000000	-11.44193000	-9.47342500
193.89998866	0.00000000	-11.81102000	-9.51648500
194.09998865	0.00000000	-11.44193000	-9.84867000
194.29998864	0.00000000	-11.10974000	-10.21161000
194.49998863	0.00000000	-11.06668000	-9.84867000
194.69998862	0.00000000	-11.06668000	-9.51648500
194.89998861	0.00000000	-11.06668000	-9.47342500
195.09998859	0.00000000	-11.06668000	-9.47342500
195.29998858	0.00000000	-11.06668000	-9.47342500
195.49998857	0.00000000	-11.06668000	-9.47342500
195.69998856	0.00000000	-11.06668000	-9.47342500
195.89998855	0.00000000	-11.06668000	-9.47342500
196.09998853	0.00000000	-11.06668000	-9.47342500
