Time	Channel A	Channel B	Channel C
(us)	(V)	(mV)	(mV)

-4.49999956	0.00000000	11.48499000	-3.15575800
-4.29999957	0.00000000	11.81102000	-3.15575800
-4.09999958	0.00000000	11.48499000	-3.15575800
-3.89999959	0.00000000	11.48499000	-3.15575800
-3.69999960	0.00000000	11.81102000	-3.15575800
-3.49999962	0.00000000	11.44193000	-3.15575800
-3.29999963	0.00000000	11.15896000	-3.15575800
-3.09999964	0.00000000	11.48499000	-3.15575800
-2.89999965	0.00000000	12.18012000	-3.15575800
-2.69999966	0.00000000	12.22933000	-3.15575800
-2.49999968	0.00000000	11.86024000	-3.15575800
-2.29999969	0.00000000	11.85408000	-3.15575800
-2.09999970	0.00000000	11.44193000	-3.15575800
-1.89999971	0.00000000	11.15896000	-3.15575800
-1.69999972	0.00000000	11.44193000	-3.15575800
-1.49999973	0.00000000	11.81102000	-3.15575800
-1.29999975	0.00000000	11.48499000	-3.15575800
-1.09999976	0.00000000	11.48499000	-3.15575800
-0.89999977	0.00000000	11.85408000	-3.15575800
-0.69999978	0.00000000	11.81717000	-3.15575800
-0.49999979	0.00000000	11.89715000	-3.15575800
-0.29999981	0.31803640	11.86024000	-3.15575800
-0.09999982	0.63668800	12.22933000	-3.15575800
0.10000017	0.95533960	12.18012000	-3.15575800
0.30000016	0.95533960	11.48499000	-3.15575800
0.50000015	0.79601380	11.10974000	-3.15575800
0.70000013	0.31803640	11.10974000	-3.15575800
0.90000012	-0.63668800	11.44193000	-3.15575800
1.10000011	-1.59264300	11.81102000	-3.15575800
1.30000010	-2.38927200	11.48499000	-3.15575800
1.50000009	-2.70792300	11.53420000	-3.15575800
1.70000008	-2.38927200	12.22933000	-3.15575800
1.90000006	-1.11466500	12.60458000	-3.15575800
2.10000005	0.79601380	12.64764000	-3.15575800
2.30000004	2.86724900	12.60458000	-3.15575800
2.50000003	4.61921700	12.22933000	-3.15575800
2.70000002	5.41584600	11.48499000	-3.15575800
2.90000000	4.77854300	11.10974000	-3.15575800
3.09999999	2.70792300	11.06668000	-3.19881900
3.29999998	-0.31803640	11.10974000	-3.53100400
3.49999997	-3.66326300	11.44193000	-3.90009800
3.69999996	-6.53112700	11.81102000	-3.53100400
3.89999994	-7.96444400	11.48499000	-3.15575800
4.09999993	-7.32714100	11.53420000	-2.73745100
4.29999992	-4.77854300	12.22933000	-1.99311000
4.49999991	-0.79601380	12.60458000	-1.66707700
4.69999990	3.66326300	12.64764000	-1.99311000
4.89999989	7.32714100	12.60458000	-2.73745100
5.09999987	9.23905000	12.22933000	-3.15575800
5.29999986	8.92039900	11.48499000	-3.57406500
5.49999985	6.37180100	11.10974000	-4.31840500
5.69999984	2.07062000	11.10974000	-4.64443900
5.89999983	-2.70792300	11.44193000	-4.31840500
6.09999981	-6.84916400	11.81102000	-3.57406500
6.29999980	-9.23905000	11.44193000	-3.19881900
6.49999979	-9.23905000	11.15896000	-3.11269700
6.69999978	-7.00848900	11.44193000	-2.78051200
6.89999977	-3.02657500	11.85408000	-2.41141700
7.09999975	1.27399100	11.81717000	-2.78051200
7.29999974	5.09719500	11.85408000	-3.11269700
7.49999973	7.32714100	11.44193000	-3.15575800
7.69999972	7.64579200	11.10974000	-3.15575800
7.89999971	6.05315000	11.06668000	-3.15575800
8.09999970	3.18590100	11.06668000	-3.15575800
8.29999968	-0.15871060	11.06668000	-3.15575800
8.49999967	-3.02657500	11.10974000	-3.15575800
8.69999966	-4.77854300	11.44193000	-3.15575800
8.89999965	-5.09719500	11.85408000	-3.15575800
9.09999964	-4.30056600	11.81717000	-3.15575800
9.29999962	-2.54859700	11.85408000	-3.15575800
9.49999961	-0.47736220	11.44193000	-3.15575800
9.69999960	1.11466500	11.10974000	-3.15575800
9.89999959	2.22994600	11.06668000	-3.15575800
10.09999958	2.54859700	11.06668000	-3.15575800
10.29999956	2.22994600	11.06668000	-3.15575800
10.49999955	1.43331700	11.06668000	-3.15575800
10.69999954	0.47736220	11.06668000	-3.11269700
10.89999953	-0.31803640	11.10974000	-2.78051200
11.09999952	-0.79601380	11.44193000	-2.41141700
11.29999951	-0.95533960	11.81102000	-2.78051200
11.49999949	-0.95533960	11.44193000	-3.11269700
11.69999948	-0.79601380	11.10974000	-3.15575800
11.89999947	-0.47736220	11.06668000	-3.15575800
12.09999946	-0.15871060	11.06668000	-3.15575800
12.29999945	-0.15871060	11.06668000	-3.15575800
12.49999943	0.00000000	11.06668000	-3.15575800
12.69999942	0.00000000	11.06668000	-3.15575800
12.89999941	0.00000000	11.06668000	-3.15575800
13.09999940	0.00000000	11.06668000	-3.15575800
13.29999939	0.15871060	11.06668000	-3.15575800
13.49999937	0.00000000	11.06668000	-3.15575800
13.69999936	0.00000000	11.06668000	-3.15575800
13.89999935	0.00000000	11.06668000	-3.15575800
14.09999934	-0.15871060	11.06668000	-3.15575800
14.29999933	-0.15871060	11.10974000	-3.15575800
14.49999932	0.00000000	11.44193000	-3.15575800
14.69999930	0.00000000	11.85408000	-3.15575800
14.89999929	0.00000000	11.81717000	-3.15575800
15.09999928	0.00000000	11.85408000	-3.15575800
15.29999927	0.00000000	11.44193000	-3.15575800
15.49999926	0.00000000	11.10974000	-3.15575800
15.69999924	0.00000000	11.06668000	-3.15575800
15.89999923	0.00000000	11.06668000	-3.15575800
16.09999922	0.00000000	11.06668000	-3.15575800
16.29999921	0.00000000	11.06668000	-3.15575800
16.49999920	-0.15871060	11.10974000	-3.15575800
16.69999919	-0.15871060	11.48499000	-3.15575800
16.89999917	0.00000000	12.22933000	-3.15575800
17.09999916	0.00000000	12.60458000	-3.15575800
17.29999915	0.00000000	12.69070000	-3.15575800
17.49999914	0.00000000	13.02288000	-3.15575800
17.69999913	0.00000000	13.39198000	-3.15575800
17.89999911	0.00000000	12.97982000	-3.15575800
18.09999910	0.00000000	12.22933000	-3.15575800
18.29999909	0.00000000	11.02362000	-3.15575800
18.49999908	0.00000000	9.48572700	-3.15575800
18.69999907	0.00000000	7.94783400	-3.15575800
18.89999905	0.00000000	6.83439900	-3.15575800
19.09999904	0.00000000	6.83439900	-3.15575800
19.29999903	0.00000000	8.04010800	-3.15575800
19.49999902	0.00000000	10.37155000	-3.15575800
19.69999901	0.00000000	13.89641000	-3.15575800
19.89999900	0.00000000	17.72268000	-3.15575800
20.09999898	0.00000000	21.20448000	-3.15575800
20.29999897	0.00000000	23.02534000	-3.15575800
20.49999896	0.00000000	22.23179000	-3.15575800
20.69999895	0.00000000	18.32554000	-3.15575800
20.89999894	0.00000000	12.13706000	-3.15575800
21.09999892	0.00000000	4.74286400	-3.15575800
21.29999891	0.00000000	-2.56520700	-3.15575800
21.49999890	0.00000000	-7.91092400	-3.15575800
21.69999889	0.00000000	-9.35654400	-3.15575800
21.89999888	0.00000000	-5.81938900	-3.15575800
22.09999886	0.00000000	2.68823800	-3.15575800
22.29999885	0.00000000	14.32087000	-3.15575800
22.49999884	0.00000000	26.69783000	-3.15575800
22.69999883	0.00000000	37.44463000	-3.15575800
22.89999882	0.00000000	43.12869000	-3.15575800
23.09999881	0.00000000	41.59080000	-3.11269700
23.29999879	0.00000000	32.98474000	-2.73745100
23.49999878	0.00000000	18.65157000	-1.99311000
23.69999877	0.00000000	0.83661410	-1.61786400
23.89999876	0.00000000	-16.05561000	-1.57480300
24.09999875	0.00000000	-28.00812000	-1.61786400
24.29999873	0.00000000	-31.36688000	-1.99311000
24.49999872	0.00000000	-24.80315000	-2.78051200
24.69999871	0.00000000	-9.27042300	-3.62327700
24.89999870	0.00000000	11.95251000	-5.15501900
25.09999869	0.00000000	34.32578000	-7.01279500
25.29999867	0.00000000	52.05462000	-7.80019600
25.49999866	0.00000000	60.94365000	-7.80019600
25.69999865	0.00000000	58.94439000	-6.96358300
25.89999864	0.00000000	45.77386000	-4.60137700
26.09999863	0.00000000	24.18799000	-1.15649600
26.29999862	0.00000000	-0.51673230	2.73745100
26.49999860	0.00000000	-22.57013000	6.17618100
26.69999859	0.00000000	-37.22933000	8.45226300
26.89999858	0.00000000	-41.08636000	8.36614100
27.09999857	0.00000000	-32.94783000	5.25344500
27.29999856	0.00000000	-14.80069000	-0.55364170
27.49999854	0.00000000	9.48572700	-7.89247000
27.69999853	0.00000000	33.77214000	-15.23130000
27.89999852	0.00000000	52.01156000	-20.99532000
28.09999851	0.00000000	60.94365000	-23.64665000
28.29999850	0.00000000	59.03051000	-22.02264000
28.49999848	0.00000000	46.70890000	-15.79724000
28.69999847	0.00000000	27.44217000	-5.71481200
28.89999846	0.00000000	5.76402500	6.22539300
29.09999845	0.00000000	-13.58883000	17.37205000
29.29999844	0.00000000	-26.75935000	24.66781000
29.49999843	0.00000000	-31.08391000	26.20571000
29.69999841	0.00000000	-26.10728000	21.51206000
29.89999840	0.00000000	-13.77338000	11.01132000
30.09999839	0.00000000	3.20497000	-3.66633800
30.29999838	0.00000000	20.60777000	-19.46358000
30.49999837	0.00000000	34.61491000	-32.56643000
30.69999835	0.00000000	43.17175000	-39.86220000
30.89999834	0.00000000	44.75270000	-39.44390000
31.09999833	0.00000000	39.40084000	-30.94242000
31.29999832	0.00000000	28.93085000	-16.25861000
31.49999831	0.00000000	15.43430000	1.53174200
31.69999829	0.00000000	1.90083600	18.90994000
31.89999828	0.00000000	-8.19389700	32.01279000
32.09999827	0.00000000	-13.72416000	37.81988000
32.29999826	0.00000000	-14.05635000	35.12549000
32.49999825	0.00000000	-9.07357200	24.66781000
32.69999824	0.00000000	0.17839570	8.45841400
32.89999822	0.00000000	10.97441000	-10.07628000
33.09999821	0.00000000	21.06914000	-26.71629000
33.29999820	0.00000000	28.42027000	-38.33046000
33.49999819	0.00000000	31.53912000	-42.55659000
33.69999818	0.00000000	30.04429000	-38.33046000
33.89999816	0.00000000	24.64936000	-26.75935000
34.09999815	0.00000000	16.92298000	-10.54380000
34.29999814	0.00000000	8.41535400	6.83439900
34.49999813	0.00000000	1.10728300	21.51206000
34.69999812	0.00000000	-3.12500000	30.43184000
34.89999810	0.00000000	-3.16806100	31.96973000
35.09999809	0.00000000	0.64591530	25.83046000
35.29999808	0.00000000	6.74212600	13.52116000
35.49999807	0.00000000	13.34276000	-1.53174200
35.69999806	0.00000000	18.70079000	-16.21555000
35.89999805	0.00000000	21.81348000	-27.36835000
36.09999803	0.00000000	21.44439000	-32.05585000
36.29999802	0.00000000	18.41781000	-29.77977000
36.49999801	0.00000000	13.81028000	-21.69045000
36.69999800	0.00000000	8.79060000	-9.38115100
36.89999799	0.00000000	4.92125900	3.62942900
37.09999797	0.00000000	2.60211600	13.66265000
37.29999796	0.00000000	2.64517700	18.31324000
37.49999795	0.00000000	5.29650500	16.81841000
37.69999794	0.00000000	9.52879000	9.94094400
37.89999793	0.00000000	14.13632000	0.00000000
38.09999791	0.00000000	17.99951000	-9.99015700
38.29999790	0.00000000	19.95571000	-17.28592000
38.49999789	0.00000000	19.99877000	-19.98031000
38.69999788	0.00000000	18.41781000	-17.32899000
38.89999787	0.00000000	15.29897000	-10.40846000
39.09999786	0.00000000	11.06668000	-1.19955700
39.29999784	0.00000000	6.83439900	7.94783400
39.49999783	0.00000000	3.71555100	13.61343000
39.69999782	0.00000000	2.13459600	13.66265000
39.89999781	0.00000000	2.17765700	8.31692900
40.09999780	0.00000000	4.09079700	-0.51058070
40.29999778	0.00000000	7.57258800	-10.45152000
40.49999777	0.00000000	11.44193000	-18.53469000
40.69999776	0.00000000	15.34203000	-22.34867000
40.89999775	0.00000000	18.41781000	-21.22908000
41.09999774	0.00000000	20.04183000	-15.00984000
41.29999772	0.00000000	20.37401000	-5.47490100
41.49999771	0.00000000	19.20522000	4.87819900
41.69999770	0.00000000	16.09252000	12.59227000
41.89999769	0.00000000	12.27239000	16.08022000
42.09999768	0.00000000	8.37229300	14.91142000
42.29999767	0.00000000	5.29650500	8.78444900
42.49999765	0.00000000	3.71555100	0.00000000
42.69999764	0.00000000	3.67249000	-8.87672100
42.89999763	0.00000000	4.83513700	-15.84030000
43.09999762	0.00000000	6.79133800	-19.32825000
43.29999761	0.00000000	9.48572700	-19.00221000
43.49999759	0.00000000	12.13706000	-15.14518000
43.69999758	0.00000000	13.76107000	-9.00590400
43.89999757	0.00000000	14.56078000	-2.08538400
44.09999756	0.00000000	14.97293000	3.67249000
44.29999755	0.00000000	14.60384000	6.82824800
44.49999753	0.00000000	14.27165000	7.24655500
44.69999752	0.00000000	14.22859000	5.38262700
44.89999751	0.00000000	14.22859000	1.90698800
45.09999750	0.00000000	14.18553000	-1.95004900
45.29999749	0.00000000	13.71801000	-5.80093500
45.49999748	0.00000000	12.13706000	-8.50147600
45.69999746	0.00000000	9.44266700	-9.33809000
45.89999745	0.00000000	6.32381900	-8.96284400
46.09999744	0.00000000	3.25418300	-7.38188900
46.29999743	0.00000000	0.97194880	-4.73671200
46.49999742	0.00000000	0.59670270	-2.04232300
46.69999740	0.00000000	2.17765700	-0.09227362
46.89999739	0.00000000	5.76402500	1.06422200
47.09999738	0.00000000	11.57726000	1.11343500
47.29999737	0.00000000	18.46087000	0.32603340
47.49999736	0.00000000	24.23105000	-0.83661410
47.69999734	0.00000000	27.34990000	-2.82972400
47.89999733	0.00000000	27.30069000	-5.06274600
48.09999732	0.00000000	23.72047000	-7.01279500
48.29999731	0.00000000	16.41855000	-7.80019600
48.49999730	0.00000000	7.20964500	-7.80019600
48.69999729	0.00000000	-0.89197830	-6.96358300
48.89999727	0.00000000	-6.37303100	-4.64443900
49.09999726	0.00000000	-8.24311000	-1.62401600
49.29999725	0.00000000	-5.86860200	1.11343500
49.49999724	0.00000000	1.06422200	3.02042300
49.69999723	0.00000000	10.69144000	3.76476400
49.89999721	0.00000000	20.32480000	2.60211600
50.09999720	0.00000000	28.04503000	-0.09227362
50.29999719	0.00000000	31.44685000	-3.57406500
50.49999718	0.00000000	29.58292000	-7.42495000
50.69999717	0.00000000	23.06841000	-10.49459000
50.89999715	0.00000000	14.18553000	-12.03248000
51.09999714	0.00000000	4.92125900	-11.61417000
51.29999713	0.00000000	-2.74975400	-8.91978400
51.49999712	0.00000000	-6.19463500	-4.69365100
51.69999711	0.00000000	-4.74901600	-0.09227362
51.89999710	0.00000000	0.64591530	3.76476400
52.09999708	0.00000000	8.32308000	5.71481200
52.29999707	0.00000000	16.41855000	5.71481200
52.49999706	0.00000000	22.55782000	3.76476400
52.69999705	0.00000000	25.30143000	-0.04306102
52.89999704	0.00000000	24.13878000	-4.26919300
53.09999702	0.00000000	19.53125000	-7.75713500
53.29999701	0.00000000	12.64764000	-10.07628000
53.49999700	0.00000000	5.76402500	-10.45152000
53.69999699	0.00000000	1.10728300	-8.96284400
53.89999698	0.00000000	-0.47367120	-6.26845500
54.09999696	0.00000000	1.06422200	-3.19881900
54.29999695	0.00000000	5.29650500	-0.51058070
54.49999694	0.00000000	11.02362000	1.02116100
54.69999693	0.00000000	16.41855000	1.06422200
54.89999692	0.00000000	19.86343000	-0.09227362
55.09999691	0.00000000	20.65084000	-1.95004900
55.29999689	0.00000000	18.37475000	-3.85088600
55.49999688	0.00000000	14.18553000	-4.60137700
55.69999687	0.00000000	9.52879000	-4.26919300
55.89999686	0.00000000	5.29650500	-3.11269700
56.09999685	0.00000000	2.64517700	-1.57480300
56.29999683	0.00000000	2.64517700	-0.09227362
56.49999682	0.00000000	5.25344500	0.65206690
56.69999681	0.00000000	9.11048200	-0.13533460
56.89999680	0.00000000	12.97982000	-2.08538400
57.09999679	0.00000000	16.46161000	-5.19808000
57.29999677	0.00000000	18.32554000	-8.96284400
57.49999676	0.00000000	17.99951000	-11.56496000
57.69999675	0.00000000	15.71727000	-11.61417000
57.89999674	0.00000000	12.64764000	-9.29502900
58.09999673	0.00000000	9.57800100	-5.38262700
58.29999672	0.00000000	7.25270600	0.00000000
58.49999670	0.00000000	6.45915300	5.33956700
58.69999669	0.00000000	6.79133800	8.78444900
58.89999668	0.00000000	7.99704600	9.47957600
59.09999667	0.00000000	9.90403500	6.40994000
59.29999666	0.00000000	12.18012000	0.33218500
59.49999664	0.00000000	13.71801000	-6.26845500
59.69999663	0.00000000	14.13632000	-12.45079000
59.89999662	0.00000000	13.76107000	-17.04601000
60.09999661	0.00000000	12.60458000	-18.16560000
60.29999660	0.00000000	11.10974000	-15.84030000
60.49999658	0.00000000	9.95324800	-9.98400600
60.69999657	0.00000000	9.57800100	-1.62401600
60.89999656	0.00000000	9.95324800	6.45915300
61.09999655	0.00000000	11.06668000	11.84793000
61.29999654	0.00000000	12.22933000	13.79798000
61.49999653	0.00000000	13.02288000	11.47884000
61.69999651	0.00000000	13.76107000	5.71481200
61.89999650	0.00000000	13.71801000	-2.04232300
62.09999649	0.00000000	12.60458000	-10.49459000
62.29999648	0.00000000	11.02362000	-17.42126000
62.49999647	0.00000000	9.11048200	-20.85999000
62.69999645	0.00000000	7.20964500	-20.10950000
62.89999644	0.00000000	6.50221400	-15.09596000
63.09999643	0.00000000	7.20964500	-7.47416300
63.29999642	0.00000000	9.11048200	0.64591530
63.49999641	0.00000000	11.06668000	7.24655500
63.69999639	0.00000000	13.06594000	11.52190000
63.89999638	0.00000000	15.29897000	12.63533000
64.09999637	0.00000000	16.41855000	9.99015700
64.29999636	0.00000000	15.71727000	4.60137700
64.49999635	0.00000000	14.18553000	-1.99311000
64.69999634	0.00000000	12.18012000	-8.91978400
64.89999632	0.00000000	9.52879000	-14.30241000
65.09999631	0.00000000	7.25270600	-16.67692000
65.29999630	0.00000000	6.45915300	-16.35089000
65.49999629	0.00000000	6.79133800	-13.61343000
65.69999628	0.00000000	7.99704600	-9.00590400
65.89999626	0.00000000	9.90403500	-3.62327700
66.09999625	0.00000000	12.18012000	1.02116100
66.29999624	0.00000000	13.71801000	4.18307100
66.49999623	0.00000000	14.09326000	5.80093500
66.69999622	0.00000000	13.34276000	6.17618100
66.89999620	0.00000000	11.44193000	5.38262700
67.09999619	0.00000000	9.57800100	3.06348400
67.29999618	0.00000000	8.37229300	0.00000000
67.49999617	0.00000000	8.04010800	-3.15575800
67.69999616	0.00000000	8.79060000	-6.26845500
67.89999615	0.00000000	10.73450000	-9.00590400
68.09999613	0.00000000	12.97982000	-10.96211000
68.29999612	0.00000000	14.92372000	-12.11860000
68.49999611	0.00000000	15.67421000	-12.07554000
68.69999610	0.00000000	15.25591000	-10.49459000
68.89999609	0.00000000	13.29970000	-7.38188900
69.09999607	0.00000000	9.86097400	-3.11269700
69.29999606	0.00000000	6.41609200	1.48868100
69.49999605	0.00000000	3.71555100	5.38262700
69.69999604	0.00000000	2.55290300	7.66486200
69.89999603	0.00000000	3.38951800	8.07701800
70.09999601	0.00000000	6.09005900	6.09005900
70.29999600	0.00000000	10.73450000	2.27608300
70.49999599	0.00000000	15.67421000	-2.78051200
70.69999598	0.00000000	19.58046000	-7.80019600
70.89999597	0.00000000	21.48745000	-12.03248000
71.09999596	0.00000000	21.11220000	-14.35162000
71.29999594	0.00000000	18.37475000	-13.93947000
71.49999593	0.00000000	13.76107000	-11.28199000
71.69999592	0.00000000	8.32308000	-6.64370100
71.89999591	0.00000000	3.34030500	-1.71013800
72.09999590	0.00000000	-0.14148620	2.22687000
72.29999588	0.00000000	-0.93503930	4.55831700
72.49999587	0.00000000	0.59670270	5.33956700
72.69999586	0.00000000	4.13385800	4.18307100
72.89999585	0.00000000	9.52879000	1.53174200
73.09999584	0.00000000	15.25591000	-1.53174200
73.29999582	0.00000000	19.53125000	-4.26919300
73.49999581	0.00000000	21.48745000	-6.17618100
73.69999580	0.00000000	21.11220000	-6.96358300
73.89999579	0.00000000	18.41781000	-6.22539300
74.09999578	0.00000000	14.18553000	-4.77977300
74.29999577	0.00000000	9.52879000	-3.62327700
74.49999575	0.00000000	5.29650500	-3.24803100
74.69999574	0.00000000	2.60211600	-3.62327700
74.89999573	0.00000000	2.17765700	-4.73671200
75.09999572	0.00000000	3.67249000	-5.89320800
75.29999571	0.00000000	6.36687900	-6.64370100
75.49999569	0.00000000	9.44266700	-6.96358300
75.69999568	0.00000000	12.18012000	-5.75787400
75.89999567	0.00000000	14.13632000	-3.11269700
76.09999566	0.00000000	15.29897000	-0.04306102
76.29999565	0.00000000	15.29897000	2.69439000
76.49999563	0.00000000	14.18553000	4.55831700
76.69999562	0.00000000	12.69070000	4.87819900
76.89999561	0.00000000	11.48499000	2.55905500
77.09999560	0.00000000	10.73450000	-1.62401600
77.29999559	0.00000000	10.32234000	-6.31151500
77.49999558	0.00000000	10.69144000	-10.91289000
77.69999556	0.00000000	10.97441000	-14.34547000
77.89999555	0.00000000	10.64838000	-15.09596000
78.09999554	0.00000000	9.86097400	-13.18898000
78.29999553	0.00000000	9.11048200	-8.96284400
78.49999552	0.00000000	8.28001900	-3.53100400
78.69999550	0.00000000	7.62180000	1.86392700
78.89999549	0.00000000	7.62795300	6.50221400
79.09999548	0.00000000	9.15354300	8.78444900
79.29999547	0.00000000	11.06668000	8.45226300
79.49999546	0.00000000	13.02288000	5.71481200
79.69999544	0.00000000	14.92372000	1.11343500
79.89999543	0.00000000	15.71727000	-4.31840500
80.09999542	0.00000000	15.71727000	-9.33809000
80.29999541	0.00000000	14.88066000	-13.18898000
80.49999540	0.00000000	12.60458000	-14.76993000
80.69999539	0.00000000	9.90403500	-14.03174000
80.89999537	0.00000000	7.57258800	-11.70029000
81.09999536	0.00000000	5.67175200	-7.80019600
81.29999535	0.00000000	5.29650500	-3.20497000
81.49999534	0.00000000	6.41609200	1.07037400
81.69999533	0.00000000	8.37229300	4.18307100
81.89999531	0.00000000	11.06668000	5.75787400
82.09999530	0.00000000	13.71801000	5.80093500
82.29999529	0.00000000	15.29897000	4.64443900
82.49999528	0.00000000	15.71727000	2.64517700
82.69999527	0.00000000	15.29897000	-0.46751960
82.89999525	0.00000000	13.76107000	-4.31840500
83.09999524	0.00000000	11.48499000	-7.80019600
83.29999523	0.00000000	9.57800100	-10.53765000
83.49999522	0.00000000	8.37229300	-12.07554000
83.69999521	0.00000000	7.94783400	-12.07554000
83.89999520	0.00000000	7.94783400	-10.53765000
84.09999518	0.00000000	8.32308000	-7.80019600
84.29999517	0.00000000	9.11048200	-4.26919300
84.49999516	0.00000000	9.86097400	-0.04306102
84.69999515	0.00000000	10.64838000	3.80782500
84.89999514	0.00000000	11.02362000	6.13312000
85.09999512	0.00000000	11.06668000	6.87130900
85.29999511	0.00000000	11.10974000	5.29650500
85.49999510	0.00000000	11.48499000	1.48868100
85.69999509	0.00000000	12.22933000	-3.15575800
85.89999508	0.00000000	12.60458000	-7.80019600
86.09999506	0.00000000	12.64764000	-11.65723000
86.29999505	0.00000000	12.60458000	-13.61343000
86.49999504	0.00000000	12.18012000	-13.61343000
86.69999503	0.00000000	11.02362000	-11.61417000
86.89999502	0.00000000	9.48572700	-7.38188900
87.09999501	0.00000000	7.94783400	-2.04232300
87.29999499	0.00000000	6.83439900	2.60211600
87.49999498	0.00000000	6.83439900	5.71481200
87.69999497	0.00000000	7.94783400	6.87130900
87.89999496	0.00000000	9.52879000	5.67175200
88.09999495	0.00000000	11.44193000	2.22687000
88.29999493	0.00000000	13.34276000	-2.78051200
88.49999492	0.00000000	14.13632000	-7.75713500
88.69999491	0.00000000	14.13632000	-11.61417000
88.89999490	0.00000000	13.34276000	-13.14591000
89.09999489	0.00000000	11.44193000	-12.03248000
89.29999487	0.00000000	9.52879000	-8.96284400
89.49999486	0.00000000	7.94783400	-4.69365100
89.69999485	0.00000000	6.83439900	-0.09227362
89.89999484	0.00000000	6.83439900	3.71555100
90.09999483	0.00000000	7.94783400	5.25344500
90.29999482	0.00000000	9.48572700	4.13385800
90.49999480	0.00000000	11.02362000	1.07037400
90.69999479	0.00000000	12.18012000	-3.15575800
90.89999478	0.00000000	12.60458000	-7.38188900
91.09999477	0.00000000	12.64764000	-10.49459000
91.29999476	0.00000000	12.60458000	-11.98327000
91.49999474	0.00000000	12.22933000	-11.18971000
91.69999473	0.00000000	11.48499000	-7.75713500
91.89999472	0.00000000	11.10974000	-3.20497000
92.09999471	0.00000000	11.06668000	1.07037400
92.29999470	0.00000000	11.06668000	4.13385800
92.49999468	0.00000000	11.02362000	5.25344500
92.69999467	0.00000000	10.64838000	3.71555100
92.89999466	0.00000000	9.86097400	-0.09227362
93.09999465	0.00000000	9.11048200	-4.69365100
93.29999464	0.00000000	8.32308000	-8.87672100
93.49999463	0.00000000	7.94783400	-11.14665000
93.69999461	0.00000000	7.94783400	-10.45152000
93.89999460	0.00000000	8.37229300	-7.80019600
94.09999459	0.00000000	9.57800100	-4.31840500
94.29999458	0.00000000	11.48499000	-0.46751960
94.49999457	0.00000000	13.81028000	2.60211600
94.69999455	0.00000000	15.67421000	4.14000900
94.89999454	0.00000000	16.46161000	3.71555100
95.09999453	0.00000000	15.67421000	1.07037400
95.29999452	0.00000000	13.76107000	-2.78051200
95.49999451	0.00000000	11.02362000	-6.59448800
95.69999449	0.00000000	7.94783400	-9.70103300
95.89999448	0.00000000	5.25344500	-10.82677000
96.09999447	0.00000000	3.71555100	-10.07628000
96.29999446	0.00000000	3.71555100	-7.38188900
96.49999445	0.00000000	5.25344500	-3.62327700
96.69999444	0.00000000	7.94783400	-0.55364170
96.89999442	0.00000000	11.10974000	1.06422200
97.09999441	0.00000000	14.56078000	1.48253000
97.29999440	0.00000000	17.62426000	1.02116100
97.49999439	0.00000000	18.79306000	-0.88582670
97.69999438	0.00000000	18.46087000	-3.90009800
97.89999436	0.00000000	16.83686000	-6.17618100
98.09999435	0.00000000	13.71801000	-7.38188900
98.29999434	0.00000000	9.52879000	-7.38188900
98.49999433	0.00000000	5.67175200	-6.26845500
98.69999432	0.00000000	3.29724400	-4.73671200
98.89999430	0.00000000	2.13459600	-3.19881900
99.09999429	0.00000000	2.60211600	-2.04232300
99.29999428	0.00000000	5.25344500	-1.61786400
99.49999427	0.00000000	9.06742000	-1.61786400
99.69999426	0.00000000	12.60458000	-1.99311000
99.89999425	0.00000000	15.71727000	-2.68823800
100.09999423	0.00000000	17.99951000	-2.68823800
100.29999422	0.00000000	18.41781000	-1.99311000
100.49999421	0.00000000	17.29823000	-1.61786400
100.69999420	0.00000000	15.29897000	-1.61786400
100.89999419	0.00000000	12.22933000	-2.04232300
101.09999417	0.00000000	8.79060000	-3.15575800
101.29999416	0.00000000	6.41609200	-4.31840500
101.49999415	0.00000000	4.83513700	-5.15501900
101.69999414	0.00000000	4.09079700	-6.31151500
101.89999413	0.00000000	4.87819900	-7.38188900
102.09999411	0.00000000	6.79133800	-7.33882900
102.29999410	0.00000000	9.48572700	-5.80093500
102.49999409	0.00000000	12.18012000	-3.15575800
102.69999408	0.00000000	14.13632000	-0.51058070
102.89999407	0.00000000	15.29897000	1.11343500
103.09999406	0.00000000	15.34203000	1.90698800
103.29999404	0.00000000	14.56078000	2.22687000
103.49999403	0.00000000	13.39198000	1.02116100
103.69999402	0.00000000	11.44193000	-1.62401600
103.89999401	0.00000000	9.52879000	-4.68750000
104.09999400	0.00000000	7.94783400	-7.38188900
104.29999398	0.00000000	6.79133800	-8.91978400
104.49999397	0.00000000	6.45915300	-8.91978400
104.69999396	0.00000000	7.16043300	-7.43110200
104.89999395	0.00000000	8.69217500	-5.11195900
105.09999394	0.00000000	9.86097400	-2.78051200
105.29999392	0.00000000	11.06668000	-0.46751960
105.49999391	0.00000000	12.18012000	1.02116100
105.69999390	0.00000000	12.55536000	1.06422200
105.89999389	0.00000000	12.22933000	-0.09227362
106.09999388	0.00000000	11.44193000	-1.99311000
106.29999387	0.00000000	10.64838000	-4.26919300
106.49999385	0.00000000	9.52879000	-5.85014700
106.69999384	0.00000000	8.79060000	-6.64370100
106.89999383	0.00000000	9.15354300	-7.00664300
107.09999382	0.00000000	9.86097400	-6.17618100
107.29999381	0.00000000	10.69144000	-4.31840500
107.49999379	0.00000000	11.44193000	-2.04232300
107.69999378	0.00000000	12.22933000	-0.55364170
107.89999377	0.00000000	12.55536000	-0.46136810
108.09999376	0.00000000	12.18012000	-1.19955700
108.29999375	0.00000000	11.02362000	-2.04232300
108.49999374	0.00000000	9.52879000	-3.57406500
108.69999372	0.00000000	8.37229300	-5.43184000
108.89999371	0.00000000	7.94783400	-6.21924200
109.09999370	0.00000000	7.94783400	-6.26845500
109.29999369	0.00000000	8.37229300	-5.80093500
109.49999368	0.00000000	9.52879000	-4.26919300
109.69999366	0.00000000	11.02362000	-2.04232300
109.89999365	0.00000000	12.18012000	-0.51058070
110.09999364	0.00000000	12.60458000	-0.04306102
110.29999363	0.00000000	12.60458000	-0.04306102
110.49999362	0.00000000	12.18012000	-0.46136810
110.69999360	0.00000000	11.06668000	-1.66707700
110.89999359	0.00000000	9.90403500	-3.57406500
111.09999358	0.00000000	9.11048200	-5.80093500
111.29999357	0.00000000	8.32308000	-6.96358300
111.49999356	0.00000000	7.99704600	-6.68676100
111.69999355	0.00000000	8.37229300	-6.31151500
111.89999353	0.00000000	9.48572700	-5.85014700
112.09999352	0.00000000	10.59916000	-4.68750000
112.29999351	0.00000000	11.02362000	-3.19881900
112.49999350	0.00000000	11.06668000	-2.04232300
112.69999349	0.00000000	11.06668000	-1.61786400
112.89999347	0.00000000	11.02362000	-1.57480300
113.09999346	0.00000000	10.64838000	-1.61786400
113.29999345	0.00000000	9.90403500	-1.99311000
113.49999344	0.00000000	9.52879000	-2.78051200
113.69999343	0.00000000	9.48572700	-3.48794300
113.89999341	0.00000000	9.48572700	-3.90009800
114.09999340	0.00000000	9.48572700	-3.57406500
114.29999339	0.00000000	9.52879000	-3.62327700
114.49999338	0.00000000	9.90403500	-4.31840500
114.69999337	0.00000000	10.64838000	-4.69365100
114.89999336	0.00000000	11.02362000	-4.73671200
115.09999334	0.00000000	11.06668000	-4.73671200
115.29999333	0.00000000	11.06668000	-4.73671200
115.49999332	0.00000000	11.06668000	-4.69365100
115.69999331	0.00000000	11.02362000	-4.31840500
115.89999330	0.00000000	10.64838000	-3.53100400
116.09999328	0.00000000	9.90403500	-2.78051200
116.29999327	0.00000000	9.52879000	-1.99311000
116.49999326	0.00000000	9.48572700	-1.61786400
116.69999325	0.00000000	9.48572700	-1.57480300
116.89999324	0.00000000	9.48572700	-1.61786400
117.09999322	0.00000000	9.52879000	-1.99311000
117.29999321	0.00000000	9.90403500	-2.78051200
117.49999320	0.00000000	10.69144000	-3.53100400
117.69999319	0.00000000	11.44193000	-4.36146600
117.89999318	0.00000000	12.22933000	-5.06274600
118.09999317	0.00000000	12.55536000	-5.47490100
118.29999315	0.00000000	12.22933000	-5.11195900
118.49999314	0.00000000	11.44193000	-4.73671200
118.69999313	0.00000000	10.64838000	-4.31840500
118.89999312	0.00000000	9.44266700	-3.57406500
119.09999311	0.00000000	7.99704600	-3.15575800
119.29999309	0.00000000	7.20964500	-2.73745100
119.49999308	0.00000000	7.57258800	-1.99311000
119.69999307	0.00000000	8.32308000	-1.61786400
119.89999306	0.00000000	9.48572700	-1.61786400
120.09999305	0.00000000	10.64838000	-1.99311000
120.29999303	0.00000000	11.44193000	-2.73745100
120.49999302	0.00000000	12.22933000	-3.15575800
120.69999301	0.00000000	12.60458000	-3.57406500
120.89999300	0.00000000	12.60458000	-4.31840500
121.09999299	0.00000000	12.18012000	-4.69365100
121.29999298	0.00000000	11.06668000	-4.73671200
121.49999296	0.00000000	9.90403500	-4.73671200
121.69999295	0.00000000	9.11048200	-4.69365100
121.89999294	0.00000000	8.32308000	-4.31840500
122.09999293	0.00000000	7.99704600	-3.57406500
122.29999292	0.00000000	8.32308000	-3.15575800
122.49999290	0.00000000	9.06742000	-2.73745100
122.69999289	0.00000000	9.48572700	-1.99311000
122.89999288	0.00000000	9.95324800	-1.61786400
123.09999287	0.00000000	11.06668000	-1.61786400
123.29999286	0.00000000	12.18012000	-1.99311000
123.49999284	0.00000000	12.60458000	-2.73745100
123.69999283	0.00000000	12.60458000	-3.15575800
123.89999282	0.00000000	12.22933000	-3.57406500
124.09999281	0.00000000	11.44193000	-4.31840500
124.29999280	0.00000000	10.69144000	-4.69365100
124.49999279	0.00000000	9.90403500	-4.73671200
124.69999277	0.00000000	9.48572700	-4.73671200
124.89999276	0.00000000	9.06742000	-4.69365100
125.09999275	0.00000000	8.32308000	-4.31840500
125.29999274	0.00000000	7.99704600	-3.57406500
125.49999273	0.00000000	8.32308000	-3.15575800
125.69999271	0.00000000	9.11048200	-2.73745100
125.89999270	0.00000000	9.86097400	-1.99311000
126.09999269	0.00000000	10.69144000	-1.66707700
126.29999268	0.00000000	11.44193000	-1.99311000
126.49999267	0.00000000	12.22933000	-2.73745100
126.69999265	0.00000000	12.55536000	-3.15575800
126.89999264	0.00000000	12.22933000	-3.57406500
127.09999263	0.00000000	11.44193000	-4.31840500
127.29999262	0.00000000	10.64838000	-4.69365100
127.49999261	0.00000000	9.48572700	-4.69365100
127.69999260	0.00000000	8.37229300	-4.36146600
127.89999258	0.00000000	7.94783400	-3.94931100
128.09999257	0.00000000	7.94783400	-3.94315900
128.29999256	0.00000000	8.37229300	-3.53100400
128.49999255	0.00000000	9.48572700	-3.19881900
128.69999254	0.00000000	10.64838000	-3.15575800
128.89999252	0.00000000	11.44193000	-3.15575800
129.09999251	0.00000000	12.22933000	-3.15575800
129.29999250	0.00000000	12.55536000	-3.19881900
129.49999249	0.00000000	12.18012000	-3.57406500
129.69999248	0.00000000	11.02362000	-4.31840500
129.89999246	0.00000000	9.52879000	-4.69365100
130.09999245	0.00000000	8.37229300	-4.69365100
130.29999244	0.00000000	7.94783400	-4.31840500
130.49999243	0.00000000	7.94783400	-3.57406500
130.69999242	0.00000000	8.32308000	-3.19881900
130.89999241	0.00000000	9.11048200	-3.15575800
131.09999239	0.00000000	9.86097400	-3.15575800
131.29999238	0.00000000	10.69144000	-3.15575800
131.49999237	0.00000000	11.39887000	-3.15575800
131.69999236	0.00000000	11.81102000	-3.19881900
131.89999235	0.00000000	11.39887000	-3.57406500
132.09999233	0.00000000	10.69144000	-4.31840500
132.29999232	0.00000000	9.90403500	-4.69365100
132.49999231	0.00000000	9.52879000	-4.73671200
132.69999230	0.00000000	9.48572700	-4.69365100
132.89999229	0.00000000	9.48572700	-4.31840500
133.09999227	0.00000000	9.48572700	-3.53100400
133.29999226	0.00000000	9.52879000	-2.78051200
133.49999225	0.00000000	9.90403500	-1.99311000
133.69999224	0.00000000	10.64838000	-1.61786400
133.89999223	0.00000000	11.02362000	-1.61786400
134.09999222	0.00000000	11.02362000	-2.04232300
134.29999220	0.00000000	10.64838000	-3.15575800
134.49999219	0.00000000	9.90403500	-4.26919300
134.69999218	0.00000000	9.52879000	-4.73671200
134.89999217	0.00000000	9.52879000	-5.15501900
135.09999216	0.00000000	9.90403500	-5.85014700
135.29999214	0.00000000	10.64838000	-5.85014700
135.49999213	0.00000000	11.02362000	-5.11195900
135.69999212	0.00000000	11.02362000	-4.36146600
135.89999211	0.00000000	10.64838000	-3.53100400
136.09999210	0.00000000	9.90403500	-2.78051200
136.29999208	0.00000000	9.48572700	-1.99311000
136.49999207	0.00000000	9.06742000	-1.66707700
136.69999206	0.00000000	8.32308000	-1.99311000
136.89999205	0.00000000	7.99704600	-2.73745100
137.09999204	0.00000000	8.32308000	-3.15575800
137.29999203	0.00000000	9.11048200	-3.57406500
137.49999201	0.00000000	9.86097400	-4.31840500
137.69999200	0.00000000	10.64838000	-4.69365100
137.89999199	0.00000000	11.02362000	-4.73671200
138.09999198	0.00000000	11.06668000	-4.73671200
138.29999197	0.00000000	11.06668000	-4.73671200
138.49999195	0.00000000	10.97441000	-4.73671200
138.69999194	0.00000000	10.27313000	-4.69365100
138.89999193	0.00000000	9.11663300	-4.31840500
139.09999192	0.00000000	8.73523500	-3.53100400
139.29999191	0.00000000	8.32308000	-2.78051200
139.49999189	0.00000000	8.37229300	-1.99311000
139.69999188	0.00000000	9.11048200	-1.61786400
139.89999187	0.00000000	9.86097400	-1.61786400
140.09999186	0.00000000	10.64838000	-1.99311000
140.29999185	0.00000000	11.02362000	-2.78051200
140.49999184	0.00000000	11.06668000	-3.53100400
140.69999182	0.00000000	11.06668000	-4.31840500
140.89999181	0.00000000	11.02362000	-4.73671200
141.09999180	0.00000000	10.64838000	-5.11195900
141.29999179	0.00000000	9.90403500	-5.47490100
141.49999178	0.00000000	9.52879000	-5.06274600
141.69999176	0.00000000	9.48572700	-4.31840500
141.89999175	0.00000000	9.48572700	-3.15575800
142.09999174	0.00000000	9.48572700	-2.04232300
142.29999173	0.00000000	9.52879000	-1.61786400
142.49999172	0.00000000	9.90403500	-1.57480300
142.69999170	0.00000000	10.59916000	-1.61786400
142.89999169	0.00000000	10.59916000	-2.04232300
143.09999168	0.00000000	9.90403500	-3.15575800
143.29999167	0.00000000	9.52879000	-4.26919300
143.49999166	0.00000000	9.48572700	-4.73671200
143.69999165	0.00000000	9.48572700	-5.11195900
143.89999163	0.00000000	9.48572700	-5.47490100
144.09999162	0.00000000	9.48572700	-5.06274600
144.29999161	0.00000000	9.52879000	-4.36146600
144.49999160	0.00000000	9.90403500	-3.57406500
144.69999159	0.00000000	10.64838000	-3.15575800
144.89999157	0.00000000	11.02362000	-2.73745100
145.09999156	0.00000000	11.06668000	-2.04232300
145.29999155	0.00000000	11.02362000	-2.04232300
145.49999154	0.00000000	10.64838000	-2.73745100
145.69999153	0.00000000	9.90403500	-3.15575800
145.89999151	0.00000000	9.52879000	-3.57406500
146.09999150	0.00000000	9.48572700	-4.31840500
146.29999149	0.00000000	9.48572700	-4.69365100
146.49999148	0.00000000	9.48572700	-4.73671200
146.69999147	0.00000000	9.52879000	-4.69365100
146.89999146	0.00000000	9.90403500	-4.31840500
147.09999144	0.00000000	10.64838000	-3.57406500
147.29999143	0.00000000	11.02362000	-3.19881900
147.49999142	0.00000000	11.02362000	-3.15575800
147.69999141	0.00000000	10.64838000	-3.15575800
147.89999140	0.00000000	9.90403500	-3.15575800
148.09999138	0.00000000	9.52879000	-3.15575800
148.29999137	0.00000000	9.48572700	-3.15575800
148.49999136	0.00000000	9.48572700	-3.15575800
148.69999135	0.00000000	9.48572700	-3.19881900
148.89999134	0.00000000	9.48572700	-3.57406500
149.09999132	0.00000000	9.52879000	-4.31840500
149.29999131	0.00000000	9.90403500	-4.69365100
149.49999130	0.00000000	10.64838000	-4.73671200
149.69999129	0.00000000	11.02362000	-4.69365100
149.89999128	0.00000000	11.06668000	-4.31840500
150.09999127	0.00000000	11.06668000	-3.57406500
150.29999125	0.00000000	11.02362000	-3.19881900
150.49999124	0.00000000	10.64838000	-3.15575800
150.69999123	0.00000000	9.90403500	-3.15575800
150.89999122	0.00000000	9.52879000	-3.15575800
151.09999121	0.00000000	9.48572700	-3.15575800
151.29999119	0.00000000	9.48572700	-3.15575800
151.49999118	0.00000000	9.48572700	-3.15575800
151.69999117	0.00000000	9.48572700	-3.19881900
151.89999116	0.00000000	9.48572700	-3.57406500
152.09999115	0.00000000	9.48572700	-4.31840500
152.29999113	0.00000000	9.52879000	-4.64443900
152.49999112	0.00000000	9.90403500	-4.31840500
152.69999111	0.00000000	10.64838000	-3.57406500
152.89999110	0.00000000	11.02362000	-3.19881900
153.09999109	0.00000000	11.02362000	-3.15575800
153.29999108	0.00000000	10.64838000	-3.15575800
153.49999106	0.00000000	9.90403500	-3.15575800
153.69999105	0.00000000	9.52879000	-3.15575800
153.89999104	0.00000000	9.44266700	-3.15575800
154.09999103	0.00000000	9.11048200	-3.15575800
154.29999102	0.00000000	8.74138700	-3.15575800
154.49999100	0.00000000	9.11048200	-3.15575800
154.69999099	0.00000000	9.44266700	-3.15575800
154.89999098	0.00000000	9.48572700	-3.15575800
155.09999097	0.00000000	9.52879000	-3.15575800
155.29999096	0.00000000	9.90403500	-3.19881900
155.49999094	0.00000000	10.64838000	-3.57406500
155.69999093	0.00000000	11.02362000	-4.26919300
155.89999092	0.00000000	11.06668000	-4.26919300
156.09999091	0.00000000	11.02362000	-3.57406500
156.29999090	0.00000000	10.64838000	-3.19881900
156.49999089	0.00000000	9.90403500	-3.15575800
156.69999087	0.00000000	9.52879000	-3.15575800
156.89999086	0.00000000	9.44266700	-3.15575800
157.09999085	0.00000000	9.11048200	-3.15575800
157.29999084	0.00000000	8.74138700	-3.15575800
157.49999083	0.00000000	9.11048200	-3.15575800
157.69999081	0.00000000	9.44266700	-3.15575800
157.89999080	0.00000000	9.48572700	-3.19881900
158.09999079	0.00000000	9.48572700	-3.57406500
158.29999078	0.00000000	9.52879000	-4.31840500
158.49999077	0.00000000	9.90403500	-4.69365100
158.69999075	0.00000000	10.64838000	-4.73671200
158.89999074	0.00000000	11.02362000	-4.73671200
159.09999073	0.00000000	11.06668000	-4.69365100
159.29999072	0.00000000	11.02362000	-4.31840500
159.49999071	0.00000000	10.64838000	-3.53100400
159.69999070	0.00000000	9.90403500	-2.78051200
159.89999068	0.00000000	9.52879000	-2.04232300
160.09999067	0.00000000	9.48572700	-2.04232300
160.29999066	0.00000000	9.48572700	-2.73745100
160.49999065	0.00000000	9.48572700	-3.11269700
160.69999064	0.00000000	9.48572700	-3.19881900
160.89999062	0.00000000	9.48572700	-3.57406500
161.09999061	0.00000000	9.48572700	-4.31840500
161.29999060	0.00000000	9.48572700	-4.69365100
161.49999059	0.00000000	9.48572700	-4.73671200
161.69999058	0.00000000	9.48572700	-4.73671200
161.89999056	0.00000000	9.52879000	-4.69365100
162.09999055	0.00000000	9.90403500	-4.31840500
162.29999054	0.00000000	10.59916000	-3.57406500
162.49999053	0.00000000	10.59916000	-3.19881900
162.69999052	0.00000000	9.90403500	-3.15575800
162.89999051	0.00000000	9.52879000	-3.15575800
163.09999049	0.00000000	9.48572700	-3.15575800
163.29999048	0.00000000	9.48572700	-3.15575800
163.49999047	0.00000000	9.48572700	-3.15575800
163.69999046	0.00000000	9.48572700	-3.15575800
163.89999045	0.00000000	9.48572700	-3.15575800
164.09999043	0.00000000	9.48572700	-3.19881900
164.29999042	0.00000000	9.48572700	-3.57406500
164.49999041	0.00000000	9.48572700	-4.31840500
164.69999040	0.00000000	9.52879000	-4.64443900
164.89999039	0.00000000	9.90403500	-4.31840500
165.09999037	0.00000000	10.64838000	-3.57406500
165.29999036	0.00000000	10.97441000	-3.19881900
165.49999035	0.00000000	10.69144000	-3.15575800
165.69999034	0.00000000	10.27928000	-3.15575800
165.89999033	0.00000000	10.27313000	-3.15575800
166.09999032	0.00000000	9.86097400	-3.15575800
166.29999030	0.00000000	9.48572700	-3.15575800
166.49999029	0.00000000	9.11048200	-3.19881900
166.69999028	0.00000000	8.69832600	-3.53100400
166.89999027	0.00000000	8.73523500	-3.90009800
167.09999026	0.00000000	8.69832600	-3.57406500
167.29999024	0.00000000	9.11048200	-3.57406500
167.49999023	0.00000000	9.44266700	-3.90009800
167.69999022	0.00000000	9.48572700	-3.57406500
167.89999021	0.00000000	9.48572700	-3.57406500
168.09999020	0.00000000	9.52879000	-3.90009800
168.29999018	0.00000000	9.90403500	-3.53100400
168.49999017	0.00000000	10.59916000	-3.19881900
168.69999016	0.00000000	10.59916000	-3.15575800
168.89999015	0.00000000	9.90403500	-3.15575800
169.09999014	0.00000000	9.52879000	-3.15575800
169.29999013	0.00000000	9.48572700	-3.15575800
169.49999011	0.00000000	9.48572700	-3.15575800
169.69999010	0.00000000	9.48572700	-3.15575800
169.89999009	0.00000000	9.48572700	-3.15575800
170.09999008	0.00000000	9.48572700	-3.15575800
170.29999007	0.00000000	9.48572700	-3.19881900
170.49999005	0.00000000	9.48572700	-3.53100400
170.69999004	0.00000000	9.48572700	-3.94315900
170.89999003	0.00000000	9.48572700	-3.94931100
171.09999002	0.00000000	9.48572700	-4.36146600
171.29999001	0.00000000	9.48572700	-4.69365100
171.49998999	0.00000000	9.48572700	-4.73671200
171.69998998	0.00000000	9.48572700	-4.69365100
171.89998997	0.00000000	9.48572700	-4.36146600
172.09998996	0.00000000	9.48572700	-3.94931100
172.29998995	0.00000000	9.48572700	-3.94315900
172.49998994	0.00000000	9.48572700	-3.53100400
172.69998992	0.00000000	9.48572700	-3.19881900
172.89998991	0.00000000	9.48572700	-3.15575800
173.09998990	0.00000000	9.48572700	-3.15575800
173.29998989	0.00000000	9.48572700	-3.15575800
173.49998988	0.00000000	9.48572700	-3.15575800
173.69998986	0.00000000	9.48572700	-3.15575800
173.89998985	0.00000000	9.48572700	-3.15575800
174.09998984	0.00000000	9.48572700	-3.15575800
174.29998983	0.00000000	9.48572700	-3.19881900
174.49998982	0.00000000	9.48572700	-3.57406500
174.69998980	0.00000000	9.48572700	-4.26919300
174.89998979	0.00000000	9.48572700	-4.26919300
175.09998978	0.00000000	9.48572700	-3.57406500
175.29998977	0.00000000	9.48572700	-3.19881900
175.49998976	0.00000000	9.48572700	-3.19881900
175.69998975	0.00000000	9.48572700	-3.53100400
175.89998973	0.00000000	9.48572700	-3.90009800
176.09998972	0.00000000	9.48572700	-3.53100400
176.29998971	0.00000000	9.48572700	-3.19881900
176.49998970	0.00000000	9.48572700	-3.15575800
176.69998969	0.00000000	9.48572700	-3.15575800
176.89998967	0.00000000	9.48572700	-3.15575800
177.09998966	0.00000000	9.48572700	-3.19881900
177.29998965	0.00000000	9.48572700	-3.53100400
177.49998964	0.00000000	9.48572700	-3.94315900
177.69998963	0.00000000	9.48572700	-3.94931100
177.89998961	0.00000000	9.48572700	-4.31840500
178.09998960	0.00000000	9.48572700	-4.31840500
178.29998959	0.00000000	9.48572700	-3.94931100
178.49998958	0.00000000	9.48572700	-3.98622000
178.69998957	0.00000000	9.48572700	-3.90625000
178.89998956	0.00000000	9.48572700	-3.94315900
179.09998954	0.00000000	9.48572700	-3.53100400
179.29998953	0.00000000	9.48572700	-3.19881900
179.49998952	0.00000000	9.48572700	-3.15575800
179.69998951	0.00000000	9.48572700	-3.15575800
179.89998950	0.00000000	9.52879000	-3.15575800
180.09998948	0.00000000	9.86097400	-3.19881900
180.29998947	0.00000000	10.23007000	-3.57406500
180.49998946	0.00000000	9.86097400	-4.31840500
180.69998945	0.00000000	9.52879000	-4.69365100
180.89998944	0.00000000	9.48572700	-4.73671200
181.09998942	0.00000000	9.48572700	-4.69365100
181.29998941	0.00000000	9.48572700	-4.31840500
181.49998940	0.00000000	9.48572700	-3.57406500
181.69998939	0.00000000	9.48572700	-3.19881900
181.89998938	0.00000000	9.48572700	-3.15575800
182.09998937	0.00000000	9.48572700	-3.15575800
182.29998935	0.00000000	9.48572700	-3.15575800
182.49998934	0.00000000	9.48572700	-3.15575800
182.69998933	0.00000000	9.48572700	-3.19881900
182.89998932	0.00000000	9.48572700	-3.57406500
183.09998931	0.00000000	9.48572700	-4.31840500
183.29998929	0.00000000	9.48572700	-4.69365100
183.49998928	0.00000000	9.48572700	-4.73671200
183.69998927	0.00000000	9.48572700	-4.73671200
183.89998926	0.00000000	9.48572700	-4.69365100
184.09998925	0.00000000	9.48572700	-4.31840500
184.29998923	0.00000000	9.48572700	-3.57406500
184.49998922	0.00000000	9.48572700	-3.19881900
184.69998921	0.00000000	9.48572700	-3.15575800
184.89998920	0.00000000	9.48572700	-3.15575800
185.09998919	0.00000000	9.48572700	-3.15575800
185.29998918	0.00000000	9.48572700	-3.15575800
185.49998916	0.00000000	9.48572700	-3.15575800
185.69998915	0.00000000	9.48572700	-3.19881900
185.89998914	0.00000000	9.48572700	-3.57406500
186.09998913	0.00000000	9.48572700	-4.31840500
186.29998912	0.00000000	9.48572700	-4.69365100
186.49998910	0.00000000	9.48572700	-4.73671200
186.69998909	0.00000000	9.48572700	-4.73671200
186.89998908	0.00000000	9.48572700	-4.69365100
187.09998907	0.00000000	9.44266700	-4.31840500
187.29998906	0.00000000	9.11048200	-3.57406500
187.49998904	0.00000000	8.74138700	-3.19881900
187.69998903	0.00000000	9.11048200	-3.15575800
187.89998902	0.00000000	9.44266700	-3.15575800
188.09998901	0.00000000	9.48572700	-3.15575800
188.29998900	0.00000000	9.48572700	-3.15575800
188.49998899	0.00000000	9.48572700	-3.19881900
188.69998897	0.00000000	9.48572700	-3.57406500
188.89998896	0.00000000	9.48572700	-4.31840500
189.09998895	0.00000000	9.48572700	-4.69365100
189.29998894	0.00000000	9.48572700	-4.73671200
189.49998893	0.00000000	9.48572700	-4.73671200
189.69998891	0.00000000	9.48572700	-4.73671200
189.89998890	0.00000000	9.48572700	-4.69365100
190.09998889	0.00000000	9.48572700	-4.31840500
190.29998888	0.00000000	9.48572700	-3.57406500
190.49998887	0.00000000	9.48572700	-3.19881900
190.69998885	0.00000000	9.48572700	-3.15575800
190.89998884	0.00000000	9.48572700	-3.15575800
191.09998883	0.00000000	9.48572700	-3.15575800
191.29998882	0.00000000	9.48572700	-3.15575800
191.49998881	0.00000000	9.48572700	-3.15575800
191.69998880	0.00000000	9.48572700	-3.19881900
191.89998878	0.00000000	9.48572700	-3.53100400
192.09998877	0.00000000	9.48572700	-3.94315900
192.29998876	0.00000000	9.48572700	-3.94931100
192.49998875	0.00000000	9.48572700	-4.31840500
192.69998874	0.00000000	9.48572700	-4.31840500
192.89998872	0.00000000	9.48572700	-3.99237200
193.09998871	0.00000000	9.44266700	-4.31840500
193.29998870	0.00000000	9.11048200	-4.26919300
193.49998869	0.00000000	8.74138700	-3.57406500
193.69998868	0.00000000	9.11048200	-3.19881900
193.89998866	0.00000000	9.44266700	-3.15575800
194.09998865	0.00000000	9.48572700	-3.15575800
194.29998864	0.00000000	9.48572700	-3.15575800
194.49998863	0.00000000	9.48572700	-3.15575800
194.69998862	0.00000000	9.48572700	-3.15575800
194.89998861	0.00000000	9.48572700	-3.15575800
195.09998859	0.00000000	9.48572700	-3.15575800
195.29998858	0.00000000	9.48572700	-3.15575800
195.49998857	0.00000000	9.48572700	-3.15575800
195.69998856	0.00000000	9.48572700	-3.19881900
195.89998855	0.00000000	9.48572700	-3.57406500
196.09998853	0.00000000	9.48572700	-4.31840500
