Time	Channel A	Channel B	Channel C
(us)	(V)	(mV)	(mV)

-4.59999956	0.00000000	-90.12672000	-29.53371000
-4.39999957	0.00000000	-90.12672000	-29.53371000
-4.19999958	0.00000000	-90.12672000	-28.83858000
-3.99999959	0.00000000	-90.12672000	-28.46333000
-3.79999960	0.00000000	-90.12672000	-28.42027000
-3.59999962	0.00000000	-90.12672000	-28.42027000
-3.39999963	0.00000000	-90.12672000	-28.42027000
-3.19999964	0.00000000	-90.12672000	-28.42027000
-2.99999965	0.00000000	-90.12672000	-28.42027000
-2.79999966	0.00000000	-90.12672000	-28.42027000
-2.59999968	0.00000000	-90.12672000	-28.42027000
-2.39999969	0.00000000	-90.12672000	-28.42027000
-2.19999970	0.00000000	-90.12672000	-28.42027000
-1.99999971	0.00000000	-90.12672000	-28.42027000
-1.79999972	0.00000000	-90.12672000	-28.42027000
-1.59999973	0.00000000	-90.12672000	-28.42027000
-1.39999975	0.00000000	-90.12672000	-28.42027000
-1.19999976	0.00000000	-90.12672000	-28.42027000
-0.99999977	0.00000000	-90.12672000	-28.42027000
-0.79999978	0.00000000	-90.12672000	-28.42027000
-0.59999979	0.00000000	-90.12672000	-28.42027000
-0.39999981	0.15871060	-90.12672000	-28.42027000
-0.19999982	0.47736220	-90.12672000	-28.42027000
0.00000017	0.79601380	-90.12672000	-28.42027000
0.20000016	0.95533960	-90.08366000	-28.42027000
0.40000015	0.95533960	-89.75147000	-28.42027000
0.60000013	0.47736220	-89.38238000	-28.42027000
0.80000012	-0.15871060	-89.75147000	-28.42027000
1.00000011	-1.11466500	-90.08366000	-28.42027000
1.20000010	-2.07062000	-90.12672000	-28.42027000
1.40000009	-2.70792300	-90.12672000	-28.42027000
1.60000008	-2.70792300	-90.08366000	-28.42027000
1.80000006	-1.75196900	-89.75147000	-28.42027000
2.00000005	-0.15871060	-89.38238000	-28.42027000
2.20000004	1.91129400	-89.75147000	-28.42027000
2.40000003	3.98191400	-90.08366000	-28.42027000
2.60000002	5.09719500	-90.12672000	-28.42027000
2.80000000	5.25652100	-90.12672000	-28.46333000
2.99999999	3.82258900	-90.12672000	-28.83858000
3.19999998	1.11466500	-90.12672000	-29.53371000
3.39999997	-2.38927200	-90.12672000	-29.53371000
3.59999996	-5.57517200	-90.08366000	-28.83858000
3.79999994	-7.64579200	-89.75147000	-28.46333000
3.99999993	-7.96444400	-89.38238000	-28.42027000
4.19999992	-6.05315000	-89.70841000	-28.42027000
4.39999991	-2.54859700	-89.70841000	-28.42027000
4.59999990	1.91129400	-89.38238000	-28.42027000
4.79999989	6.05315000	-89.75147000	-28.42027000
4.99999987	8.76107300	-90.08366000	-28.46333000
5.19999986	9.39837600	-90.12672000	-28.83858000
5.39999985	7.64579200	-90.12672000	-29.58292000
5.59999984	3.98191400	-90.12672000	-29.90895000
5.79999983	-0.63668800	-90.12672000	-29.62598000
5.99999981	-5.25652100	-90.12672000	-29.21383000
6.19999980	-8.44242100	-90.12672000	-29.20767000
6.39999979	-9.39837600	-90.12672000	-28.79552000
6.59999978	-8.12377000	-90.12672000	-28.46333000
6.79999977	-4.93786900	-90.12672000	-28.42027000
6.99999975	-0.63668800	-90.12672000	-28.42027000
7.19999974	3.50393700	-90.12672000	-28.42027000
7.39999973	6.53112700	-90.12672000	-28.42027000
7.59999972	7.64579200	-90.12672000	-28.46333000
7.79999971	7.00848900	-90.12672000	-28.83858000
7.99999970	4.61921700	-90.12672000	-29.53371000
8.19999968	1.27399100	-90.12672000	-29.53371000
8.39999967	-1.91129400	-90.12672000	-28.83858000
8.59999966	-4.14124000	-90.08366000	-28.46333000
8.79999965	-5.09719500	-89.75147000	-28.42027000
8.99999964	-4.77854300	-89.38238000	-28.42027000
9.19999962	-3.34522600	-89.75147000	-28.42027000
9.39999961	-1.43331700	-90.08366000	-28.42027000
9.59999960	0.47736220	-90.08366000	-28.42027000
9.79999959	1.91129400	-89.75147000	-28.42027000
9.99999958	2.54859700	-89.33932000	-28.42027000
10.19999956	2.38927200	-89.37623000	-28.42027000
10.39999955	1.75196900	-89.33932000	-28.42027000
10.59999954	0.79601380	-89.75147000	-28.42027000
10.79999953	0.00000000	-90.08366000	-28.42027000
10.99999952	-0.47736220	-90.12672000	-28.42027000
11.19999951	-0.95533960	-90.12672000	-28.42027000
11.39999949	-0.95533960	-90.12672000	-28.42027000
11.59999948	-0.79601380	-90.12672000	-28.42027000
11.79999947	-0.47736220	-90.12672000	-28.42027000
11.99999946	-0.15871060	-90.12672000	-28.42027000
12.19999945	-0.15871060	-90.12672000	-28.42027000
12.39999943	-0.15871060	-90.12672000	-28.42027000
12.59999942	0.00000000	-90.08366000	-28.42027000
12.79999941	0.00000000	-89.70841000	-28.42027000
12.99999940	0.15871060	-89.01328000	-28.42027000
13.19999939	0.00000000	-89.01328000	-28.42027000
13.39999937	0.00000000	-89.70841000	-28.42027000
13.59999936	0.00000000	-90.08366000	-28.42027000
13.79999935	0.00000000	-90.08366000	-28.42027000
13.99999934	-0.15871060	-89.75147000	-28.42027000
14.19999933	-0.15871060	-89.33932000	-28.42027000
14.39999932	-0.15871060	-89.33316000	-28.42027000
14.59999930	0.00000000	-88.96407000	-28.42027000
14.79999929	0.00000000	-89.01328000	-28.42027000
14.99999928	0.00000000	-89.70841000	-28.42027000
15.19999927	0.00000000	-90.03444000	-28.42027000
15.39999926	0.00000000	-89.75147000	-28.42027000
15.59999924	0.00000000	-89.38238000	-28.42027000
15.79999923	0.00000000	-89.75147000	-28.42027000
15.99999922	0.00000000	-90.08366000	-28.42027000
16.19999921	0.00000000	-90.08366000	-28.42027000
16.39999920	0.00000000	-89.70841000	-28.42027000
16.59999919	-0.15871060	-88.96407000	-28.42027000
16.79999917	-0.15871060	-88.58882000	-28.42027000
16.99999916	0.00000000	-88.50270000	-28.42027000
17.19999915	0.00000000	-88.12745000	-28.42027000
17.39999914	0.00000000	-87.38312000	-28.42027000
17.59999913	0.00000000	-87.05708000	-28.42027000
17.79999911	0.00000000	-87.43233000	-28.42027000
17.99999910	0.00000000	-88.58882000	-28.42027000
18.19999909	0.00000000	-90.12672000	-28.42027000
18.39999908	0.00000000	-91.70767000	-28.42027000
18.59999907	0.00000000	-93.24557000	-28.42027000
18.79999905	0.00000000	-94.35899000	-28.42027000
18.99999904	0.00000000	-94.35899000	-28.42027000
19.19999903	0.00000000	-93.19635000	-28.42027000
19.39999902	0.00000000	-91.19709000	-28.42027000
19.59999901	0.00000000	-88.07824000	-28.42027000
19.79999900	0.00000000	-84.22120000	-28.42027000
19.99999898	0.00000000	-80.77632000	-28.42027000
20.19999897	0.00000000	-78.45103000	-28.42027000
20.39999896	0.00000000	-78.16806000	-28.42027000
20.59999895	0.00000000	-80.49950000	-28.42027000
20.79999894	0.00000000	-85.61146000	-28.42027000
20.99999892	0.00000000	-92.55044000	-28.42027000
21.19999891	0.00000000	-100.31370000	-28.42027000
21.39999890	0.00000000	-106.79130000	-28.42027000
21.59999889	0.00000000	-110.23010000	-28.42027000
21.79999888	0.00000000	-108.97510000	-28.46333000
21.99999886	0.00000000	-102.74360000	-28.79552000
22.19999885	0.00000000	-92.27362000	-29.16461000
22.39999884	0.00000000	-79.52141000	-28.79552000
22.59999883	0.00000000	-67.60580000	-28.46333000
22.79999882	0.00000000	-59.51648000	-28.42027000
22.99999881	0.00000000	-57.69562000	-28.42027000
23.19999879	0.00000000	-63.13976000	-28.37721000
23.39999878	0.00000000	-75.55979000	-28.00197000
23.59999877	0.00000000	-92.17519000	-27.25763000
23.79999876	0.00000000	-109.62110000	-26.88238000
23.99999875	0.00000000	-124.18800000	-26.88238000
24.19999873	0.00000000	-131.81590000	-27.25763000
24.39999872	0.00000000	-129.44760000	-28.04503000
24.59999871	0.00000000	-117.43970000	-28.83858000
24.79999870	0.00000000	-98.08685000	-30.04429000
24.99999869	0.00000000	-75.33218000	-31.57603000
25.19999867	0.00000000	-54.90895000	-33.06471000
25.39999866	0.00000000	-41.78764000	-33.80905000
25.59999865	0.00000000	-39.08710000	-33.02165000
25.79999864	0.00000000	-47.64394000	-31.06545000
25.99999863	0.00000000	-65.84030000	-27.90969000
26.19999862	0.00000000	-90.16978000	-23.72662000
26.39999860	0.00000000	-114.83760000	-19.87574000
26.59999859	0.00000000	-133.72910000	-17.54429000
26.79999858	0.00000000	-142.24290000	-16.80610000
26.99999857	0.00000000	-138.42890000	-18.47318000
27.19999856	0.00000000	-123.76970000	-23.12377000
27.39999854	0.00000000	-101.75930000	-30.08735000
27.59999853	0.00000000	-77.38065000	-37.80758000
27.79999852	0.00000000	-56.11466000	-44.72810000
27.99999851	0.00000000	-42.20595000	-48.86811000
28.19999850	0.00000000	-39.13632000	-48.44980000
28.39999848	0.00000000	-47.50861000	-43.01181000
28.59999847	0.00000000	-64.49311000	-33.76599000
28.79999846	0.00000000	-85.75910000	-22.47785000
28.99999845	0.00000000	-107.01890000	-11.31890000
29.19999844	0.00000000	-123.25910000	-2.45447800
29.39999843	0.00000000	-131.11470000	1.31643700
29.59999841	0.00000000	-130.00120000	-1.01501000
29.79999840	0.00000000	-120.73690000	-9.60260800
29.99999839	0.00000000	-105.29650000	-23.12377000
30.19999838	0.00000000	-87.51845000	-38.92101000
30.39999837	0.00000000	-71.23524000	-53.18652000
30.59999835	0.00000000	-59.60260000	-62.43233000
30.79999834	0.00000000	-54.85974000	-64.75147000
30.99999833	0.00000000	-57.13583000	-59.27657000
31.19999832	0.00000000	-65.28666000	-46.91191000
31.39999831	0.00000000	-78.03272000	-29.90895000
31.59999829	0.00000000	-92.31667000	-12.16166000
31.79999828	0.00000000	-104.74290000	2.52214600
31.99999827	0.00000000	-113.25660000	11.02362000
32.19999826	0.00000000	-115.99410000	11.39272000
32.39999825	0.00000000	-112.60460000	3.63558100
32.59999824	0.00000000	-104.87820000	-11.04823000
32.79999822	0.00000000	-94.40822000	-29.53371000
32.99999821	0.00000000	-83.19389000	-47.28715000
33.19999820	0.00000000	-73.93578000	-60.48228000
33.39999819	0.00000000	-68.49162000	-66.70767000
33.59999818	0.00000000	-68.07332000	-65.16978000
33.79999816	0.00000000	-72.26254000	-56.25000000
33.99999815	0.00000000	-79.61367000	-41.56618000
34.19999814	0.00000000	-88.50270000	-24.23720000
34.39999813	0.00000000	-96.96727000	-8.39689900
34.59999812	0.00000000	-102.74360000	2.47908400
34.79999810	0.00000000	-104.32450000	6.74827700
34.99999809	0.00000000	-101.66710000	3.63558100
35.19999808	0.00000000	-95.93995000	-6.35457700
35.39999807	0.00000000	-89.01328000	-20.61393000
35.59999806	0.00000000	-82.81864000	-35.67298000
35.79999805	0.00000000	-78.58636000	-48.40059000
35.99999803	0.00000000	-77.42986000	-55.73941000
36.19999802	0.00000000	-79.70595000	-56.16388000
36.39999801	0.00000000	-84.27042000	-50.02460000
36.59999800	0.00000000	-89.65919000	-38.92101000
36.79999799	0.00000000	-94.31594000	-26.23647000
36.99999797	0.00000000	-97.38557000	-15.40969000
37.19999796	0.00000000	-98.17298000	-8.48302100
37.39999795	0.00000000	-96.27214000	-7.32652500
37.59999794	0.00000000	-92.77805000	-12.29085000
37.79999793	0.00000000	-88.12745000	-21.45669000
37.99999791	0.00000000	-83.19389000	-32.18504000
38.19999790	0.00000000	-80.08120000	-40.96949000
38.39999789	0.00000000	-79.28764000	-45.24483000
38.59999788	0.00000000	-80.40723000	-44.13140000
38.79999787	0.00000000	-83.51992000	-38.36737000
38.99999786	0.00000000	-87.38312000	-29.53371000
39.19999784	0.00000000	-91.66460000	-20.01107000
39.39999783	0.00000000	-95.47859000	-13.13361000
39.59999782	0.00000000	-97.47784000	-11.17741000
39.79999781	0.00000000	-97.89616000	-14.24705000
39.99999780	0.00000000	-97.05954000	-21.58587000
40.19999778	0.00000000	-94.31594000	-31.53297000
40.39999777	0.00000000	-90.12672000	-41.06176000
40.59999776	0.00000000	-85.85137000	-46.81963000
40.79999775	0.00000000	-82.35728000	-47.24409000
40.99999774	0.00000000	-79.98892000	-42.63656000
41.19999772	0.00000000	-79.23843000	-34.14124000
41.39999771	0.00000000	-80.03198000	-23.81890000
41.59999770	0.00000000	-82.73252000	-14.62229000
41.79999769	0.00000000	-86.54650000	-9.59645700
41.99999768	0.00000000	-90.08366000	-9.51033400
42.19999767	0.00000000	-93.19635000	-13.73647000
42.39999765	0.00000000	-95.52164000	-21.08145000
42.59999764	0.00000000	-96.31520000	-29.90895000
42.79999763	0.00000000	-95.93995000	-37.99213000
42.99999762	0.00000000	-94.35899000	-43.01181000
43.19999761	0.00000000	-91.70767000	-44.21752000
43.39999759	0.00000000	-89.01328000	-41.52312000
43.59999758	0.00000000	-87.00787000	-35.80217000
43.79999757	0.00000000	-85.42691000	-28.88164000
43.99999756	0.00000000	-84.27042000	-22.69931000
44.19999755	0.00000000	-83.89517000	-18.43012000
44.39999753	0.00000000	-84.22120000	-16.89222000
44.59999752	0.00000000	-84.96555000	-18.33784000
44.79999751	0.00000000	-85.34079000	-21.77658000
44.99999750	0.00000000	-85.42691000	-25.63976000
45.19999749	0.00000000	-85.85137000	-29.53371000
45.39999748	0.00000000	-87.05708000	-32.60334000
45.59999746	0.00000000	-89.01328000	-34.18430000
45.79999745	0.00000000	-91.75073000	-34.18430000
45.99999744	0.00000000	-94.82652000	-32.69562000
46.19999743	0.00000000	-97.47784000	-30.37647000
46.39999742	0.00000000	-98.59129000	-28.04503000
46.59999740	0.00000000	-97.43479000	-25.72589000
46.79999739	0.00000000	-94.31594000	-24.19414000
46.99999738	0.00000000	-89.61613000	-23.77584000
47.19999737	0.00000000	-83.80289000	-24.15108000
47.39999736	0.00000000	-78.03272000	-25.35064000
47.59999734	0.00000000	-73.84350000	-27.25763000
47.79999733	0.00000000	-72.73006000	-29.58292000
47.99999732	0.00000000	-75.47367000	-31.48991000
48.19999731	0.00000000	-81.61294000	-32.68946000
48.39999730	0.00000000	-89.75147000	-33.02165000
48.59999729	0.00000000	-97.85310000	-32.22810000
48.79999727	0.00000000	-104.41070000	-29.95201000
48.99999726	0.00000000	-107.44340000	-27.25763000
49.19999725	0.00000000	-105.90550000	-24.88927000
49.39999724	0.00000000	-100.08610000	-22.57013000
49.59999723	0.00000000	-91.24630000	-21.12451000
49.79999721	0.00000000	-81.61294000	-21.49975000
49.99999720	0.00000000	-73.89271000	-23.81890000
50.19999719	0.00000000	-69.65427000	-27.25763000
50.39999718	0.00000000	-70.02953000	-31.11466000
50.59999717	0.00000000	-75.00614000	-34.18430000
50.79999715	0.00000000	-82.73252000	-35.80217000
50.99999714	0.00000000	-91.62155000	-36.13435000
51.19999713	0.00000000	-99.66781000	-34.92249000
51.39999712	0.00000000	-104.32450000	-31.44069000
51.59999711	0.00000000	-104.74290000	-26.88238000
51.79999710	0.00000000	-101.24880000	-22.65625000
51.99999708	0.00000000	-94.31594000	-19.96186000
52.19999707	0.00000000	-85.89443000	-19.54355000
52.39999706	0.00000000	-78.58636000	-21.08145000
52.59999705	0.00000000	-74.35408000	-24.15108000
52.79999704	0.00000000	-74.31102000	-28.00197000
52.99999702	0.00000000	-78.12499000	-31.48991000
53.19999701	0.00000000	-84.27042000	-34.18430000
53.39999700	0.00000000	-91.19709000	-35.29773000
53.59999699	0.00000000	-96.96727000	-34.18430000
53.79999698	0.00000000	-99.99999000	-31.57603000
53.99999696	0.00000000	-99.29256000	-28.83858000
54.19999695	0.00000000	-95.10950000	-26.51329000
54.39999694	0.00000000	-89.75147000	-24.61245000
54.59999693	0.00000000	-84.31348000	-24.23720000
54.79999692	0.00000000	-80.08120000	-25.30758000
54.99999691	0.00000000	-78.16806000	-26.88853000
55.19999689	0.00000000	-78.96161000	-28.79552000
55.39999688	0.00000000	-82.77559000	-30.64714000
55.59999687	0.00000000	-88.12745000	-30.97933000
55.79999686	0.00000000	-93.11023000	-29.49065000
55.99999685	0.00000000	-96.59202000	-26.83932000
56.19999683	0.00000000	-97.38557000	-24.23720000
56.39999682	0.00000000	-95.89690000	-23.07455000
56.59999681	0.00000000	-92.77805000	-23.81890000
56.79999680	0.00000000	-88.54576000	-25.77510000
56.99999679	0.00000000	-84.35654000	-28.88779000
57.19999677	0.00000000	-81.61294000	-32.68946000
57.39999676	0.00000000	-80.81939000	-35.71604000
57.59999675	0.00000000	-81.61294000	-36.87254000
57.79999674	0.00000000	-84.31348000	-35.67298000
57.99999673	0.00000000	-88.07824000	-32.18504000
58.19999672	0.00000000	-91.15402000	-26.79626000
58.39999670	0.00000000	-92.73499000	-21.08145000
58.59999669	0.00000000	-92.77805000	-16.84916000
58.79999668	0.00000000	-91.66460000	-15.31742000
58.99999667	0.00000000	-90.12672000	-16.84916000
59.19999666	0.00000000	-88.54576000	-21.12451000
59.39999664	0.00000000	-87.00787000	-27.30684000
59.59999663	0.00000000	-85.85137000	-34.22736000
59.79999662	0.00000000	-85.47613000	-39.94832000
59.99999661	0.00000000	-85.85137000	-42.63656000
60.19999660	0.00000000	-86.96481000	-41.48006000
60.39999658	0.00000000	-88.07824000	-36.87869000
60.59999657	0.00000000	-88.50270000	-29.90895000
60.79999656	0.00000000	-88.50270000	-22.19488000
60.99999655	0.00000000	-88.12745000	-15.27436000
61.19999654	0.00000000	-87.34005000	-11.09129000
61.39999653	0.00000000	-86.58956000	-11.09129000
61.59999651	0.00000000	-85.85137000	-15.31742000
61.79999650	0.00000000	-85.89443000	-22.61319000
61.99999649	0.00000000	-87.00787000	-31.11466000
62.19999648	0.00000000	-88.54576000	-38.78568000
62.39999647	0.00000000	-90.08366000	-43.79921000
62.59999645	0.00000000	-91.24016000	-44.59276000
62.79999644	0.00000000	-91.61539000	-41.52312000
62.99999643	0.00000000	-91.24016000	-35.34079000
63.19999642	0.00000000	-90.03444000	-27.25763000
63.39999641	0.00000000	-88.12745000	-19.58661000
63.59999639	0.00000000	-85.80216000	-14.11171000
63.79999638	0.00000000	-83.93823000	-11.82948000
63.99999637	0.00000000	-83.10777000	-12.94906000
64.19999636	0.00000000	-83.51992000	-17.54429000
64.39999635	0.00000000	-84.68873000	-23.68356000
64.59999634	0.00000000	-87.00787000	-29.95201000
64.79999632	0.00000000	-89.65919000	-35.71604000
64.99999631	0.00000000	-91.57234000	-39.57308000
65.19999630	0.00000000	-92.35974000	-40.36663000
65.39999629	0.00000000	-91.61539000	-38.50270000
65.59999628	0.00000000	-90.08366000	-34.64567000
65.79999626	0.00000000	-88.12745000	-30.04429000
65.99999625	0.00000000	-85.89443000	-25.72589000
66.19999624	0.00000000	-84.73178000	-22.23794000
66.39999623	0.00000000	-85.05167000	-19.87574000
66.59999622	0.00000000	-85.85137000	-19.08218000
66.79999620	0.00000000	-87.43233000	-19.45743000
66.99999619	0.00000000	-89.65919000	-21.03838000
67.19999618	0.00000000	-91.19709000	-23.72662000
67.39999617	0.00000000	-91.57234000	-26.83932000
67.59999616	0.00000000	-90.77879000	-30.00123000
67.79999615	0.00000000	-88.50270000	-33.11393000
67.99999613	0.00000000	-85.80216000	-35.80217000
68.19999612	0.00000000	-83.51992000	-37.34006000
68.39999611	0.00000000	-81.98818000	-37.38312000
68.59999610	0.00000000	-82.40034000	-36.17741000
68.79999609	0.00000000	-84.31348000	-33.80905000
68.99999607	0.00000000	-87.47539000	-29.90895000
69.19999606	0.00000000	-91.66460000	-25.30758000
69.39999605	0.00000000	-95.47859000	-21.03838000
69.59999604	0.00000000	-97.43479000	-17.96260000
69.79999603	0.00000000	-97.38557000	-16.80610000
69.99999601	0.00000000	-95.01106000	-17.96260000
70.19999600	0.00000000	-90.03444000	-21.03838000
70.39999599	0.00000000	-84.31348000	-25.30758000
70.59999598	0.00000000	-79.61367000	-30.00123000
70.79999597	0.00000000	-76.54404000	-34.60261000
70.99999596	0.00000000	-75.79970000	-38.03519000
71.19999594	0.00000000	-78.12499000	-38.78568000
71.39999593	0.00000000	-82.73252000	-36.92175000
71.59999592	0.00000000	-88.54576000	-33.06471000
71.79999591	0.00000000	-94.31594000	-28.46333000
71.99999590	0.00000000	-98.59743000	-24.19414000
72.19999588	0.00000000	-100.51060000	-21.08145000
72.39999587	0.00000000	-99.71087000	-19.50049000
72.59999586	0.00000000	-95.85383000	-19.50049000
72.79999585	0.00000000	-90.12672000	-21.08145000
72.99999584	0.00000000	-84.31348000	-24.10187000
73.19999582	0.00000000	-79.61367000	-27.54060000
73.39999581	0.00000000	-76.49483000	-29.86589000
73.59999580	0.00000000	-75.42445000	-31.06545000
73.79999579	0.00000000	-77.33759000	-31.06545000
73.99999578	0.00000000	-81.88976000	-29.95201000
74.19999577	0.00000000	-86.92175000	-28.46333000
74.39999575	0.00000000	-91.61539000	-27.34990000
74.59999574	0.00000000	-95.42937000	-27.34990000
74.79999573	0.00000000	-96.96727000	-28.42027000
74.99999572	0.00000000	-95.89690000	-29.58292000
75.19999571	0.00000000	-93.24557000	-30.32726000
75.39999569	0.00000000	-90.12672000	-30.69636000
75.59999568	0.00000000	-87.00787000	-29.86589000
75.79999567	0.00000000	-84.31348000	-27.95891000
75.99999566	0.00000000	-82.77559000	-25.21530000
76.19999565	0.00000000	-82.73252000	-22.19488000
76.39999563	0.00000000	-83.84596000	-19.91880000
76.59999562	0.00000000	-85.34079000	-19.54355000
76.79999561	0.00000000	-86.49728000	-21.08145000
76.99999560	0.00000000	-86.96481000	-24.23720000
77.19999559	0.00000000	-87.38312000	-28.83858000
77.39999558	0.00000000	-88.12745000	-33.85211000
77.59999556	0.00000000	-88.50270000	-37.67224000
77.79999555	0.00000000	-88.54576000	-39.57308000
77.99999554	0.00000000	-88.58882000	-38.41043000
78.19999553	0.00000000	-88.96407000	-34.60261000
78.39999552	0.00000000	-89.70841000	-29.53371000
78.59999550	0.00000000	-90.08366000	-23.72662000
78.79999549	0.00000000	-90.08366000	-18.38706000
78.99999548	0.00000000	-89.61613000	-15.31742000
79.19999547	0.00000000	-88.07824000	-15.27436000
79.39999546	0.00000000	-85.80216000	-17.91953000
79.59999544	0.00000000	-83.89517000	-22.19488000
79.79999543	0.00000000	-82.68947000	-27.25763000
79.99999542	0.00000000	-82.35728000	-32.64640000
80.19999541	0.00000000	-83.15083000	-36.82948000
80.39999540	0.00000000	-85.42691000	-38.45349000
80.59999539	0.00000000	-88.12745000	-37.75836000
80.79999537	0.00000000	-90.45890000	-35.80217000
80.99999536	0.00000000	-92.40280000	-32.64640000
81.19999535	0.00000000	-93.11023000	-28.42027000
81.39999534	0.00000000	-92.35974000	-24.19414000
81.59999533	0.00000000	-90.08366000	-21.08145000
81.79999531	0.00000000	-87.38312000	-19.45743000
81.99999530	0.00000000	-85.05167000	-19.08218000
82.19999529	0.00000000	-83.10777000	-19.87574000
82.39999528	0.00000000	-82.35728000	-22.19488000
82.59999527	0.00000000	-82.73252000	-25.26452000
82.79999525	0.00000000	-84.27042000	-28.42027000
82.99999524	0.00000000	-86.54650000	-31.53297000
83.19999523	0.00000000	-88.45349000	-34.22736000
83.39999522	0.00000000	-89.65919000	-35.75910000
83.59999521	0.00000000	-90.03444000	-35.80217000
83.79999520	0.00000000	-89.70841000	-34.64567000
83.99999518	0.00000000	-88.96407000	-32.64640000
84.19999517	0.00000000	-88.54576000	-29.53371000
84.39999516	0.00000000	-88.12745000	-25.68282000
84.59999515	0.00000000	-87.38312000	-22.19488000
84.79999514	0.00000000	-87.00787000	-19.50049000
84.99999512	0.00000000	-86.96481000	-18.38706000
85.19999511	0.00000000	-86.96481000	-19.50049000
85.39999510	0.00000000	-86.92175000	-22.19488000
85.59999509	0.00000000	-86.54650000	-25.72589000
85.79999508	0.00000000	-85.80216000	-30.00123000
85.99999506	0.00000000	-85.42691000	-34.22736000
86.19999505	0.00000000	-85.42691000	-37.25394000
86.39999504	0.00000000	-85.85137000	-38.03519000
86.59999503	0.00000000	-87.00787000	-36.13435000
86.79999502	0.00000000	-88.50270000	-32.64640000
86.99999501	0.00000000	-89.70841000	-28.00197000
87.19999499	0.00000000	-90.45890000	-23.03149000
87.39999498	0.00000000	-90.82184000	-19.54355000
87.59999497	0.00000000	-90.03444000	-17.96260000
87.79999496	0.00000000	-88.54576000	-18.38706000
87.99999495	0.00000000	-86.96481000	-21.12451000
88.19999493	0.00000000	-85.42691000	-25.68282000
88.39999492	0.00000000	-84.27042000	-30.64714000
88.59999491	0.00000000	-83.89517000	-34.13509000
88.79999490	0.00000000	-84.27042000	-35.71604000
88.99999489	0.00000000	-85.42691000	-35.29773000
89.19999487	0.00000000	-86.96481000	-32.60334000
89.39999486	0.00000000	-88.50270000	-28.42027000
89.59999485	0.00000000	-89.65919000	-24.19414000
89.79999484	0.00000000	-90.08366000	-21.08145000
89.99999483	0.00000000	-90.08366000	-19.54355000
90.19999482	0.00000000	-89.65919000	-19.91880000
90.39999480	0.00000000	-88.50270000	-22.28100000
90.59999479	0.00000000	-87.00787000	-26.10113000
90.79999478	0.00000000	-85.85137000	-30.69636000
90.99999477	0.00000000	-85.42691000	-34.13509000
91.19999476	0.00000000	-85.38385000	-35.67298000
91.39999474	0.00000000	-85.42691000	-34.87328000
91.59999473	0.00000000	-85.80216000	-31.44069000
91.79999472	0.00000000	-86.54650000	-26.88238000
91.99999471	0.00000000	-86.92175000	-22.61319000
92.19999470	0.00000000	-86.96481000	-19.54355000
92.39999468	0.00000000	-86.96481000	-18.43012000
92.59999467	0.00000000	-87.00787000	-19.96186000
92.79999466	0.00000000	-87.38312000	-23.77584000
92.99999465	0.00000000	-88.17052000	-28.37721000
93.19999464	0.00000000	-88.92101000	-32.60334000
93.39999463	0.00000000	-89.70841000	-35.29773000
93.59999461	0.00000000	-90.03444000	-35.67298000
93.79999460	0.00000000	-89.65919000	-33.76599000
93.99999459	0.00000000	-88.45349000	-29.90895000
94.19999458	0.00000000	-86.54650000	-25.35679000
94.39999457	0.00000000	-84.22120000	-21.49975000
94.59999455	0.00000000	-82.35728000	-19.54355000
94.79999454	0.00000000	-81.52682000	-19.54355000
94.99999453	0.00000000	-81.93897000	-21.49975000
95.19999452	0.00000000	-83.10777000	-25.30758000
95.39999451	0.00000000	-85.47613000	-29.49065000
95.59999449	0.00000000	-88.54576000	-32.60334000
95.79999448	0.00000000	-91.61539000	-34.14124000
95.99999447	0.00000000	-93.89764000	-33.76599000
96.19999446	0.00000000	-94.31594000	-31.48991000
96.39999445	0.00000000	-93.19635000	-28.42027000
96.59999444	0.00000000	-91.19709000	-25.30758000
96.79999442	0.00000000	-88.07824000	-22.65625000
96.99999441	0.00000000	-84.22120000	-21.49975000
97.19999440	0.00000000	-80.77632000	-22.23794000
97.39999439	0.00000000	-78.45103000	-24.10187000
97.59999438	0.00000000	-78.07578000	-26.42101000
97.79999436	0.00000000	-79.61367000	-28.37721000
97.99999435	0.00000000	-82.73252000	-29.95201000
98.19999434	0.00000000	-86.96481000	-31.06545000
98.39999433	0.00000000	-91.19709000	-31.06545000
98.59999432	0.00000000	-94.31594000	-29.95201000
98.79999430	0.00000000	-95.85383000	-28.46333000
98.99999429	0.00000000	-95.47859000	-27.30684000
99.19999428	0.00000000	-93.19635000	-26.88238000
99.39999427	0.00000000	-90.08366000	-26.83932000
99.59999426	0.00000000	-86.54650000	-26.83932000
99.79999425	0.00000000	-82.73252000	-26.83932000
99.99999423	0.00000000	-80.03198000	-26.79626000
100.19999422	0.00000000	-79.19537000	-26.42101000
100.39999421	0.00000000	-79.57062000	-25.68282000
100.59999420	0.00000000	-81.15157000	-25.30758000
100.79999419	0.00000000	-83.84596000	-25.30758000
100.99999417	0.00000000	-86.96481000	-25.72589000
101.19999416	0.00000000	-90.03444000	-26.88853000
101.39999415	0.00000000	-92.35974000	-28.42027000
101.59999414	0.00000000	-93.15329000	-29.95201000
101.79999413	0.00000000	-92.82111000	-31.11466000
101.99999411	0.00000000	-91.61539000	-31.44069000
102.19999410	0.00000000	-89.65919000	-30.64714000
102.39999409	0.00000000	-86.96481000	-28.37721000
102.59999408	0.00000000	-84.27042000	-25.68282000
102.79999407	0.00000000	-82.35728000	-23.35753000
102.99999406	0.00000000	-81.52682000	-21.45669000
103.19999404	0.00000000	-81.88976000	-21.08145000
103.39999403	0.00000000	-82.68947000	-22.19488000
103.59999402	0.00000000	-84.27042000	-24.14493000
103.79999401	0.00000000	-86.54650000	-26.88853000
103.99999400	0.00000000	-88.50270000	-29.95201000
104.19999398	0.00000000	-90.08366000	-32.60334000
104.39999397	0.00000000	-91.19709000	-33.71678000
104.59999396	0.00000000	-91.19709000	-32.60334000
104.79999395	0.00000000	-90.03444000	-30.00123000
104.99999394	0.00000000	-88.12745000	-27.25763000
105.19999392	0.00000000	-85.85137000	-24.93233000
105.39999391	0.00000000	-84.31348000	-22.98843000
105.59999390	0.00000000	-83.89517000	-22.23794000
105.79999389	0.00000000	-84.22120000	-22.61319000
105.99999388	0.00000000	-85.05167000	-24.14493000
106.19999387	0.00000000	-86.17741000	-26.46407000
106.39999385	0.00000000	-87.70914000	-28.74631000
106.59999384	0.00000000	-88.45349000	-30.64714000
106.79999383	0.00000000	-88.50270000	-31.02239000
106.99999382	0.00000000	-88.07824000	-29.95201000
107.19999381	0.00000000	-86.96481000	-28.42027000
107.39999379	0.00000000	-85.80216000	-26.83932000
107.59999378	0.00000000	-85.05167000	-25.30758000
107.79999377	0.00000000	-84.63951000	-24.19414000
107.99999376	0.00000000	-85.05167000	-24.15108000
108.19999375	0.00000000	-85.80216000	-24.93233000
108.39999374	0.00000000	-86.96481000	-26.05807000
108.59999372	0.00000000	-88.07824000	-27.62672000
108.79999371	0.00000000	-88.50270000	-28.75246000
108.99999370	0.00000000	-88.50270000	-29.53371000
109.19999369	0.00000000	-88.07824000	-29.49065000
109.39999368	0.00000000	-86.96481000	-28.37721000
109.59999366	0.00000000	-85.80216000	-26.83932000
109.79999365	0.00000000	-85.00861000	-25.30758000
109.99999364	0.00000000	-84.22120000	-24.15108000
110.19999363	0.00000000	-83.89517000	-23.77584000
110.39999362	0.00000000	-84.27042000	-24.15108000
110.59999360	0.00000000	-85.42691000	-25.30758000
110.79999359	0.00000000	-86.92175000	-26.83932000
110.99999358	0.00000000	-88.07824000	-28.37721000
111.19999357	0.00000000	-88.50270000	-29.53371000
111.39999356	0.00000000	-88.54576000	-29.95817000
111.59999355	0.00000000	-88.50270000	-29.95817000
111.79999353	0.00000000	-88.12745000	-29.53371000
111.99999352	0.00000000	-87.34005000	-28.37721000
112.19999351	0.00000000	-86.58956000	-26.93159000
112.39999350	0.00000000	-85.80216000	-26.10113000
112.59999349	0.00000000	-85.42691000	-26.04577000
112.79999347	0.00000000	-85.42691000	-25.68282000
112.99999346	0.00000000	-85.80216000	-25.72589000
113.19999345	0.00000000	-86.54650000	-26.42101000
113.39999344	0.00000000	-86.92175000	-26.79626000
113.59999343	0.00000000	-86.96481000	-26.83932000
113.79999341	0.00000000	-86.96481000	-26.88238000
113.99999340	0.00000000	-86.96481000	-27.25763000
114.19999339	0.00000000	-86.96481000	-28.00197000
114.39999338	0.00000000	-86.96481000	-28.37721000
114.59999337	0.00000000	-86.92175000	-28.42027000
114.79999336	0.00000000	-86.54650000	-28.42027000
114.99999334	0.00000000	-85.80216000	-28.42027000
115.19999333	0.00000000	-85.42691000	-28.42027000
115.39999332	0.00000000	-85.38385000	-28.37721000
115.59999331	0.00000000	-85.42691000	-27.95275000
115.79999330	0.00000000	-85.80216000	-26.83932000
115.99999328	0.00000000	-86.54650000	-25.72589000
116.19999327	0.00000000	-86.92175000	-25.30758000
116.39999326	0.00000000	-86.96481000	-25.26452000
116.59999325	0.00000000	-86.96481000	-25.26452000
116.79999324	0.00000000	-86.96481000	-25.26452000
116.99999322	0.00000000	-86.92175000	-25.30758000
117.19999321	0.00000000	-86.54650000	-25.72589000
117.39999320	0.00000000	-85.80216000	-26.83932000
117.59999319	0.00000000	-85.38385000	-27.95275000
117.79999318	0.00000000	-84.96555000	-28.42027000
117.99999317	0.00000000	-84.27042000	-28.79552000
118.19999315	0.00000000	-84.27042000	-29.16461000
118.39999314	0.00000000	-85.00861000	-28.75246000
118.59999313	0.00000000	-85.80216000	-28.04503000
118.79999312	0.00000000	-86.96481000	-27.21457000
118.99999311	0.00000000	-88.07824000	-26.46407000
119.19999309	0.00000000	-88.50270000	-25.68282000
119.39999308	0.00000000	-88.54576000	-25.30758000
119.59999307	0.00000000	-88.50270000	-25.26452000
119.79999306	0.00000000	-88.07824000	-25.30758000
119.99999305	0.00000000	-86.92175000	-25.68282000
120.19999303	0.00000000	-85.38385000	-26.42101000
120.39999302	0.00000000	-83.89517000	-26.83932000
120.59999301	0.00000000	-83.10777000	-27.25763000
120.79999300	0.00000000	-83.42766000	-28.00197000
120.99999299	0.00000000	-83.80289000	-28.37721000
121.19999298	0.00000000	-84.27042000	-28.42027000
121.39999296	0.00000000	-85.42691000	-28.42027000
121.59999295	0.00000000	-86.92175000	-28.42027000
121.79999294	0.00000000	-88.07824000	-28.37721000
121.99999293	0.00000000	-88.50270000	-28.00197000
122.19999292	0.00000000	-88.54576000	-27.21457000
122.39999290	0.00000000	-88.50270000	-26.46407000
122.59999289	0.00000000	-88.07824000	-25.68282000
122.79999288	0.00000000	-86.92175000	-25.30758000
122.99999287	0.00000000	-85.42691000	-25.26452000
123.19999286	0.00000000	-84.27042000	-25.30758000
123.39999284	0.00000000	-83.84596000	-25.68282000
123.59999283	0.00000000	-83.80289000	-26.42101000
123.79999282	0.00000000	-83.84596000	-26.83932000
123.99999281	0.00000000	-84.22120000	-27.25763000
124.19999280	0.00000000	-85.00861000	-28.00197000
124.39999279	0.00000000	-85.75910000	-28.37721000
124.59999277	0.00000000	-86.58956000	-28.37721000
124.79999276	0.00000000	-87.34005000	-28.00197000
124.99999275	0.00000000	-88.12745000	-27.25763000
125.19999274	0.00000000	-88.45349000	-26.83932000
125.39999273	0.00000000	-88.12745000	-26.42101000
125.59999271	0.00000000	-87.34005000	-25.68282000
125.79999270	0.00000000	-86.58956000	-25.30758000
125.99999269	0.00000000	-85.75910000	-25.30758000
126.19999268	0.00000000	-85.00861000	-25.68282000
126.39999267	0.00000000	-84.22120000	-26.42101000
126.59999265	0.00000000	-83.84596000	-26.79626000
126.79999264	0.00000000	-83.84596000	-26.83932000
126.99999263	0.00000000	-84.27042000	-26.88238000
127.19999262	0.00000000	-85.42691000	-27.25763000
127.39999261	0.00000000	-86.92175000	-27.95275000
127.59999260	0.00000000	-88.07824000	-27.95275000
127.79999258	0.00000000	-88.45349000	-27.25763000
127.99999257	0.00000000	-88.12745000	-26.88238000
128.19999256	0.00000000	-87.38312000	-26.83932000
128.39999255	0.00000000	-86.96481000	-26.83932000
128.59999254	0.00000000	-86.49728000	-26.83932000
128.79999252	0.00000000	-85.38385000	-26.83932000
128.99999251	0.00000000	-84.27042000	-26.83932000
129.19999250	0.00000000	-83.89517000	-26.83932000
129.39999249	0.00000000	-84.22120000	-26.88238000
129.59999248	0.00000000	-85.00861000	-27.25763000
129.79999246	0.00000000	-85.80216000	-28.00197000
129.99999245	0.00000000	-86.96481000	-28.32800000
130.19999244	0.00000000	-88.07824000	-28.00197000
130.39999243	0.00000000	-88.45349000	-27.25763000
130.59999242	0.00000000	-88.12745000	-26.88238000
130.79999241	0.00000000	-87.34005000	-26.83932000
130.99999239	0.00000000	-86.54650000	-26.83932000
131.19999238	0.00000000	-85.38385000	-26.83932000
131.39999237	0.00000000	-84.31348000	-26.88238000
131.59999236	0.00000000	-84.27042000	-27.25763000
131.79999235	0.00000000	-84.96555000	-28.00197000
131.99999233	0.00000000	-85.38385000	-28.37721000
132.19999232	0.00000000	-85.80216000	-28.42027000
132.39999231	0.00000000	-86.54650000	-28.42027000
132.59999230	0.00000000	-86.92175000	-28.37721000
132.79999229	0.00000000	-86.96481000	-28.00197000
132.99999227	0.00000000	-86.92175000	-27.21457000
133.19999226	0.00000000	-86.54650000	-26.46407000
133.39999225	0.00000000	-85.80216000	-25.68282000
133.59999224	0.00000000	-85.42691000	-25.30758000
133.79999223	0.00000000	-85.38385000	-25.30758000
133.99999222	0.00000000	-85.38385000	-25.68282000
134.19999220	0.00000000	-85.38385000	-26.46407000
134.39999219	0.00000000	-85.38385000	-27.21457000
134.59999218	0.00000000	-85.38385000	-28.00197000
134.79999217	0.00000000	-85.38385000	-28.37721000
134.99999216	0.00000000	-85.38385000	-28.42027000
135.19999214	0.00000000	-85.38385000	-28.42027000
135.39999213	0.00000000	-85.38385000	-28.37721000
135.59999212	0.00000000	-85.38385000	-27.95275000
135.79999211	0.00000000	-85.38385000	-26.83932000
135.99999210	0.00000000	-85.42691000	-25.72589000
136.19999208	0.00000000	-85.80216000	-25.30758000
136.39999207	0.00000000	-86.54650000	-25.26452000
136.59999206	0.00000000	-86.92175000	-25.26452000
136.79999205	0.00000000	-86.96481000	-25.30758000
136.99999204	0.00000000	-86.92175000	-25.68282000
137.19999203	0.00000000	-86.54650000	-26.42101000
137.39999201	0.00000000	-85.75910000	-26.83932000
137.59999200	0.00000000	-85.05167000	-27.25763000
137.79999199	0.00000000	-84.59645000	-28.00197000
137.99999198	0.00000000	-84.59030000	-28.37721000
138.19999197	0.00000000	-84.22120000	-28.42027000
138.39999195	0.00000000	-84.31348000	-28.37721000
138.59999194	0.00000000	-85.38385000	-28.00197000
138.79999193	0.00000000	-86.49728000	-27.25763000
138.99999192	0.00000000	-86.92175000	-26.83932000
139.19999191	0.00000000	-86.96481000	-26.42101000
139.39999189	0.00000000	-86.92175000	-25.68282000
139.59999188	0.00000000	-86.54650000	-25.30758000
139.79999187	0.00000000	-85.80216000	-25.26452000
139.99999186	0.00000000	-85.38385000	-25.30758000
140.19999185	0.00000000	-84.96555000	-25.68282000
140.39999184	0.00000000	-84.27042000	-26.46407000
140.59999182	0.00000000	-84.27042000	-27.21457000
140.79999181	0.00000000	-84.96555000	-28.00197000
140.99999180	0.00000000	-85.38385000	-28.37721000
141.19999179	0.00000000	-85.80216000	-28.42027000
141.39999178	0.00000000	-86.54650000	-28.37721000
141.59999176	0.00000000	-86.87254000	-27.95275000
141.79999175	0.00000000	-86.54650000	-26.83932000
141.99999174	0.00000000	-85.80216000	-25.68282000
142.19999173	0.00000000	-85.42691000	-24.93233000
142.39999172	0.00000000	-85.38385000	-24.52018000
142.59999170	0.00000000	-85.38385000	-24.93233000
142.79999169	0.00000000	-85.38385000	-25.63976000
142.99999168	0.00000000	-85.38385000	-26.46407000
143.19999167	0.00000000	-85.38385000	-27.21457000
143.39999166	0.00000000	-85.42691000	-28.00197000
143.59999165	0.00000000	-85.75910000	-28.37721000
143.79999163	0.00000000	-86.12819000	-28.42027000
143.99999162	0.00000000	-85.75910000	-28.42027000
144.19999161	0.00000000	-85.42691000	-28.37721000
144.39999160	0.00000000	-85.38385000	-27.95275000
144.59999159	0.00000000	-85.38385000	-26.83932000
144.79999157	0.00000000	-85.38385000	-25.72589000
144.99999156	0.00000000	-85.38385000	-25.30758000
145.19999155	0.00000000	-85.38385000	-25.30758000
145.39999154	0.00000000	-85.38385000	-25.68282000
145.59999153	0.00000000	-85.42691000	-26.42101000
145.79999151	0.00000000	-85.80216000	-26.83932000
145.99999150	0.00000000	-86.54650000	-27.25763000
146.19999149	0.00000000	-86.87254000	-28.00197000
146.39999148	0.00000000	-86.54650000	-28.32800000
146.59999147	0.00000000	-85.80216000	-28.04503000
146.79999146	0.00000000	-85.42691000	-27.63287000
146.99999144	0.00000000	-85.34079000	-27.62672000
147.19999143	0.00000000	-85.00861000	-27.21457000
147.39999142	0.00000000	-84.63951000	-26.83932000
147.59999141	0.00000000	-85.00861000	-26.42101000
147.79999140	0.00000000	-85.34079000	-25.68282000
147.99999138	0.00000000	-85.42691000	-25.35679000
148.19999137	0.00000000	-85.80216000	-25.68282000
148.39999136	0.00000000	-86.54650000	-26.42101000
148.59999135	0.00000000	-86.87254000	-26.79626000
148.79999134	0.00000000	-86.54650000	-26.83932000
148.99999132	0.00000000	-85.80216000	-26.83932000
149.19999131	0.00000000	-85.38385000	-26.83932000
149.39999130	0.00000000	-85.00861000	-26.83932000
149.59999129	0.00000000	-84.59645000	-26.83932000
149.79999128	0.00000000	-84.63336000	-26.83932000
149.99999127	0.00000000	-84.59645000	-26.83932000
150.19999125	0.00000000	-85.00861000	-26.83932000
150.39999124	0.00000000	-85.34079000	-26.79626000
150.59999123	0.00000000	-85.42691000	-26.42101000
150.79999122	0.00000000	-85.75910000	-25.68282000
150.99999121	0.00000000	-86.12819000	-25.30758000
151.19999119	0.00000000	-85.75910000	-25.26452000
151.39999118	0.00000000	-85.42691000	-25.30758000
151.59999117	0.00000000	-85.38385000	-25.68282000
151.79999116	0.00000000	-85.38385000	-26.42101000
151.99999115	0.00000000	-85.38385000	-26.79626000
152.19999113	0.00000000	-85.34079000	-26.83932000
152.39999112	0.00000000	-85.00861000	-26.83932000
152.59999111	0.00000000	-84.63951000	-26.83932000
152.79999110	0.00000000	-84.96555000	-26.79626000
152.99999109	0.00000000	-84.91634000	-26.46407000
153.19999108	0.00000000	-84.27042000	-26.05807000
153.39999106	0.00000000	-84.27042000	-26.09498000
153.59999105	0.00000000	-85.00861000	-26.00886000
153.79999104	0.00000000	-85.71604000	-26.09498000
153.99999103	0.00000000	-86.12819000	-26.00886000
154.19999102	0.00000000	-85.80216000	-26.04577000
154.39999100	0.00000000	-85.80216000	-25.68282000
154.59999099	0.00000000	-86.12819000	-25.72589000
154.79999098	0.00000000	-85.75910000	-26.42101000
154.99999097	0.00000000	-85.42691000	-26.79626000
155.19999096	0.00000000	-85.34079000	-26.83932000
155.39999094	0.00000000	-84.96555000	-26.83932000
155.59999093	0.00000000	-84.22120000	-26.83932000
155.79999092	0.00000000	-83.89517000	-26.83932000
155.99999091	0.00000000	-84.17815000	-26.83932000
156.19999090	0.00000000	-84.59030000	-26.83932000
156.39999089	0.00000000	-84.59645000	-26.79626000
156.59999087	0.00000000	-85.00861000	-26.42101000
156.79999086	0.00000000	-85.38385000	-25.68282000
156.99999085	0.00000000	-85.80216000	-25.30758000
157.19999084	0.00000000	-86.49728000	-25.26452000
157.39999083	0.00000000	-86.49728000	-25.30758000
157.59999081	0.00000000	-85.80216000	-25.68282000
157.79999080	0.00000000	-85.42691000	-26.42101000
157.99999079	0.00000000	-85.38385000	-26.83932000
158.19999078	0.00000000	-85.34079000	-27.21457000
158.39999077	0.00000000	-85.00861000	-27.62672000
158.59999075	0.00000000	-84.63951000	-27.58981000
158.79999074	0.00000000	-84.96555000	-27.62672000
158.99999073	0.00000000	-84.96555000	-27.21457000
159.19999072	0.00000000	-84.63951000	-26.83932000
159.39999071	0.00000000	-85.00861000	-26.42101000
159.59999070	0.00000000	-85.34079000	-25.68282000
159.79999068	0.00000000	-85.38385000	-25.30758000
159.99999067	0.00000000	-85.38385000	-25.26452000
160.19999066	0.00000000	-85.38385000	-25.30758000
160.39999065	0.00000000	-85.38385000	-25.63976000
160.59999064	0.00000000	-85.38385000	-26.04577000
160.79999062	0.00000000	-85.38385000	-26.10113000
160.99999061	0.00000000	-85.38385000	-26.83932000
161.19999060	0.00000000	-85.38385000	-27.53445000
161.39999059	0.00000000	-85.38385000	-27.21457000
161.59999058	0.00000000	-85.34079000	-26.88238000
161.79999056	0.00000000	-85.00861000	-26.83932000
161.99999055	0.00000000	-84.59645000	-26.83932000
162.19999054	0.00000000	-84.59030000	-26.83932000
162.39999053	0.00000000	-84.22120000	-26.79626000
162.59999052	0.00000000	-84.27042000	-26.42101000
162.79999051	0.00000000	-84.96555000	-25.72589000
162.99999049	0.00000000	-85.34079000	-25.72589000
163.19999048	0.00000000	-85.38385000	-26.37795000
163.39999047	0.00000000	-85.38385000	-26.42101000
163.59999046	0.00000000	-85.42691000	-26.10113000
163.79999045	0.00000000	-85.75910000	-26.46407000
163.99999043	0.00000000	-86.12819000	-26.79626000
164.19999042	0.00000000	-85.75910000	-26.83932000
164.39999041	0.00000000	-85.42691000	-26.83932000
164.59999040	0.00000000	-85.34079000	-26.83932000
164.79999039	0.00000000	-84.96555000	-26.83932000
164.99999037	0.00000000	-84.22120000	-26.83932000
165.19999036	0.00000000	-83.89517000	-26.83932000
165.39999035	0.00000000	-84.22120000	-26.79626000
165.59999034	0.00000000	-84.96555000	-26.46407000
165.79999033	0.00000000	-85.34079000	-26.05807000
165.99999032	0.00000000	-85.38385000	-26.04577000
166.19999030	0.00000000	-85.38385000	-25.68282000
166.39999029	0.00000000	-85.38385000	-25.72589000
166.59999028	0.00000000	-85.38385000	-26.37795000
166.79999027	0.00000000	-85.38385000	-26.37795000
166.99999026	0.00000000	-85.38385000	-25.68282000
167.19999024	0.00000000	-85.34079000	-25.35679000
167.39999023	0.00000000	-85.00861000	-25.63976000
167.59999022	0.00000000	-84.59645000	-26.04577000
167.79999021	0.00000000	-84.59030000	-26.00886000
167.99999020	0.00000000	-84.17815000	-26.09498000
168.19999018	0.00000000	-83.84596000	-26.00886000
168.39999017	0.00000000	-83.84596000	-26.09498000
168.59999016	0.00000000	-84.22120000	-26.05807000
168.79999015	0.00000000	-84.96555000	-26.46407000
168.99999014	0.00000000	-85.34079000	-26.79626000
169.19999013	0.00000000	-85.38385000	-26.83932000
169.39999011	0.00000000	-85.38385000	-26.83932000
169.59999010	0.00000000	-85.38385000	-26.83932000
169.79999009	0.00000000	-85.38385000	-26.83932000
169.99999008	0.00000000	-85.34079000	-26.83932000
170.19999007	0.00000000	-85.00861000	-26.79626000
170.39999005	0.00000000	-84.63951000	-26.46407000
170.59999004	0.00000000	-84.96555000	-26.10113000
170.79999003	0.00000000	-84.91634000	-26.42101000
170.99999002	0.00000000	-84.22120000	-26.42101000
171.19999001	0.00000000	-83.84596000	-26.10113000
171.39998999	0.00000000	-83.80289000	-26.46407000
171.59998998	0.00000000	-83.80289000	-26.79626000
171.79998997	0.00000000	-83.84596000	-26.83932000
171.99998996	0.00000000	-84.17815000	-26.83932000
172.19998995	0.00000000	-84.59030000	-26.83932000
172.39998994	0.00000000	-84.59645000	-26.83932000
172.59998992	0.00000000	-85.00861000	-26.83932000
172.79998991	0.00000000	-85.34079000	-26.79626000
172.99998990	0.00000000	-85.34079000	-26.42101000
173.19998989	0.00000000	-84.96555000	-25.72589000
173.39998988	0.00000000	-84.27042000	-25.68282000
173.59998986	0.00000000	-84.22120000	-26.00270000
173.79998985	0.00000000	-84.59030000	-25.68282000
173.99998984	0.00000000	-84.59645000	-25.72589000
174.19998983	0.00000000	-84.96555000	-26.42101000
174.39998982	0.00000000	-84.91634000	-26.79626000
174.59998980	0.00000000	-84.27042000	-26.83932000
174.79998979	0.00000000	-84.27042000	-26.83932000
174.99998978	0.00000000	-84.96555000	-26.83932000
175.19998977	0.00000000	-85.34079000	-26.83932000
175.39998976	0.00000000	-85.34079000	-26.79626000
175.59998975	0.00000000	-84.96555000	-26.42101000
175.79998973	0.00000000	-84.27042000	-25.68282000
175.99998972	0.00000000	-84.22120000	-25.30758000
176.19998971	0.00000000	-84.59030000	-25.30758000
176.39998970	0.00000000	-84.55339000	-25.68282000
176.59998969	0.00000000	-84.63336000	-26.37795000
176.79998967	0.00000000	-84.59645000	-26.42101000
176.99998966	0.00000000	-85.00861000	-26.10113000
177.19998965	0.00000000	-85.34079000	-26.46407000
177.39998964	0.00000000	-85.38385000	-26.79626000
177.59998963	0.00000000	-85.38385000	-26.83932000
177.79998961	0.00000000	-85.38385000	-26.83932000
177.99998960	0.00000000	-85.38385000	-26.83932000
178.19998959	0.00000000	-85.38385000	-26.83932000
178.39998958	0.00000000	-85.38385000	-26.83932000
178.59998957	0.00000000	-85.34079000	-26.79626000
178.79998956	0.00000000	-85.00861000	-26.46407000
178.99998954	0.00000000	-84.59645000	-26.05807000
179.19998953	0.00000000	-84.59030000	-26.09498000
179.39998952	0.00000000	-84.22120000	-26.05807000
179.59998951	0.00000000	-84.22120000	-26.46407000
179.79998950	0.00000000	-84.54724000	-26.79626000
179.99998948	0.00000000	-84.17815000	-26.83932000
180.19998947	0.00000000	-83.89517000	-26.83932000
180.39998946	0.00000000	-84.22120000	-26.83932000
180.59998945	0.00000000	-84.96555000	-26.83932000
180.79998944	0.00000000	-85.34079000	-26.83932000
180.99998942	0.00000000	-85.34079000	-26.83932000
181.19998941	0.00000000	-85.00861000	-26.79626000
181.39998940	0.00000000	-84.59645000	-26.42101000
181.59998939	0.00000000	-84.59030000	-25.72589000
181.79998938	0.00000000	-84.17815000	-25.68282000
181.99998937	0.00000000	-83.84596000	-26.00270000
182.19998935	0.00000000	-83.80289000	-25.63976000
182.39998934	0.00000000	-83.80289000	-25.35679000
182.59998933	0.00000000	-83.80289000	-25.68282000
182.79998932	0.00000000	-83.80289000	-26.42101000
182.99998931	0.00000000	-83.80289000	-26.79626000
183.19998929	0.00000000	-83.80289000	-26.83932000
183.39998928	0.00000000	-83.80289000	-26.83932000
183.59998927	0.00000000	-83.80289000	-26.83932000
183.79998926	0.00000000	-83.84596000	-26.79626000
183.99998925	0.00000000	-84.17815000	-26.42101000
184.19998923	0.00000000	-84.54724000	-25.68282000
184.39998922	0.00000000	-84.17815000	-25.30758000
184.59998921	0.00000000	-83.84596000	-25.26452000
184.79998920	0.00000000	-83.84596000	-25.26452000
184.99998919	0.00000000	-84.17815000	-25.26452000
185.19998918	0.00000000	-84.54724000	-25.26452000
185.39998916	0.00000000	-84.17815000	-25.30758000
185.59998915	0.00000000	-83.84596000	-25.68282000
185.79998914	0.00000000	-83.80289000	-26.42101000
185.99998913	0.00000000	-83.80289000	-26.79626000
186.19998912	0.00000000	-83.80289000	-26.83932000
186.39998910	0.00000000	-83.80289000	-26.83932000
186.59998909	0.00000000	-83.80289000	-26.83932000
186.79998908	0.00000000	-83.80289000	-26.79626000
186.99998907	0.00000000	-83.80289000	-26.46407000
187.19998906	0.00000000	-83.84596000	-26.05807000
187.39998904	0.00000000	-84.22120000	-26.04577000
187.59998903	0.00000000	-84.91634000	-25.63976000
187.79998902	0.00000000	-84.91634000	-25.30758000
187.99998901	0.00000000	-84.22120000	-25.26452000
188.19998900	0.00000000	-83.84596000	-25.30758000
188.39998899	0.00000000	-83.80289000	-25.68282000
188.59998897	0.00000000	-83.80289000	-26.42101000
188.79998896	0.00000000	-83.80289000	-26.79626000
188.99998895	0.00000000	-83.80289000	-26.83932000
189.19998894	0.00000000	-83.80289000	-26.83932000
189.39998893	0.00000000	-83.80289000	-26.83932000
189.59998891	0.00000000	-83.84596000	-26.83932000
189.79998890	0.00000000	-84.22120000	-26.83932000
189.99998889	0.00000000	-84.96555000	-26.83932000
190.19998888	0.00000000	-85.34079000	-26.79626000
190.39998887	0.00000000	-85.38385000	-26.42101000
190.59998885	0.00000000	-85.38385000	-25.68282000
190.79998884	0.00000000	-85.34079000	-25.30758000
190.99998883	0.00000000	-84.96555000	-25.26452000
191.19998882	0.00000000	-84.22120000	-25.26452000
191.39998881	0.00000000	-83.84596000	-25.30758000
191.59998880	0.00000000	-83.80289000	-25.68282000
191.79998878	0.00000000	-83.80289000	-26.42101000
191.99998877	0.00000000	-83.80289000	-26.79626000
192.19998876	0.00000000	-83.80289000	-26.83932000
192.39998875	0.00000000	-83.80289000	-26.83932000
192.59998874	0.00000000	-83.80289000	-26.83932000
192.79998872	0.00000000	-83.80289000	-26.83932000
192.99998871	0.00000000	-83.84596000	-26.83932000
193.19998870	0.00000000	-84.22120000	-26.83932000
193.39998869	0.00000000	-84.96555000	-26.83932000
193.59998868	0.00000000	-85.29158000	-26.83932000
193.79998866	0.00000000	-85.00861000	-26.79626000
193.99998865	0.00000000	-84.59645000	-26.42101000
194.19998864	0.00000000	-84.59030000	-25.68282000
194.39998863	0.00000000	-84.17815000	-25.30758000
194.59998862	0.00000000	-83.84596000	-25.26452000
194.79998861	0.00000000	-83.80289000	-25.30758000
194.99998859	0.00000000	-83.80289000	-25.68282000
195.19998858	0.00000000	-83.80289000	-26.42101000
195.39998857	0.00000000	-83.80289000	-26.74705000
195.59998856	0.00000000	-83.80289000	-26.46407000
195.79998855	0.00000000	-83.84596000	-26.10113000
195.99998853	0.00000000	-84.22120000	-26.46407000
