Time	Channel A	Channel B	Channel C
(us)	(V)	(mV)	(mV)

-4.49999956	0.00000000	-61.28814000	-15.78494000
-4.29999957	0.00000000	-61.62032000	-15.78494000
-4.09999958	0.00000000	-61.66338000	-15.78494000
-3.89999959	0.00000000	-61.62032000	-15.78494000
-3.69999960	0.00000000	-61.28814000	-15.78494000
-3.49999962	0.00000000	-60.87598000	-15.78494000
-3.29999963	0.00000000	-60.86983000	-15.78494000
-3.09999964	0.00000000	-60.45767000	-15.78494000
-2.89999965	0.00000000	-60.12549000	-15.78494000
-2.69999966	0.00000000	-60.12549000	-15.78494000
-2.49999968	0.00000000	-60.50073000	-15.78494000
-2.29999969	0.00000000	-61.19586000	-15.78494000
-2.09999970	0.00000000	-61.19586000	-15.78494000
-1.89999971	0.00000000	-60.54995000	-15.78494000
-1.69999972	0.00000000	-60.54995000	-15.78494000
-1.49999973	0.00000000	-61.19586000	-15.78494000
-1.29999975	0.00000000	-61.19586000	-15.78494000
-1.09999976	0.00000000	-60.50073000	-15.78494000
-0.89999977	0.00000000	-60.12549000	-15.78494000
-0.69999978	0.00000000	-60.08243000	-15.78494000
-0.49999979	0.00000000	-60.08243000	-15.78494000
-0.29999981	0.31803640	-60.08243000	-15.78494000
-0.09999982	0.63668800	-60.08243000	-15.78494000
0.10000017	0.95533960	-60.08243000	-15.78494000
0.30000016	1.11466500	-60.12549000	-15.78494000
0.50000015	0.79601380	-60.45767000	-15.78494000
0.70000013	0.31803640	-60.82677000	-15.78494000
0.90000012	-0.47736220	-60.45767000	-15.78494000
1.10000011	-1.43331700	-60.12549000	-15.78494000
1.30000010	-2.38927200	-60.08243000	-15.78494000
1.50000009	-2.70792300	-60.08243000	-15.78494000
1.70000008	-2.38927200	-60.08243000	-15.78494000
1.90000006	-1.27399100	-60.08243000	-15.78494000
2.10000005	0.47736220	-60.08243000	-15.78494000
2.30000004	2.54859700	-60.08243000	-15.78494000
2.50000003	4.45989200	-60.08243000	-15.78494000
2.70000002	5.25652100	-60.08243000	-15.78494000
2.90000000	4.93786900	-60.12549000	-15.78494000
3.09999999	3.02657500	-60.50073000	-15.78494000
3.29999998	0.00000000	-61.19586000	-15.78494000
3.49999997	-3.50393700	-61.19586000	-15.78494000
3.69999996	-6.37180100	-60.50073000	-15.78494000
3.89999994	-7.96444400	-60.12549000	-15.74188000
4.09999993	-7.48646600	-60.08243000	-15.36663000
4.29999992	-5.09719500	-60.08243000	-14.62844000
4.49999991	-1.11466500	-60.08243000	-14.25320000
4.69999990	3.34522600	-60.08243000	-14.25320000
4.89999989	7.16781500	-60.08243000	-14.62844000
5.09999987	9.23905000	-60.08243000	-15.36663000
5.29999986	9.07972400	-60.08243000	-15.74188000
5.49999985	6.53112700	-60.08243000	-15.78494000
5.69999984	2.38927200	-60.12549000	-15.78494000
5.89999983	-2.22994600	-60.50073000	-15.78494000
6.09999981	-6.53112700	-61.19586000	-15.78494000
6.29999980	-9.07972400	-61.19586000	-15.78494000
6.49999979	-9.23905000	-60.50073000	-15.74188000
6.69999978	-7.16781500	-60.12549000	-15.40969000
6.89999977	-3.50393700	-60.08243000	-15.04675000
7.09999975	0.79601380	-60.12549000	-15.36663000
7.29999974	4.77854300	-60.45767000	-15.36663000
7.49999973	7.16781500	-60.82677000	-15.04675000
7.69999972	7.64579200	-60.45767000	-15.40969000
7.89999971	6.21247500	-60.12549000	-15.74188000
8.09999970	3.50393700	-60.08243000	-15.78494000
8.29999968	0.15871060	-60.08243000	-15.78494000
8.49999967	-2.70792300	-60.08243000	-15.78494000
8.69999966	-4.77854300	-60.08243000	-15.78494000
8.89999965	-5.25652100	-60.08243000	-15.78494000
9.09999964	-4.45989200	-60.08243000	-15.78494000
9.29999962	-2.70792300	-60.08243000	-15.78494000
9.49999961	-0.63668800	-60.08243000	-15.78494000
9.69999960	1.11466500	-60.08243000	-15.78494000
9.89999959	2.22994600	-60.08243000	-15.78494000
10.09999958	2.54859700	-60.12549000	-15.78494000
10.29999956	2.22994600	-60.45767000	-15.78494000
10.49999955	1.43331700	-60.82677000	-15.78494000
10.69999954	0.47736220	-60.45767000	-15.78494000
10.89999953	-0.15871060	-60.12549000	-15.78494000
11.09999952	-0.79601380	-60.08243000	-15.78494000
11.29999951	-0.95533960	-60.08243000	-15.78494000
11.49999949	-0.95533960	-60.08243000	-15.78494000
11.69999948	-0.79601380	-60.08243000	-15.78494000
11.89999947	-0.47736220	-60.08243000	-15.74188000
12.09999946	-0.15871060	-60.08243000	-15.36663000
12.29999945	-0.15871060	-60.08243000	-14.67150000
12.49999943	0.00000000	-60.08243000	-14.67150000
12.69999942	0.00000000	-60.08243000	-15.36663000
12.89999941	0.00000000	-60.08243000	-15.74188000
13.09999940	0.00000000	-60.08243000	-15.74188000
13.29999939	0.15871060	-60.08243000	-15.40969000
13.49999937	0.00000000	-60.08243000	-15.04675000
13.69999936	0.00000000	-60.08243000	-15.40969000
13.89999935	0.00000000	-60.08243000	-15.74188000
14.09999934	0.00000000	-60.08243000	-15.78494000
14.29999933	-0.15871060	-60.08243000	-15.78494000
14.49999932	0.00000000	-60.08243000	-15.78494000
14.69999930	0.00000000	-60.08243000	-15.78494000
14.89999929	0.00000000	-60.08243000	-15.78494000
15.09999928	0.00000000	-60.12549000	-15.78494000
15.29999927	0.00000000	-60.45767000	-15.78494000
15.49999926	0.00000000	-60.86983000	-15.78494000
15.69999924	0.00000000	-60.87598000	-15.78494000
15.89999923	0.00000000	-61.24508000	-15.78494000
16.09999922	0.00000000	-61.19586000	-15.78494000
16.29999921	0.00000000	-60.50073000	-15.78494000
16.49999920	0.00000000	-60.12549000	-15.78494000
16.69999919	-0.15871060	-60.08243000	-15.78494000
16.89999917	0.00000000	-60.03937000	-15.78494000
17.09999916	0.00000000	-59.66412000	-15.78494000
17.29999915	0.00000000	-58.87672000	-15.78494000
17.49999914	0.00000000	-58.16929000	-15.78494000
17.69999913	0.00000000	-57.80634000	-15.78494000
17.89999911	0.00000000	-58.59375000	-15.78494000
18.09999910	0.00000000	-60.08243000	-15.78494000
18.29999909	0.00000000	-61.66338000	-15.78494000
18.49999908	0.00000000	-63.24434000	-15.78494000
18.69999907	0.00000000	-64.78223000	-15.78494000
18.89999905	0.00000000	-65.89567000	-15.78494000
19.09999904	0.00000000	-65.85260000	-15.74188000
19.29999903	0.00000000	-64.31471000	-15.40969000
19.49999902	0.00000000	-61.57111000	-15.04675000
19.69999901	0.00000000	-58.08316000	-15.40969000
19.89999900	0.00000000	-54.17691000	-15.69267000
20.09999898	0.00000000	-50.73204000	-15.36663000
20.29999897	0.00000000	-48.49901000	-14.62844000
20.49999896	0.00000000	-48.96653000	-14.25320000
20.69999895	0.00000000	-52.82357000	-14.21014000
20.89999894	0.00000000	-59.01205000	-14.25320000
21.09999892	0.00000000	-66.40624000	-14.62844000
21.29999891	0.00000000	-73.71432000	-15.36663000
21.49999890	0.00000000	-79.10925000	-15.74188000
21.69999889	0.00000000	-80.93011000	-15.78494000
21.89999888	0.00000000	-78.18036000	-15.78494000
22.09999886	0.00000000	-70.37401000	-15.78494000
22.29999885	0.00000000	-59.15354000	-15.78494000
22.49999884	0.00000000	-46.40748000	-15.78494000
22.69999883	0.00000000	-35.28543000	-15.78494000
22.89999882	0.00000000	-29.14001000	-15.74188000
23.09999881	0.00000000	-29.60753000	-15.36663000
23.29999879	0.00000000	-37.42618000	-14.62844000
23.49999878	0.00000000	-51.75319000	-14.25320000
23.69999877	0.00000000	-69.52509000	-14.21014000
23.89999876	0.00000000	-86.88483000	-14.21014000
24.09999875	0.00000000	-99.53863000	-14.21014000
24.29999873	0.00000000	-103.73400000	-14.25320000
24.49999872	0.00000000	-97.87155000	-14.67150000
24.69999871	0.00000000	-82.78789000	-15.87721000
24.89999870	0.00000000	-61.52805000	-17.74114000
25.09999869	0.00000000	-39.14862000	-19.69119000
25.29999867	0.00000000	-20.63238000	-20.81078000
25.49999866	0.00000000	-10.62377000	-21.17372000
25.69999865	0.00000000	-11.82948000	-19.97416000
25.89999864	0.00000000	-24.21260000	-17.27977000
26.09999863	0.00000000	-45.47243000	-13.79183000
26.29999862	0.00000000	-70.50935000	-9.89173200
26.49999860	0.00000000	-93.35014000	-6.44685000
26.69999859	0.00000000	-108.80290000	-4.17076700
26.89999858	0.00000000	-113.77950000	-4.26304100
27.09999857	0.00000000	-106.42840000	-7.37573800
27.29999856	0.00000000	-88.33046000	-13.18282000
27.49999854	0.00000000	-64.40699000	-20.52780000
27.69999853	0.00000000	-40.02829000	-27.86663000
27.89999852	0.00000000	-20.71850000	-33.63066000
28.09999851	0.00000000	-10.62377000	-36.27584000
28.29999850	0.00000000	-11.74336000	-34.65182000
28.49999848	0.00000000	-23.28371000	-28.42643000
28.69999847	0.00000000	-42.21825000	-18.35015000
28.89999846	0.00000000	-64.22859000	-6.40378900
29.09999845	0.00000000	-84.32578000	4.78592500
29.29999844	0.00000000	-97.91460000	12.45694000
29.49999843	0.00000000	-102.65750000	14.68996000
29.69999841	0.00000000	-98.46825000	10.03937000
29.89999840	0.00000000	-86.88483000	-0.78124990
30.09999839	0.00000000	-70.60162000	-15.09596000
30.29999838	0.00000000	-52.82357000	-30.56102000
30.49999837	0.00000000	-37.37697000	-43.62082000
30.69999835	0.00000000	-28.02657000	-50.91658000
30.89999834	0.00000000	-25.97810000	-50.54134000
31.09999833	0.00000000	-30.58563000	-42.41511000
31.29999832	0.00000000	-40.68036000	-28.47564000
31.49999831	0.00000000	-54.17691000	-11.05438000
31.69999829	0.00000000	-68.13484000	6.27460600
31.89999828	0.00000000	-79.34915000	19.37746000
32.09999827	0.00000000	-85.99901000	25.18455000
32.29999826	0.00000000	-86.79256000	22.49631000
32.49999825	0.00000000	-82.18504000	12.03863000
32.69999824	0.00000000	-73.25295000	-4.17691900
32.89999822	0.00000000	-61.71259000	-22.71161000
33.09999821	0.00000000	-50.54749000	-39.30241000
33.29999820	0.00000000	-42.72884000	-50.54134000
33.49999819	0.00000000	-39.19168000	-54.07234000
33.69999818	0.00000000	-39.98523000	-49.84621000
33.89999816	0.00000000	-45.38017000	-38.97022000
34.09999815	0.00000000	-53.80167000	-23.12992000
34.29999814	0.00000000	-62.69069000	-5.80093500
34.49999813	0.00000000	-70.04182000	8.88287400
34.69999812	0.00000000	-74.32332000	17.80266000
34.89999810	0.00000000	-74.74163000	19.37746000
35.09999809	0.00000000	-71.67200000	13.57037000
35.29999808	0.00000000	-65.89567000	1.67322800
35.49999807	0.00000000	-59.01205000	-13.37352000
35.69999806	0.00000000	-53.19881000	-27.68824000
35.89999805	0.00000000	-49.70472000	-38.88410000
36.09999803	0.00000000	-48.96653000	-44.27288000
36.29999802	0.00000000	-51.61786000	-42.36589000
36.49999801	0.00000000	-56.58833000	-34.32578000
36.69999800	0.00000000	-61.99557000	-22.01033000
36.89999799	0.00000000	-67.01525000	-8.99975300
37.09999797	0.00000000	-70.04798000	1.03346500
37.29999796	0.00000000	-70.09104000	5.72096400
37.49999795	0.00000000	-67.39050000	4.60752900
37.69999794	0.00000000	-62.78297000	-1.57480300
37.89999793	0.00000000	-57.43110000	-11.51575000
38.09999791	0.00000000	-53.14960000	-22.20103000
38.29999790	0.00000000	-50.82431000	-29.87205000
38.49999789	0.00000000	-50.41215000	-32.60949000
38.69999788	0.00000000	-52.35605000	-29.87205000
38.89999787	0.00000000	-55.80708000	-22.28715000
39.09999786	0.00000000	-60.08243000	-12.35236000
39.29999784	0.00000000	-64.31471000	-3.93700800
39.49999783	0.00000000	-67.43970000	1.11958700
39.69999782	0.00000000	-69.02066000	1.45177200
39.89999781	0.00000000	-68.97761000	-3.14960600
40.09999780	0.00000000	-67.06447000	-11.60187000
40.29999778	0.00000000	-63.57652000	-21.54897000
40.49999777	0.00000000	-59.75024000	-29.95817000
40.69999776	0.00000000	-56.17618000	-34.19045000
40.89999775	0.00000000	-53.42642000	-33.02780000
41.09999774	0.00000000	-51.15034000	-26.89468000
41.29999772	0.00000000	-50.45521000	-17.32283000
41.49999771	0.00000000	-52.31299000	-7.33267600
41.69999770	0.00000000	-55.38263000	0.38139760
41.89999769	0.00000000	-58.91978000	4.23228400
42.09999768	0.00000000	-62.77681000	3.07578700
42.29999767	0.00000000	-65.85260000	-2.63902500
42.49999765	0.00000000	-67.48277000	-11.09744000
42.69999764	0.00000000	-67.85802000	-19.97416000
42.89999763	0.00000000	-67.06447000	-27.26993000
43.09999762	0.00000000	-64.73917000	-31.12082000
43.29999761	0.00000000	-61.70644000	-30.42569000
43.49999759	0.00000000	-58.96899000	-26.24262000
43.69999758	0.00000000	-57.01279000	-20.10950000
43.89999757	0.00000000	-55.80708000	-13.51501000
44.09999756	0.00000000	-55.38263000	-8.12007800
44.29999755	0.00000000	-55.38263000	-4.63828700
44.49999753	0.00000000	-55.75787000	-4.21998000
44.69999752	0.00000000	-56.50221000	-6.44685000
44.89999751	0.00000000	-56.87746000	-9.93479300
45.09999750	0.00000000	-56.96358000	-14.16708000
45.29999749	0.00000000	-57.43110000	-18.01796000
45.49999748	0.00000000	-58.96899000	-20.39247000
45.69999746	0.00000000	-61.28814000	-21.54897000
45.89999745	0.00000000	-63.66264000	-21.17372000
46.09999744	0.00000000	-66.40624000	-19.27288000
46.29999743	0.00000000	-68.97145000	-16.99065000
46.49999742	0.00000000	-69.71580000	-14.62844000
46.69999740	0.00000000	-67.76575000	-12.67224000
46.89999739	0.00000000	-63.94562000	-11.14050000
47.09999738	0.00000000	-58.83366000	-10.40231000
47.29999737	0.00000000	-53.38336000	-11.14050000
47.49999736	0.00000000	-48.03149000	-12.67224000
47.69999734	0.00000000	-44.64198000	-14.62844000
47.89999733	0.00000000	-45.05413000	-16.94759000
48.09999732	0.00000000	-48.87426000	-18.85458000
48.29999731	0.00000000	-55.51796000	-20.01722000
48.49999730	0.00000000	-63.61958000	-20.01722000
48.69999729	0.00000000	-71.71505000	-18.85458000
48.89999727	0.00000000	-77.44217000	-16.90453000
49.09999726	0.00000000	-78.98006000	-14.16092000
49.29999725	0.00000000	-75.90427000	-11.14050000
49.49999724	0.00000000	-68.92839000	-8.86441900
49.69999723	0.00000000	-59.66412000	-8.44611200
49.89999721	0.00000000	-50.07997000	-9.60875900
50.09999720	0.00000000	-43.14714000	-11.93405000
50.29999719	0.00000000	-40.77264000	-15.45891000
50.49999718	0.00000000	-42.68578000	-19.27288000
50.69999717	0.00000000	-48.49901000	-22.71161000
50.89999715	0.00000000	-56.96358000	-24.20029000
51.09999714	0.00000000	-65.85260000	-23.12992000
51.29999713	0.00000000	-73.16068000	-20.43553000
51.49999712	0.00000000	-76.97465000	-16.90453000
51.69999711	0.00000000	-75.81815000	-12.67224000
51.89999710	0.00000000	-70.13410000	-8.86441900
52.09999708	0.00000000	-62.08169000	-6.90821800
52.29999707	0.00000000	-54.35531000	-6.90821800
52.49999706	0.00000000	-48.54207000	-8.82135800
52.69999705	0.00000000	-45.84769000	-12.29700000
52.89999704	0.00000000	-47.01033000	-16.16018000
53.09999702	0.00000000	-51.61786000	-20.01722000
53.29999701	0.00000000	-58.50147000	-22.61934000
53.49999700	0.00000000	-65.39124000	-22.66855000
53.69999699	0.00000000	-70.04182000	-20.47859000
53.89999698	0.00000000	-71.57972000	-17.74114000
54.09999696	0.00000000	-69.67273000	-15.03445000
54.29999695	0.00000000	-64.68996000	-12.35236000
54.49999694	0.00000000	-58.59375000	-11.22662000
54.69999693	0.00000000	-53.19881000	-11.55881000
54.89999692	0.00000000	-50.12303000	-13.09055000
55.09999691	0.00000000	-50.03691000	-15.36663000
55.29999689	0.00000000	-52.35605000	-17.23056000
55.49999688	0.00000000	-56.22539000	-18.01796000
55.69999687	0.00000000	-61.24508000	-17.23056000
55.89999686	0.00000000	-65.80955000	-15.36663000
56.09999685	0.00000000	-68.51008000	-13.09055000
56.29999683	0.00000000	-68.55315000	-11.55881000
56.49999682	0.00000000	-66.22785000	-11.14050000
56.69999681	0.00000000	-62.40772000	-11.60187000
56.89999680	0.00000000	-57.80634000	-13.60113000
57.09999679	0.00000000	-54.31225000	-17.36589000
57.29999677	0.00000000	-52.35605000	-21.17372000
57.49999676	0.00000000	-51.99311000	-23.45595000
57.69999675	0.00000000	-53.89394000	-23.82505000
57.89999674	0.00000000	-56.92052000	-21.50590000
58.09999673	0.00000000	-60.03937000	-17.27362000
58.29999672	0.00000000	-62.73376000	-12.21087000
58.49999670	0.00000000	-64.27164000	-6.86515700
58.69999669	0.00000000	-64.31471000	-3.10039400
58.89999668	0.00000000	-63.15207000	-2.68208600
59.09999667	0.00000000	-61.24508000	-5.37647600
59.29999666	0.00000000	-58.96899000	-10.44537000
59.49999664	0.00000000	-57.43110000	-17.36589000
59.69999663	0.00000000	-57.01279000	-24.24335000
59.89999662	0.00000000	-57.38804000	-28.89395000
60.09999661	0.00000000	-58.50147000	-30.42569000
60.29999660	0.00000000	-59.61491000	-28.42643000
60.49999658	0.00000000	-60.03937000	-22.66855000
60.69999657	0.00000000	-60.08243000	-14.62844000
60.89999656	0.00000000	-60.03937000	-6.91437000
61.09999655	0.00000000	-59.61491000	-1.10728300
61.29999654	0.00000000	-58.50147000	1.53789400
61.49999653	0.00000000	-57.38804000	0.00615157
61.69999651	0.00000000	-57.01279000	-5.38262700
61.89999650	0.00000000	-57.38804000	-13.04749000
62.09999649	0.00000000	-58.54454000	-21.17372000
62.29999648	0.00000000	-60.08243000	-27.73130000
62.49999647	0.00000000	-61.62032000	-31.58218000
62.69999645	0.00000000	-62.77681000	-31.53912000
62.89999644	0.00000000	-63.15207000	-27.31299000
63.09999643	0.00000000	-62.73376000	-20.06029000
63.29999642	0.00000000	-61.19586000	-11.97711000
63.49999641	0.00000000	-58.91978000	-5.37647600
63.69999639	0.00000000	-56.96358000	-1.06422200
63.89999638	0.00000000	-55.43184000	0.42445860
64.09999637	0.00000000	-54.68750000	-1.52559000
64.29999636	0.00000000	-55.47490000	-6.91437000
64.49999635	0.00000000	-57.33883000	-14.16092000
64.69999634	0.00000000	-59.66412000	-21.08760000
64.89999632	0.00000000	-61.62032000	-25.77510000
65.09999631	0.00000000	-63.15207000	-27.77436000
65.29999630	0.00000000	-63.89641000	-27.44832000
65.49999629	0.00000000	-63.10900000	-25.08612000
65.69999628	0.00000000	-61.24508000	-21.22293000
65.89999626	0.00000000	-58.91978000	-16.20325000
66.09999625	0.00000000	-57.01279000	-11.55881000
66.29999624	0.00000000	-55.85014000	-8.02780400
66.49999623	0.00000000	-55.85014000	-5.70866100
66.69999622	0.00000000	-57.01279000	-5.29035400
66.89999620	0.00000000	-58.91978000	-6.40378900
67.09999619	0.00000000	-61.19586000	-8.35383800
67.29999618	0.00000000	-62.69069000	-11.09744000
67.49999617	0.00000000	-62.73376000	-14.21014000
67.69999616	0.00000000	-61.57111000	-17.36589000
67.89999615	0.00000000	-59.61491000	-20.47859000
68.09999613	0.00000000	-56.92052000	-23.17298000
68.29999612	0.00000000	-54.31225000	-24.71087000
68.49999611	0.00000000	-53.19881000	-24.71087000
68.69999610	0.00000000	-54.31225000	-23.12992000
68.89999609	0.00000000	-57.01279000	-20.01722000
69.09999607	0.00000000	-60.50073000	-15.74188000
69.29999606	0.00000000	-64.36392000	-11.09129000
69.49999605	0.00000000	-67.39050000	-6.86515700
69.69999604	0.00000000	-68.55315000	-4.17076700
69.89999603	0.00000000	-67.39050000	-3.75246000
70.09999601	0.00000000	-64.27164000	-5.33341500
70.29999600	0.00000000	-59.61491000	-8.86441900
70.49999599	0.00000000	-54.22613000	-14.21014000
70.69999598	0.00000000	-49.66166000	-19.59892000
70.89999597	0.00000000	-47.33637000	-23.50517000
71.09999596	0.00000000	-48.08071000	-25.82431000
71.29999594	0.00000000	-51.19340000	-25.77510000
71.49999593	0.00000000	-56.22539000	-23.12992000
71.69999592	0.00000000	-62.40772000	-18.90379000
71.89999591	0.00000000	-67.81496000	-14.25320000
72.09999590	0.00000000	-71.67200000	-10.02707000
72.29999588	0.00000000	-72.83464000	-7.33267600
72.49999587	0.00000000	-70.88459000	-6.86515700
72.69999586	0.00000000	-66.64001000	-8.02780400
72.89999585	0.00000000	-60.45767000	-10.35310000
73.09999584	0.00000000	-54.31225000	-13.79183000
73.29999582	0.00000000	-49.66166000	-16.81225000
73.49999581	0.00000000	-47.33637000	-18.43627000
73.69999580	0.00000000	-48.08071000	-18.81152000
73.89999579	0.00000000	-51.15034000	-18.11024000
74.09999578	0.00000000	-55.80708000	-16.57849000
74.29999577	0.00000000	-61.19586000	-15.45891000
74.49999575	0.00000000	-65.80955000	-14.67150000
74.69999574	0.00000000	-68.55315000	-14.72072000
74.89999573	0.00000000	-68.97145000	-15.83415000
75.09999572	0.00000000	-67.43970000	-17.32283000
75.29999571	0.00000000	-64.36392000	-18.43627000
75.49999569	0.00000000	-60.50073000	-18.39321000
75.69999568	0.00000000	-57.05585000	-16.85531000
75.89999567	0.00000000	-54.68750000	-14.16092000
76.09999566	0.00000000	-53.89394000	-11.09744000
76.29999565	0.00000000	-54.26919000	-8.40305000
76.49999563	0.00000000	-55.75787000	-6.86515700
76.69999562	0.00000000	-57.66486000	-6.90821800
76.89999561	0.00000000	-58.83366000	-8.90747900
77.09999560	0.00000000	-59.66412000	-13.13976000
77.29999559	0.00000000	-60.03937000	-18.47933000
77.49999558	0.00000000	-60.08243000	-23.08686000
77.69999556	0.00000000	-60.08243000	-25.82431000
77.89999555	0.00000000	-60.08243000	-26.19955000
78.09999554	0.00000000	-60.12549000	-24.24335000
78.29999553	0.00000000	-60.50073000	-19.97416000
78.49999552	0.00000000	-61.24508000	-14.21014000
78.69999550	0.00000000	-61.62032000	-8.44611200
78.89999549	0.00000000	-61.57111000	-4.21998000
79.09999548	0.00000000	-60.77756000	-2.59596400
79.29999547	0.00000000	-58.87672000	-3.37721400
79.49999546	0.00000000	-56.96358000	-6.12696800
79.69999544	0.00000000	-55.38263000	-11.14050000
79.89999543	0.00000000	-54.26919000	-16.85531000
80.09999542	0.00000000	-54.31225000	-21.54897000
80.29999541	0.00000000	-55.80708000	-24.66166000
80.49999540	0.00000000	-58.12622000	-25.82431000
80.69999539	0.00000000	-60.45767000	-24.71087000
80.89999537	0.00000000	-62.77681000	-21.96727000
81.09999536	0.00000000	-64.27164000	-18.11024000
81.29999535	0.00000000	-64.31471000	-13.51501000
81.49999534	0.00000000	-63.15207000	-10.02707000
81.69999533	0.00000000	-61.19586000	-7.98474400
81.89999531	0.00000000	-58.50147000	-6.82209600
82.09999530	0.00000000	-55.85014000	-6.82209600
82.29999529	0.00000000	-54.31225000	-7.98474400
82.49999528	0.00000000	-54.26919000	-9.93479300
82.69999527	0.00000000	-55.38263000	-12.67224000
82.89999525	0.00000000	-56.92052000	-15.78494000
83.09999524	0.00000000	-58.50147000	-18.89764000
83.29999523	0.00000000	-60.03937000	-21.59203000
83.49999522	0.00000000	-61.19586000	-23.12992000
83.69999521	0.00000000	-61.57111000	-23.12992000
83.89999520	0.00000000	-61.24508000	-21.59203000
84.09999518	0.00000000	-60.45767000	-18.85458000
84.29999517	0.00000000	-59.70718000	-15.36663000
84.49999516	0.00000000	-58.91978000	-11.46653000
84.69999515	0.00000000	-58.54454000	-8.02780400
84.89999514	0.00000000	-58.50147000	-5.70866100
85.09999512	0.00000000	-58.50147000	-5.33341500
85.29999511	0.00000000	-58.50147000	-6.82209600
85.49999510	0.00000000	-58.45841000	-9.65182000
85.69999509	0.00000000	-58.08316000	-13.89025000
85.89999508	0.00000000	-57.33883000	-19.22367000
86.09999506	0.00000000	-56.96358000	-23.04380000
86.29999505	0.00000000	-56.96358000	-24.66781000
86.49999504	0.00000000	-57.38804000	-24.29257000
86.69999503	0.00000000	-58.54454000	-21.92421000
86.89999502	0.00000000	-60.03937000	-18.06102000
87.09999501	0.00000000	-61.24508000	-13.04749000
87.29999499	0.00000000	-61.99557000	-8.48917200
87.49999498	0.00000000	-62.35851000	-5.75172200
87.69999497	0.00000000	-61.57111000	-5.37647600
87.89999496	0.00000000	-60.08243000	-7.28346400
88.09999495	0.00000000	-58.50147000	-11.14050000
88.29999493	0.00000000	-56.96358000	-15.74188000
88.49999492	0.00000000	-55.80708000	-20.01722000
88.69999491	0.00000000	-55.43184000	-23.08686000
88.89999490	0.00000000	-55.85014000	-24.24335000
89.09999489	0.00000000	-57.38804000	-23.08686000
89.29999487	0.00000000	-59.66412000	-19.97416000
89.49999486	0.00000000	-61.52805000	-15.36663000
89.69999485	0.00000000	-62.35851000	-10.44537000
89.89999484	0.00000000	-61.99557000	-7.33267600
90.09999483	0.00000000	-61.28814000	-6.53912400
90.29999482	0.00000000	-60.45767000	-7.70177100
90.49999480	0.00000000	-59.66412000	-11.18356000
90.69999479	0.00000000	-58.50147000	-15.74188000
90.89999478	0.00000000	-57.38804000	-19.97416000
91.09999477	0.00000000	-56.96358000	-22.66855000
91.29999476	0.00000000	-56.96358000	-23.03765000
91.49999474	0.00000000	-57.33883000	-21.13066000
91.69999473	0.00000000	-58.08316000	-17.27362000
91.89999472	0.00000000	-58.45841000	-12.67224000
92.09999471	0.00000000	-58.50147000	-8.44611200
92.29999470	0.00000000	-58.50147000	-5.80093500
92.49999468	0.00000000	-58.54454000	-5.80093500
92.69999467	0.00000000	-58.91978000	-8.44611200
92.89999466	0.00000000	-59.66412000	-12.67224000
93.09999465	0.00000000	-60.08243000	-17.27362000
93.29999464	0.00000000	-60.50073000	-21.13066000
93.49999463	0.00000000	-61.24508000	-23.03765000
93.69999461	0.00000000	-61.57111000	-22.66855000
93.89999460	0.00000000	-61.15280000	-19.97416000
94.09999459	0.00000000	-59.61491000	-15.78494000
94.29999458	0.00000000	-57.33883000	-11.55881000
94.49999457	0.00000000	-55.43184000	-8.44611200
94.69999455	0.00000000	-54.22613000	-6.90821800
94.89999454	0.00000000	-53.85088000	-7.33267600
95.09999453	0.00000000	-54.26919000	-10.02707000
95.29999452	0.00000000	-55.85014000	-14.21014000
95.49999451	0.00000000	-58.54454000	-18.43627000
95.69999449	0.00000000	-61.62032000	-21.50590000
95.89999448	0.00000000	-64.31471000	-22.66240000
96.09999447	0.00000000	-65.85260000	-21.50590000
96.29999446	0.00000000	-65.85260000	-18.47933000
96.49999445	0.00000000	-64.31471000	-14.67150000
96.69999444	0.00000000	-61.57111000	-11.55881000
96.89999442	0.00000000	-58.12622000	-9.60875900
97.09999441	0.00000000	-54.59522000	-8.86441900
97.29999440	0.00000000	-51.89468000	-10.02707000
97.49999439	0.00000000	-49.98769000	-12.62918000
97.69999438	0.00000000	-50.03691000	-15.32357000
97.89999436	0.00000000	-52.31299000	-17.27362000
98.09999435	0.00000000	-55.80708000	-18.47933000
98.29999434	0.00000000	-60.03937000	-18.85458000
98.49999433	0.00000000	-63.89641000	-18.47933000
98.69999432	0.00000000	-66.27091000	-17.32283000
98.89999430	0.00000000	-67.43970000	-15.78494000
99.09999429	0.00000000	-67.01525000	-14.25320000
99.29999428	0.00000000	-64.68996000	-13.13976000
99.49999427	0.00000000	-61.24508000	-13.09670000
99.69999426	0.00000000	-57.33883000	-13.79183000
99.89999425	0.00000000	-53.89394000	-14.16708000
100.09999423	0.00000000	-51.56865000	-14.16708000
100.29999422	0.00000000	-51.15034000	-13.79183000
100.49999421	0.00000000	-52.26993000	-13.04749000
100.69999420	0.00000000	-54.22613000	-12.72146000
100.89999419	0.00000000	-56.96358000	-13.09670000
101.09999417	0.00000000	-60.03937000	-14.25320000
101.29999416	0.00000000	-62.77681000	-15.78494000
101.49999415	0.00000000	-64.68996000	-17.32283000
101.69999414	0.00000000	-65.47736000	-18.47933000
101.89999413	0.00000000	-64.68996000	-18.81152000
102.09999411	0.00000000	-62.77681000	-18.11024000
102.29999410	0.00000000	-60.08243000	-16.53543000
102.49999409	0.00000000	-57.38804000	-14.94833000
102.69999408	0.00000000	-55.43184000	-12.58612000
102.89999407	0.00000000	-54.22613000	-9.98400600
103.09999406	0.00000000	-53.85088000	-8.44611200
103.29999404	0.00000000	-54.22613000	-8.44611200
103.49999403	0.00000000	-55.43184000	-9.98400600
103.69999402	0.00000000	-57.33883000	-12.67224000
103.89999401	0.00000000	-59.66412000	-15.74188000
104.09999400	0.00000000	-61.57111000	-18.47933000
104.29999398	0.00000000	-62.73376000	-20.39247000
104.49999397	0.00000000	-62.73376000	-21.13066000
104.69999396	0.00000000	-61.62032000	-19.97416000
104.89999395	0.00000000	-60.08243000	-17.32283000
105.09999394	0.00000000	-58.54454000	-14.25320000
105.29999392	0.00000000	-57.33883000	-11.55881000
105.49999391	0.00000000	-56.54527000	-9.98400600
105.69999390	0.00000000	-55.80708000	-9.60875900
105.89999389	0.00000000	-55.85014000	-10.35310000
106.09999388	0.00000000	-56.96358000	-12.30315000
106.29999387	0.00000000	-58.45841000	-14.53617000
106.49999385	0.00000000	-59.61491000	-16.52928000
106.69999384	0.00000000	-60.03937000	-17.64887000
106.89999383	0.00000000	-60.03937000	-18.06102000
107.09999382	0.00000000	-59.66412000	-17.27362000
107.29999381	0.00000000	-58.87672000	-15.78494000
107.49999379	0.00000000	-58.12622000	-14.21014000
107.69999378	0.00000000	-57.33883000	-12.67224000
107.89999377	0.00000000	-57.01279000	-11.55881000
108.09999376	0.00000000	-57.38804000	-11.60187000
108.29999375	0.00000000	-58.50147000	-13.04749000
108.49999374	0.00000000	-59.66412000	-14.94833000
108.69999372	0.00000000	-60.45767000	-16.11712000
108.89999371	0.00000000	-61.19586000	-16.94759000
109.09999370	0.00000000	-61.15280000	-17.27362000
109.29999369	0.00000000	-60.03937000	-16.89837000
109.49999368	0.00000000	-58.54454000	-15.74188000
109.69999366	0.00000000	-57.33883000	-14.21014000
109.89999365	0.00000000	-56.54527000	-12.67224000
110.09999364	0.00000000	-55.80708000	-11.55881000
110.29999363	0.00000000	-55.80708000	-11.51575000
110.49999362	0.00000000	-56.58833000	-12.29700000
110.69999360	0.00000000	-57.71407000	-13.46580000
110.89999359	0.00000000	-59.24582000	-15.36663000
111.09999358	0.00000000	-60.03937000	-16.89837000
111.29999357	0.00000000	-60.45767000	-17.69808000
111.49999356	0.00000000	-60.82677000	-18.06102000
111.69999355	0.00000000	-60.41461000	-17.32283000
111.89999353	0.00000000	-59.66412000	-16.20325000
112.09999352	0.00000000	-58.50147000	-15.40969000
112.29999351	0.00000000	-57.38804000	-14.58538000
112.49999350	0.00000000	-56.96358000	-13.83489000
112.69999349	0.00000000	-56.92052000	-13.04749000
112.89999347	0.00000000	-56.96358000	-12.72146000
113.09999346	0.00000000	-57.33883000	-13.04749000
113.29999345	0.00000000	-58.12622000	-13.83489000
113.49999344	0.00000000	-58.87672000	-14.58538000
113.69999343	0.00000000	-59.66412000	-15.36663000
113.89999341	0.00000000	-59.99015000	-15.74188000
114.09999340	0.00000000	-59.66412000	-15.78494000
114.29999339	0.00000000	-58.91978000	-15.78494000
114.49999338	0.00000000	-58.54454000	-15.78494000
114.69999337	0.00000000	-58.50147000	-15.78494000
114.89999336	0.00000000	-58.45841000	-15.78494000
115.09999334	0.00000000	-58.12622000	-15.78494000
115.29999333	0.00000000	-57.75713000	-15.78494000
115.49999332	0.00000000	-58.12622000	-15.78494000
115.69999331	0.00000000	-58.45841000	-15.74188000
115.89999330	0.00000000	-58.54454000	-15.36663000
116.09999328	0.00000000	-58.91978000	-14.58538000
116.29999327	0.00000000	-59.66412000	-13.83489000
116.49999326	0.00000000	-60.03937000	-13.04749000
116.69999325	0.00000000	-60.08243000	-12.67224000
116.89999324	0.00000000	-60.08243000	-12.67224000
117.09999322	0.00000000	-60.03937000	-13.04749000
117.29999321	0.00000000	-59.61491000	-13.83489000
117.49999320	0.00000000	-58.50147000	-14.58538000
117.69999319	0.00000000	-57.38804000	-15.40969000
117.89999318	0.00000000	-56.96358000	-16.11712000
118.09999317	0.00000000	-56.92052000	-16.52928000
118.29999315	0.00000000	-56.96358000	-16.16018000
118.49999314	0.00000000	-57.38804000	-15.78494000
118.69999313	0.00000000	-58.50147000	-15.36663000
118.89999312	0.00000000	-59.66412000	-14.58538000
119.09999311	0.00000000	-60.45767000	-13.83489000
119.29999309	0.00000000	-61.19586000	-13.04749000
119.49999308	0.00000000	-61.19586000	-12.67224000
119.69999307	0.00000000	-60.45767000	-12.67224000
119.89999306	0.00000000	-59.66412000	-13.04749000
120.09999305	0.00000000	-58.45841000	-13.79183000
120.29999303	0.00000000	-56.96358000	-14.16708000
120.49999302	0.00000000	-55.80708000	-14.25320000
120.69999301	0.00000000	-55.38263000	-14.62844000
120.89999300	0.00000000	-55.38263000	-15.36663000
121.09999299	0.00000000	-55.80708000	-15.74188000
121.29999298	0.00000000	-56.96358000	-15.78494000
121.49999296	0.00000000	-58.50147000	-15.78494000
121.69999295	0.00000000	-60.03937000	-15.74188000
121.89999294	0.00000000	-61.19586000	-15.36663000
122.09999293	0.00000000	-61.57111000	-14.62844000
122.29999292	0.00000000	-61.24508000	-14.21014000
122.49999290	0.00000000	-60.45767000	-13.79183000
122.69999289	0.00000000	-59.66412000	-13.04749000
122.89999288	0.00000000	-58.50147000	-12.72146000
123.09999287	0.00000000	-57.33883000	-13.04749000
123.29999286	0.00000000	-56.54527000	-13.79183000
123.49999284	0.00000000	-55.80708000	-14.21014000
123.69999283	0.00000000	-55.80708000	-14.62844000
123.89999282	0.00000000	-56.50221000	-15.36663000
124.09999281	0.00000000	-56.92052000	-15.74188000
124.29999280	0.00000000	-57.33883000	-15.78494000
124.49999279	0.00000000	-58.12622000	-15.78494000
124.69999277	0.00000000	-58.87672000	-15.74188000
124.89999276	0.00000000	-59.66412000	-15.36663000
125.09999275	0.00000000	-60.03937000	-14.62844000
125.29999274	0.00000000	-60.08243000	-14.25320000
125.49999273	0.00000000	-60.03937000	-14.16708000
125.69999271	0.00000000	-59.66412000	-13.79183000
125.89999270	0.00000000	-58.87672000	-13.09670000
126.09999269	0.00000000	-58.12622000	-13.09670000
126.29999268	0.00000000	-57.29576000	-13.79183000
126.49999267	0.00000000	-56.54527000	-14.16708000
126.69999265	0.00000000	-55.80708000	-14.25320000
126.89999264	0.00000000	-55.85014000	-14.62844000
127.09999263	0.00000000	-56.96358000	-15.36663000
127.29999262	0.00000000	-58.45841000	-15.74188000
127.49999261	0.00000000	-59.61491000	-15.78494000
127.69999260	0.00000000	-60.03937000	-15.74188000
127.89999258	0.00000000	-60.08243000	-15.36663000
128.09999257	0.00000000	-60.03937000	-14.62844000
128.29999256	0.00000000	-59.61491000	-14.25320000
128.49999255	0.00000000	-58.50147000	-14.21014000
128.69999254	0.00000000	-57.33883000	-14.21014000
128.89999252	0.00000000	-56.58833000	-14.21014000
129.09999251	0.00000000	-56.17618000	-14.21014000
129.29999250	0.00000000	-56.54527000	-14.25320000
129.49999249	0.00000000	-56.92052000	-14.58538000
129.69999248	0.00000000	-57.38804000	-14.94833000
129.89999246	0.00000000	-58.50147000	-14.62844000
130.09999245	0.00000000	-59.61491000	-14.62844000
130.29999244	0.00000000	-60.03937000	-14.94833000
130.49999243	0.00000000	-60.03937000	-14.58538000
130.69999242	0.00000000	-59.66412000	-14.25320000
130.89999241	0.00000000	-58.87672000	-14.21014000
131.09999239	0.00000000	-58.12622000	-14.21014000
131.29999238	0.00000000	-57.33883000	-14.21014000
131.49999237	0.00000000	-56.96358000	-14.25320000
131.69999236	0.00000000	-56.96358000	-14.62844000
131.89999235	0.00000000	-57.38804000	-15.32357000
132.09999233	0.00000000	-58.45841000	-15.40969000
132.29999232	0.00000000	-59.24582000	-15.42200000
132.49999231	0.00000000	-59.25196000	-16.15404000
132.69999230	0.00000000	-59.28888000	-16.06791000
132.89999229	0.00000000	-58.87672000	-15.40969000
133.09999227	0.00000000	-58.54454000	-14.58538000
133.29999226	0.00000000	-58.50147000	-13.83489000
133.49999225	0.00000000	-58.50147000	-13.04749000
133.69999224	0.00000000	-58.50147000	-12.72146000
133.89999223	0.00000000	-58.50147000	-13.04749000
134.09999222	0.00000000	-58.50147000	-13.79183000
134.29999220	0.00000000	-58.50147000	-14.21014000
134.49999219	0.00000000	-58.50147000	-14.62844000
134.69999218	0.00000000	-58.50147000	-15.36663000
134.89999217	0.00000000	-58.45841000	-15.74188000
135.09999216	0.00000000	-58.08316000	-15.78494000
135.29999214	0.00000000	-57.33883000	-15.78494000
135.49999213	0.00000000	-56.96358000	-15.74188000
135.69999212	0.00000000	-56.96358000	-15.36663000
135.89999211	0.00000000	-57.33883000	-14.58538000
136.09999210	0.00000000	-58.08316000	-13.83489000
136.29999208	0.00000000	-58.50147000	-13.04749000
136.49999207	0.00000000	-58.91978000	-12.72146000
136.69999206	0.00000000	-59.66412000	-13.04749000
136.89999205	0.00000000	-59.99015000	-13.79183000
137.09999204	0.00000000	-59.66412000	-14.21014000
137.29999203	0.00000000	-58.87672000	-14.62844000
137.49999201	0.00000000	-58.12622000	-15.36663000
137.69999200	0.00000000	-57.33883000	-15.74188000
137.89999199	0.00000000	-56.96358000	-15.78494000
138.09999198	0.00000000	-56.92052000	-15.78494000
138.29999197	0.00000000	-56.96358000	-15.78494000
138.49999195	0.00000000	-57.33883000	-15.74188000
138.69999194	0.00000000	-58.12622000	-15.36663000
138.89999193	0.00000000	-58.87672000	-14.62844000
139.09999192	0.00000000	-59.66412000	-14.21014000
139.29999191	0.00000000	-59.99015000	-13.79183000
139.49999189	0.00000000	-59.66412000	-13.04749000
139.69999188	0.00000000	-58.87672000	-12.72146000
139.89999187	0.00000000	-58.12622000	-13.00443000
140.09999186	0.00000000	-57.33883000	-13.41658000
140.29999185	0.00000000	-56.96358000	-13.46580000
140.49999184	0.00000000	-56.92052000	-14.25320000
140.69999182	0.00000000	-56.92052000	-15.32357000
140.89999181	0.00000000	-56.96358000	-15.74188000
141.09999180	0.00000000	-57.33883000	-15.78494000
141.29999179	0.00000000	-58.08316000	-15.74188000
141.49999178	0.00000000	-58.45841000	-15.36663000
141.69999176	0.00000000	-58.50147000	-14.58538000
141.89999175	0.00000000	-58.45841000	-13.83489000
142.09999174	0.00000000	-58.08316000	-13.00443000
142.29999173	0.00000000	-57.33883000	-12.25394000
142.49999172	0.00000000	-56.96358000	-11.51575000
142.69999170	0.00000000	-56.92052000	-11.51575000
142.89999169	0.00000000	-56.96358000	-12.25394000
143.09999168	0.00000000	-57.29576000	-13.00443000
143.29999167	0.00000000	-57.66486000	-13.83489000
143.49999166	0.00000000	-57.33883000	-14.58538000
143.69999165	0.00000000	-57.38804000	-15.36663000
143.89999163	0.00000000	-58.08316000	-15.74188000
144.09999162	0.00000000	-58.45841000	-15.74188000
144.29999161	0.00000000	-58.45841000	-15.36663000
144.49999160	0.00000000	-58.08316000	-14.58538000
144.69999159	0.00000000	-57.33883000	-13.83489000
144.89999157	0.00000000	-56.96358000	-13.04749000
145.09999156	0.00000000	-56.92052000	-12.67224000
145.29999155	0.00000000	-56.96358000	-12.67224000
145.49999154	0.00000000	-57.33883000	-13.09670000
145.69999153	0.00000000	-58.08316000	-14.21014000
145.89999151	0.00000000	-58.45841000	-15.32357000
146.09999150	0.00000000	-58.50147000	-15.74188000
146.29999149	0.00000000	-58.50147000	-15.78494000
146.49999148	0.00000000	-58.50147000	-15.78494000
146.69999147	0.00000000	-58.45841000	-15.78494000
146.89999146	0.00000000	-58.08316000	-15.78494000
147.09999144	0.00000000	-57.33883000	-15.74188000
147.29999143	0.00000000	-56.96358000	-15.36663000
147.49999142	0.00000000	-56.96358000	-14.62844000
147.69999141	0.00000000	-57.33883000	-14.25320000
147.89999140	0.00000000	-58.08316000	-14.21014000
148.09999138	0.00000000	-58.45841000	-14.21014000
148.29999137	0.00000000	-58.50147000	-14.21014000
148.49999136	0.00000000	-58.50147000	-14.25320000
148.69999135	0.00000000	-58.54454000	-14.58538000
148.89999134	0.00000000	-58.83366000	-14.99139000
149.09999132	0.00000000	-58.82135000	-15.00369000
149.29999131	0.00000000	-57.71407000	-15.40969000
149.49999130	0.00000000	-57.01279000	-15.74188000
149.69999129	0.00000000	-56.92052000	-15.74188000
149.89999128	0.00000000	-56.92052000	-15.36663000
150.09999127	0.00000000	-56.92052000	-14.62844000
150.29999125	0.00000000	-56.96358000	-14.25320000
150.49999124	0.00000000	-57.33883000	-14.21014000
150.69999123	0.00000000	-58.08316000	-14.21014000
150.89999122	0.00000000	-58.45841000	-14.21014000
151.09999121	0.00000000	-58.50147000	-14.21014000
151.29999119	0.00000000	-58.50147000	-14.21014000
151.49999118	0.00000000	-58.50147000	-14.21014000
151.69999117	0.00000000	-58.50147000	-14.21014000
151.89999116	0.00000000	-58.45841000	-14.21014000
152.09999115	0.00000000	-58.08316000	-14.21014000
152.29999113	0.00000000	-57.33883000	-14.21014000
152.49999112	0.00000000	-56.96358000	-14.21014000
152.69999111	0.00000000	-56.92052000	-14.21014000
152.89999110	0.00000000	-56.92052000	-14.21014000
153.09999109	0.00000000	-56.92052000	-14.16708000
153.29999108	0.00000000	-56.92052000	-13.79183000
153.49999106	0.00000000	-56.92052000	-13.04749000
153.69999105	0.00000000	-56.96358000	-12.72146000
153.89999104	0.00000000	-57.33883000	-13.04749000
154.09999103	0.00000000	-58.08316000	-13.79183000
154.29999102	0.00000000	-58.45841000	-14.16708000
154.49999100	0.00000000	-58.50147000	-14.21014000
154.69999099	0.00000000	-58.45841000	-14.21014000
154.89999098	0.00000000	-58.08316000	-14.21014000
155.09999097	0.00000000	-57.33883000	-14.21014000
155.29999096	0.00000000	-56.96358000	-14.21014000
155.49999094	0.00000000	-56.92052000	-14.21014000
155.69999093	0.00000000	-56.92052000	-14.21014000
155.89999092	0.00000000	-56.92052000	-14.21014000
156.09999091	0.00000000	-56.92052000	-14.21014000
156.29999090	0.00000000	-56.96358000	-14.21014000
156.49999089	0.00000000	-57.33883000	-14.16708000
156.69999087	0.00000000	-58.08316000	-13.79183000
156.89999086	0.00000000	-58.45841000	-13.09670000
157.09999085	0.00000000	-58.50147000	-13.09670000
157.29999084	0.00000000	-58.50147000	-13.79183000
157.49999083	0.00000000	-58.45841000	-14.16708000
157.69999081	0.00000000	-58.12622000	-14.21014000
157.89999080	0.00000000	-57.71407000	-14.21014000
158.09999079	0.00000000	-57.70792000	-14.25320000
158.29999078	0.00000000	-57.29576000	-14.62844000
158.49999077	0.00000000	-56.96358000	-15.36663000
158.69999075	0.00000000	-56.92052000	-15.69267000
158.89999074	0.00000000	-56.92052000	-15.36663000
159.09999073	0.00000000	-56.92052000	-14.62844000
159.29999072	0.00000000	-56.92052000	-14.25320000
159.49999071	0.00000000	-56.96358000	-14.21014000
159.69999070	0.00000000	-57.33883000	-14.16708000
159.89999068	0.00000000	-58.08316000	-13.79183000
160.09999067	0.00000000	-58.45841000	-13.09670000
160.29999066	0.00000000	-58.50147000	-13.09670000
160.49999065	0.00000000	-58.50147000	-13.79183000
160.69999064	0.00000000	-58.50147000	-14.16708000
160.89999062	0.00000000	-58.50147000	-14.25320000
161.09999061	0.00000000	-58.45841000	-14.62844000
161.29999060	0.00000000	-58.08316000	-15.36663000
161.49999059	0.00000000	-57.33883000	-15.74188000
161.69999058	0.00000000	-56.96358000	-15.74188000
161.89999056	0.00000000	-56.92052000	-15.36663000
162.09999055	0.00000000	-56.92052000	-14.62844000
162.29999054	0.00000000	-56.92052000	-14.25320000
162.49999053	0.00000000	-56.92052000	-14.21014000
162.69999052	0.00000000	-56.92052000	-14.21014000
162.89999051	0.00000000	-56.96358000	-14.21014000
163.09999049	0.00000000	-57.33883000	-14.21014000
163.29999048	0.00000000	-58.08316000	-14.21014000
163.49999047	0.00000000	-58.45841000	-14.21014000
163.69999046	0.00000000	-58.45841000	-14.21014000
163.89999045	0.00000000	-58.12622000	-14.21014000
164.09999043	0.00000000	-57.75713000	-14.21014000
164.29999042	0.00000000	-58.08316000	-14.21014000
164.49999041	0.00000000	-58.03395000	-14.21014000
164.69999040	0.00000000	-57.33883000	-14.21014000
164.89999039	0.00000000	-56.96358000	-14.21014000
165.09999037	0.00000000	-56.92052000	-14.21014000
165.29999036	0.00000000	-56.92052000	-14.21014000
165.49999035	0.00000000	-56.92052000	-14.21014000
165.69999034	0.00000000	-56.92052000	-14.21014000
165.89999033	0.00000000	-56.96358000	-14.21014000
166.09999032	0.00000000	-57.33883000	-14.21014000
166.29999030	0.00000000	-58.08316000	-14.21014000
166.49999029	0.00000000	-58.45841000	-14.21014000
166.69999028	0.00000000	-58.50147000	-14.21014000
166.89999027	0.00000000	-58.50147000	-14.21014000
167.09999026	0.00000000	-58.45841000	-14.21014000
167.29999024	0.00000000	-58.08316000	-14.21014000
167.49999023	0.00000000	-57.33883000	-14.21014000
167.69999022	0.00000000	-56.96358000	-14.21014000
167.89999021	0.00000000	-56.92052000	-14.21014000
168.09999020	0.00000000	-56.92052000	-14.21014000
168.29999018	0.00000000	-56.92052000	-14.21014000
168.49999017	0.00000000	-56.92052000	-14.21014000
168.69999016	0.00000000	-56.92052000	-14.21014000
168.89999015	0.00000000	-56.92052000	-14.21014000
169.09999014	0.00000000	-56.92052000	-14.21014000
169.29999013	0.00000000	-56.96358000	-14.21014000
169.49999011	0.00000000	-57.33883000	-14.21014000
169.69999010	0.00000000	-58.08316000	-14.21014000
169.89999009	0.00000000	-58.40920000	-14.21014000
170.09999008	0.00000000	-58.12622000	-14.21014000
170.29999007	0.00000000	-57.71407000	-14.21014000
170.49999005	0.00000000	-57.70792000	-14.21014000
170.69999004	0.00000000	-57.29576000	-14.21014000
170.89999003	0.00000000	-56.96358000	-14.21014000
171.09999002	0.00000000	-56.92052000	-14.21014000
171.29999001	0.00000000	-56.92052000	-14.21014000
171.49998999	0.00000000	-56.92052000	-14.21014000
171.69998998	0.00000000	-56.92052000	-14.21014000
171.89998997	0.00000000	-56.92052000	-14.21014000
172.09998996	0.00000000	-56.92052000	-14.21014000
172.29998995	0.00000000	-56.96358000	-14.21014000
172.49998994	0.00000000	-57.29576000	-14.21014000
172.69998992	0.00000000	-57.70792000	-14.21014000
172.89998991	0.00000000	-57.67101000	-14.21014000
173.09998990	0.00000000	-57.70792000	-14.21014000
173.29998989	0.00000000	-57.29576000	-14.21014000
173.49998988	0.00000000	-56.96358000	-14.21014000
173.69998986	0.00000000	-56.92052000	-14.21014000
173.89998985	0.00000000	-56.92052000	-14.21014000
174.09998984	0.00000000	-56.92052000	-14.21014000
174.29998983	0.00000000	-56.92052000	-14.21014000
174.49998982	0.00000000	-56.92052000	-14.21014000
174.69998980	0.00000000	-56.92052000	-14.21014000
174.89998979	0.00000000	-56.92052000	-14.21014000
175.09998978	0.00000000	-56.96358000	-14.21014000
175.29998977	0.00000000	-57.29576000	-14.21014000
175.49998976	0.00000000	-57.66486000	-14.21014000
175.69998975	0.00000000	-57.29576000	-14.21014000
175.89998973	0.00000000	-56.96358000	-14.21014000
176.09998972	0.00000000	-56.92052000	-14.21014000
176.29998971	0.00000000	-56.92052000	-14.21014000
176.49998970	0.00000000	-56.92052000	-14.21014000
176.69998969	0.00000000	-56.92052000	-14.21014000
176.89998967	0.00000000	-56.92052000	-14.21014000
177.09998966	0.00000000	-56.92052000	-14.21014000
177.29998965	0.00000000	-56.92052000	-14.21014000
177.49998964	0.00000000	-56.92052000	-14.21014000
177.69998963	0.00000000	-56.92052000	-14.21014000
177.89998961	0.00000000	-56.92052000	-14.21014000
178.09998960	0.00000000	-56.92052000	-14.21014000
178.29998959	0.00000000	-56.92052000	-14.21014000
178.49998958	0.00000000	-56.92052000	-14.21014000
178.69998957	0.00000000	-56.96358000	-14.25320000
178.89998956	0.00000000	-57.29576000	-14.53617000
179.09998954	0.00000000	-57.66486000	-14.57308000
179.29998953	0.00000000	-57.29576000	-13.84104000
179.49998952	0.00000000	-56.96358000	-13.87795000
179.69998951	0.00000000	-56.92052000	-14.16708000
179.89998950	0.00000000	-56.92052000	-14.21014000
180.09998948	0.00000000	-56.92052000	-14.21014000
180.29998947	0.00000000	-56.92052000	-14.21014000
180.49998946	0.00000000	-56.96358000	-14.21014000
180.69998945	0.00000000	-57.33883000	-14.21014000
180.89998944	0.00000000	-58.03395000	-14.21014000
181.09998942	0.00000000	-58.03395000	-14.21014000
181.29998941	0.00000000	-57.33883000	-14.21014000
181.49998940	0.00000000	-56.96358000	-14.21014000
181.69998939	0.00000000	-56.92052000	-14.21014000
181.89998938	0.00000000	-56.92052000	-14.21014000
182.09998937	0.00000000	-56.92052000	-14.21014000
182.29998935	0.00000000	-56.92052000	-14.21014000
182.49998934	0.00000000	-56.92052000	-14.21014000
182.69998933	0.00000000	-56.92052000	-14.21014000
182.89998932	0.00000000	-56.92052000	-14.21014000
183.09998931	0.00000000	-56.92052000	-14.25320000
183.29998929	0.00000000	-56.92052000	-14.58538000
183.49998928	0.00000000	-56.92052000	-14.94833000
183.69998927	0.00000000	-56.92052000	-14.58538000
183.89998926	0.00000000	-56.92052000	-14.25320000
184.09998925	0.00000000	-56.92052000	-14.21014000
184.29998923	0.00000000	-56.92052000	-14.16708000
184.49998922	0.00000000	-56.92052000	-13.79183000
184.69998921	0.00000000	-56.92052000	-13.04749000
184.89998920	0.00000000	-56.92052000	-12.67224000
185.09998919	0.00000000	-56.92052000	-12.62918000
185.29998918	0.00000000	-56.92052000	-12.67224000
185.49998916	0.00000000	-56.92052000	-13.04749000
185.69998915	0.00000000	-56.92052000	-13.79183000
185.89998914	0.00000000	-56.92052000	-14.21014000
186.09998913	0.00000000	-56.92052000	-14.62844000
186.29998912	0.00000000	-56.92052000	-15.36663000
186.49998910	0.00000000	-56.92052000	-15.74188000
186.69998909	0.00000000	-56.92052000	-15.74188000
186.89998908	0.00000000	-56.92052000	-15.36663000
187.09998907	0.00000000	-56.92052000	-14.62844000
187.29998906	0.00000000	-56.92052000	-14.25320000
187.49998904	0.00000000	-56.92052000	-14.21014000
187.69998903	0.00000000	-56.92052000	-14.16708000
187.89998902	0.00000000	-56.92052000	-13.83489000
188.09998901	0.00000000	-56.92052000	-13.46580000
188.29998900	0.00000000	-56.92052000	-13.83489000
188.49998899	0.00000000	-56.92052000	-14.16708000
188.69998897	0.00000000	-56.92052000	-14.21014000
188.89998896	0.00000000	-56.92052000	-14.21014000
189.09998895	0.00000000	-56.92052000	-14.21014000
189.29998894	0.00000000	-56.92052000	-14.21014000
189.49998893	0.00000000	-56.92052000	-14.21014000
189.69998891	0.00000000	-56.92052000	-14.21014000
189.89998890	0.00000000	-56.92052000	-14.21014000
190.09998889	0.00000000	-56.92052000	-14.21014000
190.29998888	0.00000000	-56.92052000	-14.21014000
190.49998887	0.00000000	-56.92052000	-14.21014000
190.69998885	0.00000000	-56.92052000	-14.16708000
190.89998884	0.00000000	-56.92052000	-13.79183000
191.09998883	0.00000000	-56.92052000	-13.04749000
191.29998882	0.00000000	-56.92052000	-12.72146000
191.49998881	0.00000000	-56.92052000	-13.04749000
191.69998880	0.00000000	-56.92052000	-13.79183000
191.89998878	0.00000000	-56.92052000	-14.16708000
192.09998877	0.00000000	-56.92052000	-14.21014000
192.29998876	0.00000000	-56.92052000	-14.21014000
192.49998875	0.00000000	-56.92052000	-14.21014000
192.69998874	0.00000000	-56.92052000	-14.21014000
192.89998872	0.00000000	-56.92052000	-14.21014000
193.09998871	0.00000000	-56.92052000	-14.21014000
193.29998870	0.00000000	-56.92052000	-14.21014000
193.49998869	0.00000000	-56.92052000	-14.21014000
193.69998868	0.00000000	-56.92052000	-14.21014000
193.89998866	0.00000000	-56.92052000	-14.21014000
194.09998865	0.00000000	-56.92052000	-14.21014000
194.29998864	0.00000000	-56.92052000	-14.21014000
194.49998863	0.00000000	-56.92052000	-14.16708000
194.69998862	0.00000000	-56.92052000	-13.83489000
194.89998861	0.00000000	-56.92052000	-13.46580000
195.09998859	0.00000000	-56.92052000	-13.83489000
195.29998858	0.00000000	-56.92052000	-14.11786000
195.49998857	0.00000000	-56.96358000	-13.83489000
195.69998856	0.00000000	-57.29576000	-13.51501000
195.89998855	0.00000000	-57.66486000	-14.21014000
196.09998853	0.00000000	-57.29576000	-14.90526000
