Time	Channel A	Channel B	Channel C
(us)	(V)	(mV)	(mV)

-4.49999956	0.00000000	-56.92052000	-14.21014000
-4.29999957	0.00000000	-56.92052000	-14.21014000
-4.09999958	0.00000000	-56.92052000	-14.21014000
-3.89999959	0.00000000	-56.92052000	-14.21014000
-3.69999960	0.00000000	-56.92052000	-14.21014000
-3.49999962	0.00000000	-56.92052000	-14.21014000
-3.29999963	0.00000000	-56.92052000	-14.21014000
-3.09999964	0.00000000	-56.92052000	-14.21014000
-2.89999965	0.00000000	-56.92052000	-14.21014000
-2.69999966	0.00000000	-56.92052000	-14.21014000
-2.49999968	0.00000000	-56.92052000	-14.21014000
-2.29999969	0.00000000	-56.92052000	-14.21014000
-2.09999970	0.00000000	-56.92052000	-14.21014000
-1.89999971	0.00000000	-56.92052000	-14.21014000
-1.69999972	0.00000000	-56.92052000	-14.21014000
-1.49999973	0.00000000	-56.92052000	-14.21014000
-1.29999975	0.00000000	-56.96358000	-14.21014000
-1.09999976	0.00000000	-57.29576000	-14.21014000
-0.89999977	0.00000000	-57.66486000	-14.21014000
-0.69999978	0.00000000	-57.29576000	-14.21014000
-0.49999979	0.00000000	-56.96358000	-14.21014000
-0.29999981	0.31803640	-56.92052000	-14.21014000
-0.09999982	0.63668800	-56.92052000	-14.21014000
0.10000017	0.95533960	-56.96358000	-14.21014000
0.30000016	1.11466500	-57.29576000	-14.21014000
0.50000015	0.95533960	-57.66486000	-14.21014000
0.70000013	0.31803640	-57.29576000	-14.21014000
0.90000012	-0.47736220	-56.96358000	-14.21014000
1.10000011	-1.43331700	-56.92052000	-14.21014000
1.30000010	-2.38927200	-56.92052000	-14.21014000
1.50000009	-2.70792300	-56.92052000	-14.16708000
1.70000008	-2.54859700	-56.92052000	-13.83489000
1.90000006	-1.43331700	-56.92052000	-13.46580000
2.10000005	0.31803640	-56.92052000	-13.83489000
2.30000004	2.54859700	-56.92052000	-14.16708000
2.50000003	4.30056600	-56.92052000	-14.21014000
2.70000002	5.25652100	-56.92052000	-14.21014000
2.90000000	4.93786900	-56.92052000	-14.21014000
3.09999999	3.18590100	-56.92052000	-14.21014000
3.29999998	0.15871060	-56.92052000	-14.21014000
3.49999997	-3.34522600	-56.92052000	-14.21014000
3.69999996	-6.21247500	-56.92052000	-14.21014000
3.89999994	-7.80511800	-56.92052000	-14.16708000
4.09999993	-7.48646600	-56.92052000	-13.79183000
4.29999992	-5.25652100	-56.92052000	-13.04749000
4.49999991	-1.27399100	-56.96358000	-12.72146000
4.69999990	3.02657500	-57.29576000	-13.04749000
4.89999989	6.84916400	-57.70792000	-13.79183000
5.09999987	9.23905000	-57.71407000	-14.16708000
5.29999986	9.23905000	-58.08316000	-14.25320000
5.49999985	6.84916400	-58.03395000	-14.58538000
5.69999984	2.70792300	-57.33883000	-14.94833000
5.89999983	-1.91129400	-56.96358000	-14.58538000
6.09999981	-6.37180100	-56.92052000	-14.25320000
6.29999980	-8.92039900	-56.92052000	-14.21014000
6.49999979	-9.23905000	-56.92052000	-14.16708000
6.69999978	-7.32714100	-56.92052000	-13.79183000
6.89999977	-3.82258900	-56.92052000	-13.09670000
7.09999975	0.63668800	-56.92052000	-13.09670000
7.29999974	4.61921700	-56.92052000	-13.79183000
7.49999973	7.16781500	-56.92052000	-14.16708000
7.69999972	7.64579200	-56.92052000	-14.21014000
7.89999971	6.37180100	-56.92052000	-14.25320000
8.09999970	3.66326300	-56.92052000	-14.58538000
8.29999968	0.31803640	-56.92052000	-14.94833000
8.49999967	-2.70792300	-56.92052000	-14.58538000
8.69999966	-4.61921700	-56.92052000	-14.25320000
8.89999965	-5.09719500	-56.92052000	-14.21014000
9.09999964	-4.45989200	-56.92052000	-14.16708000
9.29999962	-2.86724900	-56.92052000	-13.83489000
9.49999961	-0.79601380	-56.92052000	-13.46580000
9.69999960	0.95533960	-56.92052000	-13.83489000
9.89999959	2.07062000	-56.92052000	-14.16708000
10.09999958	2.54859700	-56.92052000	-14.21014000
10.29999956	2.22994600	-56.92052000	-14.21014000
10.49999955	1.59264300	-56.92052000	-14.21014000
10.69999954	0.63668800	-56.92052000	-14.21014000
10.89999953	-0.15871060	-56.92052000	-14.21014000
11.09999952	-0.63668800	-56.92052000	-14.21014000
11.29999951	-0.95533960	-56.92052000	-14.21014000
11.49999949	-0.95533960	-56.92052000	-14.21014000
11.69999948	-0.79601380	-56.92052000	-14.21014000
11.89999947	-0.47736220	-56.92052000	-14.21014000
12.09999946	-0.15871060	-56.92052000	-14.21014000
12.29999945	-0.15871060	-56.92052000	-14.21014000
12.49999943	-0.15871060	-56.92052000	-14.21014000
12.69999942	0.00000000	-56.92052000	-14.21014000
12.89999941	0.00000000	-56.92052000	-14.21014000
13.09999940	0.00000000	-56.92052000	-14.21014000
13.29999939	0.00000000	-56.92052000	-14.21014000
13.49999937	0.00000000	-56.92052000	-14.21014000
13.69999936	0.00000000	-56.92052000	-14.21014000
13.89999935	0.00000000	-56.92052000	-14.21014000
14.09999934	-0.15871060	-56.92052000	-14.21014000
14.29999933	-0.15871060	-56.92052000	-14.21014000
14.49999932	-0.15871060	-56.92052000	-14.21014000
14.69999930	0.00000000	-56.92052000	-14.21014000
14.89999929	0.00000000	-56.92052000	-14.21014000
15.09999928	0.00000000	-56.92052000	-14.21014000
15.29999927	0.00000000	-56.92052000	-14.21014000
15.49999926	0.15871060	-56.92052000	-14.21014000
15.69999924	0.00000000	-56.92052000	-14.21014000
15.89999923	0.00000000	-56.92052000	-14.21014000
16.09999922	0.00000000	-56.92052000	-14.21014000
16.29999921	0.00000000	-56.92052000	-14.21014000
16.49999920	0.00000000	-56.92052000	-14.21014000
16.69999919	-0.15871060	-56.92052000	-14.21014000
16.89999917	-0.15871060	-56.87746000	-14.21014000
17.09999916	0.00000000	-56.50221000	-14.21014000
17.29999915	0.00000000	-55.75787000	-14.21014000
17.49999914	0.00000000	-55.38263000	-14.21014000
17.69999913	0.00000000	-55.38263000	-14.21014000
17.89999911	0.00000000	-55.75787000	-14.21014000
18.09999910	0.00000000	-56.54527000	-14.21014000
18.29999909	0.00000000	-57.38804000	-14.16708000
18.49999908	0.00000000	-58.96899000	-13.83489000
18.69999907	0.00000000	-61.15280000	-13.46580000
18.89999905	0.00000000	-62.31545000	-13.83489000
19.09999904	0.00000000	-61.94635000	-14.16708000
19.29999903	0.00000000	-60.77756000	-14.21014000
19.49999902	0.00000000	-58.36614000	-14.21014000
19.69999901	0.00000000	-54.92125000	-14.21014000
19.89999900	0.00000000	-51.01501000	-14.21014000
20.09999898	0.00000000	-47.57013000	-14.21014000
20.29999897	0.00000000	-45.33710000	-14.21014000
20.49999896	0.00000000	-45.80462000	-14.21014000
20.69999895	0.00000000	-49.66166000	-14.21014000
20.89999894	0.00000000	-55.85014000	-14.21014000
21.09999892	0.00000000	-63.24434000	-14.21014000
21.29999891	0.00000000	-70.55241000	-14.21014000
21.49999890	0.00000000	-75.94734000	-14.21014000
21.69999889	0.00000000	-77.81741000	-14.21014000
21.89999888	0.00000000	-75.39369000	-14.21014000
22.09999886	0.00000000	-67.95644000	-14.21014000
22.29999885	0.00000000	-56.36687000	-14.21014000
22.49999884	0.00000000	-43.28863000	-14.21014000
22.69999883	0.00000000	-32.12352000	-14.21014000
22.89999882	0.00000000	-25.97810000	-14.16708000
23.09999881	0.00000000	-26.43947000	-13.79183000
23.29999879	0.00000000	-34.21506000	-13.04749000
23.49999878	0.00000000	-48.16683000	-12.67224000
23.69999877	0.00000000	-65.20053000	-12.62918000
23.89999876	0.00000000	-82.18504000	-12.58612000
24.09999875	0.00000000	-94.83882000	-12.25394000
24.29999873	0.00000000	-99.40329000	-11.93405000
24.49999872	0.00000000	-94.32824000	-12.72146000
24.69999871	0.00000000	-79.95817000	-14.21014000
24.89999870	0.00000000	-59.11048000	-15.78494000
25.09999869	0.00000000	-36.36196000	-17.32283000
25.29999867	0.00000000	-17.47047000	-18.47933000
25.49999866	0.00000000	-7.04355200	-18.81152000
25.69999865	0.00000000	-7.51107200	-18.01796000
25.89999864	0.00000000	-19.51279000	-15.64960000
26.09999863	0.00000000	-40.77264000	-12.21087000
26.29999862	0.00000000	-66.18479000	-8.31077700
26.49999860	0.00000000	-89.72071000	-4.87204700
26.69999859	0.00000000	-105.22270000	-2.59596400
26.89999858	0.00000000	-109.92250000	-2.63902500
27.09999857	0.00000000	-103.30950000	-5.37647600
27.29999856	0.00000000	-86.28198000	-10.44537000
27.49999854	0.00000000	-62.78297000	-17.45817000
27.69999853	0.00000000	-38.40428000	-25.08612000
27.89999852	0.00000000	-18.71924000	-31.25615000
28.09999851	0.00000000	-7.83710600	-33.91363000
28.29999850	0.00000000	-8.20620100	-32.70177000
28.49999848	0.00000000	-18.95915000	-26.80241000
28.69999847	0.00000000	-37.51845000	-16.76919000
28.89999846	0.00000000	-59.48573000	-4.82898600
29.09999845	0.00000000	-79.62598000	6.36687900
29.29999844	0.00000000	-93.63312000	14.03789000
29.49999843	0.00000000	-99.49556000	16.31397000
29.69999841	0.00000000	-96.37672000	11.99557000
29.89999840	0.00000000	-84.83636000	1.53789400
30.09999839	0.00000000	-67.90108000	-13.13976000
30.29999838	0.00000000	-50.07997000	-28.93701000
30.49999837	0.00000000	-34.91019000	-42.03986000
30.69999835	0.00000000	-24.85851000	-49.37868000
30.89999834	0.00000000	-22.12106000	-49.33562000
31.09999833	0.00000000	-27.04847000	-41.62155000
31.29999832	0.00000000	-37.43233000	-27.68824000
31.49999831	0.00000000	-50.63976000	-10.67913000
31.69999829	0.00000000	-64.18552000	6.36687900
31.89999828	0.00000000	-75.43676000	19.79577000
32.09999827	0.00000000	-82.04970000	26.34719000
32.29999826	0.00000000	-83.25540000	24.07111000
32.49999825	0.00000000	-78.98006000	14.03789000
32.69999824	0.00000000	-70.13410000	-1.43946800
32.89999822	0.00000000	-58.91978000	-19.59892000
33.09999821	0.00000000	-48.12377000	-36.23277000
33.29999820	0.00000000	-39.94217000	-48.17913000
33.49999819	0.00000000	-36.07898000	-52.81742000
33.69999818	0.00000000	-36.78026000	-48.59744000
33.89999816	0.00000000	-41.79995000	-37.48154000
34.09999815	0.00000000	-49.52633000	-21.92421000
34.29999814	0.00000000	-58.41535000	-4.96432100
34.49999813	0.00000000	-66.46161000	10.08243000
34.69999812	0.00000000	-71.11835000	19.33440000
34.89999810	0.00000000	-71.57972000	20.95841000
35.09999809	0.00000000	-68.51008000	15.19439000
35.29999808	0.00000000	-62.73376000	3.62942900
35.49999807	0.00000000	-55.80708000	-11.00517000
35.69999806	0.00000000	-49.66166000	-25.31373000
35.89999805	0.00000000	-45.80462000	-36.14050000
36.09999803	0.00000000	-45.38017000	-41.57849000
36.29999802	0.00000000	-48.03149000	-40.37278000
36.49999801	0.00000000	-52.68823000	-32.74483000
36.69999800	0.00000000	-58.40920000	-20.81078000
36.89999799	0.00000000	-63.38583000	-8.16313900
37.09999797	0.00000000	-65.76033000	2.28223400
37.29999796	0.00000000	-65.80955000	7.63410400
37.49999795	0.00000000	-63.80413000	6.92667200
37.69999794	0.00000000	-59.57185000	0.42445860
37.89999793	0.00000000	-54.26919000	-9.47342500
38.09999791	0.00000000	-49.98769000	-19.50664000
38.29999790	0.00000000	-47.66240000	-27.17766000
38.49999789	0.00000000	-47.25024000	-30.61023000
38.69999788	0.00000000	-49.24335000	-28.34030000
38.89999787	0.00000000	-53.01427000	-21.46284000
39.09999786	0.00000000	-57.66486000	-12.25394000
39.29999784	0.00000000	-61.52805000	-3.10039400
39.49999783	0.00000000	-64.31471000	2.61441900
39.69999782	0.00000000	-65.85260000	3.03272600
39.89999781	0.00000000	-65.85260000	-1.57480300
40.09999780	0.00000000	-64.27164000	-10.02707000
40.29999778	0.00000000	-61.15280000	-19.97416000
40.49999777	0.00000000	-56.92052000	-28.38337000
40.69999776	0.00000000	-52.68823000	-32.65871000
40.89999775	0.00000000	-49.56939000	-31.87131000
41.09999774	0.00000000	-47.98843000	-26.47638000
41.29999772	0.00000000	-47.94537000	-17.23056000
41.49999771	0.00000000	-49.15108000	-6.91437000
41.69999770	0.00000000	-51.48252000	1.53789400
41.89999769	0.00000000	-55.00738000	5.76402500
42.09999768	0.00000000	-58.83366000	4.65059000
42.29999767	0.00000000	-62.31545000	-1.06422200
42.49999765	0.00000000	-64.22859000	-9.51648500
42.69999764	0.00000000	-64.31471000	-18.39321000
42.89999763	0.00000000	-63.15207000	-25.68897000
43.09999762	0.00000000	-61.24508000	-29.58907000
43.29999761	0.00000000	-58.87672000	-29.21998000
43.49999759	0.00000000	-56.54527000	-25.44906000
43.69999758	0.00000000	-54.22613000	-19.27288000
43.89999757	0.00000000	-52.68823000	-12.76452000
44.09999756	0.00000000	-52.22071000	-7.28346400
44.29999755	0.00000000	-52.22071000	-3.79552100
44.49999753	0.00000000	-52.59596000	-2.63902500
44.69999752	0.00000000	-53.34030000	-4.17076700
44.89999751	0.00000000	-53.71555000	-7.93553100
45.09999750	0.00000000	-53.80167000	-12.16166000
45.29999749	0.00000000	-54.26919000	-15.69882000
45.49999748	0.00000000	-55.80708000	-18.39321000
45.69999746	0.00000000	-58.12622000	-19.55585000
45.89999745	0.00000000	-60.45767000	-18.85458000
46.09999744	0.00000000	-62.82603000	-17.32283000
46.29999743	0.00000000	-64.68996000	-15.32357000
46.49999742	0.00000000	-65.43430000	-12.67224000
46.69999740	0.00000000	-64.22859000	-10.35310000
46.89999739	0.00000000	-61.06668000	-9.19045200
47.09999738	0.00000000	-56.03469000	-8.77829600
47.29999737	0.00000000	-49.85236000	-9.60875900
47.49999736	0.00000000	-44.50049000	-11.46653000
47.69999734	0.00000000	-41.01255000	-13.79183000
47.89999733	0.00000000	-40.72957000	-15.74188000
48.09999732	0.00000000	-44.22367000	-17.32283000
48.29999731	0.00000000	-51.15034000	-18.43627000
48.49999730	0.00000000	-59.62106000	-18.43627000
48.69999729	0.00000000	-67.39050000	-17.27362000
48.89999727	0.00000000	-73.16068000	-15.32357000
49.09999726	0.00000000	-75.39369000	-12.58612000
49.29999725	0.00000000	-72.74237000	-9.55954600
49.49999724	0.00000000	-66.13557000	-7.28346400
49.69999723	0.00000000	-57.28961000	-6.86515700
49.89999721	0.00000000	-47.62549000	-8.02780400
50.09999720	0.00000000	-40.39739000	-10.35310000
50.29999719	0.00000000	-37.24778000	-13.83489000
50.49999718	0.00000000	-39.19168000	-17.27977000
50.69999717	0.00000000	-45.29404000	-20.01722000
50.89999715	0.00000000	-53.80167000	-21.54897000
51.09999714	0.00000000	-62.64764000	-21.50590000
51.29999713	0.00000000	-69.62352000	-19.54970000
51.49999712	0.00000000	-73.07455000	-15.69882000
51.69999711	0.00000000	-72.32407000	-11.14050000
51.89999710	0.00000000	-67.30437000	-7.28346400
52.09999708	0.00000000	-59.66412000	-5.33341500
52.29999707	0.00000000	-51.56865000	-5.29035400
52.49999706	0.00000000	-45.42937000	-6.86515700
52.69999705	0.00000000	-42.68578000	-9.98400600
52.89999704	0.00000000	-43.84842000	-14.16708000
53.09999702	0.00000000	-48.45595000	-18.01796000
53.29999701	0.00000000	-55.33957000	-20.34941000
53.49999700	0.00000000	-62.22933000	-21.13066000
53.69999699	0.00000000	-66.87991000	-19.97416000
53.89999698	0.00000000	-68.46703000	-17.32283000
54.09999696	0.00000000	-66.87991000	-14.25320000
54.29999695	0.00000000	-62.31545000	-11.55881000
54.49999694	0.00000000	-56.17618000	-10.02707000
54.69999693	0.00000000	-50.82431000	-9.98400600
54.89999692	0.00000000	-47.29330000	-11.14050000
55.09999691	0.00000000	-46.54281000	-13.00443000
55.29999689	0.00000000	-48.45595000	-14.90526000
55.49999688	0.00000000	-52.68823000	-15.64960000
55.69999687	0.00000000	-58.03395000	-15.27436000
55.89999686	0.00000000	-62.64764000	-13.74262000
56.09999685	0.00000000	-65.34202000	-11.46653000
56.29999683	0.00000000	-65.38509000	-9.60875900
56.49999682	0.00000000	-63.10900000	-8.82135800
56.69999681	0.00000000	-59.61491000	-9.65182000
56.89999680	0.00000000	-55.33957000	-11.93405000
57.09999679	0.00000000	-51.19340000	-15.40969000
57.29999677	0.00000000	-48.87426000	-18.85458000
57.49999676	0.00000000	-49.19414000	-21.54897000
57.69999675	0.00000000	-51.06422000	-22.57628000
57.89999674	0.00000000	-53.80167000	-20.66314000
58.09999673	0.00000000	-56.87746000	-16.06791000
58.29999672	0.00000000	-59.57185000	-10.67298000
58.49999670	0.00000000	-61.10974000	-5.29035400
58.69999669	0.00000000	-61.15280000	-1.48253000
58.89999668	0.00000000	-59.99015000	-0.73203740
59.09999667	0.00000000	-58.08316000	-3.01427100
59.29999666	0.00000000	-55.80708000	-8.07086500
59.49999664	0.00000000	-54.26919000	-14.62844000
59.69999663	0.00000000	-53.80167000	-21.54897000
59.89999662	0.00000000	-53.80167000	-26.89468000
60.09999661	0.00000000	-54.22613000	-28.80167000
60.29999660	0.00000000	-55.33957000	-26.89468000
60.49999658	0.00000000	-56.45300000	-21.46284000
60.69999657	0.00000000	-56.87746000	-13.79183000
60.89999656	0.00000000	-56.87746000	-5.70866100
61.09999655	0.00000000	-56.50221000	0.42445860
61.29999654	0.00000000	-55.71481000	3.11884800
61.49999653	0.00000000	-54.96432000	1.58710600
61.69999651	0.00000000	-54.22613000	-3.75246000
61.89999650	0.00000000	-54.26919000	-11.09744000
62.09999649	0.00000000	-55.38263000	-18.85458000
62.29999648	0.00000000	-56.92052000	-25.77510000
62.49999647	0.00000000	-58.45841000	-29.95817000
62.69999645	0.00000000	-59.61491000	-30.00738000
62.89999644	0.00000000	-59.99015000	-26.15034000
63.09999643	0.00000000	-59.57185000	-19.59892000
63.29999642	0.00000000	-58.03395000	-11.51575000
63.49999641	0.00000000	-55.75787000	-4.21998000
63.69999639	0.00000000	-53.80167000	0.46751960
63.89999638	0.00000000	-52.26993000	2.00541300
64.09999637	0.00000000	-51.52559000	0.09227362
64.29999636	0.00000000	-52.26993000	-4.91510800
64.49999635	0.00000000	-53.80167000	-11.42347000
64.69999634	0.00000000	-55.75787000	-18.01796000
64.89999632	0.00000000	-58.08316000	-23.03765000
65.09999631	0.00000000	-59.94709000	-25.82431000
65.29999630	0.00000000	-60.73450000	-26.15034000
65.49999629	0.00000000	-59.94709000	-23.86811000
65.69999628	0.00000000	-58.08316000	-19.32210000
65.89999626	0.00000000	-55.75787000	-14.67150000
66.09999625	0.00000000	-53.85088000	-10.72219000
66.29999624	0.00000000	-52.68823000	-7.24040300
66.49999623	0.00000000	-52.68823000	-5.29035400
66.69999622	0.00000000	-53.85088000	-4.82898600
66.89999620	0.00000000	-55.75787000	-5.24729300
67.09999619	0.00000000	-58.03395000	-6.82209600
67.29999618	0.00000000	-59.52879000	-9.51648500
67.49999617	0.00000000	-59.57185000	-12.62918000
67.69999616	0.00000000	-58.40920000	-15.78494000
67.89999615	0.00000000	-56.45300000	-18.85458000
68.09999613	0.00000000	-53.75861000	-21.17372000
68.29999612	0.00000000	-51.15034000	-22.01033000
68.49999611	0.00000000	-49.98769000	-22.01033000
68.69999610	0.00000000	-50.77510000	-21.13066000
68.89999609	0.00000000	-53.10654000	-18.39321000
69.09999607	0.00000000	-56.96358000	-14.16708000
69.29999606	0.00000000	-61.15280000	-9.51648500
69.49999605	0.00000000	-64.27164000	-5.29035400
69.69999604	0.00000000	-65.76033000	-2.54675200
69.89999603	0.00000000	-64.96678000	-1.84547200
70.09999601	0.00000000	-61.48499000	-3.38951800
70.29999600	0.00000000	-56.50221000	-7.60949800
70.49999599	0.00000000	-51.06422000	-12.58612000
70.69999598	0.00000000	-46.49975000	-17.32283000
70.89999597	0.00000000	-44.13140000	-21.54897000
71.09999596	0.00000000	-44.50049000	-24.20029000
71.29999594	0.00000000	-46.87500000	-24.24335000
71.49999593	0.00000000	-51.56865000	-21.92421000
71.69999592	0.00000000	-58.08316000	-18.06102000
71.89999591	0.00000000	-64.22859000	-13.04749000
72.09999590	0.00000000	-68.46087000	-8.48917200
72.29999588	0.00000000	-69.62352000	-5.75172200
72.49999587	0.00000000	-67.34743000	-5.29035400
72.69999586	0.00000000	-62.73376000	-6.40378900
72.89999585	0.00000000	-56.92052000	-8.35383800
73.09999584	0.00000000	-51.15034000	-11.09744000
73.29999582	0.00000000	-46.87500000	-14.11786000
73.49999581	0.00000000	-44.86958000	-16.39395000
73.69999580	0.00000000	-44.91880000	-16.85531000
73.89999579	0.00000000	-47.25024000	-16.16018000
74.09999578	0.00000000	-51.84547000	-15.36663000
74.29999577	0.00000000	-56.82825000	-14.21014000
74.49999575	0.00000000	-61.15280000	-13.13976000
74.69999574	0.00000000	-64.22859000	-13.13976000
74.89999573	0.00000000	-65.38509000	-14.25320000
75.09999572	0.00000000	-64.22859000	-15.74188000
75.29999571	0.00000000	-61.19586000	-16.85531000
75.49999569	0.00000000	-57.38804000	-16.85531000
75.69999568	0.00000000	-54.26919000	-15.64960000
75.89999567	0.00000000	-52.26993000	-13.32431000
76.09999566	0.00000000	-51.10728000	-9.89173200
76.29999565	0.00000000	-51.10728000	-6.86515700
76.49999563	0.00000000	-52.22071000	-5.29035400
76.69999562	0.00000000	-53.75861000	-5.33341500
76.89999561	0.00000000	-55.29650000	-7.28346400
77.09999560	0.00000000	-56.45300000	-11.14050000
77.29999559	0.00000000	-56.87746000	-15.78494000
77.49999558	0.00000000	-56.92052000	-20.39247000
77.69999556	0.00000000	-56.92052000	-23.82505000
77.89999555	0.00000000	-56.92052000	-24.57554000
78.09999554	0.00000000	-56.96358000	-22.66855000
78.29999553	0.00000000	-57.33883000	-18.39321000
78.49999552	0.00000000	-58.08316000	-12.67224000
78.69999550	0.00000000	-58.45841000	-7.24040300
78.89999549	0.00000000	-58.45841000	-3.37721400
79.09999548	0.00000000	-57.99089000	-1.43331700
79.29999547	0.00000000	-56.45300000	-2.22071800
79.49999546	0.00000000	-54.17691000	-5.29035400
79.69999544	0.00000000	-52.26993000	-9.93479300
79.89999543	0.00000000	-51.10728000	-15.32357000
80.09999542	0.00000000	-51.15034000	-19.97416000
80.29999541	0.00000000	-52.64517000	-23.12992000
80.49999540	0.00000000	-54.96432000	-24.61860000
80.69999539	0.00000000	-57.29576000	-23.87426000
80.89999537	0.00000000	-59.61491000	-20.81078000
81.09999536	0.00000000	-61.10974000	-16.94759000
81.29999535	0.00000000	-61.15280000	-12.62918000
81.49999534	0.00000000	-59.99015000	-8.44611200
81.69999533	0.00000000	-58.03395000	-5.70866100
81.89999531	0.00000000	-55.33957000	-4.87204700
82.09999530	0.00000000	-52.68823000	-5.19808000
82.29999529	0.00000000	-51.10728000	-6.40378900
82.49999528	0.00000000	-50.73204000	-8.35383800
82.69999527	0.00000000	-51.48252000	-11.09744000
82.89999525	0.00000000	-53.38336000	-14.21014000
83.09999524	0.00000000	-55.29650000	-17.32283000
83.29999523	0.00000000	-56.87746000	-20.01722000
83.49999522	0.00000000	-58.03395000	-21.54897000
83.69999521	0.00000000	-58.40920000	-21.54897000
83.89999520	0.00000000	-58.08316000	-20.01722000
84.09999518	0.00000000	-57.29576000	-17.27977000
84.29999517	0.00000000	-56.54527000	-13.79183000
84.49999516	0.00000000	-55.75787000	-9.89173200
84.69999515	0.00000000	-55.38263000	-6.44685000
84.89999514	0.00000000	-55.33957000	-4.08464600
85.09999512	0.00000000	-55.33957000	-3.33415300
85.29999511	0.00000000	-55.33957000	-4.17076700
85.49999510	0.00000000	-55.29650000	-7.24040300
85.69999509	0.00000000	-54.92125000	-11.87869000
85.89999508	0.00000000	-54.17691000	-16.49237000
86.09999506	0.00000000	-53.80167000	-20.75541000
86.29999505	0.00000000	-53.80167000	-23.03765000
86.49999504	0.00000000	-54.22613000	-23.08686000
86.69999503	0.00000000	-55.38263000	-21.08760000
86.89999502	0.00000000	-56.92052000	-16.89837000
87.09999501	0.00000000	-58.45841000	-11.88484000
87.29999499	0.00000000	-59.57185000	-7.65255800
87.49999498	0.00000000	-59.57185000	-4.54601300
87.69999497	0.00000000	-58.45841000	-3.80167300
87.89999496	0.00000000	-56.87746000	-5.29035400
88.09999495	0.00000000	-54.96432000	-8.40305000
88.29999493	0.00000000	-53.06348000	-12.67224000
88.49999492	0.00000000	-52.26993000	-17.27362000
88.69999491	0.00000000	-52.22071000	-21.08760000
88.89999490	0.00000000	-52.64517000	-22.61934000
89.09999489	0.00000000	-53.80167000	-21.50590000
89.29999487	0.00000000	-55.33957000	-18.43627000
89.49999486	0.00000000	-56.92052000	-14.16708000
89.69999485	0.00000000	-58.40920000	-9.60875900
89.89999484	0.00000000	-59.19660000	-6.12696800
90.09999483	0.00000000	-58.78444000	-4.95816900
90.29999482	0.00000000	-57.66486000	-5.70866100
90.49999480	0.00000000	-55.80708000	-8.48917200
90.69999479	0.00000000	-54.64444000	-13.04749000
90.89999478	0.00000000	-54.54601000	-18.01796000
91.09999477	0.00000000	-54.13385000	-21.41363000
91.29999476	0.00000000	-53.80167000	-22.24409000
91.49999474	0.00000000	-53.80167000	-20.34941000
91.69999473	0.00000000	-54.17691000	-16.90453000
91.89999472	0.00000000	-54.92125000	-12.62918000
92.09999471	0.00000000	-55.29650000	-8.40305000
92.29999470	0.00000000	-55.33957000	-5.37647600
92.49999468	0.00000000	-55.33957000	-4.63828700
92.69999467	0.00000000	-55.38263000	-6.90821800
92.89999466	0.00000000	-55.75787000	-11.09129000
93.09999465	0.00000000	-56.54527000	-15.69882000
93.29999464	0.00000000	-57.29576000	-19.54970000
93.49999463	0.00000000	-58.08316000	-21.46284000
93.69999461	0.00000000	-58.40920000	-21.08760000
93.89999460	0.00000000	-58.03395000	-18.43627000
94.09999459	0.00000000	-56.82825000	-14.58538000
94.29999458	0.00000000	-54.92125000	-10.72219000
94.49999457	0.00000000	-52.64517000	-7.24040300
94.69999455	0.00000000	-51.10728000	-5.37647600
94.89999454	0.00000000	-50.68897000	-5.75172200
95.09999453	0.00000000	-51.10728000	-8.44611200
95.29999452	0.00000000	-52.68823000	-12.62918000
95.49999451	0.00000000	-55.38263000	-16.81225000
95.69999449	0.00000000	-58.45841000	-19.55585000
95.89999448	0.00000000	-61.15280000	-20.34941000
96.09999447	0.00000000	-62.69069000	-19.55585000
96.29999446	0.00000000	-62.69069000	-16.85531000
96.49999445	0.00000000	-61.15280000	-13.09670000
96.69999444	0.00000000	-58.40920000	-9.98400600
96.89999442	0.00000000	-54.92125000	-8.02780400
97.09999441	0.00000000	-51.06422000	-7.28346400
97.29999440	0.00000000	-47.98843000	-8.44611200
97.49999439	0.00000000	-46.45054000	-11.04823000
97.69999438	0.00000000	-46.82579000	-13.74262000
97.89999436	0.00000000	-49.15108000	-15.69882000
98.09999435	0.00000000	-52.59596000	-16.85531000
98.29999434	0.00000000	-56.50221000	-16.85531000
98.49999433	0.00000000	-59.99015000	-15.74188000
98.69999432	0.00000000	-62.69069000	-14.25320000
98.89999430	0.00000000	-63.85334000	-13.09670000
99.09999429	0.00000000	-63.06594000	-12.62918000
99.29999428	0.00000000	-60.77756000	-12.25394000
99.49999427	0.00000000	-57.29576000	-11.88484000
99.69999426	0.00000000	-53.80167000	-12.25394000
99.89999425	0.00000000	-50.68897000	-12.53691000
100.09999423	0.00000000	-48.36368000	-12.21087000
100.29999422	0.00000000	-47.61319000	-11.46653000
100.49999421	0.00000000	-48.36368000	-11.09129000
100.69999420	0.00000000	-50.63976000	-11.04823000
100.89999419	0.00000000	-53.38336000	-11.09129000
101.09999417	0.00000000	-56.13312000	-11.55881000
101.29999416	0.00000000	-59.19660000	-13.09055000
101.49999415	0.00000000	-61.10974000	-15.36663000
101.69999414	0.00000000	-61.57111000	-17.23056000
101.89999413	0.00000000	-61.15280000	-18.06102000
102.09999411	0.00000000	-59.61491000	-17.64887000
102.29999410	0.00000000	-57.29576000	-16.48622000
102.49999409	0.00000000	-54.96432000	-14.11786000
102.69999408	0.00000000	-52.64517000	-11.09744000
102.89999407	0.00000000	-51.10728000	-8.40305000
103.09999406	0.00000000	-50.68897000	-6.86515700
103.29999404	0.00000000	-51.06422000	-6.86515700
103.49999403	0.00000000	-52.26993000	-8.40305000
103.69999402	0.00000000	-54.17691000	-11.09744000
103.89999401	0.00000000	-56.50221000	-14.16092000
104.09999400	0.00000000	-58.40920000	-16.90453000
104.29999398	0.00000000	-59.57185000	-18.81152000
104.49999397	0.00000000	-59.57185000	-19.55585000
104.69999396	0.00000000	-58.50147000	-18.39321000
104.89999395	0.00000000	-57.29576000	-15.74188000
105.09999394	0.00000000	-56.12696000	-12.67224000
105.29999392	0.00000000	-54.55216000	-9.98400600
105.49999391	0.00000000	-53.47564000	-8.40305000
105.69999390	0.00000000	-53.01427000	-8.02780400
105.89999389	0.00000000	-53.42642000	-8.77214500
106.09999388	0.00000000	-54.17691000	-10.72219000
106.29999387	0.00000000	-55.33957000	-13.00443000
106.49999385	0.00000000	-56.45300000	-15.32357000
106.69999384	0.00000000	-56.87746000	-16.81225000
106.89999383	0.00000000	-56.87746000	-16.85531000
107.09999382	0.00000000	-56.45300000	-15.74188000
107.29999381	0.00000000	-55.33957000	-14.21014000
107.49999379	0.00000000	-54.22613000	-12.62918000
107.69999378	0.00000000	-53.80167000	-11.09744000
107.89999377	0.00000000	-53.80167000	-9.98400600
108.09999376	0.00000000	-54.17691000	-9.98400600
108.29999375	0.00000000	-54.96432000	-11.09744000
108.49999374	0.00000000	-55.75787000	-12.62918000
108.69999372	0.00000000	-56.92052000	-14.16092000
108.89999371	0.00000000	-57.99089000	-15.32357000
109.09999370	0.00000000	-57.99089000	-15.69267000
109.29999369	0.00000000	-56.87746000	-15.32357000
109.49999368	0.00000000	-55.38263000	-14.16092000
109.69999366	0.00000000	-54.17691000	-12.62918000
109.89999365	0.00000000	-53.38336000	-11.09744000
110.09999364	0.00000000	-52.64517000	-9.98400600
110.29999363	0.00000000	-52.68823000	-9.98400600
110.49999362	0.00000000	-53.80167000	-11.09744000
110.69999360	0.00000000	-55.29650000	-12.62918000
110.89999359	0.00000000	-56.50221000	-14.16092000
111.09999358	0.00000000	-57.29576000	-15.36663000
111.29999357	0.00000000	-58.03395000	-16.11712000
111.49999356	0.00000000	-58.03395000	-16.52928000
111.69999355	0.00000000	-57.29576000	-16.11712000
111.89999353	0.00000000	-56.50221000	-15.36663000
112.09999352	0.00000000	-55.33957000	-14.16092000
112.29999351	0.00000000	-54.22613000	-12.67224000
112.49999350	0.00000000	-53.80167000	-11.51575000
112.69999349	0.00000000	-53.80167000	-11.09129000
112.89999347	0.00000000	-54.17691000	-11.09129000
113.09999346	0.00000000	-54.92125000	-11.46653000
113.29999345	0.00000000	-55.33957000	-12.21087000
113.49999344	0.00000000	-55.71481000	-12.62918000
113.69999343	0.00000000	-56.12696000	-13.04749000
113.89999341	0.00000000	-56.09006000	-13.79183000
114.09999340	0.00000000	-56.12696000	-14.16708000
114.29999339	0.00000000	-55.71481000	-14.21014000
114.49999338	0.00000000	-55.38263000	-14.21014000
114.69999337	0.00000000	-55.29650000	-14.21014000
114.89999336	0.00000000	-54.96432000	-14.21014000
115.09999334	0.00000000	-54.59522000	-14.21014000
115.29999333	0.00000000	-54.96432000	-14.21014000
115.49999332	0.00000000	-55.29650000	-14.16708000
115.69999331	0.00000000	-55.33957000	-13.79183000
115.89999330	0.00000000	-55.38263000	-13.04749000
116.09999328	0.00000000	-55.75787000	-12.62918000
116.29999327	0.00000000	-56.45300000	-12.21087000
116.49999326	0.00000000	-56.50221000	-11.46653000
116.69999325	0.00000000	-56.13312000	-11.09129000
116.89999324	0.00000000	-56.12696000	-11.09129000
117.09999322	0.00000000	-55.71481000	-11.51575000
117.29999321	0.00000000	-55.33957000	-12.62918000
117.49999320	0.00000000	-54.92125000	-13.79183000
117.69999319	0.00000000	-54.17691000	-14.58538000
117.89999318	0.00000000	-53.80167000	-15.32357000
118.09999317	0.00000000	-53.75861000	-15.32357000
118.29999315	0.00000000	-53.80167000	-14.62844000
118.49999314	0.00000000	-54.22613000	-14.21014000
118.69999313	0.00000000	-55.33957000	-13.74262000
118.89999312	0.00000000	-56.50221000	-12.62918000
119.09999311	0.00000000	-57.29576000	-11.51575000
119.29999309	0.00000000	-58.03395000	-11.09129000
119.49999308	0.00000000	-58.03395000	-11.04823000
119.69999307	0.00000000	-57.29576000	-11.04823000
119.89999306	0.00000000	-56.50221000	-11.09129000
120.09999305	0.00000000	-55.29650000	-11.46653000
120.29999303	0.00000000	-53.80167000	-12.21087000
120.49999302	0.00000000	-52.64517000	-12.62918000
120.69999301	0.00000000	-52.22071000	-13.04749000
120.89999300	0.00000000	-52.22071000	-13.79183000
121.09999299	0.00000000	-52.64517000	-14.16708000
121.29999298	0.00000000	-53.80167000	-14.21014000
121.49999296	0.00000000	-55.29650000	-14.21014000
121.69999295	0.00000000	-56.50221000	-14.21014000
121.89999294	0.00000000	-57.29576000	-14.16708000
122.09999293	0.00000000	-58.03395000	-13.79183000
122.29999292	0.00000000	-58.03395000	-13.04749000
122.49999290	0.00000000	-57.29576000	-12.62918000
122.69999289	0.00000000	-56.50221000	-12.21087000
122.89999288	0.00000000	-55.33957000	-11.46653000
123.09999287	0.00000000	-54.17691000	-11.09129000
123.29999286	0.00000000	-53.38336000	-11.09129000
123.49999284	0.00000000	-52.64517000	-11.51575000
123.69999283	0.00000000	-52.64517000	-12.62918000
123.89999282	0.00000000	-53.34030000	-13.74262000
124.09999281	0.00000000	-53.75861000	-14.16708000
124.29999280	0.00000000	-54.17691000	-14.21014000
124.49999279	0.00000000	-54.96432000	-14.21014000
124.69999277	0.00000000	-55.71481000	-14.16708000
124.89999276	0.00000000	-56.50221000	-13.79183000
125.09999275	0.00000000	-56.87746000	-13.04749000
125.29999274	0.00000000	-56.92052000	-12.67224000
125.49999273	0.00000000	-56.87746000	-12.62918000
125.69999271	0.00000000	-56.50221000	-12.62918000
125.89999270	0.00000000	-55.71481000	-12.62918000
126.09999269	0.00000000	-54.96432000	-12.62918000
126.29999268	0.00000000	-54.17691000	-12.62918000
126.49999267	0.00000000	-53.80167000	-12.62918000
126.69999265	0.00000000	-53.75861000	-12.62918000
126.89999264	0.00000000	-53.80167000	-12.62918000
127.09999263	0.00000000	-54.17691000	-12.67224000
127.29999262	0.00000000	-54.96432000	-13.04749000
127.49999261	0.00000000	-55.71481000	-13.79183000
127.69999260	0.00000000	-56.50221000	-14.11786000
127.89999258	0.00000000	-56.87746000	-13.79183000
128.09999257	0.00000000	-56.87746000	-13.04749000
128.29999256	0.00000000	-56.50221000	-12.67224000
128.49999255	0.00000000	-55.71481000	-12.62918000
128.69999254	0.00000000	-54.96432000	-12.62918000
128.89999252	0.00000000	-54.13385000	-12.62918000
129.09999251	0.00000000	-53.42642000	-12.62918000
129.29999250	0.00000000	-53.01427000	-12.67224000
129.49999249	0.00000000	-53.42642000	-13.04749000
129.69999248	0.00000000	-54.17691000	-13.79183000
129.89999246	0.00000000	-55.33957000	-14.16708000
130.09999245	0.00000000	-56.45300000	-14.16708000
130.29999244	0.00000000	-56.87746000	-13.79183000
130.49999243	0.00000000	-56.87746000	-13.04749000
130.69999242	0.00000000	-56.50221000	-12.67224000
130.89999241	0.00000000	-55.71481000	-12.62918000
131.09999239	0.00000000	-54.96432000	-12.62918000
131.29999238	0.00000000	-54.17691000	-12.62918000
131.49999237	0.00000000	-53.80167000	-12.67224000
131.69999236	0.00000000	-53.75861000	-13.04749000
131.89999235	0.00000000	-53.80167000	-13.79183000
132.09999233	0.00000000	-54.17691000	-14.16708000
132.29999232	0.00000000	-54.96432000	-14.21014000
132.49999231	0.00000000	-55.67175000	-14.21014000
132.69999230	0.00000000	-56.08390000	-14.16708000
132.89999229	0.00000000	-55.71481000	-13.79183000
133.09999227	0.00000000	-55.38263000	-13.00443000
133.29999226	0.00000000	-55.33957000	-12.25394000
133.49999225	0.00000000	-55.33957000	-11.46653000
133.69999224	0.00000000	-55.33957000	-11.09129000
133.89999223	0.00000000	-55.33957000	-11.09129000
134.09999222	0.00000000	-55.33957000	-11.51575000
134.29999220	0.00000000	-55.33957000	-12.62918000
134.49999219	0.00000000	-55.33957000	-13.74262000
134.69999218	0.00000000	-55.33957000	-14.21014000
134.89999217	0.00000000	-55.29650000	-14.58538000
135.09999216	0.00000000	-54.92125000	-14.94833000
135.29999214	0.00000000	-54.17691000	-14.58538000
135.49999213	0.00000000	-53.80167000	-14.21014000
135.69999212	0.00000000	-53.80167000	-13.79183000
135.89999211	0.00000000	-54.17691000	-13.00443000
136.09999210	0.00000000	-54.92125000	-12.25394000
136.29999208	0.00000000	-55.33957000	-11.46653000
136.49999207	0.00000000	-55.75787000	-11.09129000
136.69999206	0.00000000	-56.50221000	-11.09129000
136.89999205	0.00000000	-56.82825000	-11.46653000
137.09999204	0.00000000	-56.50221000	-12.21087000
137.29999203	0.00000000	-55.71481000	-12.62918000
137.49999201	0.00000000	-54.96432000	-13.04749000
137.69999200	0.00000000	-54.17691000	-13.79183000
137.89999199	0.00000000	-53.80167000	-14.16708000
138.09999198	0.00000000	-53.75861000	-14.21014000
138.29999197	0.00000000	-53.80167000	-14.21014000
138.49999195	0.00000000	-54.17691000	-14.21014000
138.69999194	0.00000000	-54.96432000	-14.16708000
138.89999193	0.00000000	-55.71481000	-13.79183000
139.09999192	0.00000000	-56.50221000	-13.00443000
139.29999191	0.00000000	-56.82825000	-12.25394000
139.49999189	0.00000000	-56.50221000	-11.46653000
139.69999188	0.00000000	-55.71481000	-11.14050000
139.89999187	0.00000000	-54.96432000	-11.46653000
140.09999186	0.00000000	-54.17691000	-12.21087000
140.29999185	0.00000000	-53.80167000	-12.62918000
140.49999184	0.00000000	-53.75861000	-13.04749000
140.69999182	0.00000000	-53.80167000	-13.83489000
140.89999181	0.00000000	-54.17691000	-14.53617000
141.09999180	0.00000000	-54.92125000	-14.94833000
141.29999179	0.00000000	-55.29650000	-14.58538000
141.49999178	0.00000000	-55.33957000	-14.21014000
141.69999176	0.00000000	-55.33957000	-13.74262000
141.89999175	0.00000000	-55.33957000	-12.62918000
142.09999174	0.00000000	-55.29650000	-11.51575000
142.29999173	0.00000000	-54.92125000	-11.09129000
142.49999172	0.00000000	-54.17691000	-11.04823000
142.69999170	0.00000000	-53.85088000	-11.09129000
142.89999169	0.00000000	-54.17691000	-11.46653000
143.09999168	0.00000000	-54.87204000	-12.25394000
143.29999167	0.00000000	-54.92125000	-13.00443000
143.49999166	0.00000000	-54.59522000	-13.79183000
143.69999165	0.00000000	-54.96432000	-14.16708000
143.89999163	0.00000000	-55.29650000	-14.21014000
144.09999162	0.00000000	-55.29650000	-14.16708000
144.29999161	0.00000000	-54.92125000	-13.79183000
144.49999160	0.00000000	-54.17691000	-13.00443000
144.69999159	0.00000000	-53.80167000	-12.25394000
144.89999157	0.00000000	-53.75861000	-11.46653000
145.09999156	0.00000000	-53.75861000	-11.09129000
145.29999155	0.00000000	-53.80167000	-11.09129000
145.49999154	0.00000000	-54.13385000	-11.46653000
145.69999153	0.00000000	-54.54601000	-12.25394000
145.89999151	0.00000000	-54.55216000	-13.00443000
146.09999150	0.00000000	-54.96432000	-13.79183000
146.29999149	0.00000000	-55.29650000	-14.16708000
146.49999148	0.00000000	-55.33957000	-14.21014000
146.69999147	0.00000000	-55.29650000	-14.21014000
146.89999146	0.00000000	-54.92125000	-14.16708000
147.09999144	0.00000000	-54.17691000	-13.79183000
147.29999143	0.00000000	-53.80167000	-13.04749000
147.49999142	0.00000000	-53.75861000	-12.67224000
147.69999141	0.00000000	-53.80167000	-12.58612000
147.89999140	0.00000000	-54.17691000	-12.21087000
148.09999138	0.00000000	-54.92125000	-11.51575000
148.29999137	0.00000000	-55.29650000	-11.51575000
148.49999136	0.00000000	-55.33957000	-12.21087000
148.69999135	0.00000000	-55.33957000	-12.58612000
148.89999134	0.00000000	-55.33957000	-12.62918000
149.09999132	0.00000000	-55.29650000	-12.67224000
149.29999131	0.00000000	-54.92125000	-13.00443000
149.49999130	0.00000000	-54.17691000	-13.37352000
149.69999129	0.00000000	-53.80167000	-13.00443000
149.89999128	0.00000000	-53.75861000	-12.67224000
150.09999127	0.00000000	-53.75861000	-12.62918000
150.29999125	0.00000000	-53.75861000	-12.62918000
150.49999124	0.00000000	-53.80167000	-12.62918000
150.69999123	0.00000000	-54.17691000	-12.58612000
150.89999122	0.00000000	-54.92125000	-12.21087000
151.09999121	0.00000000	-55.29650000	-11.51575000
151.29999119	0.00000000	-55.33957000	-11.51575000
151.49999118	0.00000000	-55.33957000	-12.21087000
151.69999117	0.00000000	-55.33957000	-12.62918000
151.89999116	0.00000000	-55.33957000	-13.00443000
152.09999115	0.00000000	-55.29650000	-13.37352000
152.29999113	0.00000000	-54.92125000	-13.00443000
152.49999112	0.00000000	-54.17691000	-12.67224000
152.69999111	0.00000000	-53.80167000	-12.62918000
152.89999110	0.00000000	-53.75861000	-12.62918000
153.09999109	0.00000000	-53.75861000	-12.62918000
153.29999108	0.00000000	-53.80167000	-12.62918000
153.49999106	0.00000000	-54.17691000	-12.62918000
153.69999105	0.00000000	-54.92125000	-12.62918000
153.89999104	0.00000000	-55.29650000	-12.62918000
154.09999103	0.00000000	-55.33957000	-12.62918000
154.29999102	0.00000000	-55.33957000	-12.62918000
154.49999100	0.00000000	-55.33957000	-12.62918000
154.69999099	0.00000000	-55.33957000	-12.62918000
154.89999098	0.00000000	-55.29650000	-12.62918000
155.09999097	0.00000000	-54.92125000	-12.62918000
155.29999096	0.00000000	-54.17691000	-12.62918000
155.49999094	0.00000000	-53.80167000	-12.67224000
155.69999093	0.00000000	-53.75861000	-13.04749000
155.89999092	0.00000000	-53.75861000	-13.74262000
156.09999091	0.00000000	-53.75861000	-13.74262000
156.29999090	0.00000000	-53.80167000	-13.04749000
156.49999089	0.00000000	-54.17691000	-12.67224000
156.69999087	0.00000000	-54.92125000	-12.62918000
156.89999086	0.00000000	-55.29650000	-12.62918000
157.09999085	0.00000000	-55.33957000	-12.62918000
157.29999084	0.00000000	-55.33957000	-12.58612000
157.49999083	0.00000000	-55.33957000	-12.25394000
157.69999081	0.00000000	-55.29650000	-11.88484000
157.89999080	0.00000000	-54.96432000	-12.29700000
158.09999079	0.00000000	-54.55216000	-13.00443000
158.29999078	0.00000000	-54.54601000	-13.79183000
158.49999077	0.00000000	-54.13385000	-14.16708000
158.69999075	0.00000000	-53.80167000	-14.21014000
158.89999074	0.00000000	-53.75861000	-14.16708000
159.09999073	0.00000000	-53.75861000	-13.79183000
159.29999072	0.00000000	-53.80167000	-13.04749000
159.49999071	0.00000000	-54.17691000	-12.62918000
159.69999070	0.00000000	-54.92125000	-12.21087000
159.89999068	0.00000000	-55.29650000	-11.46653000
160.09999067	0.00000000	-55.33957000	-11.09129000
160.29999066	0.00000000	-55.33957000	-11.09129000
160.49999065	0.00000000	-55.33957000	-11.46653000
160.69999064	0.00000000	-55.33957000	-12.25394000
160.89999062	0.00000000	-55.33957000	-13.00443000
161.09999061	0.00000000	-55.29650000	-13.79183000
161.29999060	0.00000000	-54.92125000	-14.16708000
161.49999059	0.00000000	-54.17691000	-14.21014000
161.69999058	0.00000000	-53.80167000	-14.16708000
161.89999056	0.00000000	-53.75861000	-13.79183000
162.09999055	0.00000000	-53.75861000	-13.04749000
162.29999054	0.00000000	-53.75861000	-12.67224000
162.49999053	0.00000000	-53.75861000	-12.62918000
162.69999052	0.00000000	-53.75861000	-12.62918000
162.89999051	0.00000000	-53.75861000	-12.62918000
163.09999049	0.00000000	-53.80167000	-12.62918000
163.29999048	0.00000000	-54.17691000	-12.62918000
163.49999047	0.00000000	-54.92125000	-12.62918000
163.69999046	0.00000000	-55.29650000	-12.62918000
163.89999045	0.00000000	-55.33957000	-12.62918000
164.09999043	0.00000000	-55.33957000	-12.62918000
164.29999042	0.00000000	-55.29650000	-12.62918000
164.49999041	0.00000000	-54.92125000	-12.62918000
164.69999040	0.00000000	-54.17691000	-12.62918000
164.89999039	0.00000000	-53.80167000	-12.62918000
165.09999037	0.00000000	-53.75861000	-12.62918000
165.29999036	0.00000000	-53.75861000	-12.62918000
165.49999035	0.00000000	-53.75861000	-12.62918000
165.69999034	0.00000000	-53.75861000	-12.62918000
165.89999033	0.00000000	-53.80167000	-12.62918000
166.09999032	0.00000000	-54.17691000	-12.62918000
166.29999030	0.00000000	-54.92125000	-12.62918000
166.49999029	0.00000000	-55.29650000	-12.62918000
166.69999028	0.00000000	-55.33957000	-12.62918000
166.89999027	0.00000000	-55.33957000	-12.62918000
167.09999026	0.00000000	-55.29650000	-12.67224000
167.29999024	0.00000000	-54.92125000	-13.00443000
167.49999023	0.00000000	-54.17691000	-13.37352000
167.69999022	0.00000000	-53.80167000	-13.00443000
167.89999021	0.00000000	-53.75861000	-12.67224000
168.09999020	0.00000000	-53.75861000	-12.62918000
168.29999018	0.00000000	-53.75861000	-12.62918000
168.49999017	0.00000000	-53.75861000	-12.62918000
168.69999016	0.00000000	-53.75861000	-12.62918000
168.89999015	0.00000000	-53.80167000	-12.62918000
169.09999014	0.00000000	-54.17691000	-12.62918000
169.29999013	0.00000000	-54.92125000	-12.62918000
169.49999011	0.00000000	-55.24729000	-12.62918000
169.69999010	0.00000000	-54.96432000	-12.62918000
169.89999009	0.00000000	-54.59522000	-12.62918000
170.09999008	0.00000000	-54.92125000	-12.62918000
170.29999007	0.00000000	-54.87204000	-12.62918000
170.49999005	0.00000000	-54.17691000	-12.62918000
170.69999004	0.00000000	-53.80167000	-12.62918000
170.89999003	0.00000000	-53.75861000	-12.62918000
171.09999002	0.00000000	-53.75861000	-12.62918000
171.29999001	0.00000000	-53.75861000	-12.62918000
171.49998999	0.00000000	-53.75861000	-12.62918000
171.69998998	0.00000000	-53.75861000	-12.62918000
171.89998997	0.00000000	-53.75861000	-12.62918000
172.09998996	0.00000000	-53.75861000	-12.62918000
172.29998995	0.00000000	-53.75861000	-12.62918000
172.49998994	0.00000000	-53.75861000	-12.62918000
172.69998992	0.00000000	-53.75861000	-12.62918000
172.89998991	0.00000000	-53.75861000	-12.62918000
173.09998990	0.00000000	-53.75861000	-12.62918000
173.29998989	0.00000000	-53.75861000	-12.62918000
173.49998988	0.00000000	-53.75861000	-12.58612000
173.69998986	0.00000000	-53.75861000	-12.25394000
173.89998985	0.00000000	-53.75861000	-11.88484000
174.09998984	0.00000000	-53.75861000	-12.25394000
174.29998983	0.00000000	-53.75861000	-12.58612000
174.49998982	0.00000000	-53.75861000	-12.62918000
174.69998980	0.00000000	-53.75861000	-12.62918000
174.89998979	0.00000000	-53.75861000	-12.62918000
175.09998978	0.00000000	-53.75861000	-12.62918000
175.29998977	0.00000000	-53.75861000	-12.62918000
175.49998976	0.00000000	-53.75861000	-12.62918000
175.69998975	0.00000000	-53.75861000	-12.62918000
175.89998973	0.00000000	-53.75861000	-12.62918000
176.09998972	0.00000000	-53.75861000	-12.62918000
176.29998971	0.00000000	-53.75861000	-12.62918000
176.49998970	0.00000000	-53.75861000	-12.62918000
176.69998969	0.00000000	-53.75861000	-12.62918000
176.89998967	0.00000000	-53.75861000	-12.62918000
177.09998966	0.00000000	-53.75861000	-12.62918000
177.29998965	0.00000000	-53.75861000	-12.67224000
177.49998964	0.00000000	-53.80167000	-13.04749000
177.69998963	0.00000000	-54.13385000	-13.74262000
177.89998961	0.00000000	-54.50295000	-13.74262000
178.09998960	0.00000000	-54.13385000	-13.04749000
178.29998959	0.00000000	-53.80167000	-12.67224000
178.49998958	0.00000000	-53.75861000	-12.62918000
178.69998957	0.00000000	-53.75861000	-12.62918000
178.89998956	0.00000000	-53.75861000	-12.62918000
179.09998954	0.00000000	-53.75861000	-12.62918000
179.29998953	0.00000000	-53.75861000	-12.62918000
179.49998952	0.00000000	-53.75861000	-12.62918000
179.69998951	0.00000000	-53.75861000	-12.62918000
179.89998950	0.00000000	-53.75861000	-12.67224000
180.09998948	0.00000000	-53.75861000	-13.00443000
180.29998947	0.00000000	-53.75861000	-13.37352000
180.49998946	0.00000000	-53.75861000	-13.00443000
180.69998945	0.00000000	-53.80167000	-12.67224000
180.89998944	0.00000000	-54.13385000	-12.62918000
181.09998942	0.00000000	-54.50295000	-12.62918000
181.29998941	0.00000000	-54.13385000	-12.62918000
181.49998940	0.00000000	-53.80167000	-12.62918000
181.69998939	0.00000000	-53.75861000	-12.62918000
181.89998938	0.00000000	-53.75861000	-12.62918000
182.09998937	0.00000000	-53.75861000	-12.58612000
182.29998935	0.00000000	-53.75861000	-12.25394000
182.49998934	0.00000000	-53.75861000	-11.88484000
182.69998933	0.00000000	-53.75861000	-12.25394000
182.89998932	0.00000000	-53.75861000	-12.58612000
183.09998931	0.00000000	-53.75861000	-12.62918000
183.29998929	0.00000000	-53.75861000	-12.62918000
183.49998928	0.00000000	-53.75861000	-12.62918000
183.69998927	0.00000000	-53.75861000	-12.62918000
183.89998926	0.00000000	-53.80167000	-12.62918000
184.09998925	0.00000000	-54.13385000	-12.62918000
184.29998923	0.00000000	-54.50295000	-12.62918000
184.49998922	0.00000000	-54.13385000	-12.58612000
184.69998921	0.00000000	-53.80167000	-12.21087000
184.89998920	0.00000000	-53.75861000	-11.46653000
185.09998919	0.00000000	-53.75861000	-11.14050000
185.29998918	0.00000000	-53.75861000	-11.46653000
185.49998916	0.00000000	-53.75861000	-12.21087000
185.69998915	0.00000000	-53.75861000	-12.58612000
185.89998914	0.00000000	-53.75861000	-12.62918000
186.09998913	0.00000000	-53.75861000	-12.67224000
186.29998912	0.00000000	-53.71555000	-13.00443000
186.49998910	0.00000000	-53.42642000	-13.37352000
186.69998909	0.00000000	-53.38951000	-13.00443000
186.89998908	0.00000000	-54.12770000	-12.67224000
187.09998907	0.00000000	-54.13385000	-12.62918000
187.29998906	0.00000000	-54.17691000	-12.58612000
187.49998904	0.00000000	-54.50295000	-12.21087000
187.69998903	0.00000000	-54.13385000	-11.46653000
187.89998902	0.00000000	-53.80167000	-11.09129000
188.09998901	0.00000000	-53.75861000	-11.09129000
188.29998900	0.00000000	-53.75861000	-11.46653000
188.49998899	0.00000000	-53.75861000	-12.21087000
188.69998897	0.00000000	-53.75861000	-12.58612000
188.89998896	0.00000000	-53.75861000	-12.67224000
189.09998895	0.00000000	-53.75861000	-13.04749000
189.29998894	0.00000000	-53.75861000	-13.74262000
189.49998893	0.00000000	-53.75861000	-13.74262000
189.69998891	0.00000000	-53.75861000	-13.04749000
189.89998890	0.00000000	-53.75861000	-12.67224000
190.09998889	0.00000000	-53.75861000	-12.62918000
190.29998888	0.00000000	-53.75861000	-12.62918000
190.49998887	0.00000000	-53.75861000	-12.62918000
190.69998885	0.00000000	-53.75861000	-12.62918000
190.89998884	0.00000000	-53.75861000	-12.62918000
191.09998883	0.00000000	-53.75861000	-12.62918000
191.29998882	0.00000000	-53.75861000	-12.62918000
191.49998881	0.00000000	-53.75861000	-12.62918000
191.69998880	0.00000000	-53.75861000	-12.62918000
191.89998878	0.00000000	-53.75861000	-12.62918000
192.09998877	0.00000000	-53.75861000	-12.62918000
192.29998876	0.00000000	-53.75861000	-12.62918000
192.49998875	0.00000000	-53.75861000	-12.67224000
192.69998874	0.00000000	-53.75861000	-13.00443000
192.89998872	0.00000000	-53.75861000	-13.37352000
193.09998871	0.00000000	-53.80167000	-13.00443000
193.29998870	0.00000000	-54.13385000	-12.67224000
193.49998869	0.00000000	-54.50295000	-12.62918000
193.69998868	0.00000000	-54.13385000	-12.62918000
193.89998866	0.00000000	-53.80167000	-12.58612000
194.09998865	0.00000000	-53.75861000	-12.25394000
194.29998864	0.00000000	-53.75861000	-11.88484000
194.49998863	0.00000000	-53.75861000	-12.25394000
194.69998862	0.00000000	-53.75861000	-12.58612000
194.89998861	0.00000000	-53.75861000	-12.62918000
195.09998859	0.00000000	-53.75861000	-12.62918000
195.29998858	0.00000000	-53.75861000	-12.62918000
195.49998857	0.00000000	-53.75861000	-12.62918000
195.69998856	0.00000000	-53.75861000	-12.62918000
195.89998855	0.00000000	-53.75861000	-12.62918000
196.09998853	0.00000000	-53.75861000	-12.62918000
