Time	Channel A	Channel B	Channel C
(us)	(V)	(mV)	(mV)

-4.49999956	0.00000000	-80.64099000	-24.42790000
-4.29999957	0.00000000	-80.64099000	-24.05881000
-4.09999958	0.00000000	-80.64099000	-23.72662000
-3.89999959	0.00000000	-80.64099000	-23.68356000
-3.69999960	0.00000000	-80.64099000	-23.68356000
-3.49999962	0.00000000	-80.59792000	-23.68356000
-3.29999963	0.00000000	-80.26574000	-23.68356000
-3.09999964	0.00000000	-79.89664000	-23.68356000
-2.89999965	0.00000000	-80.26574000	-23.68356000
-2.69999966	0.00000000	-80.59792000	-23.68356000
-2.49999968	0.00000000	-80.64099000	-23.68356000
-2.29999969	0.00000000	-80.64099000	-23.68356000
-2.09999970	0.00000000	-80.64099000	-23.68356000
-1.89999971	0.00000000	-80.59792000	-23.68356000
-1.69999972	0.00000000	-80.26574000	-23.68356000
-1.49999973	0.00000000	-79.85359000	-23.68356000
-1.29999975	0.00000000	-79.89050000	-23.68356000
-1.09999976	0.00000000	-79.85359000	-23.72662000
-0.89999977	0.00000000	-80.26574000	-24.05881000
-0.69999978	0.00000000	-80.54871000	-24.42790000
-0.49999979	0.00000000	-80.26574000	-24.05881000
-0.29999981	0.31803640	-79.89664000	-23.77584000
-0.09999982	0.63668800	-80.22269000	-24.10187000
0.10000017	0.95533960	-80.22269000	-24.79700000
0.30000016	1.11466500	-79.89664000	-24.79700000
0.50000015	0.79601380	-80.22269000	-24.10187000
0.70000013	0.15871060	-80.17347000	-23.72662000
0.90000012	-0.63668800	-79.47834000	-23.68356000
1.10000011	-1.59264300	-79.10310000	-23.68356000
1.30000010	-2.38927200	-79.06004000	-23.68356000
1.50000009	-2.70792300	-79.06004000	-23.68356000
1.70000008	-2.38927200	-79.06004000	-23.68356000
1.90000006	-0.95533960	-79.10310000	-23.68356000
2.10000005	0.79601380	-79.47834000	-23.68356000
2.30000004	3.02657500	-80.17347000	-23.68356000
2.50000003	4.61921700	-80.22269000	-23.68356000
2.70000002	5.41584600	-79.89664000	-23.72662000
2.90000000	4.61921700	-80.26574000	-24.10187000
3.09999999	2.54859700	-80.59792000	-24.84621000
3.29999998	-0.63668800	-80.64099000	-25.22145000
3.49999997	-3.98191400	-80.64099000	-25.22145000
3.69999996	-6.69045300	-80.59792000	-24.84621000
3.89999994	-7.96444400	-80.22269000	-24.10187000
4.09999993	-7.16781500	-79.47834000	-23.72662000
4.29999992	-4.45989200	-79.10310000	-23.68356000
4.49999991	-0.47736220	-79.06004000	-23.68356000
4.69999990	3.98191400	-79.06004000	-23.68356000
4.89999989	7.64579200	-79.06004000	-23.72662000
5.09999987	9.39837600	-79.10310000	-24.10187000
5.29999986	8.92039900	-79.47834000	-24.84621000
5.49999985	6.21247500	-80.22269000	-25.17224000
5.69999984	1.75196900	-80.59792000	-24.84621000
5.89999983	-3.02657500	-80.59792000	-24.10187000
6.09999981	-7.00848900	-80.22269000	-23.72662000
6.29999980	-9.23905000	-79.47834000	-23.68356000
6.49999979	-9.07972400	-79.10310000	-23.68356000
6.69999978	-6.69045300	-79.06004000	-23.64050000
6.89999977	-2.70792300	-79.06004000	-23.30832000
7.09999975	1.59264300	-79.06004000	-22.93922000
7.29999974	5.25652100	-79.06004000	-23.30832000
7.49999973	7.48646600	-79.10310000	-23.68356000
7.69999972	7.64579200	-79.47834000	-24.05881000
7.89999971	5.89382400	-80.17347000	-24.42790000
8.09999970	2.86724900	-80.17347000	-24.05881000
8.29999968	-0.31803640	-79.47834000	-23.72662000
8.49999967	-3.18590100	-79.10310000	-23.68356000
8.69999966	-4.77854300	-79.06004000	-23.68356000
8.89999965	-5.09719500	-79.10310000	-23.68356000
9.09999964	-4.14124000	-79.43528000	-23.68356000
9.29999962	-2.38927200	-79.80437000	-23.68356000
9.49999961	-0.31803640	-79.43528000	-23.68356000
9.69999960	1.27399100	-79.10310000	-23.68356000
9.89999959	2.22994600	-79.10310000	-23.68356000
10.09999958	2.54859700	-79.43528000	-23.68356000
10.29999956	2.07062000	-79.80437000	-23.68356000
10.49999955	1.27399100	-79.43528000	-23.68356000
10.69999954	0.47736220	-79.15231000	-23.68356000
10.89999953	-0.31803640	-79.43528000	-23.68356000
11.09999952	-0.79601380	-79.84743000	-23.68356000
11.29999951	-0.95533960	-79.81052000	-23.68356000
11.49999949	-0.95533960	-79.89050000	-23.68356000
11.69999948	-0.63668800	-79.81052000	-23.68356000
11.89999947	-0.31803640	-79.84743000	-23.68356000
12.09999946	-0.15871060	-79.43528000	-23.68356000
12.29999945	-0.15871060	-79.15231000	-23.68356000
12.49999943	0.00000000	-79.43528000	-23.68356000
12.69999942	0.00000000	-79.84743000	-23.68356000
12.89999941	0.00000000	-79.81052000	-23.68356000
13.09999940	0.00000000	-79.84743000	-23.68356000
13.29999939	0.00000000	-79.43528000	-23.68356000
13.49999937	0.00000000	-79.10310000	-23.68356000
13.69999936	0.00000000	-79.10310000	-23.72662000
13.89999935	0.00000000	-79.47834000	-24.05881000
14.09999934	-0.15871060	-80.17347000	-24.42790000
14.29999933	-0.15871060	-80.17347000	-24.05881000
14.49999932	-0.15871060	-79.47834000	-23.72662000
14.69999930	0.00000000	-79.10310000	-23.68356000
14.89999929	0.00000000	-79.10310000	-23.68356000
15.09999928	0.00000000	-79.43528000	-23.68356000
15.29999927	0.00000000	-79.80437000	-23.68356000
15.49999926	0.00000000	-79.47834000	-23.68356000
15.69999924	0.00000000	-79.47834000	-23.68356000
15.89999923	0.00000000	-79.80437000	-23.68356000
16.09999922	0.00000000	-79.43528000	-23.68356000
16.29999921	0.00000000	-79.10310000	-23.68356000
16.49999920	-0.15871060	-79.06004000	-23.68356000
16.69999919	0.00000000	-79.06004000	-23.68356000
16.89999917	0.00000000	-79.01697000	-23.68356000
17.09999916	0.00000000	-78.64173000	-23.68356000
17.29999915	0.00000000	-77.89738000	-23.68356000
17.49999914	0.00000000	-77.52214000	-23.68356000
17.69999913	0.00000000	-77.52214000	-23.68356000
17.89999911	0.00000000	-77.94660000	-23.68356000
18.09999910	0.00000000	-79.10310000	-23.68356000
18.29999909	0.00000000	-80.64099000	-23.68356000
18.49999908	0.00000000	-82.22194000	-23.68356000
18.69999907	0.00000000	-83.75984000	-23.68356000
18.89999905	0.00000000	-84.87327000	-23.68356000
19.09999904	0.00000000	-84.83022000	-23.68356000
19.29999903	0.00000000	-83.24926000	-23.68356000
19.49999902	0.00000000	-80.17347000	-23.68356000
19.69999901	0.00000000	-76.27337000	-23.68356000
19.89999900	0.00000000	-72.40403000	-23.68356000
20.09999898	0.00000000	-68.96530000	-23.68356000
20.29999897	0.00000000	-67.47662000	-23.68356000
20.49999896	0.00000000	-68.68233000	-23.68356000
20.69999895	0.00000000	-72.59473000	-23.68356000
20.89999894	0.00000000	-79.19537000	-23.68356000
21.09999892	0.00000000	-86.87254000	-23.68356000
21.29999891	0.00000000	-93.84842000	-23.68356000
21.49999890	0.00000000	-98.46210000	-23.68356000
21.69999889	0.00000000	-99.53247000	-23.68356000
21.89999888	0.00000000	-95.95226000	-23.68356000
22.09999886	0.00000000	-87.38926000	-23.68356000
22.29999885	0.00000000	-75.43060000	-23.72662000
22.49999884	0.00000000	-62.68454000	-24.05881000
22.69999883	0.00000000	-52.30684000	-24.42790000
22.89999882	0.00000000	-46.95497000	-24.01575000
23.09999881	0.00000000	-48.62820000	-23.30832000
23.29999879	0.00000000	-57.93553000	-22.52091000
23.49999878	0.00000000	-73.42519000	-22.14567000
23.69999877	0.00000000	-91.57234000	-22.10261000
23.89999876	0.00000000	-108.55680000	-22.10261000
24.09999875	0.00000000	-120.04800000	-22.14567000
24.29999873	0.00000000	-122.70550000	-22.57013000
24.49999872	0.00000000	-115.30510000	-23.72662000
24.69999871	0.00000000	-99.07111000	-25.26452000
24.89999870	0.00000000	-77.38681000	-26.79626000
25.09999869	0.00000000	-55.05044000	-28.00197000
25.29999867	0.00000000	-37.32160000	-28.75246000
25.49999866	0.00000000	-29.21998000	-29.07234000
25.69999865	0.00000000	-32.29576000	-27.86663000
25.89999864	0.00000000	-45.92765000	-25.17224000
26.09999863	0.00000000	-67.93799000	-21.68430000
26.29999862	0.00000000	-93.33784000	-17.78420000
26.49999860	0.00000000	-115.39740000	-14.38853000
26.69999859	0.00000000	-129.31220000	-12.48770000
26.89999858	0.00000000	-132.37570000	-13.31816000
27.09999857	0.00000000	-123.08070000	-16.80610000
27.29999856	0.00000000	-103.85700000	-22.65625000
27.49999854	0.00000000	-79.52755000	-30.00123000
27.69999853	0.00000000	-55.93627000	-37.29700000
27.89999852	0.00000000	-38.11516000	-42.63656000
28.09999851	0.00000000	-29.60138000	-44.17446000
28.29999850	0.00000000	-32.29576000	-41.43085000
28.49999848	0.00000000	-45.37402000	-34.78716000
28.69999847	0.00000000	-65.42815000	-24.66166000
28.89999846	0.00000000	-87.43848000	-12.72146000
29.09999845	0.00000000	-106.42220000	-1.61786400
29.29999844	0.00000000	-118.51620000	5.25959600
29.49999843	0.00000000	-122.05340000	5.67790300
29.69999841	0.00000000	-117.02140000	-0.17224410
29.89999840	0.00000000	-104.27530000	-11.41732000
30.09999839	0.00000000	-86.92175000	-26.51329000
30.29999838	0.00000000	-69.14369000	-41.89838000
30.49999837	0.00000000	-54.77362000	-54.25689000
30.69999835	0.00000000	-46.57972000	-60.39001000
30.89999834	0.00000000	-45.37402000	-58.80905000
31.09999833	0.00000000	-51.14419000	-49.51402000
31.29999832	0.00000000	-62.30930000	-34.04897000
31.49999831	0.00000000	-75.84891000	-15.92027000
31.69999829	0.00000000	-89.06249000	1.07652500
31.89999828	0.00000000	-99.53247000	13.01673000
32.09999827	0.00000000	-105.35190000	17.29208000
32.29999826	0.00000000	-105.35190000	13.05979000
32.49999825	0.00000000	-99.62475000	1.45177200
32.69999824	0.00000000	-89.94832000	-15.18209000
32.89999822	0.00000000	-78.72785000	-33.71678000
33.09999821	0.00000000	-67.93799000	-49.93233000
33.29999820	0.00000000	-60.58685000	-60.39001000
33.49999819	0.00000000	-58.16314000	-63.08440000
33.69999818	0.00000000	-60.07627000	-57.32037000
33.89999816	0.00000000	-65.88951000	-44.59276000
34.09999815	0.00000000	-74.36023000	-28.00197000
34.29999814	0.00000000	-83.20619000	-10.99901000
34.49999813	0.00000000	-90.17593000	2.56520700
34.69999812	0.00000000	-93.67002000	10.32234000
34.89999810	0.00000000	-93.33784000	11.06668000
35.09999809	0.00000000	-89.48080000	4.14616100
35.29999808	0.00000000	-83.33538000	-8.58144600
35.49999807	0.00000000	-76.45177000	-24.01575000
35.69999806	0.00000000	-71.01377000	-39.01944000
35.89999805	0.00000000	-68.30708000	-49.37868000
36.09999803	0.00000000	-68.27017000	-52.58366000
36.29999802	0.00000000	-71.37672000	-48.82505000
36.49999801	0.00000000	-76.31644000	-39.94832000
36.69999800	0.00000000	-81.75443000	-27.95891000
36.89999799	0.00000000	-86.31889000	-15.31742000
37.09999797	0.00000000	-88.64419000	-5.70251000
37.29999796	0.00000000	-87.89984000	-1.83932100
37.49999795	0.00000000	-84.87327000	-4.07849400
37.69999794	0.00000000	-80.59792000	-11.73720000
37.89999793	0.00000000	-75.99039000	-22.01033000
38.09999791	0.00000000	-72.08414000	-31.67446000
38.29999790	0.00000000	-69.80192000	-38.18897000
38.49999789	0.00000000	-69.43282000	-40.13287000
38.69999788	0.00000000	-71.75196000	-36.65108000
38.89999787	0.00000000	-75.89813000	-29.02928000
39.09999786	0.00000000	-80.17347000	-19.45743000
39.29999784	0.00000000	-83.71062000	-11.04823000
39.49999783	0.00000000	-86.45423000	-6.44069800
39.69999782	0.00000000	-87.94906000	-6.85900500
39.89999781	0.00000000	-87.57381000	-12.62303000
40.09999780	0.00000000	-85.24852000	-22.14567000
40.29999778	0.00000000	-81.80363000	-32.09276000
40.49999777	0.00000000	-77.89738000	-39.43774000
40.69999776	0.00000000	-74.36023000	-42.50738000
40.89999775	0.00000000	-71.29060000	-40.59424000
41.09999774	0.00000000	-69.38976000	-34.04897000
41.29999772	0.00000000	-69.75270000	-24.84621000
41.49999771	0.00000000	-71.66584000	-15.18209000
41.69999770	0.00000000	-74.78469000	-7.55413300
41.89999769	0.00000000	-78.64173000	-4.07849400
42.09999768	0.00000000	-82.12967000	-5.97933100
42.29999767	0.00000000	-84.87327000	-12.06939000
42.49999765	0.00000000	-86.41116000	-20.57087000
42.69999764	0.00000000	-86.45423000	-29.40452000
42.89999763	0.00000000	-85.29158000	-36.32505000
43.09999762	0.00000000	-83.33538000	-39.43774000
43.29999761	0.00000000	-80.64099000	-38.32431000
43.49999759	0.00000000	-77.94660000	-33.76599000
43.69999758	0.00000000	-75.99039000	-27.21457000
43.89999757	0.00000000	-74.78469000	-20.70620000
44.09999756	0.00000000	-74.40945000	-15.64960000
44.29999755	0.00000000	-74.73548000	-13.27510000
44.49999753	0.00000000	-75.47981000	-13.22589000
44.69999752	0.00000000	-75.85506000	-15.18209000
44.89999751	0.00000000	-75.89813000	-19.03912000
45.09999750	0.00000000	-75.99039000	-23.59129000
45.29999749	0.00000000	-76.78395000	-27.44832000
45.49999748	0.00000000	-78.68478000	-29.44759000
45.69999746	0.00000000	-80.64099000	-29.86589000
45.89999745	0.00000000	-82.68947000	-29.11540000
46.09999744	0.00000000	-85.34079000	-27.17150000
46.29999743	0.00000000	-87.57381000	-24.88927000
46.49999742	0.00000000	-87.89984000	-22.52091000
46.69999740	0.00000000	-85.99286000	-20.61393000
46.89999739	0.00000000	-82.04355000	-19.41437000
47.09999738	0.00000000	-76.64246000	-19.08218000
47.29999737	0.00000000	-70.45398000	-19.82652000
47.49999736	0.00000000	-65.47121000	-21.72736000
47.69999734	0.00000000	-62.77067000	-23.68356000
47.89999733	0.00000000	-63.23819000	-25.63976000
48.09999732	0.00000000	-67.51968000	-27.54060000
48.29999731	0.00000000	-74.87081000	-28.28494000
48.49999730	0.00000000	-83.71062000	-27.90969000
48.69999729	0.00000000	-91.75688000	-26.32874000
48.89999727	0.00000000	-96.41363000	-23.68356000
49.09999726	0.00000000	-96.83193000	-20.94611000
49.29999725	0.00000000	-93.33784000	-18.61466000
49.49999724	0.00000000	-86.31889000	-16.71383000
49.69999723	0.00000000	-77.10384000	-16.38164000
49.89999721	0.00000000	-67.84571000	-17.87647000
50.09999720	0.00000000	-61.32504000	-20.61393000
50.29999719	0.00000000	-59.00590000	-24.10187000
50.49999718	0.00000000	-61.70029000	-27.90969000
50.69999717	0.00000000	-68.59006000	-30.60408000
50.89999715	0.00000000	-77.43602000	-31.39763000
51.09999714	0.00000000	-85.94365000	-30.60408000
51.29999713	0.00000000	-92.13213000	-27.86663000
51.49999712	0.00000000	-94.83266000	-23.68356000
51.69999711	0.00000000	-93.25172000	-19.45743000
51.89999710	0.00000000	-87.52460000	-16.33858000
52.09999708	0.00000000	-79.47834000	-14.80684000
52.29999707	0.00000000	-71.79503000	-15.18209000
52.49999706	0.00000000	-66.35703000	-17.50123000
52.69999705	0.00000000	-64.44389000	-20.94611000
52.89999704	0.00000000	-66.35703000	-24.84621000
53.09999702	0.00000000	-71.70891000	-28.28494000
53.29999701	0.00000000	-78.59251000	-30.60408000
53.49999700	0.00000000	-84.78715000	-30.93627000
53.69999699	0.00000000	-89.01943000	-29.07234000
53.89999698	0.00000000	-90.17593000	-25.68282000
54.09999696	0.00000000	-87.85679000	-22.61319000
54.29999695	0.00000000	-82.91708000	-20.61393000
54.49999694	0.00000000	-76.78395000	-19.50049000
54.69999693	0.00000000	-71.80117000	-19.87574000
54.89999692	0.00000000	-69.05757000	-21.72736000
55.09999691	0.00000000	-69.05757000	-23.64050000
55.29999689	0.00000000	-71.70891000	-25.17224000
55.49999688	0.00000000	-75.94118000	-25.91043000
55.69999687	0.00000000	-80.59792000	-25.17224000
55.89999686	0.00000000	-84.78715000	-23.64050000
56.09999685	0.00000000	-87.10630000	-21.68430000
56.29999683	0.00000000	-86.73721000	-19.45743000
56.49999682	0.00000000	-84.45496000	-18.38706000
56.69999681	0.00000000	-80.59792000	-19.54355000
56.89999680	0.00000000	-76.36565000	-22.57013000
57.09999679	0.00000000	-72.91461000	-26.42101000
57.29999677	0.00000000	-70.97072000	-29.86589000
57.49999676	0.00000000	-71.33366000	-32.14198000
57.69999675	0.00000000	-73.20374000	-32.09276000
57.89999674	0.00000000	-75.94118000	-29.40452000
58.09999673	0.00000000	-79.01697000	-24.75394000
58.29999672	0.00000000	-81.71136000	-18.98991000
58.49999670	0.00000000	-83.24926000	-13.65034000
58.69999669	0.00000000	-83.24926000	-10.58071000
58.89999668	0.00000000	-81.75443000	-10.58071000
59.09999667	0.00000000	-79.47834000	-13.69340000
59.29999666	0.00000000	-77.57135000	-19.45743000
59.49999664	0.00000000	-76.36565000	-26.37795000
59.69999663	0.00000000	-75.99039000	-32.56028000
59.89999662	0.00000000	-76.36565000	-36.78642000
60.09999661	0.00000000	-77.47908000	-37.89985000
60.29999660	0.00000000	-78.59251000	-35.20546000
60.49999658	0.00000000	-79.01697000	-29.39837000
60.69999657	0.00000000	-79.06004000	-21.72736000
60.89999656	0.00000000	-79.01697000	-14.01944000
61.09999655	0.00000000	-78.59251000	-8.67371900
61.29999654	0.00000000	-77.47908000	-6.72367100
61.49999653	0.00000000	-76.40871000	-9.04896600
61.69999651	0.00000000	-76.36565000	-14.80684000
61.89999650	0.00000000	-77.10384000	-22.57013000
62.09999649	0.00000000	-77.89738000	-31.02239000
62.29999648	0.00000000	-79.10310000	-37.89985000
62.49999647	0.00000000	-80.59792000	-41.01255000
62.69999645	0.00000000	-81.75443000	-39.85605000
62.89999644	0.00000000	-82.08661000	-34.87943000
63.09999643	0.00000000	-81.33611000	-27.21457000
63.29999642	0.00000000	-79.39222000	-19.45743000
63.49999641	0.00000000	-77.10384000	-12.85064000
63.69999639	0.00000000	-74.82775000	-8.25541300
63.89999638	0.00000000	-73.66510000	-7.51107200
64.09999637	0.00000000	-73.98499000	-10.48843000
64.29999636	0.00000000	-74.78469000	-15.92027000
64.49999635	0.00000000	-76.36565000	-22.47785000
64.69999634	0.00000000	-78.68478000	-29.02928000
64.89999632	0.00000000	-80.97318000	-33.67372000
65.09999631	0.00000000	-82.87401000	-35.67298000
65.29999630	0.00000000	-83.24926000	-35.29773000
65.49999629	0.00000000	-82.12967000	-32.60334000
65.69999628	0.00000000	-80.22269000	-28.37721000
65.89999626	0.00000000	-77.89738000	-23.68356000
66.09999625	0.00000000	-75.99039000	-19.03912000
66.29999624	0.00000000	-74.82775000	-15.18209000
66.49999623	0.00000000	-74.87081000	-13.22589000
66.69999622	0.00000000	-76.36565000	-13.18282000
66.89999620	0.00000000	-78.64173000	-14.67150000
67.09999619	0.00000000	-80.54871000	-16.99065000
67.29999618	0.00000000	-81.71136000	-19.36516000
67.49999617	0.00000000	-81.66830000	-22.15182000
67.69999616	0.00000000	-80.13041000	-25.26452000
67.89999615	0.00000000	-77.47908000	-28.37721000
68.09999613	0.00000000	-74.78469000	-31.02239000
68.29999612	0.00000000	-72.87155000	-32.22810000
68.49999611	0.00000000	-72.12721000	-31.85900000
68.69999610	0.00000000	-73.28986000	-30.60408000
68.89999609	0.00000000	-75.99039000	-27.49138000
69.09999607	0.00000000	-79.47834000	-22.89616000
69.29999606	0.00000000	-83.33538000	-18.61466000
69.49999605	0.00000000	-86.36810000	-14.72072000
69.69999604	0.00000000	-87.52460000	-12.06939000
69.89999603	0.00000000	-86.31889000	-11.69414000
70.09999601	0.00000000	-82.87401000	-13.64419000
70.29999600	0.00000000	-77.81126000	-17.87647000
70.49999599	0.00000000	-72.44710000	-23.26525000
70.69999598	0.00000000	-67.84571000	-28.32800000
70.89999597	0.00000000	-65.93258000	-32.56028000
71.09999596	0.00000000	-67.05216000	-34.83022000
71.29999594	0.00000000	-70.54626000	-34.09203000
71.49999593	0.00000000	-75.99039000	-31.06545000
71.69999592	0.00000000	-82.12967000	-26.79626000
71.89999591	0.00000000	-87.52460000	-22.14567000
72.09999590	0.00000000	-90.64346000	-17.91953000
72.29999588	0.00000000	-91.01869000	-15.22515000
72.49999587	0.00000000	-88.68725000	-14.80684000
72.69999586	0.00000000	-83.71062000	-16.33858000
72.89999585	0.00000000	-77.89738000	-19.36516000
73.09999584	0.00000000	-72.44710000	-22.79773000
73.29999582	0.00000000	-67.84571000	-25.12918000
73.49999581	0.00000000	-65.93258000	-26.37795000
73.69999580	0.00000000	-67.05216000	-26.74705000
73.89999579	0.00000000	-70.50320000	-26.37795000
74.09999578	0.00000000	-75.52288000	-25.21530000
74.29999577	0.00000000	-80.50565000	-23.77584000
74.49999575	0.00000000	-84.41190000	-22.98843000
74.69999574	0.00000000	-86.36810000	-23.35138000
74.89999573	0.00000000	-86.41116000	-24.15108000
75.09999572	0.00000000	-84.87327000	-25.63976000
75.29999571	0.00000000	-82.12967000	-27.07308000
75.49999569	0.00000000	-78.68478000	-26.66092000
75.69999568	0.00000000	-75.24606000	-24.79700000
75.89999567	0.00000000	-73.28986000	-22.05955000
76.09999566	0.00000000	-72.82849000	-18.98991000
76.29999565	0.00000000	-73.20374000	-16.29552000
76.49999563	0.00000000	-74.36023000	-14.80684000
76.69999562	0.00000000	-75.89813000	-15.22515000
76.89999561	0.00000000	-77.43602000	-17.91953000
77.09999560	0.00000000	-78.59251000	-22.19488000
77.29999559	0.00000000	-78.96776000	-27.17150000
77.49999558	0.00000000	-78.68478000	-31.80979000
77.69999556	0.00000000	-78.31569000	-34.46727000
77.89999555	0.00000000	-78.68478000	-34.83022000
78.09999554	0.00000000	-79.06004000	-32.13582000
78.29999553	0.00000000	-79.47834000	-27.17150000
78.49999552	0.00000000	-80.22269000	-21.72736000
78.69999550	0.00000000	-80.54871000	-16.29552000
78.89999549	0.00000000	-80.17347000	-12.11245000
79.09999548	0.00000000	-78.96776000	-10.53150000
79.29999547	0.00000000	-77.06077000	-11.69414000
79.49999546	0.00000000	-74.73548000	-15.13902000
79.69999544	0.00000000	-72.87155000	-20.15256000
79.89999543	0.00000000	-72.08414000	-25.17224000
80.09999542	0.00000000	-72.87155000	-29.49065000
80.29999541	0.00000000	-74.78469000	-32.56028000
80.49999540	0.00000000	-77.47908000	-33.71678000
80.69999539	0.00000000	-80.17347000	-32.56028000
80.89999537	0.00000000	-82.12967000	-29.49065000
81.09999536	0.00000000	-83.29231000	-25.26452000
81.29999535	0.00000000	-83.24926000	-20.98917000
81.49999534	0.00000000	-81.71136000	-17.50123000
81.69999533	0.00000000	-79.06004000	-15.13902000
81.89999531	0.00000000	-76.31644000	-14.34547000
82.09999530	0.00000000	-74.03419000	-14.72072000
82.29999529	0.00000000	-72.50246000	-16.29552000
82.49999528	0.00000000	-72.87155000	-18.98991000
82.69999527	0.00000000	-74.31717000	-22.10261000
82.89999525	0.00000000	-75.89813000	-25.21530000
83.09999524	0.00000000	-77.47908000	-27.95891000
83.29999523	0.00000000	-79.01697000	-29.90895000
83.49999522	0.00000000	-80.13041000	-31.06545000
83.69999521	0.00000000	-80.17347000	-31.02239000
83.89999520	0.00000000	-79.47834000	-29.49065000
84.09999518	0.00000000	-79.06004000	-26.75320000
84.29999517	0.00000000	-78.64173000	-23.26525000
84.49999516	0.00000000	-77.89738000	-19.36516000
84.69999515	0.00000000	-77.52214000	-15.92027000
84.89999514	0.00000000	-77.47908000	-13.60113000
85.09999512	0.00000000	-77.47908000	-13.27510000
85.29999511	0.00000000	-77.43602000	-15.18209000
85.49999510	0.00000000	-77.06077000	-19.03912000
85.69999509	0.00000000	-76.31644000	-23.64050000
85.89999508	0.00000000	-75.94118000	-27.90969000
86.09999506	0.00000000	-75.89813000	-31.02239000
86.29999505	0.00000000	-75.94118000	-32.56028000
86.49999504	0.00000000	-76.36565000	-32.14198000
86.69999503	0.00000000	-77.52214000	-29.44759000
86.89999502	0.00000000	-79.01697000	-25.22145000
87.09999501	0.00000000	-80.17347000	-20.57087000
87.29999499	0.00000000	-80.59792000	-16.33858000
87.49999498	0.00000000	-80.59792000	-13.64419000
87.69999497	0.00000000	-80.13041000	-13.27510000
87.89999496	0.00000000	-78.59251000	-15.18209000
88.09999495	0.00000000	-76.36565000	-19.03912000
88.29999493	0.00000000	-74.82775000	-23.64050000
88.49999492	0.00000000	-74.36023000	-27.90969000
88.69999491	0.00000000	-74.36023000	-30.97933000
88.89999490	0.00000000	-74.82775000	-32.09276000
89.09999489	0.00000000	-76.36565000	-30.60408000
89.29999487	0.00000000	-78.59251000	-27.12229000
89.49999486	0.00000000	-80.13041000	-22.89001000
89.69999485	0.00000000	-80.59792000	-18.25172000
89.89999484	0.00000000	-80.59792000	-14.89911000
90.09999483	0.00000000	-80.17347000	-14.11171000
90.29999482	0.00000000	-79.01697000	-16.33858000
90.49999480	0.00000000	-77.52214000	-20.15256000
90.69999479	0.00000000	-76.36565000	-24.05881000
90.89999478	0.00000000	-75.94118000	-27.90969000
91.09999477	0.00000000	-75.89813000	-30.56102000
91.29999476	0.00000000	-75.89813000	-30.93627000
91.49999474	0.00000000	-75.94118000	-29.02928000
91.69999473	0.00000000	-76.31644000	-25.17224000
91.89999472	0.00000000	-77.06077000	-20.61393000
92.09999471	0.00000000	-77.43602000	-16.76304000
92.29999470	0.00000000	-77.47908000	-14.80684000
92.49999468	0.00000000	-77.47908000	-14.84990000
92.69999467	0.00000000	-77.52214000	-17.18135000
92.89999466	0.00000000	-77.89738000	-21.72736000
93.09999465	0.00000000	-78.68478000	-26.28568000
93.29999464	0.00000000	-79.43528000	-29.44759000
93.49999463	0.00000000	-80.22269000	-30.97933000
93.69999461	0.00000000	-80.50565000	-30.56102000
93.89999460	0.00000000	-79.75516000	-27.86663000
94.09999459	0.00000000	-77.85432000	-23.68356000
94.29999458	0.00000000	-75.94118000	-19.45743000
94.49999457	0.00000000	-74.31717000	-16.38779000
94.69999455	0.00000000	-72.82849000	-15.22515000
94.89999454	0.00000000	-72.04109000	-16.29552000
95.09999453	0.00000000	-72.49631000	-18.66388000
95.29999452	0.00000000	-74.04035000	-21.78272000
95.49999451	0.00000000	-77.14690000	-25.95964000
95.69999449	0.00000000	-80.54871000	-28.98007000
95.89999448	0.00000000	-83.33538000	-29.82283000
96.09999447	0.00000000	-85.15624000	-29.02928000
96.29999446	0.00000000	-85.15009000	-26.32874000
96.49999445	0.00000000	-82.50491000	-22.57013000
96.69999444	0.00000000	-79.10310000	-19.50049000
96.89999442	0.00000000	-75.89813000	-17.87647000
97.09999441	0.00000000	-72.77928000	-17.50123000
97.29999440	0.00000000	-70.12794000	-18.29478000
97.49999439	0.00000000	-68.96530000	-20.57087000
97.69999438	0.00000000	-69.75270000	-23.22219000
97.89999436	0.00000000	-72.08414000	-25.17224000
98.09999435	0.00000000	-75.94118000	-26.32874000
98.29999434	0.00000000	-80.13041000	-26.32874000
98.49999433	0.00000000	-83.29231000	-25.21530000
98.69999432	0.00000000	-85.24852000	-23.72662000
98.89999430	0.00000000	-85.99286000	-22.57013000
99.09999429	0.00000000	-84.83022000	-22.14567000
99.29999428	0.00000000	-82.12967000	-22.10261000
99.49999427	0.00000000	-78.64173000	-22.10261000
99.69999426	0.00000000	-74.78469000	-22.10261000
99.89999425	0.00000000	-71.70891000	-22.10261000
100.09999423	0.00000000	-70.08488000	-22.05955000
100.29999422	0.00000000	-69.70964000	-21.68430000
100.49999421	0.00000000	-70.50320000	-20.94611000
100.69999420	0.00000000	-72.82849000	-20.57087000
100.89999419	0.00000000	-75.89813000	-20.62008000
101.09999417	0.00000000	-79.01697000	-21.40748000
101.29999416	0.00000000	-81.71136000	-23.30832000
101.49999415	0.00000000	-83.24926000	-25.17224000
101.69999414	0.00000000	-83.29231000	-26.37795000
101.89999413	0.00000000	-82.17889000	-26.74705000
102.09999411	0.00000000	-80.59792000	-26.37795000
102.29999410	0.00000000	-78.64173000	-25.17224000
102.49999409	0.00000000	-76.31644000	-23.22219000
102.69999408	0.00000000	-74.36023000	-20.52780000
102.89999407	0.00000000	-72.82849000	-17.87647000
103.09999406	0.00000000	-72.08414000	-16.38164000
103.29999404	0.00000000	-72.82849000	-16.71383000
103.49999403	0.00000000	-74.36023000	-18.66388000
103.69999402	0.00000000	-76.31644000	-21.36442000
103.89999401	0.00000000	-78.64173000	-24.84621000
104.09999400	0.00000000	-80.54871000	-27.86663000
104.29999398	0.00000000	-81.71136000	-29.44759000
104.49999397	0.00000000	-81.71136000	-29.44759000
104.69999396	0.00000000	-80.59792000	-27.90969000
104.89999395	0.00000000	-79.01697000	-25.21530000
105.09999394	0.00000000	-77.10384000	-22.15182000
105.29999392	0.00000000	-75.20300000	-19.45743000
105.49999391	0.00000000	-74.40945000	-17.91953000
105.69999390	0.00000000	-74.36023000	-17.87647000
105.89999389	0.00000000	-74.78469000	-19.03912000
106.09999388	0.00000000	-75.94118000	-20.94611000
106.29999387	0.00000000	-77.43602000	-23.26525000
106.49999385	0.00000000	-78.59251000	-25.17224000
106.69999384	0.00000000	-79.01697000	-26.32874000
106.89999383	0.00000000	-79.01697000	-26.32874000
107.09999382	0.00000000	-78.59251000	-25.21530000
107.29999381	0.00000000	-77.47908000	-23.68356000
107.49999379	0.00000000	-76.36565000	-22.10261000
107.69999378	0.00000000	-75.94118000	-20.61393000
107.89999377	0.00000000	-75.94118000	-19.83268000
108.09999376	0.00000000	-76.31644000	-20.24483000
108.29999375	0.00000000	-77.10384000	-21.36442000
108.49999374	0.00000000	-77.89738000	-23.26525000
108.69999372	0.00000000	-79.01697000	-24.75394000
108.89999371	0.00000000	-79.75516000	-25.22145000
109.09999370	0.00000000	-79.39222000	-25.22145000
109.29999369	0.00000000	-78.64173000	-24.79700000
109.49999368	0.00000000	-77.43602000	-23.64050000
109.69999366	0.00000000	-75.94118000	-22.10261000
109.89999365	0.00000000	-74.78469000	-20.57087000
110.09999364	0.00000000	-74.40945000	-19.45743000
110.29999363	0.00000000	-74.73548000	-19.45743000
110.49999362	0.00000000	-75.52288000	-20.57087000
110.69999360	0.00000000	-76.31644000	-22.10261000
110.89999359	0.00000000	-77.52214000	-23.64050000
111.09999358	0.00000000	-78.96776000	-24.79700000
111.29999357	0.00000000	-79.75516000	-25.22145000
111.49999356	0.00000000	-79.39222000	-25.22145000
111.69999355	0.00000000	-78.64173000	-24.79700000
111.89999353	0.00000000	-77.47908000	-23.68356000
112.09999352	0.00000000	-76.36565000	-22.52091000
112.29999351	0.00000000	-75.89813000	-21.72736000
112.49999350	0.00000000	-75.52288000	-20.94611000
112.69999349	0.00000000	-75.15379000	-20.62008000
112.89999347	0.00000000	-75.56593000	-20.94611000
113.09999346	0.00000000	-76.27337000	-21.68430000
113.29999345	0.00000000	-77.06077000	-22.05955000
113.49999344	0.00000000	-77.43602000	-22.14567000
113.69999343	0.00000000	-77.47908000	-22.52091000
113.89999341	0.00000000	-77.47908000	-23.26525000
114.09999340	0.00000000	-77.47908000	-23.64050000
114.29999339	0.00000000	-77.47908000	-23.68356000
114.49999338	0.00000000	-77.43602000	-23.68356000
114.69999337	0.00000000	-77.06077000	-23.68356000
114.89999336	0.00000000	-76.31644000	-23.72662000
115.09999334	0.00000000	-75.94118000	-24.05881000
115.29999333	0.00000000	-75.89813000	-24.42790000
115.49999332	0.00000000	-75.94118000	-24.01575000
115.69999331	0.00000000	-76.31644000	-23.30832000
115.89999330	0.00000000	-77.06077000	-22.52091000
116.09999328	0.00000000	-77.43602000	-22.10261000
116.29999327	0.00000000	-77.47908000	-21.68430000
116.49999326	0.00000000	-77.47908000	-20.94611000
116.69999325	0.00000000	-77.47908000	-20.62008000
116.89999324	0.00000000	-77.43602000	-20.94611000
117.09999322	0.00000000	-77.06077000	-21.72736000
117.29999321	0.00000000	-76.31644000	-22.47785000
117.49999320	0.00000000	-75.89813000	-23.30832000
117.69999319	0.00000000	-75.47981000	-24.05881000
117.89999318	0.00000000	-74.78469000	-24.84621000
118.09999317	0.00000000	-74.78469000	-25.17224000
118.29999315	0.00000000	-75.52288000	-24.79700000
118.49999314	0.00000000	-76.27337000	-23.68356000
118.69999313	0.00000000	-77.10384000	-22.57013000
118.89999312	0.00000000	-77.85432000	-22.10261000
119.09999311	0.00000000	-78.64173000	-21.72736000
119.29999309	0.00000000	-79.01697000	-21.32136000
119.49999308	0.00000000	-79.01697000	-21.30905000
119.69999307	0.00000000	-78.64173000	-20.90305000
119.89999306	0.00000000	-77.85432000	-20.62008000
120.09999305	0.00000000	-77.06077000	-20.98917000
120.29999303	0.00000000	-75.89813000	-22.10261000
120.49999302	0.00000000	-74.78469000	-23.21604000
120.69999301	0.00000000	-74.36023000	-23.64050000
120.89999300	0.00000000	-74.36023000	-23.68356000
121.09999299	0.00000000	-74.78469000	-23.68356000
121.29999298	0.00000000	-75.94118000	-23.68356000
121.49999296	0.00000000	-77.43602000	-23.68356000
121.69999295	0.00000000	-78.64173000	-23.64050000
121.89999294	0.00000000	-79.39222000	-23.26525000
122.09999293	0.00000000	-79.80437000	-22.52091000
122.29999292	0.00000000	-79.39222000	-22.10261000
122.49999290	0.00000000	-78.68478000	-21.68430000
122.69999289	0.00000000	-77.85432000	-20.94611000
122.89999288	0.00000000	-77.06077000	-20.57087000
123.09999287	0.00000000	-75.89813000	-20.57087000
123.29999286	0.00000000	-74.78469000	-20.94611000
123.49999284	0.00000000	-74.36023000	-21.72736000
123.69999283	0.00000000	-74.36023000	-22.47785000
123.89999282	0.00000000	-74.73548000	-23.26525000
124.09999281	0.00000000	-75.47981000	-23.64050000
124.29999280	0.00000000	-75.89813000	-23.68356000
124.49999279	0.00000000	-76.36565000	-23.68356000
124.69999277	0.00000000	-77.47908000	-23.64050000
124.89999276	0.00000000	-78.59251000	-23.26525000
125.09999275	0.00000000	-79.01697000	-22.52091000
125.29999274	0.00000000	-79.01697000	-22.10261000
125.49999273	0.00000000	-78.64173000	-21.68430000
125.69999271	0.00000000	-77.85432000	-20.94611000
125.89999270	0.00000000	-77.10384000	-20.62008000
126.09999269	0.00000000	-76.27337000	-20.94611000
126.29999268	0.00000000	-75.52288000	-21.68430000
126.49999267	0.00000000	-74.73548000	-22.05955000
126.69999265	0.00000000	-74.40945000	-22.14567000
126.89999264	0.00000000	-74.73548000	-22.52091000
127.09999263	0.00000000	-75.52288000	-23.26525000
127.29999262	0.00000000	-76.27337000	-23.59129000
127.49999261	0.00000000	-77.10384000	-23.30832000
127.69999260	0.00000000	-77.85432000	-22.89616000
127.89999258	0.00000000	-78.59251000	-22.89001000
128.09999257	0.00000000	-78.59251000	-22.47785000
128.29999256	0.00000000	-77.85432000	-22.14567000
128.49999255	0.00000000	-77.06077000	-22.10261000
128.69999254	0.00000000	-75.89813000	-22.10261000
128.89999252	0.00000000	-74.78469000	-22.10261000
129.09999251	0.00000000	-74.36023000	-22.10261000
129.29999250	0.00000000	-74.36023000	-22.14567000
129.49999249	0.00000000	-74.78469000	-22.52091000
129.69999248	0.00000000	-75.89813000	-23.21604000
129.89999246	0.00000000	-77.06077000	-23.26525000
130.09999245	0.00000000	-77.85432000	-22.89616000
130.29999244	0.00000000	-78.59251000	-22.89001000
130.49999243	0.00000000	-78.59251000	-22.47785000
130.69999242	0.00000000	-77.85432000	-22.14567000
130.89999241	0.00000000	-77.10384000	-22.10261000
131.09999239	0.00000000	-76.27337000	-22.10261000
131.29999238	0.00000000	-75.52288000	-22.10261000
131.49999237	0.00000000	-74.78469000	-22.14567000
131.69999236	0.00000000	-74.78469000	-22.52091000
131.89999235	0.00000000	-75.47981000	-23.26525000
132.09999233	0.00000000	-75.89813000	-23.64050000
132.29999232	0.00000000	-76.31644000	-23.68356000
132.49999231	0.00000000	-77.06077000	-23.64050000
132.69999230	0.00000000	-77.43602000	-23.26525000
132.89999229	0.00000000	-77.47908000	-22.52091000
133.09999227	0.00000000	-77.43602000	-22.10261000
133.29999226	0.00000000	-77.06077000	-21.68430000
133.49999225	0.00000000	-76.31644000	-20.94611000
133.69999224	0.00000000	-75.94118000	-20.57087000
133.89999223	0.00000000	-75.89813000	-20.57087000
134.09999222	0.00000000	-75.89813000	-20.98917000
134.29999220	0.00000000	-75.89813000	-22.10261000
134.49999219	0.00000000	-75.89813000	-23.21604000
134.69999218	0.00000000	-75.89813000	-23.68356000
134.89999217	0.00000000	-75.89813000	-24.10187000
135.09999216	0.00000000	-75.89813000	-24.79700000
135.29999214	0.00000000	-75.89813000	-24.79700000
135.49999213	0.00000000	-75.89813000	-24.10187000
135.69999212	0.00000000	-75.89813000	-23.68356000
135.89999211	0.00000000	-75.94118000	-23.26525000
136.09999210	0.00000000	-76.31644000	-22.47785000
136.29999208	0.00000000	-77.06077000	-21.72736000
136.49999207	0.00000000	-77.43602000	-20.98917000
136.69999206	0.00000000	-77.47908000	-20.98917000
136.89999205	0.00000000	-77.47908000	-21.72736000
137.09999204	0.00000000	-77.38681000	-22.47785000
137.29999203	0.00000000	-76.68553000	-23.26525000
137.49999201	0.00000000	-75.52903000	-23.64050000
137.69999200	0.00000000	-75.14763000	-23.68356000
137.89999199	0.00000000	-74.69241000	-23.68356000
138.09999198	0.00000000	-74.40945000	-23.68356000
138.29999197	0.00000000	-74.73548000	-23.68356000
138.49999195	0.00000000	-75.52288000	-23.64050000
138.69999194	0.00000000	-76.27337000	-23.26525000
138.89999193	0.00000000	-77.06077000	-22.47785000
139.09999192	0.00000000	-77.43602000	-21.72736000
139.29999191	0.00000000	-77.47908000	-20.94611000
139.49999189	0.00000000	-77.43602000	-20.57087000
139.69999188	0.00000000	-77.06077000	-20.57087000
139.89999187	0.00000000	-76.27337000	-20.90305000
140.09999186	0.00000000	-75.52288000	-21.30905000
140.29999185	0.00000000	-74.73548000	-21.32136000
140.49999184	0.00000000	-74.40945000	-21.77658000
140.69999182	0.00000000	-74.73548000	-22.47785000
140.89999181	0.00000000	-75.47981000	-23.26525000
141.09999180	0.00000000	-75.89813000	-23.64050000
141.29999179	0.00000000	-76.31644000	-23.64050000
141.49999178	0.00000000	-77.01156000	-23.21604000
141.69999176	0.00000000	-77.01156000	-22.10261000
141.89999175	0.00000000	-76.31644000	-20.98917000
142.09999174	0.00000000	-75.94118000	-20.52780000
142.29999173	0.00000000	-75.89813000	-20.15256000
142.49999172	0.00000000	-75.89813000	-19.83268000
142.69999170	0.00000000	-75.89813000	-20.57087000
142.89999169	0.00000000	-75.89813000	-21.68430000
143.09999168	0.00000000	-75.94118000	-22.47785000
143.29999167	0.00000000	-76.27337000	-23.26525000
143.49999166	0.00000000	-76.68553000	-23.64050000
143.69999165	0.00000000	-76.64862000	-23.68356000
143.89999163	0.00000000	-76.68553000	-23.68356000
144.09999162	0.00000000	-76.27337000	-23.64050000
144.29999161	0.00000000	-75.94118000	-23.26525000
144.49999160	0.00000000	-75.89813000	-22.47785000
144.69999159	0.00000000	-75.89813000	-21.72736000
144.89999157	0.00000000	-75.89813000	-20.94611000
145.09999156	0.00000000	-75.89813000	-20.62008000
145.29999155	0.00000000	-75.89813000	-20.94611000
145.49999154	0.00000000	-75.89813000	-21.68430000
145.69999153	0.00000000	-75.89813000	-22.10261000
145.89999151	0.00000000	-75.94118000	-22.52091000
146.09999150	0.00000000	-76.31644000	-23.26525000
146.29999149	0.00000000	-77.01156000	-23.64050000
146.49999148	0.00000000	-77.01156000	-23.68356000
146.69999147	0.00000000	-76.31644000	-23.68356000
146.89999146	0.00000000	-75.94118000	-23.64050000
147.09999144	0.00000000	-75.89813000	-23.26525000
147.29999143	0.00000000	-75.89813000	-22.52091000
147.49999142	0.00000000	-75.89813000	-22.14567000
147.69999141	0.00000000	-75.89813000	-22.05955000
147.89999140	0.00000000	-75.89813000	-21.72736000
148.09999138	0.00000000	-75.94118000	-21.36442000
148.29999137	0.00000000	-76.31644000	-21.72736000
148.49999136	0.00000000	-77.01156000	-22.05955000
148.69999135	0.00000000	-77.01156000	-22.10261000
148.89999134	0.00000000	-76.31644000	-22.10261000
149.09999132	0.00000000	-75.94118000	-22.14567000
149.29999131	0.00000000	-75.89813000	-22.52091000
149.49999130	0.00000000	-75.89813000	-23.26525000
149.69999129	0.00000000	-75.85506000	-23.59129000
149.89999128	0.00000000	-75.52288000	-23.26525000
150.09999127	0.00000000	-75.15379000	-22.52091000
150.29999125	0.00000000	-75.52288000	-22.14567000
150.49999124	0.00000000	-75.85506000	-22.05955000
150.69999123	0.00000000	-75.89813000	-21.72736000
150.89999122	0.00000000	-75.94118000	-21.36442000
151.09999121	0.00000000	-76.31644000	-21.72736000
151.29999119	0.00000000	-77.01156000	-22.05955000
151.49999118	0.00000000	-77.01156000	-22.10261000
151.69999117	0.00000000	-76.31644000	-22.10261000
151.89999116	0.00000000	-75.94118000	-22.10261000
152.09999115	0.00000000	-75.89813000	-22.10261000
152.29999113	0.00000000	-75.89813000	-22.10261000
152.49999112	0.00000000	-75.89813000	-22.10261000
152.69999111	0.00000000	-75.85506000	-22.10261000
152.89999110	0.00000000	-75.52288000	-22.10261000
153.09999109	0.00000000	-75.15379000	-22.10261000
153.29999108	0.00000000	-75.52288000	-22.10261000
153.49999106	0.00000000	-75.85506000	-22.10261000
153.69999105	0.00000000	-75.94118000	-22.10261000
153.89999104	0.00000000	-76.27337000	-22.05955000
154.09999103	0.00000000	-76.64246000	-21.72736000
154.29999102	0.00000000	-76.31644000	-21.36442000
154.49999100	0.00000000	-76.31644000	-21.72736000
154.69999099	0.00000000	-76.64246000	-22.05955000
154.89999098	0.00000000	-76.27337000	-22.10261000
155.09999097	0.00000000	-75.94118000	-22.10261000
155.29999096	0.00000000	-75.85506000	-22.14567000
155.49999094	0.00000000	-75.47981000	-22.52091000
155.69999093	0.00000000	-74.73548000	-23.26525000
155.89999092	0.00000000	-74.36023000	-23.59129000
156.09999091	0.00000000	-74.36023000	-23.26525000
156.29999090	0.00000000	-74.73548000	-22.52091000
156.49999089	0.00000000	-75.47981000	-22.10261000
156.69999087	0.00000000	-75.89813000	-21.68430000
156.89999086	0.00000000	-76.31644000	-20.94611000
157.09999085	0.00000000	-77.06077000	-20.62008000
157.29999084	0.00000000	-77.43602000	-20.94611000
157.49999083	0.00000000	-77.43602000	-21.68430000
157.69999081	0.00000000	-77.06077000	-22.05955000
157.89999080	0.00000000	-76.31644000	-22.10261000
158.09999079	0.00000000	-75.94118000	-22.14567000
158.29999078	0.00000000	-75.85506000	-22.52091000
158.49999077	0.00000000	-75.47981000	-23.26525000
158.69999075	0.00000000	-74.78469000	-23.64050000
158.89999074	0.00000000	-74.73548000	-23.64050000
159.09999073	0.00000000	-75.10458000	-23.21604000
159.29999072	0.00000000	-75.11072000	-22.15182000
159.49999071	0.00000000	-75.52288000	-21.36442000
159.69999070	0.00000000	-75.85506000	-21.30905000
159.89999068	0.00000000	-75.89813000	-20.90305000
160.09999067	0.00000000	-75.94118000	-20.57087000
160.29999066	0.00000000	-76.27337000	-20.57087000
160.49999065	0.00000000	-76.64246000	-20.94611000
160.69999064	0.00000000	-76.27337000	-21.68430000
160.89999062	0.00000000	-75.94118000	-22.10261000
161.09999061	0.00000000	-75.89813000	-22.52091000
161.29999060	0.00000000	-75.89813000	-23.21604000
161.49999059	0.00000000	-75.89813000	-23.21604000
161.69999058	0.00000000	-75.89813000	-22.52091000
161.89999056	0.00000000	-75.89813000	-22.14567000
162.09999055	0.00000000	-75.85506000	-22.10261000
162.29999054	0.00000000	-75.52288000	-22.10261000
162.49999053	0.00000000	-75.15379000	-22.10261000
162.69999052	0.00000000	-75.52288000	-22.10261000
162.89999051	0.00000000	-75.85506000	-22.10261000
163.09999049	0.00000000	-75.94118000	-22.10261000
163.29999048	0.00000000	-76.27337000	-22.10261000
163.49999047	0.00000000	-76.64246000	-22.10261000
163.69999046	0.00000000	-76.27337000	-22.10261000
163.89999045	0.00000000	-75.94118000	-22.10261000
164.09999043	0.00000000	-75.89813000	-22.10261000
164.29999042	0.00000000	-75.89813000	-22.10261000
164.49999041	0.00000000	-75.85506000	-22.10261000
164.69999040	0.00000000	-75.47981000	-22.10261000
164.89999039	0.00000000	-74.73548000	-22.10261000
165.09999037	0.00000000	-74.36023000	-22.10261000
165.29999036	0.00000000	-74.31717000	-22.10261000
165.49999035	0.00000000	-74.36023000	-22.10261000
165.69999034	0.00000000	-74.73548000	-22.10261000
165.89999033	0.00000000	-75.47981000	-22.10261000
166.09999032	0.00000000	-75.85506000	-22.10261000
166.29999030	0.00000000	-75.89813000	-22.10261000
166.49999029	0.00000000	-75.89813000	-22.10261000
166.69999028	0.00000000	-75.89813000	-22.10261000
166.89999027	0.00000000	-75.89813000	-22.10261000
167.09999026	0.00000000	-75.89813000	-22.10261000
167.29999024	0.00000000	-75.85506000	-22.10261000
167.49999023	0.00000000	-75.47981000	-22.10261000
167.69999022	0.00000000	-74.73548000	-22.10261000
167.89999021	0.00000000	-74.40945000	-22.10261000
168.09999020	0.00000000	-74.69241000	-22.10261000
168.29999018	0.00000000	-75.10458000	-22.10261000
168.49999017	0.00000000	-75.11072000	-22.10261000
168.69999016	0.00000000	-75.52288000	-22.10261000
168.89999015	0.00000000	-75.85506000	-22.10261000
169.09999014	0.00000000	-75.94118000	-22.10261000
169.29999013	0.00000000	-76.27337000	-22.10261000
169.49999011	0.00000000	-76.64246000	-22.10261000
169.69999010	0.00000000	-76.27337000	-22.10261000
169.89999009	0.00000000	-75.94118000	-22.10261000
170.09999008	0.00000000	-75.89813000	-22.10261000
170.29999007	0.00000000	-75.89813000	-22.10261000
170.49999005	0.00000000	-75.89813000	-22.10261000
170.69999004	0.00000000	-75.89813000	-22.10261000
170.89999003	0.00000000	-75.89813000	-22.10261000
171.09999002	0.00000000	-75.89813000	-22.10261000
171.29999001	0.00000000	-75.85506000	-22.10261000
171.49998999	0.00000000	-75.52288000	-22.10261000
171.69998998	0.00000000	-75.15379000	-22.10261000
171.89998997	0.00000000	-75.52288000	-22.10261000
172.09998996	0.00000000	-75.85506000	-22.10261000
172.29998995	0.00000000	-75.89813000	-22.10261000
172.49998994	0.00000000	-75.89813000	-22.10261000
172.69998992	0.00000000	-75.89813000	-22.10261000
172.89998991	0.00000000	-75.89813000	-22.05955000
173.09998990	0.00000000	-75.89813000	-21.72736000
173.29998989	0.00000000	-75.89813000	-21.32136000
173.49998988	0.00000000	-75.89813000	-21.35827000
173.69998986	0.00000000	-75.85506000	-21.32136000
173.89998985	0.00000000	-75.47981000	-21.72736000
174.09998984	0.00000000	-74.73548000	-22.05955000
174.29998983	0.00000000	-74.40945000	-22.10261000
174.49998982	0.00000000	-74.73548000	-22.10261000
174.69998980	0.00000000	-75.47981000	-22.10261000
174.89998979	0.00000000	-75.80585000	-22.10261000
175.09998978	0.00000000	-75.52288000	-22.10261000
175.29998977	0.00000000	-75.15379000	-22.10261000
175.49998976	0.00000000	-75.52288000	-22.10261000
175.69998975	0.00000000	-75.85506000	-22.10261000
175.89998973	0.00000000	-75.89813000	-22.10261000
176.09998972	0.00000000	-75.89813000	-22.10261000
176.29998971	0.00000000	-75.85506000	-22.10261000
176.49998970	0.00000000	-75.52288000	-22.10261000
176.69998969	0.00000000	-75.15379000	-22.10261000
176.89998967	0.00000000	-75.52288000	-22.10261000
177.09998966	0.00000000	-75.85506000	-22.10261000
177.29998965	0.00000000	-75.89813000	-22.10261000
177.49998964	0.00000000	-75.89813000	-22.10261000
177.69998963	0.00000000	-75.89813000	-22.10261000
177.89998961	0.00000000	-75.89813000	-22.10261000
178.09998960	0.00000000	-75.89813000	-22.10261000
178.29998959	0.00000000	-75.89813000	-22.10261000
178.49998958	0.00000000	-75.89813000	-22.10261000
178.69998957	0.00000000	-75.89813000	-22.10261000
178.89998956	0.00000000	-75.89813000	-22.10261000
179.09998954	0.00000000	-75.89813000	-22.10261000
179.29998953	0.00000000	-75.85506000	-22.10261000
179.49998952	0.00000000	-75.52288000	-22.10261000
179.69998951	0.00000000	-75.11072000	-22.10261000
179.89998950	0.00000000	-75.14763000	-22.10261000
180.09998948	0.00000000	-75.11072000	-22.10261000
180.29998947	0.00000000	-75.52288000	-22.10261000
180.49998946	0.00000000	-75.85506000	-22.10261000
180.69998945	0.00000000	-75.89813000	-22.10261000
180.89998944	0.00000000	-75.89813000	-22.10261000
181.09998942	0.00000000	-75.89813000	-22.10261000
181.29998941	0.00000000	-75.89813000	-22.10261000
181.49998940	0.00000000	-75.89813000	-22.05955000
181.69998939	0.00000000	-75.89813000	-21.68430000
181.89998938	0.00000000	-75.89813000	-20.98917000
182.09998937	0.00000000	-75.89813000	-20.98917000
182.29998935	0.00000000	-75.85506000	-21.68430000
182.49998934	0.00000000	-75.47981000	-22.05955000
182.69998933	0.00000000	-74.73548000	-22.10261000
182.89998932	0.00000000	-74.36023000	-22.10261000
183.09998931	0.00000000	-74.36023000	-22.14567000
183.29998929	0.00000000	-74.69241000	-22.47785000
183.49998928	0.00000000	-75.10458000	-22.84695000
183.69998927	0.00000000	-75.11072000	-22.47785000
183.89998926	0.00000000	-75.52288000	-22.14567000
184.09998925	0.00000000	-75.85506000	-22.10261000
184.29998923	0.00000000	-75.89813000	-22.10261000
184.49998922	0.00000000	-75.89813000	-22.05955000
184.69998921	0.00000000	-75.89813000	-21.72736000
184.89998920	0.00000000	-75.89813000	-21.32136000
185.09998919	0.00000000	-75.85506000	-21.30905000
185.29998918	0.00000000	-75.47981000	-20.94611000
185.49998916	0.00000000	-74.78469000	-20.98917000
185.69998915	0.00000000	-74.73548000	-21.68430000
185.89998914	0.00000000	-75.06151000	-22.05955000
186.09998913	0.00000000	-74.69241000	-22.10261000
186.29998912	0.00000000	-74.36023000	-22.10261000
186.49998910	0.00000000	-74.31717000	-22.10261000
186.69998909	0.00000000	-74.36023000	-22.10261000
186.89998908	0.00000000	-74.73548000	-22.05955000
187.09998907	0.00000000	-75.47981000	-21.68430000
187.29998906	0.00000000	-75.85506000	-20.94611000
187.49998904	0.00000000	-75.89813000	-20.57087000
187.69998903	0.00000000	-75.89813000	-20.52780000
187.89998902	0.00000000	-75.89813000	-20.52780000
188.09998901	0.00000000	-75.85506000	-20.52780000
188.29998900	0.00000000	-75.47981000	-20.57087000
188.49998899	0.00000000	-74.73548000	-20.94611000
188.69998897	0.00000000	-74.36023000	-21.68430000
188.89998896	0.00000000	-74.31717000	-22.05955000
189.09998895	0.00000000	-74.31717000	-22.10261000
189.29998894	0.00000000	-74.31717000	-22.10261000
189.49998893	0.00000000	-74.31717000	-22.10261000
189.69998891	0.00000000	-74.36023000	-22.10261000
189.89998890	0.00000000	-74.73548000	-22.10261000
190.09998889	0.00000000	-75.47981000	-22.05955000
190.29998888	0.00000000	-75.85506000	-21.72736000
190.49998887	0.00000000	-75.85506000	-21.32136000
190.69998885	0.00000000	-75.52288000	-21.35827000
190.89998884	0.00000000	-75.11072000	-21.27214000
191.09998883	0.00000000	-75.14763000	-21.30905000
191.29998882	0.00000000	-75.06767000	-20.94611000
191.49998881	0.00000000	-75.10458000	-20.98917000
191.69998880	0.00000000	-74.69241000	-21.68430000
191.89998878	0.00000000	-74.36023000	-22.05955000
192.09998877	0.00000000	-74.36023000	-22.10261000
192.29998876	0.00000000	-74.69241000	-22.10261000
192.49998875	0.00000000	-75.06151000	-22.10261000
192.69998874	0.00000000	-74.73548000	-22.10261000
192.89998872	0.00000000	-74.78469000	-22.10261000
193.09998871	0.00000000	-75.47981000	-22.10261000
193.29998870	0.00000000	-75.85506000	-22.10261000
193.49998869	0.00000000	-75.85506000	-22.05955000
193.69998868	0.00000000	-75.52288000	-21.72736000
193.89998866	0.00000000	-75.11072000	-21.32136000
194.09998865	0.00000000	-75.10458000	-21.30905000
194.29998864	0.00000000	-74.69241000	-20.94611000
194.49998863	0.00000000	-74.36023000	-20.94611000
194.69998862	0.00000000	-74.31717000	-21.30905000
194.89998861	0.00000000	-74.31717000	-21.32136000
195.09998859	0.00000000	-74.31717000	-21.72736000
195.29998858	0.00000000	-74.31717000	-22.05955000
195.49998857	0.00000000	-74.31717000	-22.10261000
195.69998856	0.00000000	-74.36023000	-22.10261000
195.89998855	0.00000000	-74.73548000	-22.10261000
196.09998853	0.00000000	-75.43060000	-22.10261000
