Time	Channel A	Channel B	Channel C
(us)	(V)	(mV)	(mV)

-4.59999956	0.00000000	-77.85432000	-23.26525000
-4.39999957	0.00000000	-77.52214000	-22.57013000
-4.19999958	0.00000000	-77.47908000	-22.57013000
-3.99999959	0.00000000	-77.52214000	-23.26525000
-3.79999960	0.00000000	-77.85432000	-23.64050000
-3.59999962	0.00000000	-78.26648000	-23.68356000
-3.39999963	0.00000000	-78.22957000	-23.64050000
-3.19999964	0.00000000	-78.26648000	-23.26525000
-2.99999965	0.00000000	-77.89738000	-22.57013000
-2.79999966	0.00000000	-77.94660000	-22.57013000
-2.59999968	0.00000000	-78.64173000	-23.26525000
-2.39999969	0.00000000	-78.96776000	-23.64050000
-2.19999970	0.00000000	-78.64173000	-23.68356000
-1.99999971	0.00000000	-77.94660000	-23.68356000
-1.79999972	0.00000000	-77.89738000	-23.68356000
-1.59999973	0.00000000	-78.26648000	-23.68356000
-1.39999975	0.00000000	-78.22957000	-23.68356000
-1.19999976	0.00000000	-78.26648000	-23.68356000
-0.99999977	0.00000000	-77.89738000	-23.68356000
-0.79999978	0.00000000	-77.89738000	-23.68356000
-0.59999979	0.00000000	-78.22342000	-23.64050000
-0.39999981	0.15871060	-77.85432000	-23.30832000
-0.19999982	0.47736220	-77.52214000	-22.93922000
0.00000017	0.79601380	-77.52214000	-23.30832000
0.20000016	0.95533960	-77.89738000	-23.64050000
0.40000015	0.95533960	-78.64173000	-23.68356000
0.60000013	0.63668800	-79.01697000	-23.68356000
0.80000012	0.00000000	-79.01697000	-23.68356000
1.00000011	-0.95533960	-78.64173000	-23.68356000
1.20000010	-1.91129400	-77.89738000	-23.64050000
1.40000009	-2.54859700	-77.52214000	-23.30832000
1.60000008	-2.70792300	-77.47908000	-22.89616000
1.80000006	-2.07062000	-77.47908000	-22.89001000
2.00000005	-0.47736220	-77.47908000	-22.52091000
2.20000004	1.59264300	-77.47908000	-22.52091000
2.40000003	3.66326300	-77.52214000	-22.89001000
2.60000002	5.09719500	-77.85432000	-22.89616000
2.80000000	5.25652100	-78.26648000	-23.30832000
2.99999999	4.14124000	-78.22957000	-23.64050000
3.19999998	1.59264300	-78.26648000	-23.68356000
3.39999997	-1.75196900	-77.85432000	-23.68356000
3.59999996	-4.93786900	-77.52214000	-23.64050000
3.79999994	-7.32714100	-77.47908000	-23.26525000
3.99999993	-7.96444400	-77.47908000	-22.52091000
4.19999992	-6.53112700	-77.47908000	-22.14567000
4.39999991	-3.34522600	-77.47908000	-22.10261000
4.59999990	0.95533960	-77.47908000	-22.10261000
4.79999989	5.25652100	-77.47908000	-22.14567000
4.99999987	8.44242100	-77.47908000	-22.52091000
5.19999986	9.39837600	-77.52214000	-23.26525000
5.39999985	8.12377000	-77.85432000	-23.64050000
5.59999984	4.77854300	-78.22342000	-23.68356000
5.79999983	0.15871060	-77.85432000	-23.68356000
5.99999981	-4.45989200	-77.52214000	-23.64050000
6.19999980	-7.96444400	-77.47908000	-23.26525000
6.39999979	-9.39837600	-77.47908000	-22.52091000
6.59999978	-8.60174700	-77.47908000	-22.14567000
6.79999977	-5.57517200	-77.47908000	-22.10261000
6.99999975	-1.43331700	-77.47908000	-22.10261000
7.19999974	2.86724900	-77.47908000	-22.14567000
7.39999973	6.21247500	-77.47908000	-22.52091000
7.59999972	7.64579200	-77.47908000	-23.26525000
7.79999971	7.32714100	-77.47908000	-23.64050000
7.99999970	5.09719500	-77.47908000	-23.68356000
8.19999968	1.91129400	-77.47908000	-23.68356000
8.39999967	-1.43331700	-77.47908000	-23.68356000
8.59999966	-3.82258900	-77.47908000	-23.68356000
8.79999965	-5.09719500	-77.47908000	-23.64050000
8.99999964	-4.93786900	-77.47908000	-23.30832000
9.19999962	-3.66326300	-77.47908000	-22.89616000
9.39999961	-1.75196900	-77.47908000	-22.93307000
9.59999960	0.15871060	-77.47908000	-22.89616000
9.79999959	1.75196900	-77.47908000	-23.30832000
9.99999958	2.38927200	-77.47908000	-23.64050000
10.19999956	2.38927200	-77.52214000	-23.68356000
10.39999955	1.91129400	-77.85432000	-23.68356000
10.59999954	0.95533960	-78.26648000	-23.68356000
10.79999953	0.15871060	-78.22957000	-23.68356000
10.99999952	-0.47736220	-78.26648000	-23.68356000
11.19999951	-0.95533960	-77.85432000	-23.68356000
11.39999949	-0.95533960	-77.52214000	-23.68356000
11.59999948	-0.79601380	-77.47908000	-23.68356000
11.79999947	-0.63668800	-77.47908000	-23.68356000
11.99999946	-0.31803640	-77.47908000	-23.64050000
12.19999945	-0.15871060	-77.47908000	-23.26525000
12.39999943	-0.15871060	-77.47908000	-22.57013000
12.59999942	0.00000000	-77.47908000	-22.57013000
12.79999941	0.00000000	-77.47908000	-23.21604000
12.99999940	0.00000000	-77.47908000	-23.26525000
13.19999939	0.00000000	-77.47908000	-22.93922000
13.39999937	0.00000000	-77.47908000	-23.26525000
13.59999936	0.00000000	-77.47908000	-23.26525000
13.79999935	0.00000000	-77.47908000	-22.93922000
13.99999934	-0.15871060	-77.47908000	-23.26525000
14.19999933	-0.15871060	-77.47908000	-23.26525000
14.39999932	-0.15871060	-77.47908000	-22.93922000
14.59999930	-0.15871060	-77.47908000	-23.26525000
14.79999929	0.00000000	-77.47908000	-23.26525000
14.99999928	0.00000000	-77.47908000	-22.93922000
15.19999927	0.00000000	-77.47908000	-23.30832000
15.39999926	0.00000000	-77.47908000	-23.59129000
15.59999924	0.00000000	-77.47908000	-23.26525000
15.79999923	0.00000000	-77.47908000	-22.52091000
15.99999922	0.00000000	-77.47908000	-22.19488000
16.19999921	0.00000000	-77.47908000	-22.52091000
16.39999920	-0.15871060	-77.47908000	-23.21604000
16.59999919	-0.15871060	-77.47908000	-23.21604000
16.79999917	0.00000000	-77.43602000	-22.57013000
16.99999916	0.00000000	-77.06077000	-22.57013000
17.19999915	0.00000000	-76.31644000	-23.21604000
17.39999914	0.00000000	-75.94118000	-23.26525000
17.59999913	0.00000000	-75.89813000	-22.89616000
17.79999911	0.00000000	-75.94118000	-22.89001000
17.99999910	0.00000000	-76.36565000	-22.47785000
18.19999909	0.00000000	-77.52214000	-22.19488000
18.39999908	0.00000000	-79.06004000	-22.47785000
18.59999907	0.00000000	-80.64099000	-22.89001000
18.79999905	0.00000000	-82.17889000	-22.85310000
18.99999904	0.00000000	-83.24926000	-22.89001000
19.19999903	0.00000000	-82.87401000	-22.52091000
19.39999902	0.00000000	-80.88090000	-22.52091000
19.59999901	0.00000000	-77.79896000	-22.84695000
19.79999900	0.00000000	-73.52977000	-22.52091000
19.99999898	0.00000000	-69.70964000	-22.52091000
20.19999897	0.00000000	-66.95989000	-22.84695000
20.39999896	0.00000000	-65.88951000	-22.52091000
20.59999895	0.00000000	-67.51968000	-22.52091000
20.79999894	0.00000000	-72.21949000	-22.89001000
20.99999892	0.00000000	-79.52755000	-22.85310000
21.19999891	0.00000000	-87.61687000	-22.89001000
21.39999890	0.00000000	-94.18060000	-22.52091000
21.59999889	0.00000000	-97.99458000	-22.52091000
21.79999888	0.00000000	-97.52706000	-22.89001000
21.99999886	0.00000000	-92.04601000	-22.89616000
22.19999885	0.00000000	-82.32037000	-23.30832000
22.39999884	0.00000000	-69.57431000	-23.64050000
22.59999883	0.00000000	-56.91437000	-23.64050000
22.79999882	0.00000000	-48.07455000	-23.26525000
22.99999881	0.00000000	-45.41708000	-22.52091000
23.19999879	0.00000000	-50.07381000	-22.14567000
23.39999878	0.00000000	-61.37426000	-22.10261000
23.59999877	0.00000000	-77.28838000	-22.05955000
23.79999876	0.00000000	-95.43552000	-21.68430000
23.99999875	0.00000000	-111.11590000	-20.98917000
24.19999873	0.00000000	-119.62970000	-21.03838000
24.39999872	0.00000000	-118.79920000	-22.15182000
24.59999871	0.00000000	-108.65530000	-23.64050000
24.79999870	0.00000000	-90.08981000	-24.88927000
24.99999869	0.00000000	-67.38435000	-26.05807000
25.19999867	0.00000000	-46.48745000	-27.58366000
25.39999866	0.00000000	-31.82825000	-28.28494000
25.59999865	0.00000000	-26.85777000	-27.90969000
25.79999864	0.00000000	-33.50147000	-26.28568000
25.99999863	0.00000000	-50.49212000	-23.17298000
26.19999862	0.00000000	-74.45251000	-18.94685000
26.39999860	0.00000000	-99.48942000	-14.72072000
26.59999859	0.00000000	-119.58660000	-11.65108000
26.79999858	0.00000000	-130.00740000	-10.53150000
26.99999857	0.00000000	-128.51870000	-12.15551000
27.19999856	0.00000000	-115.77260000	-16.80610000
27.39999854	0.00000000	-94.87573000	-23.76968000
27.59999853	0.00000000	-70.17101000	-31.48991000
27.79999852	0.00000000	-47.42249000	-38.41043000
27.99999851	0.00000000	-32.29576000	-42.63656000
28.19999850	0.00000000	-27.59596000	-42.96875000
28.39999848	0.00000000	-33.74139000	-39.06250000
28.59999847	0.00000000	-49.18799000	-30.84399000
28.79999846	0.00000000	-70.03568000	-19.68504000
28.99999845	0.00000000	-91.71383000	-7.70792300
29.19999844	0.00000000	-109.49190000	1.87007900
29.39999843	0.00000000	-119.58660000	6.88361200
29.59999841	0.00000000	-120.04800000	5.63484200
29.79999840	0.00000000	-111.58340000	-2.07923200
29.99999839	0.00000000	-96.54896000	-14.89911000
30.19999838	0.00000000	-78.40797000	-30.32726000
30.39999837	0.00000000	-61.74950000	-45.38017000
30.59999835	0.00000000	-49.65551000	-56.11466000
30.79999834	0.00000000	-43.79306000	-59.97170000
30.99999833	0.00000000	-44.91264000	-55.69635000
31.19999832	0.00000000	-52.25763000	-44.13140000
31.39999831	0.00000000	-64.26550000	-27.86663000
31.59999829	0.00000000	-78.54945000	-10.11934000
31.79999828	0.00000000	-91.71383000	5.34571800
31.99999827	0.00000000	-101.02730000	15.01599000
32.19999826	0.00000000	-104.92740000	17.29208000
32.39999825	0.00000000	-102.65130000	11.06668000
32.59999824	0.00000000	-95.34325000	-2.77436000
32.79999822	0.00000000	-84.87327000	-20.52780000
32.99999821	0.00000000	-73.33292000	-38.32431000
33.19999820	0.00000000	-63.65649000	-52.67593000
33.39999819	0.00000000	-58.16314000	-60.76525000
33.59999818	0.00000000	-56.95743000	-61.12820000
33.79999816	0.00000000	-60.07627000	-53.05118000
33.99999815	0.00000000	-67.00910000	-38.78568000
34.19999814	0.00000000	-75.84891000	-21.77658000
34.39999813	0.00000000	-84.31963000	-5.14886800
34.59999812	0.00000000	-90.13287000	7.16658400
34.79999810	0.00000000	-92.13213000	12.64149000
34.99999809	0.00000000	-90.60039000	10.32234000
35.19999808	0.00000000	-85.99286000	1.11958700
35.39999807	0.00000000	-79.43528000	-12.76452000
35.59999806	0.00000000	-72.91461000	-27.82357000
35.79999805	0.00000000	-67.88878000	-40.96949000
35.99999803	0.00000000	-65.98179000	-49.42790000
36.19999802	0.00000000	-67.42741000	-51.00270000
36.39999801	0.00000000	-71.29060000	-45.66314000
36.59999800	0.00000000	-76.31644000	-35.29773000
36.79999799	0.00000000	-81.71136000	-22.61319000
36.99999797	0.00000000	-85.85753000	-11.04208000
37.19999796	0.00000000	-87.06323000	-3.32800200
37.39999795	0.00000000	-85.20546000	-1.00885800
37.59999794	0.00000000	-81.75443000	-4.81668300
37.79999793	0.00000000	-77.43602000	-13.22589000
37.99999791	0.00000000	-72.82849000	-23.59129000
38.19999790	0.00000000	-69.00836000	-33.16314000
38.39999789	0.00000000	-67.47662000	-38.88410000
38.59999788	0.00000000	-68.54699000	-38.92716000
38.79999787	0.00000000	-71.29060000	-33.63066000
38.99999786	0.00000000	-75.15379000	-25.21530000
39.19999784	0.00000000	-79.80437000	-16.33858000
39.39999783	0.00000000	-83.62450000	-9.09202700
39.59999782	0.00000000	-85.99286000	-5.70251000
39.79999781	0.00000000	-86.41116000	-7.97244000
39.99999780	0.00000000	-85.24852000	-14.84990000
40.19999778	0.00000000	-82.91708000	-24.10187000
40.39999777	0.00000000	-79.39222000	-33.67372000
40.59999776	0.00000000	-75.52288000	-40.50812000
40.79999775	0.00000000	-71.62278000	-42.08292000
40.99999774	0.00000000	-68.59006000	-38.27509000
41.19999772	0.00000000	-67.38435000	-30.56102000
41.39999771	0.00000000	-68.12868000	-20.57087000
41.59999770	0.00000000	-70.08488000	-10.99901000
41.79999769	0.00000000	-73.24680000	-4.85974400
41.99999768	0.00000000	-77.43602000	-3.65403500
42.19999767	0.00000000	-81.33611000	-7.51107200
42.39999765	0.00000000	-83.99975000	-15.13902000
42.59999764	0.00000000	-85.24236000	-24.33563000
42.79999763	0.00000000	-84.46112000	-32.09276000
42.99999762	0.00000000	-82.96629000	-37.16166000
43.19999761	0.00000000	-80.59792000	-39.06250000
43.39999759	0.00000000	-77.94660000	-36.78642000
43.59999758	0.00000000	-75.94118000	-31.44069000
43.79999757	0.00000000	-74.36023000	-24.88927000
43.99999756	0.00000000	-73.20374000	-18.33784000
44.19999755	0.00000000	-72.82849000	-13.73647000
44.39999753	0.00000000	-73.15452000	-12.11245000
44.59999752	0.00000000	-73.89886000	-13.22589000
44.79999751	0.00000000	-74.27411000	-16.25246000
44.99999750	0.00000000	-74.36023000	-20.10950000
45.19999749	0.00000000	-74.78469000	-23.59129000
45.39999748	0.00000000	-75.94118000	-26.37795000
45.59999746	0.00000000	-77.52214000	-28.28494000
45.79999745	0.00000000	-79.52755000	-29.02928000
45.99999744	0.00000000	-82.22194000	-27.90969000
46.19999743	0.00000000	-84.87327000	-25.63976000
46.39999742	0.00000000	-86.36810000	-23.30832000
46.59999740	0.00000000	-85.94365000	-20.94611000
46.79999739	0.00000000	-83.20619000	-19.03912000
46.99999738	0.00000000	-78.54945000	-17.87647000
47.19999737	0.00000000	-72.73621000	-17.87647000
47.39999736	0.00000000	-66.95989000	-19.03912000
47.59999734	0.00000000	-62.72760000	-20.94611000
47.79999733	0.00000000	-61.23892000	-23.26525000
47.99999732	0.00000000	-63.19512000	-25.21530000
48.19999731	0.00000000	-68.63311000	-26.75320000
48.39999730	0.00000000	-76.36565000	-27.49138000
48.59999729	0.00000000	-84.83022000	-26.70398000
48.79999727	0.00000000	-91.75688000	-24.79700000
48.99999726	0.00000000	-95.25098000	-22.05955000
49.19999725	0.00000000	-94.83266000	-19.03297000
49.39999724	0.00000000	-90.13287000	-16.71383000
49.59999723	0.00000000	-81.71136000	-15.92027000
49.79999721	0.00000000	-72.08414000	-16.29552000
49.99999720	0.00000000	-63.93332000	-17.91953000
50.19999719	0.00000000	-58.53838000	-20.98917000
50.39999718	0.00000000	-57.46801000	-24.84621000
50.59999717	0.00000000	-61.65723000	-28.28494000
50.79999715	0.00000000	-69.70964000	-30.60408000
50.99999714	0.00000000	-78.96776000	-30.93627000
51.19999713	0.00000000	-87.48154000	-29.07234000
51.39999712	0.00000000	-93.20866000	-25.59055000
51.59999711	0.00000000	-94.36515000	-21.72736000
51.79999710	0.00000000	-90.60039000	-17.83341000
51.99999708	0.00000000	-83.66756000	-14.80684000
52.19999707	0.00000000	-75.56593000	-13.65034000
52.39999706	0.00000000	-67.88878000	-14.80684000
52.59999705	0.00000000	-63.28125000	-17.83341000
52.79999704	0.00000000	-62.81988000	-21.68430000
52.99999702	0.00000000	-65.88951000	-25.17224000
53.19999701	0.00000000	-71.66584000	-27.90969000
53.39999700	0.00000000	-78.54945000	-29.40452000
53.59999699	0.00000000	-84.36269000	-29.02928000
53.79999698	0.00000000	-87.81372000	-26.75320000
53.99999696	0.00000000	-88.17667000	-23.72662000
54.19999695	0.00000000	-84.73794000	-21.03838000
54.39999694	0.00000000	-79.06004000	-19.45743000
54.59999693	0.00000000	-73.24680000	-19.08218000
54.79999692	0.00000000	-68.68233000	-19.82652000
54.99999691	0.00000000	-66.68922000	-21.68430000
55.19999689	0.00000000	-67.83957000	-23.21604000
55.39999688	0.00000000	-70.87844000	-24.01575000
55.59999687	0.00000000	-75.56593000	-24.37869000
55.79999686	0.00000000	-80.50565000	-23.54823000
55.99999685	0.00000000	-84.36269000	-21.68430000
56.19999683	0.00000000	-85.90058000	-19.40822000
56.39999682	0.00000000	-84.78715000	-17.91953000
56.59999681	0.00000000	-81.71136000	-17.91953000
56.79999680	0.00000000	-77.47908000	-19.50049000
56.99999679	0.00000000	-73.24680000	-22.57013000
57.19999677	0.00000000	-70.17101000	-26.37795000
57.39999676	0.00000000	-69.01452000	-29.44759000
57.59999675	0.00000000	-70.12794000	-30.97933000
57.79999674	0.00000000	-72.77928000	-30.51181000
57.99999673	0.00000000	-75.85506000	-27.39911000
58.19999672	0.00000000	-78.59251000	-22.05955000
58.39999670	0.00000000	-80.50565000	-16.29552000
58.59999669	0.00000000	-81.29305000	-11.69414000
58.79999668	0.00000000	-80.54871000	-9.41806000
58.99999667	0.00000000	-79.06004000	-10.58071000
59.19999666	0.00000000	-77.47908000	-14.80684000
59.39999664	0.00000000	-75.89813000	-20.98917000
59.59999663	0.00000000	-74.40945000	-27.90969000
59.79999662	0.00000000	-73.66510000	-33.67372000
59.99999661	0.00000000	-74.36023000	-36.74335000
60.19999660	0.00000000	-75.47981000	-36.36811000
60.39999658	0.00000000	-76.27337000	-32.46801000
60.59999657	0.00000000	-77.06077000	-25.95964000
60.79999656	0.00000000	-77.38681000	-18.20251000
60.99999655	0.00000000	-77.01156000	-11.27584000
61.19999654	0.00000000	-75.89813000	-6.30536400
61.39999653	0.00000000	-74.78469000	-5.23499000
61.59999651	0.00000000	-74.36023000	-9.04281500
61.79999650	0.00000000	-74.36023000	-16.29552000
61.99999649	0.00000000	-74.78469000	-24.79700000
62.19999648	0.00000000	-75.99039000	-32.51722000
62.39999647	0.00000000	-77.85432000	-37.89985000
62.59999645	0.00000000	-79.75516000	-39.43774000
62.79999644	0.00000000	-80.50565000	-36.78642000
62.99999643	0.00000000	-80.17347000	-31.02239000
63.19999642	0.00000000	-78.96776000	-23.63435000
63.39999641	0.00000000	-77.06077000	-15.92027000
63.59999639	0.00000000	-74.73548000	-9.41806000
63.79999638	0.00000000	-72.82849000	-6.35457700
63.99999637	0.00000000	-71.66584000	-7.41879900
64.19999636	0.00000000	-71.70891000	-11.60187000
64.39999635	0.00000000	-73.20374000	-17.40895000
64.59999634	0.00000000	-75.47981000	-23.64050000
64.79999632	0.00000000	-77.43602000	-29.44759000
64.99999631	0.00000000	-79.01697000	-33.67372000
65.19999630	0.00000000	-80.17347000	-35.25467000
65.39999629	0.00000000	-80.50565000	-34.09203000
65.59999628	0.00000000	-79.71210000	-30.64714000
65.79999626	0.00000000	-77.43602000	-25.68282000
65.99999625	0.00000000	-74.82775000	-21.03838000
66.19999624	0.00000000	-73.24680000	-17.45817000
66.39999623	0.00000000	-72.82849000	-14.72072000
66.59999622	0.00000000	-73.24680000	-13.18282000
66.79999620	0.00000000	-74.78469000	-13.18282000
66.99999619	0.00000000	-77.06077000	-14.72072000
67.19999618	0.00000000	-78.96776000	-17.41511000
67.39999617	0.00000000	-80.08734000	-20.52780000
67.59999616	0.00000000	-79.66904000	-23.64050000
67.79999615	0.00000000	-77.38681000	-26.42101000
67.99999613	0.00000000	-74.36023000	-28.74631000
68.19999612	0.00000000	-71.66584000	-30.69636000
68.39999611	0.00000000	-70.12794000	-31.39763000
68.59999610	0.00000000	-70.12794000	-30.64714000
68.79999609	0.00000000	-71.70891000	-28.28494000
68.99999607	0.00000000	-74.82775000	-24.79700000
69.19999606	0.00000000	-79.01697000	-20.52780000
69.39999605	0.00000000	-82.87401000	-16.25246000
69.59999604	0.00000000	-85.15624000	-12.80758000
69.79999603	0.00000000	-85.52534000	-10.86368000
69.99999601	0.00000000	-83.20619000	-11.27584000
70.19999600	0.00000000	-78.96776000	-13.60113000
70.39999599	0.00000000	-73.94193000	-17.91953000
70.59999598	0.00000000	-68.92224000	-23.64050000
70.79999597	0.00000000	-65.47121000	-29.02928000
70.99999596	0.00000000	-64.30856000	-32.51722000
71.19999594	0.00000000	-65.88951000	-33.67372000
71.39999593	0.00000000	-70.12794000	-32.18504000
71.59999592	0.00000000	-75.94118000	-28.70325000
71.79999591	0.00000000	-82.08661000	-24.47096000
71.99999590	0.00000000	-87.10630000	-19.82652000
72.19999588	0.00000000	-89.43774000	-16.38779000
72.39999587	0.00000000	-89.06249000	-14.76378000
72.59999586	0.00000000	-85.94365000	-14.76378000
72.79999585	0.00000000	-80.54871000	-16.29552000
72.99999584	0.00000000	-74.40945000	-18.98991000
73.19999582	0.00000000	-68.96530000	-22.05955000
73.39999581	0.00000000	-65.47121000	-24.71087000
73.59999580	0.00000000	-64.30856000	-25.86737000
73.79999579	0.00000000	-65.88951000	-25.21530000
73.99999578	0.00000000	-70.08488000	-24.10187000
74.19999577	0.00000000	-75.43060000	-23.26525000
74.39999575	0.00000000	-80.13041000	-22.15182000
74.59999574	0.00000000	-83.62450000	-21.45669000
74.79999573	0.00000000	-85.52534000	-22.19488000
74.99999572	0.00000000	-84.78715000	-23.64050000
75.19999571	0.00000000	-82.17889000	-24.84621000
75.39999569	0.00000000	-79.06004000	-25.54749000
75.59999568	0.00000000	-75.94118000	-25.49212000
75.79999567	0.00000000	-73.24680000	-23.54823000
75.99999566	0.00000000	-71.66584000	-20.52780000
76.19999565	0.00000000	-71.24754000	-17.41511000
76.39999563	0.00000000	-71.66584000	-14.76378000
76.59999562	0.00000000	-73.15452000	-13.65034000
76.79999561	0.00000000	-75.06151000	-14.84990000
76.99999560	0.00000000	-76.23032000	-18.29478000
77.19999559	0.00000000	-77.01156000	-23.30832000
77.39999558	0.00000000	-77.01156000	-28.28494000
77.59999556	0.00000000	-76.31644000	-32.18504000
77.79999555	0.00000000	-75.99039000	-34.04897000
77.99999554	0.00000000	-76.31644000	-33.29847000
78.19999553	0.00000000	-77.10384000	-29.82283000
78.39999552	0.00000000	-77.85432000	-24.79700000
78.59999550	0.00000000	-78.59251000	-18.98991000
78.79999549	0.00000000	-78.59251000	-13.60113000
78.99999548	0.00000000	-77.81126000	-10.16240000
79.19999547	0.00000000	-76.64246000	-9.33193800
79.39999546	0.00000000	-74.69241000	-11.27584000
79.59999544	0.00000000	-72.82849000	-15.13902000
79.79999543	0.00000000	-71.62278000	-20.57087000
79.99999542	0.00000000	-71.24754000	-26.28568000
80.19999541	0.00000000	-71.66584000	-30.56102000
80.39999540	0.00000000	-73.24680000	-32.56028000
80.59999539	0.00000000	-75.89813000	-32.56028000
80.79999537	0.00000000	-78.59251000	-30.64714000
80.99999536	0.00000000	-80.54871000	-27.17150000
81.19999535	0.00000000	-81.66830000	-23.30832000
81.39999534	0.00000000	-81.24999000	-19.40822000
81.59999533	0.00000000	-79.01697000	-16.29552000
81.79999531	0.00000000	-76.31644000	-14.34547000
81.99999530	0.00000000	-73.98499000	-13.55807000
82.19999529	0.00000000	-72.04109000	-14.34547000
82.39999528	0.00000000	-71.29060000	-16.25246000
82.59999527	0.00000000	-71.62278000	-18.98991000
82.79999525	0.00000000	-72.77928000	-22.10261000
82.99999524	0.00000000	-74.36023000	-25.21530000
83.19999523	0.00000000	-76.23032000	-27.90969000
83.39999522	0.00000000	-77.79896000	-29.49065000
83.59999521	0.00000000	-78.22957000	-29.90895000
83.79999520	0.00000000	-78.64173000	-29.49065000
83.99999518	0.00000000	-78.54945000	-27.86663000
84.19999517	0.00000000	-77.47908000	-24.79700000
84.39999516	0.00000000	-76.36565000	-20.94611000
84.59999515	0.00000000	-75.94118000	-17.41511000
84.79999514	0.00000000	-75.89813000	-14.34547000
84.99999512	0.00000000	-75.89813000	-12.48770000
85.19999511	0.00000000	-75.89813000	-13.22589000
85.39999510	0.00000000	-75.85506000	-15.87721000
85.59999509	0.00000000	-75.47981000	-19.40822000
85.79999508	0.00000000	-74.73548000	-23.68356000
85.99999506	0.00000000	-74.36023000	-27.90969000
86.19999505	0.00000000	-74.31717000	-30.97933000
86.39999504	0.00000000	-74.36023000	-32.13582000
86.59999503	0.00000000	-74.78469000	-30.97933000
86.79999502	0.00000000	-75.94118000	-27.86663000
86.99999501	0.00000000	-77.47908000	-23.26525000
87.19999499	0.00000000	-78.96776000	-18.25172000
87.39999498	0.00000000	-79.71210000	-14.43159000
87.59999497	0.00000000	-78.96776000	-12.48770000
87.79999496	0.00000000	-77.47908000	-13.26895000
87.99999495	0.00000000	-75.89813000	-16.29552000
88.19999493	0.00000000	-74.36023000	-20.57087000
88.39999492	0.00000000	-73.20374000	-25.17224000
88.59999491	0.00000000	-72.77928000	-29.02928000
88.79999490	0.00000000	-72.82849000	-30.97933000
88.99999489	0.00000000	-73.62204000	-30.97933000
89.19999487	0.00000000	-75.52288000	-28.98007000
89.39999486	0.00000000	-77.38681000	-24.79700000
89.59999485	0.00000000	-78.59251000	-19.82652000
89.79999484	0.00000000	-78.96776000	-15.96334000
89.99999483	0.00000000	-78.64173000	-13.64419000
90.19999482	0.00000000	-77.85432000	-13.69340000
90.39999480	0.00000000	-77.06077000	-16.33858000
90.59999479	0.00000000	-75.89813000	-20.57087000
90.79999478	0.00000000	-74.78469000	-25.17224000
90.99999477	0.00000000	-74.36023000	-28.98007000
91.19999476	0.00000000	-74.31717000	-30.56102000
91.39999474	0.00000000	-74.31717000	-29.82283000
91.59999473	0.00000000	-74.36023000	-27.44832000
91.79999472	0.00000000	-74.73548000	-23.21604000
91.99999471	0.00000000	-75.47981000	-18.29478000
92.19999470	0.00000000	-75.85506000	-14.80684000
92.39999468	0.00000000	-75.89813000	-13.22589000
92.59999467	0.00000000	-75.94118000	-13.69340000
92.79999466	0.00000000	-76.31644000	-16.75689000
92.99999465	0.00000000	-77.06077000	-21.68430000
93.19999464	0.00000000	-77.47908000	-26.28568000
93.39999463	0.00000000	-77.85432000	-29.39837000
93.59999461	0.00000000	-78.22342000	-30.51796000
93.79999460	0.00000000	-77.81126000	-28.98007000
93.99999459	0.00000000	-77.01156000	-25.17224000
94.19999458	0.00000000	-75.43060000	-20.61393000
94.39999457	0.00000000	-73.15452000	-16.71383000
94.59999455	0.00000000	-71.24754000	-14.43159000
94.79999454	0.00000000	-70.08488000	-14.01944000
94.99999453	0.00000000	-70.12794000	-15.96334000
95.19999452	0.00000000	-71.62278000	-19.40822000
95.39999451	0.00000000	-73.94193000	-23.64050000
95.59999449	0.00000000	-76.31644000	-27.40526000
95.79999448	0.00000000	-79.06004000	-28.98007000
95.99999447	0.00000000	-81.66830000	-28.28494000
96.19999446	0.00000000	-82.83096000	-26.37795000
96.39999445	0.00000000	-82.08661000	-23.64050000
96.59999444	0.00000000	-80.13041000	-20.57087000
96.79999442	0.00000000	-77.01156000	-17.87647000
96.99999441	0.00000000	-73.15452000	-16.33858000
97.19999440	0.00000000	-69.70964000	-16.33858000
97.39999439	0.00000000	-67.38435000	-17.87647000
97.59999438	0.00000000	-67.00910000	-20.52780000
97.79999436	0.00000000	-68.50394000	-23.22219000
97.99999435	0.00000000	-71.24754000	-25.12918000
98.19999434	0.00000000	-74.73548000	-25.95964000
98.39999433	0.00000000	-78.59251000	-25.59055000
98.59999432	0.00000000	-81.71136000	-24.84621000
98.79999430	0.00000000	-83.62450000	-23.64050000
98.99999429	0.00000000	-83.98745000	-22.15182000
99.19999428	0.00000000	-82.08661000	-20.98917000
99.39999427	0.00000000	-79.01697000	-20.57087000
99.59999426	0.00000000	-75.52288000	-20.57087000
99.79999425	0.00000000	-72.04109000	-20.90305000
99.99999423	0.00000000	-69.70964000	-21.26599000
100.19999422	0.00000000	-68.50394000	-20.85384000
100.39999421	0.00000000	-68.50394000	-20.15256000
100.59999420	0.00000000	-69.70964000	-19.41437000
100.79999419	0.00000000	-72.04109000	-19.45743000
100.99999417	0.00000000	-75.47981000	-20.52780000
101.19999416	0.00000000	-78.54945000	-21.72736000
101.39999415	0.00000000	-80.54871000	-22.93922000
101.59999414	0.00000000	-81.71136000	-24.84621000
101.79999413	0.00000000	-81.71136000	-26.32874000
101.99999411	0.00000000	-80.54871000	-26.70398000
102.19999410	0.00000000	-78.59251000	-25.91043000
102.39999409	0.00000000	-75.89813000	-23.59129000
102.59999408	0.00000000	-73.20374000	-20.57087000
102.79999407	0.00000000	-71.24754000	-17.87647000
102.99999406	0.00000000	-70.08488000	-16.29552000
103.19999404	0.00000000	-70.08488000	-15.87721000
103.39999403	0.00000000	-71.19833000	-16.33858000
103.59999402	0.00000000	-72.77928000	-18.29478000
103.79999401	0.00000000	-74.73548000	-21.72736000
103.99999400	0.00000000	-77.06077000	-25.12918000
104.19999398	0.00000000	-78.92471000	-27.49138000
104.39999397	0.00000000	-79.71210000	-28.24188000
104.59999396	0.00000000	-79.01697000	-27.54060000
104.79999395	0.00000000	-77.85432000	-25.59055000
104.99999394	0.00000000	-76.64246000	-23.26525000
105.19999392	0.00000000	-74.73548000	-20.52780000
105.39999391	0.00000000	-73.24680000	-17.87647000
105.59999390	0.00000000	-72.77928000	-16.33858000
105.79999389	0.00000000	-72.77928000	-16.33858000
105.99999388	0.00000000	-73.20374000	-17.87647000
106.19999387	0.00000000	-74.31717000	-20.52780000
106.39999385	0.00000000	-75.43060000	-23.17298000
106.59999384	0.00000000	-75.89813000	-24.75394000
106.79999383	0.00000000	-76.27337000	-25.17224000
106.99999382	0.00000000	-76.59325000	-24.79700000
107.19999381	0.00000000	-75.85506000	-23.64050000
107.39999379	0.00000000	-74.73548000	-22.10261000
107.59999378	0.00000000	-73.94193000	-20.57087000
107.79999377	0.00000000	-73.20374000	-19.41437000
107.99999376	0.00000000	-73.24680000	-19.03912000
108.19999375	0.00000000	-74.31717000	-19.45743000
108.39999374	0.00000000	-75.47981000	-20.94611000
108.59999372	0.00000000	-76.27337000	-22.84695000
108.79999371	0.00000000	-77.06077000	-24.01575000
108.99999370	0.00000000	-77.38681000	-24.79700000
109.19999369	0.00000000	-77.01156000	-24.75394000
109.39999368	0.00000000	-75.89813000	-23.59129000
109.59999366	0.00000000	-74.73548000	-21.72736000
109.79999365	0.00000000	-73.94193000	-19.82652000
109.99999364	0.00000000	-73.15452000	-19.03912000
110.19999363	0.00000000	-72.82849000	-18.98991000
110.39999362	0.00000000	-73.20374000	-19.41437000
110.59999360	0.00000000	-74.36023000	-20.57087000
110.79999359	0.00000000	-75.85506000	-22.10261000
110.99999358	0.00000000	-77.01156000	-23.64050000
111.19999357	0.00000000	-77.43602000	-24.79700000
111.39999356	0.00000000	-77.47908000	-25.17224000
111.59999355	0.00000000	-77.43602000	-24.84621000
111.79999353	0.00000000	-77.01156000	-24.05881000
111.99999352	0.00000000	-75.89813000	-23.26525000
112.19999351	0.00000000	-74.78469000	-22.10261000
112.39999350	0.00000000	-74.31717000	-20.94611000
112.59999349	0.00000000	-73.94193000	-20.15256000
112.79999347	0.00000000	-73.57283000	-19.41437000
112.99999346	0.00000000	-73.98499000	-19.45743000
113.19999345	0.00000000	-74.69241000	-20.52780000
113.39999344	0.00000000	-75.47981000	-21.64124000
113.59999343	0.00000000	-75.85506000	-22.05955000
113.79999341	0.00000000	-75.89813000	-22.10261000
113.99999340	0.00000000	-75.89813000	-22.10261000
114.19999339	0.00000000	-75.89813000	-22.10261000
114.39999338	0.00000000	-75.85506000	-22.10261000
114.59999337	0.00000000	-75.47981000	-22.14567000
114.79999336	0.00000000	-74.73548000	-22.52091000
114.99999334	0.00000000	-74.36023000	-23.26525000
115.19999333	0.00000000	-74.36023000	-23.64050000
115.39999332	0.00000000	-74.73548000	-23.64050000
115.59999331	0.00000000	-75.43060000	-23.26525000
115.79999330	0.00000000	-75.47981000	-22.47785000
115.99999328	0.00000000	-75.15379000	-21.72736000
116.19999327	0.00000000	-75.52288000	-20.90305000
116.39999326	0.00000000	-75.85506000	-20.19562000
116.59999325	0.00000000	-75.89813000	-19.78346000
116.79999324	0.00000000	-75.89813000	-20.15256000
116.99999322	0.00000000	-75.85506000	-20.52780000
117.19999321	0.00000000	-75.47981000	-20.94611000
117.39999320	0.00000000	-74.69241000	-21.72736000
117.59999319	0.00000000	-73.94193000	-22.47785000
117.79999318	0.00000000	-73.15452000	-23.26525000
117.99999317	0.00000000	-72.77928000	-23.64050000
118.19999315	0.00000000	-72.77928000	-23.64050000
118.39999314	0.00000000	-73.15452000	-23.26525000
118.59999313	0.00000000	-73.94193000	-22.52091000
118.79999312	0.00000000	-74.73548000	-22.10261000
118.99999311	0.00000000	-75.89813000	-21.68430000
119.19999309	0.00000000	-76.96850000	-20.94611000
119.39999308	0.00000000	-77.06077000	-20.57087000
119.59999307	0.00000000	-76.69167000	-20.52780000
119.79999306	0.00000000	-76.64246000	-20.52780000
119.99999305	0.00000000	-75.80585000	-20.52780000
120.19999303	0.00000000	-74.36023000	-20.57087000
120.39999302	0.00000000	-73.20374000	-20.94611000
120.59999301	0.00000000	-72.77928000	-21.72736000
120.79999300	0.00000000	-72.73621000	-22.47785000
120.99999299	0.00000000	-72.77928000	-23.26525000
121.19999298	0.00000000	-73.20374000	-23.64050000
121.39999296	0.00000000	-74.36023000	-23.64050000
121.59999295	0.00000000	-75.85506000	-23.26525000
121.79999294	0.00000000	-77.06077000	-22.52091000
121.99999293	0.00000000	-77.81126000	-22.10261000
122.19999292	0.00000000	-78.22342000	-21.68430000
122.39999290	0.00000000	-77.81126000	-20.94611000
122.59999289	0.00000000	-77.06077000	-20.57087000
122.79999288	0.00000000	-75.89813000	-20.52780000
122.99999287	0.00000000	-74.73548000	-20.52780000
123.19999286	0.00000000	-73.94193000	-20.52780000
123.39999284	0.00000000	-73.15452000	-20.57087000
123.59999283	0.00000000	-72.77928000	-20.94611000
123.79999282	0.00000000	-72.77928000	-21.72736000
123.99999281	0.00000000	-73.15452000	-22.43479000
124.19999280	0.00000000	-73.89886000	-22.89001000
124.39999279	0.00000000	-74.31717000	-22.89616000
124.59999277	0.00000000	-74.73548000	-23.26525000
124.79999276	0.00000000	-75.52288000	-23.21604000
124.99999275	0.00000000	-76.27337000	-22.47785000
125.19999274	0.00000000	-77.01156000	-21.72736000
125.39999273	0.00000000	-77.01156000	-20.90305000
125.59999271	0.00000000	-76.31644000	-20.19562000
125.79999270	0.00000000	-75.89813000	-19.78346000
125.99999269	0.00000000	-75.43060000	-20.15256000
126.19999268	0.00000000	-74.31717000	-20.48474000
126.39999267	0.00000000	-73.20374000	-20.52780000
126.59999265	0.00000000	-72.77928000	-20.57087000
126.79999264	0.00000000	-72.77928000	-20.94611000
126.99999263	0.00000000	-73.15452000	-21.68430000
127.19999262	0.00000000	-73.94193000	-22.05955000
127.39999261	0.00000000	-74.73548000	-22.10261000
127.59999260	0.00000000	-75.89813000	-22.10261000
127.79999258	0.00000000	-77.01156000	-22.05955000
127.99999257	0.00000000	-77.38681000	-21.72736000
128.19999256	0.00000000	-77.01156000	-21.32136000
128.39999255	0.00000000	-75.89813000	-21.30905000
128.59999254	0.00000000	-74.73548000	-20.90305000
128.79999252	0.00000000	-73.94193000	-20.57087000
128.99999251	0.00000000	-73.15452000	-20.57087000
129.19999250	0.00000000	-72.77928000	-20.94611000
129.39999249	0.00000000	-72.77928000	-21.68430000
129.59999248	0.00000000	-73.20374000	-22.05955000
129.79999246	0.00000000	-74.31717000	-22.10261000
129.99999245	0.00000000	-75.47981000	-22.10261000
130.19999244	0.00000000	-76.27337000	-22.10261000
130.39999243	0.00000000	-77.01156000	-22.05955000
130.59999242	0.00000000	-77.01156000	-21.68430000
130.79999241	0.00000000	-76.27337000	-20.94611000
130.99999239	0.00000000	-75.52288000	-20.62008000
131.19999238	0.00000000	-74.69241000	-20.90305000
131.39999237	0.00000000	-73.94193000	-21.30905000
131.59999236	0.00000000	-73.20374000	-21.32136000
131.79999235	0.00000000	-73.20374000	-21.72736000
131.99999233	0.00000000	-73.94193000	-22.10261000
132.19999232	0.00000000	-74.69241000	-22.52091000
132.39999231	0.00000000	-75.47981000	-23.21604000
132.59999230	0.00000000	-75.85506000	-23.21604000
132.79999229	0.00000000	-75.89813000	-22.47785000
132.99999227	0.00000000	-75.85506000	-21.72736000
133.19999226	0.00000000	-75.47981000	-20.90305000
133.39999225	0.00000000	-74.73548000	-20.19562000
133.59999224	0.00000000	-74.36023000	-19.78346000
133.79999223	0.00000000	-74.31717000	-20.15256000
133.99999222	0.00000000	-74.31717000	-20.52780000
134.19999220	0.00000000	-74.31717000	-20.94611000
134.39999219	0.00000000	-74.31717000	-21.68430000
134.59999218	0.00000000	-74.31717000	-22.10261000
134.79999217	0.00000000	-74.31717000	-22.52091000
134.99999216	0.00000000	-74.31717000	-23.26525000
135.19999214	0.00000000	-74.31717000	-23.59129000
135.39999213	0.00000000	-74.36023000	-23.26525000
135.59999212	0.00000000	-74.69241000	-22.47785000
135.79999211	0.00000000	-75.06151000	-21.72736000
135.99999210	0.00000000	-74.73548000	-20.90305000
136.19999208	0.00000000	-74.78469000	-20.19562000
136.39999207	0.00000000	-75.47981000	-19.78346000
136.59999206	0.00000000	-75.85506000	-20.15256000
136.79999205	0.00000000	-75.89813000	-20.48474000
136.99999204	0.00000000	-75.85506000	-20.57087000
137.19999203	0.00000000	-75.47981000	-20.94611000
137.39999201	0.00000000	-74.69241000	-21.72736000
137.59999200	0.00000000	-73.94193000	-22.47785000
137.79999199	0.00000000	-73.15452000	-23.26525000
137.99999198	0.00000000	-72.82849000	-23.64050000
138.19999197	0.00000000	-73.15452000	-23.68356000
138.39999195	0.00000000	-73.94193000	-23.68356000
138.59999194	0.00000000	-74.64935000	-23.64050000
138.79999193	0.00000000	-75.10458000	-23.26525000
138.99999192	0.00000000	-75.11072000	-22.47785000
139.19999191	0.00000000	-75.52288000	-21.72736000
139.39999189	0.00000000	-75.85506000	-20.94611000
139.59999188	0.00000000	-75.85506000	-20.57087000
139.79999187	0.00000000	-75.47981000	-20.52780000
139.99999186	0.00000000	-74.73548000	-20.52780000
140.19999185	0.00000000	-74.31717000	-20.57087000
140.39999184	0.00000000	-73.89886000	-20.94611000
140.59999182	0.00000000	-73.20374000	-21.72736000
140.79999181	0.00000000	-73.20374000	-22.47785000
140.99999180	0.00000000	-73.89886000	-23.26525000
141.19999179	0.00000000	-74.31717000	-23.59129000
141.39999178	0.00000000	-74.69241000	-23.26525000
141.59999176	0.00000000	-75.10458000	-22.47785000
141.79999175	0.00000000	-75.06767000	-21.72736000
141.99999174	0.00000000	-75.10458000	-20.90305000
142.19999173	0.00000000	-74.69241000	-20.15256000
142.39999172	0.00000000	-74.36023000	-19.36516000
142.59999170	0.00000000	-74.31717000	-19.03912000
142.79999169	0.00000000	-74.31717000	-19.36516000
142.99999168	0.00000000	-74.31717000	-20.15256000
143.19999167	0.00000000	-74.36023000	-20.94611000
143.39999166	0.00000000	-74.69241000	-22.10261000
143.59999165	0.00000000	-75.10458000	-23.21604000
143.79999163	0.00000000	-75.06767000	-23.64050000
143.99999162	0.00000000	-75.10458000	-23.64050000
144.19999161	0.00000000	-74.69241000	-23.21604000
144.39999160	0.00000000	-74.36023000	-22.10261000
144.59999159	0.00000000	-74.31717000	-20.98917000
144.79999157	0.00000000	-74.31717000	-20.52780000
144.99999156	0.00000000	-74.31717000	-20.15256000
145.19999155	0.00000000	-74.31717000	-19.78346000
145.39999154	0.00000000	-74.31717000	-20.15256000
145.59999153	0.00000000	-74.31717000	-20.52780000
145.79999151	0.00000000	-74.36023000	-20.94611000
145.99999150	0.00000000	-74.69241000	-21.68430000
146.19999149	0.00000000	-75.06151000	-22.05955000
146.39999148	0.00000000	-74.69241000	-22.10261000
146.59999147	0.00000000	-74.36023000	-22.10261000
146.79999146	0.00000000	-74.31717000	-22.10261000
146.99999144	0.00000000	-74.31717000	-22.10261000
147.19999143	0.00000000	-74.27411000	-22.05955000
147.39999142	0.00000000	-73.98499000	-21.68430000
147.59999141	0.00000000	-73.94807000	-20.94611000
147.79999140	0.00000000	-74.68626000	-20.57087000
147.99999138	0.00000000	-74.69241000	-20.52780000
148.19999137	0.00000000	-74.78469000	-20.57087000
148.39999136	0.00000000	-75.47981000	-20.94611000
148.59999135	0.00000000	-75.80585000	-21.68430000
148.79999134	0.00000000	-75.47981000	-22.05955000
148.99999132	0.00000000	-74.73548000	-22.10261000
149.19999131	0.00000000	-74.36023000	-22.10261000
149.39999130	0.00000000	-74.31717000	-22.10261000
149.59999129	0.00000000	-74.27411000	-22.10261000
149.79999128	0.00000000	-73.89886000	-22.10261000
149.99999127	0.00000000	-73.20374000	-22.10261000
150.19999125	0.00000000	-73.20374000	-22.05955000
150.39999124	0.00000000	-73.89886000	-21.68430000
150.59999123	0.00000000	-74.27411000	-20.94611000
150.79999122	0.00000000	-74.31717000	-20.57087000
150.99999121	0.00000000	-74.31717000	-20.52780000
151.19999119	0.00000000	-74.31717000	-20.52780000
151.39999118	0.00000000	-74.36023000	-20.57087000
151.59999117	0.00000000	-74.69241000	-20.90305000
151.79999116	0.00000000	-75.06151000	-21.30905000
151.99999115	0.00000000	-74.69241000	-21.32136000
152.19999113	0.00000000	-74.36023000	-21.72736000
152.39999112	0.00000000	-74.27411000	-22.05955000
152.59999111	0.00000000	-73.94193000	-22.10261000
152.79999110	0.00000000	-73.52977000	-22.05955000
152.99999109	0.00000000	-73.56668000	-21.72736000
153.19999108	0.00000000	-73.52977000	-21.32136000
153.39999106	0.00000000	-73.94193000	-21.30905000
153.59999105	0.00000000	-74.27411000	-20.90305000
153.79999104	0.00000000	-74.36023000	-20.57087000
153.99999103	0.00000000	-74.73548000	-20.52780000
154.19999102	0.00000000	-75.43060000	-20.52780000
154.39999100	0.00000000	-75.43060000	-20.52780000
154.59999099	0.00000000	-74.73548000	-20.52780000
154.79999098	0.00000000	-74.36023000	-20.52780000
154.99999097	0.00000000	-74.31717000	-20.57087000
155.19999096	0.00000000	-74.27411000	-20.94611000
155.39999094	0.00000000	-73.89886000	-21.68430000
155.59999093	0.00000000	-73.15452000	-22.05955000
155.79999092	0.00000000	-72.77928000	-22.10261000
155.99999091	0.00000000	-72.77928000	-22.05955000
156.19999090	0.00000000	-73.15452000	-21.68430000
156.39999089	0.00000000	-73.89886000	-20.94611000
156.59999087	0.00000000	-74.27411000	-20.57087000
156.79999086	0.00000000	-74.31717000	-20.52780000
156.99999085	0.00000000	-74.36023000	-20.52780000
157.19999084	0.00000000	-74.69241000	-20.52780000
157.39999083	0.00000000	-75.06151000	-20.52780000
157.59999081	0.00000000	-74.69241000	-20.52780000
157.79999080	0.00000000	-74.36023000	-20.57087000
157.99999079	0.00000000	-74.31717000	-20.94611000
158.19999078	0.00000000	-74.27411000	-21.68430000
158.39999077	0.00000000	-73.89886000	-22.05955000
158.59999075	0.00000000	-73.15452000	-22.10261000
158.79999074	0.00000000	-72.77928000	-22.10261000
158.99999073	0.00000000	-72.77928000	-22.05955000
159.19999072	0.00000000	-73.11147000	-21.68430000
159.39999071	0.00000000	-73.52361000	-20.94611000
159.59999070	0.00000000	-73.52977000	-20.57087000
159.79999068	0.00000000	-73.94193000	-20.48474000
159.99999067	0.00000000	-74.27411000	-20.15256000
160.19999066	0.00000000	-74.31717000	-19.78346000
160.39999065	0.00000000	-74.31717000	-20.15256000
160.59999064	0.00000000	-74.31717000	-20.52780000
160.79999062	0.00000000	-74.31717000	-20.94611000
160.99999061	0.00000000	-74.31717000	-21.68430000
161.19999060	0.00000000	-74.31717000	-22.05955000
161.39999059	0.00000000	-74.31717000	-22.10261000
161.59999058	0.00000000	-74.27411000	-22.10261000
161.79999056	0.00000000	-73.89886000	-22.05955000
161.99999055	0.00000000	-73.15452000	-21.68430000
162.19999054	0.00000000	-72.77928000	-20.94611000
162.39999053	0.00000000	-72.77928000	-20.57087000
162.59999052	0.00000000	-73.15452000	-20.52780000
162.79999051	0.00000000	-73.89886000	-20.52780000
162.99999049	0.00000000	-74.27411000	-20.52780000
163.19999048	0.00000000	-74.36023000	-20.52780000
163.39999047	0.00000000	-74.69241000	-20.57087000
163.59999046	0.00000000	-75.06151000	-20.94611000
163.79999045	0.00000000	-74.69241000	-21.64124000
163.99999043	0.00000000	-74.36023000	-21.68430000
164.19999042	0.00000000	-74.31717000	-21.36442000
164.39999041	0.00000000	-74.31717000	-21.72736000
164.59999040	0.00000000	-74.27411000	-22.05955000
164.79999039	0.00000000	-73.89886000	-22.10261000
164.99999037	0.00000000	-73.15452000	-22.10261000
165.19999036	0.00000000	-72.77928000	-22.05955000
165.39999035	0.00000000	-72.73621000	-21.68430000
165.59999034	0.00000000	-72.77928000	-20.94611000
165.79999033	0.00000000	-73.15452000	-20.62008000
165.99999032	0.00000000	-73.89886000	-20.90305000
166.19999030	0.00000000	-74.27411000	-21.26599000
166.39999029	0.00000000	-74.31717000	-20.94611000
166.59999028	0.00000000	-74.31717000	-20.94611000
166.79999027	0.00000000	-74.31717000	-21.26599000
166.99999026	0.00000000	-74.31717000	-20.94611000
167.19999024	0.00000000	-74.31717000	-20.98917000
167.39999023	0.00000000	-74.27411000	-21.64124000
167.59999022	0.00000000	-73.89886000	-21.68430000
167.79999021	0.00000000	-73.15452000	-21.36442000
167.99999020	0.00000000	-72.77928000	-21.68430000
168.19999018	0.00000000	-72.73621000	-21.64124000
168.39999017	0.00000000	-72.77928000	-20.94611000
168.59999016	0.00000000	-73.15452000	-20.57087000
168.79999015	0.00000000	-73.89886000	-20.57087000
168.99999014	0.00000000	-74.27411000	-20.90305000
169.19999013	0.00000000	-74.31717000	-21.26599000
169.39999011	0.00000000	-74.31717000	-20.90305000
169.59999010	0.00000000	-74.31717000	-20.57087000
169.79999009	0.00000000	-74.31717000	-20.52780000
169.99999008	0.00000000	-74.31717000	-20.52780000
170.19999007	0.00000000	-74.31717000	-20.52780000
170.39999005	0.00000000	-74.31717000	-20.52780000
170.59999004	0.00000000	-74.27411000	-20.52780000
170.79999003	0.00000000	-73.89886000	-20.52780000
170.99999002	0.00000000	-73.20374000	-20.52780000
171.19999001	0.00000000	-73.15452000	-20.57087000
171.39998999	0.00000000	-73.48056000	-20.90305000
171.59998998	0.00000000	-73.11147000	-21.26599000
171.79998997	0.00000000	-72.82849000	-20.94611000
171.99998996	0.00000000	-73.15452000	-20.98917000
172.19998995	0.00000000	-73.84965000	-21.64124000
172.39998994	0.00000000	-73.89886000	-21.64124000
172.59998992	0.00000000	-73.57283000	-20.94611000
172.79998991	0.00000000	-73.94193000	-20.57087000
172.99998990	0.00000000	-74.27411000	-20.52780000
173.19998989	0.00000000	-74.31717000	-20.52780000
173.39998988	0.00000000	-74.31717000	-20.52780000
173.59998986	0.00000000	-74.27411000	-20.52780000
173.79998985	0.00000000	-73.94193000	-20.52780000
173.99998984	0.00000000	-73.57283000	-20.52780000
174.19998983	0.00000000	-73.94193000	-20.57087000
174.39998982	0.00000000	-74.22490000	-20.94611000
174.59998980	0.00000000	-73.94193000	-21.68430000
174.79998979	0.00000000	-73.57283000	-22.01033000
174.99998978	0.00000000	-73.94193000	-21.72736000
175.19998977	0.00000000	-74.27411000	-21.36442000
175.39998976	0.00000000	-74.31717000	-21.68430000
175.59998975	0.00000000	-74.31717000	-21.64124000
175.79998973	0.00000000	-74.27411000	-20.94611000
175.99998972	0.00000000	-73.89886000	-20.57087000
176.19998971	0.00000000	-73.20374000	-20.52780000
176.39998970	0.00000000	-73.15452000	-20.52780000
176.59998969	0.00000000	-73.48056000	-20.52780000
176.79998967	0.00000000	-73.11147000	-20.52780000
176.99998966	0.00000000	-72.77928000	-20.52780000
177.19998965	0.00000000	-72.77928000	-20.52780000
177.39998964	0.00000000	-73.15452000	-20.57087000
177.59998963	0.00000000	-73.89886000	-20.94611000
177.79998961	0.00000000	-74.27411000	-21.68430000
177.99998960	0.00000000	-74.27411000	-22.05955000
178.19998959	0.00000000	-73.94193000	-22.10261000
178.39998958	0.00000000	-73.52977000	-22.05955000
178.59998957	0.00000000	-73.52361000	-21.68430000
178.79998956	0.00000000	-73.11147000	-20.94611000
178.99998954	0.00000000	-72.77928000	-20.57087000
179.19998953	0.00000000	-72.73621000	-20.52780000
179.39998952	0.00000000	-72.73621000	-20.52780000
179.59998951	0.00000000	-72.77928000	-20.52780000
179.79998950	0.00000000	-73.15452000	-20.57087000
179.99998948	0.00000000	-73.84965000	-20.94611000
180.19998947	0.00000000	-73.89886000	-21.68430000
180.39998946	0.00000000	-73.57283000	-22.05955000
180.59998945	0.00000000	-73.94193000	-22.10261000
180.79998944	0.00000000	-74.22490000	-22.05955000
180.99998942	0.00000000	-73.94193000	-21.68430000
181.19998941	0.00000000	-73.57283000	-20.94611000
181.39998940	0.00000000	-73.94193000	-20.57087000
181.59998939	0.00000000	-74.22490000	-20.52780000
181.79998938	0.00000000	-73.89886000	-20.52780000
181.99998937	0.00000000	-73.15452000	-20.52780000
182.19998935	0.00000000	-72.77928000	-20.57087000
182.39998934	0.00000000	-72.77928000	-20.94611000
182.59998933	0.00000000	-73.11147000	-21.64124000
182.79998932	0.00000000	-73.48056000	-21.68430000
182.99998931	0.00000000	-73.11147000	-21.36442000
183.19998929	0.00000000	-72.82849000	-21.72736000
183.39998928	0.00000000	-73.11147000	-22.05955000
183.59998927	0.00000000	-73.52361000	-22.05955000
183.79998926	0.00000000	-73.48671000	-21.68430000
183.99998925	0.00000000	-73.52361000	-20.94611000
184.19998923	0.00000000	-73.15452000	-20.57087000
184.39998922	0.00000000	-73.20374000	-20.52780000
184.59998921	0.00000000	-73.89886000	-20.52780000
184.79998920	0.00000000	-74.22490000	-20.52780000
184.99998919	0.00000000	-73.89886000	-20.52780000
185.19998918	0.00000000	-73.15452000	-20.52780000
185.39998916	0.00000000	-72.77928000	-20.52780000
185.59998915	0.00000000	-72.73621000	-20.57087000
185.79998914	0.00000000	-72.73621000	-20.94611000
185.99998913	0.00000000	-72.73621000	-21.68430000
186.19998912	0.00000000	-72.73621000	-22.05955000
186.39998910	0.00000000	-72.73621000	-22.10261000
186.59998909	0.00000000	-72.73621000	-22.10261000
186.79998908	0.00000000	-72.77928000	-22.05955000
186.99998907	0.00000000	-73.15452000	-21.68430000
187.19998906	0.00000000	-73.89886000	-20.94611000
187.39998904	0.00000000	-74.27411000	-20.57087000
187.59998903	0.00000000	-74.31717000	-20.52780000
187.79998902	0.00000000	-74.31717000	-20.52780000
187.99998901	0.00000000	-74.27411000	-20.52780000
188.19998900	0.00000000	-73.89886000	-20.52780000
188.39998899	0.00000000	-73.15452000	-20.52780000
188.59998897	0.00000000	-72.77928000	-20.57087000
188.79998896	0.00000000	-72.73621000	-20.94611000
188.99998895	0.00000000	-72.73621000	-21.68430000
189.19998894	0.00000000	-72.73621000	-22.05955000
189.39998893	0.00000000	-72.73621000	-22.10261000
189.59998891	0.00000000	-72.73621000	-22.05955000
189.79998890	0.00000000	-72.73621000	-21.68430000
189.99998889	0.00000000	-72.77928000	-20.94611000
190.19998888	0.00000000	-73.15452000	-20.57087000
190.39998887	0.00000000	-73.89886000	-20.52780000
190.59998885	0.00000000	-74.27411000	-20.52780000
190.79998884	0.00000000	-74.31717000	-20.52780000
190.99998883	0.00000000	-74.27411000	-20.52780000
191.19998882	0.00000000	-73.89886000	-20.52780000
191.39998881	0.00000000	-73.15452000	-20.52780000
191.59998880	0.00000000	-72.77928000	-20.52780000
191.79998878	0.00000000	-72.73621000	-20.52780000
191.99998877	0.00000000	-72.73621000	-20.57087000
192.19998876	0.00000000	-72.73621000	-20.90305000
192.39998875	0.00000000	-72.73621000	-21.30905000
192.59998874	0.00000000	-72.73621000	-21.32136000
192.79998872	0.00000000	-72.73621000	-21.72736000
192.99998871	0.00000000	-72.77928000	-22.01033000
193.19998870	0.00000000	-73.15452000	-21.68430000
193.39998869	0.00000000	-73.84965000	-20.94611000
193.59998868	0.00000000	-73.84965000	-20.57087000
193.79998866	0.00000000	-73.20374000	-20.52780000
193.99998865	0.00000000	-73.15452000	-20.52780000
194.19998864	0.00000000	-73.48056000	-20.52780000
194.39998863	0.00000000	-73.11147000	-20.52780000
194.59998862	0.00000000	-72.77928000	-20.52780000
194.79998861	0.00000000	-72.73621000	-20.52780000
194.99998859	0.00000000	-72.73621000	-20.52780000
195.19998858	0.00000000	-72.73621000	-20.52780000
195.39998857	0.00000000	-72.73621000	-20.52780000
195.59998856	0.00000000	-72.77928000	-20.52780000
195.79998855	0.00000000	-73.15452000	-20.52780000
195.99998853	0.00000000	-73.84965000	-20.52780000
