Time	Channel A	Channel B	Channel C
(us)	(V)	(mV)	(mV)

-4.49999956	0.00000000	9.52879000	7.89247000
-4.29999957	0.00000000	9.52879000	7.89247000
-4.09999958	0.00000000	9.86097400	7.89247000
-3.89999959	0.00000000	10.23007000	7.84940900
-3.69999960	0.00000000	9.86097400	7.51722400
-3.49999962	0.00000000	9.57800100	7.14812900
-3.29999963	0.00000000	9.86097400	7.51722400
-3.09999964	0.00000000	10.23007000	7.84940900
-2.89999965	0.00000000	9.90403500	7.89247000
-2.69999966	0.00000000	9.90403500	7.89247000
-2.49999968	0.00000000	10.23007000	7.89247000
-2.29999969	0.00000000	9.86097400	7.89247000
-2.09999970	0.00000000	9.52879000	7.89247000
-1.89999971	0.00000000	9.48572700	7.89247000
-1.69999972	0.00000000	9.52879000	7.89247000
-1.49999973	0.00000000	9.90403500	7.89247000
-1.29999975	0.00000000	10.59916000	7.89247000
-1.09999976	0.00000000	10.59916000	7.89247000
-0.89999977	0.00000000	9.90403500	7.89247000
-0.69999978	0.00000000	9.57800100	7.89247000
-0.49999979	0.00000000	9.90403500	7.89247000
-0.29999981	0.31803640	10.59916000	7.89247000
-0.09999982	0.63668800	10.59916000	7.89247000
0.10000017	0.95533960	9.90403500	7.89247000
0.30000016	0.95533960	9.52879000	7.89247000
0.50000015	0.79601380	9.48572700	7.89247000
0.70000013	0.31803640	9.48572700	7.89247000
0.90000012	-0.63668800	9.52879000	7.89247000
1.10000011	-1.59264300	9.90403500	7.89247000
1.30000010	-2.38927200	10.59916000	7.89247000
1.50000009	-2.86724900	10.64838000	7.89247000
1.70000008	-2.38927200	10.32234000	7.89247000
1.90000006	-1.11466500	10.69144000	7.89247000
2.10000005	0.79601380	11.02362000	7.89247000
2.30000004	2.86724900	11.02362000	7.89247000
2.50000003	4.61921700	10.64838000	7.89247000
2.70000002	5.41584600	9.90403500	7.84940900
2.90000000	4.77854300	9.52879000	7.47416300
3.09999999	2.70792300	9.48572700	6.77903500
3.29999998	-0.31803640	9.48572700	6.77903500
3.49999997	-3.82258900	9.48572700	7.47416300
3.69999996	-6.69045300	9.48572700	7.84940900
3.89999994	-7.96444400	9.52879000	7.93553100
4.09999993	-7.32714100	9.90403500	8.31077700
4.29999992	-4.77854300	10.64838000	9.05511800
4.49999991	-0.79601380	10.97441000	9.38115100
4.69999990	3.82258900	10.69144000	9.05511800
4.89999989	7.48646600	10.32234000	8.31077700
5.09999987	9.39837600	10.64838000	7.89247000
5.29999986	8.92039900	10.59916000	7.47416300
5.49999985	6.37180100	9.90403500	6.72982200
5.69999984	1.91129400	9.52879000	6.35457700
5.89999983	-2.86724900	9.48572700	6.35457700
6.09999981	-7.00848900	9.52879000	6.72982200
6.29999980	-9.23905000	9.90403500	7.47416300
6.49999979	-9.23905000	10.64838000	7.84940900
6.69999978	-6.84916400	10.97441000	7.93553100
6.89999977	-3.02657500	10.69144000	8.31077700
7.09999975	1.43331700	10.27928000	9.00590400
7.29999974	5.09719500	10.27313000	9.00590400
7.49999973	7.32714100	9.86097400	8.31077700
7.69999972	7.64579200	9.52879000	7.93553100
7.89999971	6.05315000	9.52879000	7.89247000
8.09999970	3.02657500	9.86097400	7.89247000
8.29999968	-0.15871060	10.23007000	7.89247000
8.49999967	-3.02657500	9.90403500	7.89247000
8.69999966	-4.77854300	9.95324800	7.89247000
8.89999965	-5.09719500	10.59916000	7.89247000
9.09999964	-4.30056600	10.59916000	7.89247000
9.29999962	-2.54859700	9.90403500	7.89247000
9.49999961	-0.47736220	9.57800100	7.89247000
9.69999960	1.11466500	9.86097400	7.89247000
9.89999959	2.22994600	10.23007000	7.89247000
10.09999958	2.54859700	9.86097400	7.89247000
10.29999956	2.22994600	9.52879000	7.89247000
10.49999955	1.27399100	9.48572700	7.89247000
10.69999954	0.47736220	9.52879000	7.89247000
10.89999953	-0.31803640	9.90403500	7.89247000
11.09999952	-0.79601380	10.64838000	7.89247000
11.29999951	-0.95533960	10.97441000	7.89247000
11.49999949	-0.95533960	10.64838000	7.89247000
11.69999948	-0.63668800	9.90403500	7.89247000
11.89999947	-0.31803640	9.52879000	7.89247000
12.09999946	-0.15871060	9.48572700	7.89247000
12.29999945	-0.15871060	9.48572700	7.89247000
12.49999943	-0.15871060	9.52879000	7.89247000
12.69999942	0.00000000	9.86097400	7.89247000
12.89999941	0.00000000	10.27313000	7.89247000
13.09999940	0.00000000	10.27928000	7.89247000
13.29999939	0.00000000	10.64838000	7.89247000
13.49999937	0.00000000	10.64838000	7.89247000
13.69999936	0.00000000	10.32234000	7.89247000
13.89999935	0.00000000	10.64838000	7.89247000
14.09999934	-0.15871060	10.64838000	7.89247000
14.29999933	-0.15871060	10.27928000	7.89247000
14.49999932	-0.15871060	10.27313000	7.89247000
14.69999930	0.00000000	9.90403500	7.89247000
14.89999929	0.00000000	9.90403500	7.89247000
15.09999928	0.00000000	10.23007000	7.89247000
15.29999927	0.00000000	9.86097400	7.89247000
15.49999926	0.00000000	9.52879000	7.89247000
15.69999924	0.00000000	9.48572700	7.89247000
15.89999923	0.00000000	9.48572700	7.89247000
16.09999922	0.00000000	9.52879000	7.84940900
16.29999921	0.00000000	9.90403500	7.51722400
16.49999920	-0.15871060	10.64838000	7.14812900
16.69999919	-0.15871060	11.02362000	7.51722400
16.89999917	-0.15871060	11.06668000	7.84940900
17.09999916	0.00000000	11.10974000	7.89247000
17.29999915	0.00000000	11.48499000	7.89247000
17.49999914	0.00000000	12.18012000	7.89247000
17.69999913	0.00000000	12.18012000	7.89247000
17.89999911	0.00000000	11.44193000	7.89247000
18.09999910	0.00000000	10.64838000	7.89247000
18.29999909	0.00000000	9.44266700	7.89247000
18.49999908	0.00000000	7.90477300	7.89247000
18.69999907	0.00000000	6.36687900	7.89247000
18.89999905	0.00000000	5.25344500	7.89247000
19.09999904	0.00000000	5.25344500	7.89247000
19.29999903	0.00000000	6.45915300	7.89247000
19.49999902	0.00000000	8.83366100	7.89247000
19.69999901	0.00000000	12.69070000	7.89247000
19.89999900	0.00000000	16.87992000	7.89247000
20.09999898	0.00000000	19.99877000	7.89247000
20.29999897	0.00000000	21.53666000	7.89247000
20.49999896	0.00000000	21.06914000	7.89247000
20.69999895	0.00000000	17.90723000	7.89247000
20.89999894	0.00000000	12.05093000	7.89247000
21.09999892	0.00000000	4.32455700	7.89247000
21.29999891	0.00000000	-3.72170300	7.89247000
21.49999890	0.00000000	-9.44881800	7.89247000
21.69999889	0.00000000	-10.98671000	7.89247000
21.89999888	0.00000000	-7.82480200	7.89247000
22.09999886	0.00000000	-0.00615157	7.89247000
22.29999885	0.00000000	11.57726000	7.89247000
22.49999884	0.00000000	24.32333000	7.89247000
22.69999883	0.00000000	35.12549000	7.89247000
22.89999882	0.00000000	41.59080000	7.89247000
23.09999881	0.00000000	41.12328000	7.93553100
23.29999879	-0.15871060	32.98474000	8.31077700
23.49999878	0.00000000	19.02682000	9.05511800
23.69999877	0.00000000	1.58095500	9.43036400
23.89999876	0.00000000	-15.72958000	9.47342500
24.09999875	0.00000000	-28.38337000	9.43036400
24.29999873	0.00000000	-32.57259000	9.05511800
24.49999872	0.00000000	-26.75935000	8.22465500
24.69999871	0.00000000	-12.00787000	7.05585600
24.89999870	0.00000000	8.87672100	5.11195900
25.09999869	0.00000000	31.58218000	3.24803100
25.29999867	0.00000000	50.09842000	2.08538400
25.49999866	0.00000000	59.73794000	2.12844500
25.69999865	0.00000000	58.56914000	3.66633800
25.89999864	0.00000000	46.14911000	6.40378900
26.09999863	0.00000000	25.30143000	9.89173200
26.29999862	0.00000000	0.55364170	13.79183000
26.49999860	0.00000000	-22.57013000	17.23056000
26.69999859	0.00000000	-38.38583000	19.50664000
26.89999858	0.00000000	-43.04257000	19.42052000
27.09999857	0.00000000	-35.73449000	16.30167000
27.29999856	0.00000000	-18.33784000	10.49459000
27.49999854	0.00000000	5.21038300	3.15575800
27.69999853	0.00000000	29.53986000	-4.22613100
27.89999852	0.00000000	48.89272000	-10.35925000
28.09999851	0.00000000	59.36269000	-13.70571000
28.29999850	0.00000000	58.98745000	-12.08169000
28.49999848	0.00000000	47.82234000	-5.16117100
28.69999847	0.00000000	28.93085000	5.29035400
28.89999846	0.00000000	6.87746000	17.27977000
29.09999845	0.00000000	-13.58883000	28.47564000
29.29999844	0.00000000	-27.91584000	36.14665000
29.49999843	0.00000000	-33.04010000	38.41658000
29.69999841	0.00000000	-28.89395000	34.05511000
29.89999840	0.00000000	-17.26132000	23.22835000
30.09999839	0.00000000	-0.65206690	7.80634800
30.29999838	0.00000000	17.53199000	-8.36614100
30.49999837	0.00000000	32.98474000	-21.55512000
30.69999835	0.00000000	42.79650000	-29.22613000
30.89999834	0.00000000	45.50320000	-29.50295000
31.09999833	0.00000000	41.25861000	-21.00148000
31.29999832	0.00000000	30.46875000	-5.62869100
31.49999831	0.00000000	16.18479000	12.54306000
31.69999829	0.00000000	1.85162400	29.95817000
31.89999828	0.00000000	-10.18701000	43.11023000
32.09999827	0.00000000	-17.12598000	49.24950000
32.29999826	0.00000000	-17.95645000	46.91806000
32.49999825	0.00000000	-12.56767000	36.09744000
32.69999824	0.00000000	-2.56520700	19.55585000
32.89999822	0.00000000	9.44266700	0.97194880
33.09999821	0.00000000	21.02608000	-15.66191000
33.29999820	0.00000000	29.53986000	-27.27608000
33.49999819	0.00000000	33.02780000	-31.55143000
33.69999818	0.00000000	31.16388000	-27.65133000
33.89999816	0.00000000	24.64936000	-16.44931000
34.09999815	0.00000000	15.76649000	0.13533460
34.29999814	0.00000000	6.45915300	17.83957000
34.49999813	0.00000000	-1.58710600	32.56643000
34.69999812	0.00000000	-5.81938900	41.48622000
34.89999810	0.00000000	-5.16732200	43.02411000
35.09999809	0.00000000	-0.98425190	36.88484000
35.29999808	0.00000000	5.25344500	24.57554000
35.49999807	0.00000000	12.55536000	9.52263600
35.69999806	0.00000000	19.02067000	-5.16117100
35.89999805	0.00000000	22.13952000	-16.35704000
36.09999803	0.00000000	21.44439000	-21.37672000
36.29999802	0.00000000	17.99951000	-19.46973000
36.49999801	0.00000000	12.60458000	-11.01132000
36.69999800	0.00000000	6.87746000	1.62401600
36.89999799	0.00000000	2.60211600	14.67766000
37.09999797	0.00000000	0.68897630	24.71087000
37.29999796	0.00000000	1.43946800	29.36146000
37.49999795	0.00000000	4.87819900	27.87278000
37.69999794	0.00000000	9.48572700	20.99532000
37.89999793	0.00000000	14.13632000	11.04823000
38.09999791	0.00000000	17.99951000	1.06422200
38.29999790	0.00000000	19.90650000	-6.23154500
38.49999789	0.00000000	19.53125000	-8.92593500
38.69999788	0.00000000	16.83686000	-6.23154500
38.89999787	0.00000000	12.64764000	1.01501000
39.09999786	0.00000000	8.37229300	10.58686000
39.29999784	0.00000000	4.87819900	19.37131000
39.49999783	0.00000000	2.50984200	24.71703000
39.69999782	0.00000000	1.75935000	24.71703000
39.89999781	0.00000000	2.50984200	19.37131000
40.09999780	0.00000000	4.83513700	10.54380000
40.29999778	0.00000000	7.90477300	0.55364170
40.49999777	0.00000000	11.06668000	-7.85556000
40.69999776	0.00000000	14.18553000	-12.03863000
40.89999775	0.00000000	16.87992000	-10.50689000
41.09999774	0.00000000	18.41781000	-3.62942900
41.29999772	0.00000000	18.41781000	6.31151500
41.49999771	0.00000000	16.87992000	16.35089000
41.69999770	0.00000000	14.18553000	24.06496000
41.89999769	0.00000000	11.10974000	27.92200000
42.09999768	0.00000000	8.32308000	26.75935000
42.29999767	0.00000000	5.99163300	20.99532000
42.49999765	0.00000000	4.09079700	12.16781000
42.69999764	0.00000000	3.71555100	2.55290300
42.89999763	0.00000000	4.78592500	-5.11811000
43.09999762	0.00000000	6.32381900	-9.01205700
43.29999761	0.00000000	7.90477300	-8.31692900
43.49999759	0.00000000	9.48572700	-4.14000900
43.69999758	0.00000000	11.06668000	2.08538400
43.89999757	0.00000000	12.60458000	9.38115100
44.09999756	0.00000000	13.81028000	15.93258000
44.29999755	0.00000000	14.56078000	19.78961000
44.49999753	0.00000000	14.97293000	20.62008000
44.69999752	0.00000000	14.60384000	18.35015000
44.89999751	0.00000000	14.27165000	14.16708000
45.09999750	0.00000000	14.18553000	9.51648500
45.29999749	0.00000000	13.71801000	5.24729300
45.49999748	0.00000000	12.13706000	2.12844500
45.69999746	0.00000000	9.44266700	0.55364170
45.89999745	0.00000000	6.32381900	0.59670270
46.09999744	0.00000000	3.25418300	2.46063000
46.29999743	0.00000000	0.92888770	5.51796200
46.49999742	0.00000000	0.22760820	8.21850300
46.69999740	0.00000000	1.43946800	10.62992000
46.89999739	0.00000000	5.33956700	12.49385000
47.09999738	0.00000000	11.10974000	13.28125000
47.29999737	0.00000000	17.29823000	12.53691000
47.49999736	0.00000000	22.69316000	11.00517000
47.69999734	0.00000000	25.76895000	9.00590400
47.89999733	0.00000000	25.71973000	6.31151500
48.09999732	0.00000000	22.18258000	3.66633800
48.29999731	0.00000000	15.25591000	2.12844500
48.49999730	0.00000000	6.79133800	2.12844500
48.69999729	0.00000000	-0.93503930	3.61712600
48.89999727	0.00000000	-6.37303100	5.98548200
49.09999726	0.00000000	-8.24311000	8.72908400
49.29999725	0.00000000	-5.91166300	12.16166000
49.49999724	0.00000000	0.68897630	14.81299000
49.69999723	0.00000000	9.90403500	15.60654000
49.89999721	0.00000000	19.53125000	14.81299000
50.09999720	0.00000000	26.83932000	12.07554000
50.29999719	0.00000000	29.95817000	7.89247000
50.49999718	0.00000000	28.42027000	3.66633800
50.69999717	0.00000000	22.65010000	0.55364170
50.89999715	0.00000000	14.18553000	-0.97810030
51.09999714	0.00000000	5.29650500	-0.55979330
51.29999713	0.00000000	-2.00541300	2.12844500
51.49999712	0.00000000	-5.81938900	6.35457700
51.69999711	0.00000000	-4.70595500	10.95595000
51.89999710	0.00000000	0.59670270	14.81299000
52.09999708	0.00000000	7.90477300	16.71998000
52.29999707	0.00000000	15.25591000	16.39395000
52.49999706	0.00000000	21.02608000	14.07480000
52.69999705	0.00000000	23.72047000	10.62992000
52.89999704	0.00000000	22.55782000	6.72982200
53.09999702	0.00000000	17.95029000	3.33415300
53.29999701	0.00000000	11.06668000	1.39025600
53.49999700	0.00000000	4.18307100	1.75319900
53.69999699	0.00000000	-0.42445860	3.61712600
53.89999698	0.00000000	-1.63016700	6.36072800
54.09999696	0.00000000	0.64591530	9.38115100
54.29999695	0.00000000	5.25344500	11.65723000
54.49999694	0.00000000	11.06668000	12.07554000
54.69999693	0.00000000	16.79380000	10.96211000
54.89999692	0.00000000	20.60162000	9.05511800
55.09999691	0.00000000	21.02608000	6.72982200
55.29999689	0.00000000	18.37475000	4.87204700
55.49999688	0.00000000	13.76107000	4.12770700
55.69999687	0.00000000	8.37229300	5.29035400
55.89999686	0.00000000	3.75861200	7.93553100
56.09999685	0.00000000	1.06422200	11.00517000
56.29999683	0.00000000	1.06422200	13.65650000
56.49999682	0.00000000	3.71555100	14.72687000
56.69999681	0.00000000	7.94783400	13.23819000
56.89999680	0.00000000	12.55536000	9.79945900
57.09999679	0.00000000	16.41855000	5.93626900
57.29999677	0.00000000	18.37475000	2.04232300
57.49999676	0.00000000	18.37475000	-0.97810030
57.69999675	0.00000000	16.46161000	-2.09153500
57.89999674	0.00000000	13.02288000	-0.51673230
58.09999673	0.00000000	9.57800100	3.75861200
58.29999672	0.00000000	6.83439900	9.89173200
58.49999670	0.00000000	5.29650500	16.35089000
58.69999669	0.00000000	5.29650500	20.57702000
58.89999668	0.00000000	6.79133800	21.37057000
59.09999667	0.00000000	9.06742000	19.04527000
59.29999666	0.00000000	11.02362000	13.61343000
59.49999664	0.00000000	12.55536000	6.36072800
59.69999663	0.00000000	13.34276000	-0.60285430
59.89999662	0.00000000	12.97982000	-5.57947800
60.09999661	0.00000000	12.22933000	-7.48031400
60.29999660	0.00000000	11.06668000	-5.16117100
60.49999658	0.00000000	9.95324800	0.59670270
60.69999657	0.00000000	9.52879000	8.31077700
60.89999656	0.00000000	9.52879000	16.35089000
61.09999655	0.00000000	9.95324800	22.10876000
61.29999654	0.00000000	11.06668000	24.06496000
61.49999653	0.00000000	12.18012000	22.15797000
61.69999651	0.00000000	12.55536000	16.76919000
61.89999650	0.00000000	12.18012000	9.42421200
62.09999649	0.00000000	11.02362000	1.71013800
62.29999648	0.00000000	9.48572700	-4.83513700
62.49999647	0.00000000	7.94783400	-8.27386800
62.69999645	0.00000000	6.83439900	-7.89862200
62.89999644	0.00000000	6.79133800	-3.67249000
63.09999643	0.00000000	7.57258800	3.24803100
63.29999642	0.00000000	8.79060000	10.96211000
63.49999641	0.00000000	11.10974000	17.88263000
63.69999639	0.00000000	13.71801000	22.10876000
63.89999638	0.00000000	15.29897000	22.57628000
64.09999637	0.00000000	15.67421000	19.92495000
64.29999636	0.00000000	14.92372000	15.28051000
64.49999635	0.00000000	12.97982000	9.47342500
64.69999634	0.00000000	10.64838000	3.66633800
64.89999632	0.00000000	7.94783400	-0.97810030
65.09999631	0.00000000	5.71481200	-3.67249000
65.29999630	0.00000000	5.29650500	-3.71555100
65.49999629	0.00000000	6.41609200	-1.44562000
65.69999628	0.00000000	8.32308000	2.04232300
65.89999626	0.00000000	10.64838000	6.31151500
66.09999625	0.00000000	12.55536000	10.53765000
66.29999624	0.00000000	13.71801000	13.69956000
66.49999623	0.00000000	13.71801000	15.69882000
66.69999622	0.00000000	12.55536000	16.81225000
66.89999620	0.00000000	10.64838000	16.43701000
67.09999619	0.00000000	8.37229300	14.53617000
67.29999618	0.00000000	6.87746000	12.21087000
67.49999617	0.00000000	6.87746000	9.42421200
67.69999616	0.00000000	8.41535400	6.31151500
67.89999615	0.00000000	11.06668000	3.19881900
68.09999613	0.00000000	13.76107000	0.51058070
68.29999612	0.00000000	15.67421000	-1.06422200
68.49999611	0.00000000	16.41855000	-1.39640700
68.69999610	0.00000000	15.25591000	-0.18454720
68.89999609	0.00000000	12.55536000	3.29109200
69.09999607	0.00000000	9.06742000	7.89247000
69.29999606	0.00000000	5.21038300	12.58612000
69.49999605	0.00000000	2.13459600	16.81225000
69.69999604	0.00000000	0.64591530	19.50664000
69.89999603	0.00000000	1.43946800	19.88189000
70.09999601	0.00000000	4.92125900	17.93184000
70.29999600	0.00000000	9.95324800	13.69956000
70.49999599	0.00000000	15.71727000	8.31077700
70.69999598	0.00000000	20.69390000	3.24803100
70.89999597	0.00000000	23.02534000	-0.97810030
71.09999596	0.00000000	22.65010000	-3.25418300
71.29999594	0.00000000	19.48819000	-2.51599400
71.49999593	0.00000000	13.71801000	0.51058070
71.69999592	0.00000000	6.83439900	4.77977300
71.89999591	0.00000000	1.02116100	9.38115100
72.09999590	0.00000000	-2.51599400	13.23819000
72.29999588	0.00000000	-3.63558100	15.18824000
72.49999587	0.00000000	-1.67938000	15.23130000
72.69999586	0.00000000	3.29724400	13.69956000
72.89999585	0.00000000	9.48572700	11.00517000
73.09999584	0.00000000	15.71727000	7.98474400
73.29999582	0.00000000	21.06914000	5.66560000
73.49999581	0.00000000	23.76353000	4.87204700
73.69999580	0.00000000	23.02534000	5.19808000
73.89999579	0.00000000	19.58046000	6.36072800
74.09999578	0.00000000	14.18553000	7.84940900
74.29999577	0.00000000	8.41535400	8.96284400
74.49999575	0.00000000	3.75861200	8.96284400
74.69999574	0.00000000	1.02116100	7.80019600
74.89999573	0.00000000	0.59670270	5.93626900
75.09999572	0.00000000	2.13459600	3.99237200
75.29999571	0.00000000	5.21038300	2.91584600
75.49999569	0.00000000	9.06742000	2.92199800
75.69999568	0.00000000	12.55536000	4.91510800
75.89999567	0.00000000	15.25591000	8.31077700
76.09999566	0.00000000	16.46161000	12.16166000
76.29999565	0.00000000	16.09252000	15.23130000
76.49999563	0.00000000	14.97293000	16.81225000
76.69999562	0.00000000	13.02288000	16.71998000
76.89999561	0.00000000	11.15896000	14.39468000
77.09999560	0.00000000	9.95324800	9.75639700
77.29999559	0.00000000	9.52879000	4.41067900
77.49999558	0.00000000	9.48572700	-0.64591530
77.69999556	0.00000000	9.48572700	-4.04773600
77.89999555	0.00000000	9.48572700	-4.82898600
78.09999554	0.00000000	9.44266700	-2.46678100
78.29999553	0.00000000	9.06742000	2.50369100
78.49999552	0.00000000	8.32308000	9.05511800
78.69999550	0.00000000	7.99704600	15.18824000
78.89999549	0.00000000	8.37229300	19.50664000
79.09999548	0.00000000	9.57800100	21.41363000
79.29999547	0.00000000	11.48499000	20.66314000
79.49999546	0.00000000	13.76107000	17.14444000
79.69999544	0.00000000	15.29897000	11.79257000
79.89999543	0.00000000	15.71727000	5.61638700
80.09999542	0.00000000	15.29897000	0.59670270
80.29999541	0.00000000	13.71801000	-2.55905500
80.49999540	0.00000000	11.06668000	-3.71555100
80.69999539	0.00000000	8.32308000	-2.55905500
80.89999537	0.00000000	5.99163300	0.51058070
81.09999536	0.00000000	4.13385800	4.73671200
81.29999535	0.00000000	4.13385800	9.00590400
81.49999534	0.00000000	6.04084600	12.53691000
81.69999533	0.00000000	8.69832600	15.27436000
81.89999531	0.00000000	11.85408000	16.81225000
82.09999530	0.00000000	14.51156000	16.81225000
82.29999529	0.00000000	16.46161000	15.27436000
82.49999528	0.00000000	16.79380000	12.58612000
82.69999527	0.00000000	15.34203000	9.47342500
82.89999525	0.00000000	13.02288000	6.31151500
83.09999524	0.00000000	10.69144000	3.19881900
83.29999523	0.00000000	8.37229300	0.51058070
83.49999522	0.00000000	6.87746000	-1.02116100
83.69999521	0.00000000	6.83439900	-1.02116100
83.89999520	0.00000000	7.90477300	0.55364170
84.09999518	0.00000000	9.06742000	3.62327700
84.29999517	0.00000000	9.86097400	7.51722400
84.49999516	0.00000000	10.69144000	11.42347000
84.69999515	0.00000000	11.39887000	15.27436000
84.89999514	0.00000000	11.81102000	17.92569000
85.09999512	0.00000000	11.44193000	18.35015000
85.29999511	0.00000000	11.10974000	16.76919000
85.49999510	0.00000000	11.06668000	13.28125000
85.69999509	0.00000000	11.10974000	8.26771600
85.89999508	0.00000000	11.48499000	3.29109200
86.09999506	0.00000000	12.22933000	-0.60285430
86.29999505	0.00000000	12.55536000	-2.50984200
86.49999504	0.00000000	12.18012000	-2.14074800
86.69999503	0.00000000	11.02362000	0.55364170
86.89999502	0.00000000	9.52879000	4.77977300
87.09999501	0.00000000	8.37229300	9.43036400
87.29999499	0.00000000	7.94783400	13.69956000
87.49999498	0.00000000	7.94783400	16.76919000
87.69999497	0.00000000	8.37229300	17.88263000
87.89999496	0.00000000	9.52879000	16.35089000
88.09999495	0.00000000	11.06668000	12.53691000
88.29999493	0.00000000	12.60458000	7.93553100
88.49999492	0.00000000	13.76107000	3.66633800
88.69999491	0.00000000	14.13632000	0.55364170
88.89999490	0.00000000	13.76107000	-0.93503930
89.09999489	0.00000000	12.60458000	-0.14148620
89.29999487	0.00000000	11.06668000	3.29109200
89.49999486	0.00000000	9.52879000	7.84940900
89.69999485	0.00000000	8.37229300	12.11860000
89.89999484	0.00000000	7.94783400	15.18824000
90.09999483	0.00000000	7.94783400	16.34473000
90.29999482	0.00000000	8.37229300	15.18824000
90.49999480	0.00000000	9.52879000	12.11860000
90.69999479	0.00000000	11.02362000	7.89247000
90.89999478	0.00000000	12.18012000	3.70939900
91.09999477	0.00000000	12.60458000	1.01501000
91.29999476	0.00000000	12.64764000	0.63976370
91.49999474	0.00000000	12.60458000	2.54675200
91.69999473	0.00000000	12.22933000	6.35457700
91.89999472	0.00000000	11.44193000	10.58686000
92.09999471	0.00000000	10.73450000	14.07480000
92.29999470	0.00000000	10.32234000	16.35089000
92.49999468	0.00000000	10.64838000	16.30167000
92.69999467	0.00000000	10.59916000	13.65650000
92.89999466	0.00000000	9.86097400	9.43036400
93.09999465	0.00000000	9.11048200	4.82898600
93.29999464	0.00000000	8.32308000	1.02116100
93.49999463	0.00000000	7.94783400	-0.51673230
93.69999461	0.00000000	7.94783400	0.55364170
93.89999460	0.00000000	8.37229300	3.24803100
94.09999459	0.00000000	9.57800100	6.72982200
94.29999458	0.00000000	11.44193000	10.58686000
94.49999457	0.00000000	13.39198000	13.65650000
94.69999455	0.00000000	14.56078000	15.18824000
94.89999454	0.00000000	15.34203000	14.76993000
95.09999453	0.00000000	15.25591000	12.07554000
95.29999452	0.00000000	13.71801000	7.89247000
95.49999451	0.00000000	11.02362000	3.70939900
95.69999449	0.00000000	7.94783400	1.01501000
95.89999448	0.00000000	5.25344500	0.59670270
96.09999447	0.00000000	3.71555100	2.08538400
96.29999446	0.00000000	3.71555100	4.82283400
96.49999445	0.00000000	5.25344500	8.26771600
96.69999444	0.00000000	7.94783400	11.70029000
96.89999442	0.00000000	11.06668000	13.61343000
97.09999441	0.00000000	14.18553000	13.65650000
97.29999440	0.00000000	16.87992000	12.16781000
97.49999439	0.00000000	18.41781000	9.84867000
97.69999438	0.00000000	18.37475000	7.51722400
97.89999436	0.00000000	16.46161000	5.19808000
98.09999435	0.00000000	13.02288000	3.70939900
98.29999434	0.00000000	9.52879000	3.66633800
98.49999433	0.00000000	6.36687900	4.77977300
98.69999432	0.00000000	3.71555100	6.31151500
98.89999430	0.00000000	2.55290300	7.84940900
99.09999429	0.00000000	3.29724400	9.00590400
99.29999428	0.00000000	5.25344500	9.43036400
99.49999427	0.00000000	8.37229300	9.47342500
99.69999426	0.00000000	12.18012000	9.47342500
99.89999425	0.00000000	15.29897000	9.47342500
100.09999423	0.00000000	17.25517000	9.47342500
100.29999422	0.00000000	18.04257000	9.47342500
100.49999421	0.00000000	17.25517000	9.47342500
100.69999420	0.00000000	15.34203000	9.47342500
100.89999419	0.00000000	12.60458000	9.43036400
101.09999417	0.00000000	9.52879000	9.00590400
101.29999416	0.00000000	6.83439900	7.84940900
101.49999415	0.00000000	5.25344500	6.31151500
101.69999414	0.00000000	4.83513700	4.77977300
101.89999413	0.00000000	5.21038300	3.66633800
102.09999411	0.00000000	6.41609200	3.70939900
102.29999410	0.00000000	8.32308000	5.19808000
102.49999409	0.00000000	10.64838000	7.51722400
102.69999408	0.00000000	12.60458000	9.89173200
102.89999407	0.00000000	14.18553000	12.53691000
103.09999406	0.00000000	15.29897000	14.39468000
103.29999404	0.00000000	15.29897000	14.07480000
103.49999403	0.00000000	14.13632000	12.53691000
103.69999402	0.00000000	12.22933000	10.16855000
103.89999401	0.00000000	9.95324800	6.72982200
104.09999400	0.00000000	8.37229300	3.70939900
104.29999398	0.00000000	7.52952700	2.12844500
104.49999397	0.00000000	6.79133800	2.08538400
104.69999396	0.00000000	6.83439900	3.24803100
104.89999395	0.00000000	7.94783400	5.19808000
105.09999394	0.00000000	9.48572700	7.89247000
105.29999392	0.00000000	11.02362000	10.58686000
105.49999391	0.00000000	12.18012000	12.49385000
105.69999390	0.00000000	12.55536000	13.23819000
105.89999389	0.00000000	12.22933000	12.11860000
106.09999388	0.00000000	11.44193000	9.89173200
106.29999387	0.00000000	10.69144000	7.93553100
106.49999385	0.00000000	9.90403500	6.31151500
106.69999384	0.00000000	9.52879000	4.82283400
106.89999383	0.00000000	9.52879000	4.08464600
107.09999382	0.00000000	9.90403500	4.87204700
107.29999381	0.00000000	10.69144000	6.68676100
107.49999379	0.00000000	11.44193000	8.63681000
107.69999378	0.00000000	12.22933000	9.75639700
107.89999377	0.00000000	12.55536000	10.21161000
108.09999376	0.00000000	12.18012000	9.79945900
108.29999375	0.00000000	11.06668000	9.05511800
108.49999374	0.00000000	9.90403500	7.84940900
108.69999372	0.00000000	9.11048200	6.36072800
108.89999371	0.00000000	8.32308000	5.24729300
109.09999370	0.00000000	7.99704600	5.24729300
109.29999369	0.00000000	8.37229300	6.36072800
109.49999368	0.00000000	9.52879000	7.89247000
109.69999366	0.00000000	11.06668000	9.42421200
109.89999365	0.00000000	12.60458000	10.58686000
110.09999364	0.00000000	13.71801000	10.95595000
110.29999363	0.00000000	13.71801000	10.58686000
110.49999362	0.00000000	12.64764000	9.42421200
110.69999360	0.00000000	11.48499000	7.93553100
110.89999359	0.00000000	10.64838000	6.72982200
111.09999358	0.00000000	9.48572700	5.93626900
111.29999357	0.00000000	8.37229300	5.19808000
111.49999356	0.00000000	7.99704600	5.19808000
111.69999355	0.00000000	8.32308000	5.93626900
111.89999353	0.00000000	9.11048200	6.68676100
112.09999352	0.00000000	9.90403500	7.51722400
112.29999351	0.00000000	11.06668000	8.26771600
112.49999350	0.00000000	12.18012000	9.05511800
112.69999349	0.00000000	12.60458000	9.43036400
112.89999347	0.00000000	12.60458000	9.43036400
113.09999346	0.00000000	12.22933000	9.05511800
113.29999345	0.00000000	11.44193000	8.26771600
113.49999344	0.00000000	10.69144000	7.56028500
113.69999343	0.00000000	9.90403500	7.14812900
113.89999341	0.00000000	9.52879000	7.51722400
114.09999340	0.00000000	9.48572700	7.84940900
114.29999339	0.00000000	9.52879000	7.89247000
114.49999338	0.00000000	9.90403500	7.84940900
114.69999337	0.00000000	10.64838000	7.47416300
114.89999336	0.00000000	11.02362000	6.72982200
115.09999334	0.00000000	11.10974000	6.35457700
115.29999333	0.00000000	11.44193000	6.35457700
115.49999332	0.00000000	11.81102000	6.72982200
115.69999331	0.00000000	11.44193000	7.51722400
115.89999330	0.00000000	11.06668000	8.26771600
116.09999328	0.00000000	10.64838000	9.05511800
116.29999327	0.00000000	9.86097400	9.43036400
116.49999326	0.00000000	9.15354300	9.47342500
116.69999325	0.00000000	8.74138700	9.47342500
116.89999324	0.00000000	9.15354300	9.43036400
117.09999322	0.00000000	9.86097400	9.00590400
117.29999321	0.00000000	10.69144000	7.89247000
117.49999320	0.00000000	11.44193000	6.77903500
117.69999319	0.00000000	12.22933000	6.35457700
117.89999318	0.00000000	12.60458000	6.31151500
118.09999317	0.00000000	12.64764000	6.31151500
118.29999315	0.00000000	12.60458000	6.35457700
118.49999314	0.00000000	12.18012000	6.77903500
118.69999313	0.00000000	11.02362000	7.84940900
118.89999312	0.00000000	9.52879000	8.63681000
119.09999311	0.00000000	8.37229300	8.68602300
119.29999309	0.00000000	7.94783400	9.09817800
119.49999308	0.00000000	7.90477300	9.43036400
119.69999307	0.00000000	7.99704600	9.47342500
119.89999306	0.00000000	8.79060000	9.43036400
120.09999305	0.00000000	10.64838000	9.05511800
120.29999303	0.00000000	12.18012000	8.31077700
120.49999302	0.00000000	13.02288000	7.93553100
120.69999301	0.00000000	13.76107000	7.89247000
120.89999300	0.00000000	13.71801000	7.84940900
121.09999299	0.00000000	12.64764000	7.47416300
121.29999298	0.00000000	11.48499000	6.72982200
121.49999296	0.00000000	10.64838000	6.35457700
121.69999295	0.00000000	9.48572700	6.35457700
121.89999294	0.00000000	8.37229300	6.72982200
122.09999293	0.00000000	7.99704600	7.51722400
122.29999292	0.00000000	8.32308000	8.26771600
122.49999290	0.00000000	9.11048200	9.05511800
122.69999289	0.00000000	9.86097400	9.43036400
122.89999288	0.00000000	10.69144000	9.47342500
123.09999287	0.00000000	11.44193000	9.47342500
123.29999286	0.00000000	12.22933000	9.43036400
123.49999284	0.00000000	12.60458000	9.05511800
123.69999283	0.00000000	12.60458000	8.26771600
123.89999282	0.00000000	12.22933000	7.51722400
124.09999281	0.00000000	11.48499000	6.72982200
124.29999280	0.00000000	11.06668000	6.35457700
124.49999279	0.00000000	10.64838000	6.31151500
124.69999277	0.00000000	9.90403500	6.35457700
124.89999276	0.00000000	9.52879000	6.72982200
125.09999275	0.00000000	9.48572700	7.51722400
125.29999274	0.00000000	9.48572700	8.26771600
125.49999273	0.00000000	9.52879000	9.05511800
125.69999271	0.00000000	9.90403500	9.43036400
125.89999270	0.00000000	10.69144000	9.47342500
126.09999269	0.00000000	11.44193000	9.43036400
126.29999268	0.00000000	12.22933000	9.05511800
126.49999267	0.00000000	12.60458000	8.31077700
126.69999265	0.00000000	12.64764000	7.93553100
126.89999264	0.00000000	12.55536000	7.89247000
127.09999263	0.00000000	11.81102000	7.89247000
127.29999262	0.00000000	10.27928000	7.89247000
127.49999261	0.00000000	9.15354300	7.89247000
127.69999260	0.00000000	8.32308000	7.89247000
127.89999258	0.00000000	7.99704600	7.89247000
128.09999257	0.00000000	8.32308000	7.89247000
128.29999256	0.00000000	9.11048200	7.89247000
128.49999255	0.00000000	9.90403500	7.89247000
128.69999254	0.00000000	11.06668000	7.89247000
128.89999252	0.00000000	12.18012000	7.89247000
129.09999251	0.00000000	12.60458000	7.89247000
129.29999250	0.00000000	12.60458000	7.89247000
129.49999249	0.00000000	12.18012000	7.89247000
129.69999248	0.00000000	11.06668000	7.89247000
129.89999246	0.00000000	9.90403500	7.89247000
130.09999245	0.00000000	9.11048200	7.89247000
130.29999244	0.00000000	8.37229300	7.89247000
130.49999243	0.00000000	8.37229300	7.93553100
130.69999242	0.00000000	9.11048200	8.26771600
130.89999241	0.00000000	9.90403500	8.67987200
131.09999239	0.00000000	11.06668000	8.64296200
131.29999238	0.00000000	12.18012000	8.67987200
131.49999237	0.00000000	12.60458000	8.26771600
131.69999236	0.00000000	12.60458000	7.89247000
131.89999235	0.00000000	12.22933000	7.47416300
132.09999233	0.00000000	11.44193000	6.72982200
132.29999232	0.00000000	10.69144000	6.35457700
132.49999231	0.00000000	9.90403500	6.35457700
132.69999230	0.00000000	9.52879000	6.72982200
132.89999229	0.00000000	9.48572700	7.51722400
133.09999227	0.00000000	9.52879000	8.26771600
133.29999226	0.00000000	9.90403500	9.05511800
133.49999225	0.00000000	10.64838000	9.43036400
133.69999224	0.00000000	11.02362000	9.47342500
133.89999223	0.00000000	11.06668000	9.43036400
134.09999222	0.00000000	11.06668000	9.05511800
134.29999220	0.00000000	11.06668000	8.26771600
134.49999219	0.00000000	11.06668000	7.51722400
134.69999218	0.00000000	11.06668000	6.72982200
134.89999217	0.00000000	11.06668000	6.35457700
135.09999216	0.00000000	11.06668000	6.31151500
135.29999214	0.00000000	11.06668000	6.35457700
135.49999213	0.00000000	11.06668000	6.72982200
135.69999212	0.00000000	11.06668000	7.51722400
135.89999211	0.00000000	11.02362000	8.26771600
136.09999210	0.00000000	10.64838000	9.05511800
136.29999208	0.00000000	9.90403500	9.43036400
136.49999207	0.00000000	9.52879000	9.47342500
136.69999206	0.00000000	9.48572700	9.43036400
136.89999205	0.00000000	9.52879000	9.05511800
137.09999204	0.00000000	9.90403500	8.31077700
137.29999203	0.00000000	10.64838000	7.93553100
137.49999201	0.00000000	11.06668000	7.84940900
137.69999200	0.00000000	11.48499000	7.51722400
137.89999199	0.00000000	12.22933000	7.14812900
138.09999198	0.00000000	12.55536000	7.47416300
138.29999197	0.00000000	12.22933000	7.42495000
138.49999195	0.00000000	11.44193000	6.72982200
138.69999194	0.00000000	10.69144000	6.40378900
138.89999193	0.00000000	9.90403500	6.72982200
139.09999192	0.00000000	9.52879000	7.51722400
139.29999191	0.00000000	9.48572700	8.26771600
139.49999189	0.00000000	9.52879000	9.05511800
139.69999188	0.00000000	9.90403500	9.43036400
139.89999187	0.00000000	10.64838000	9.47342500
140.09999186	0.00000000	11.02362000	9.43036400
140.29999185	0.00000000	11.06668000	9.05511800
140.49999184	0.00000000	11.06668000	8.26771600
140.69999182	0.00000000	11.06668000	7.51722400
140.89999181	0.00000000	11.06668000	6.72982200
141.09999180	0.00000000	11.02362000	6.35457700
141.29999179	0.00000000	10.64838000	6.31151500
141.49999178	0.00000000	9.90403500	6.35457700
141.69999176	0.00000000	9.57800100	6.77903500
141.89999175	0.00000000	9.90403500	7.89247000
142.09999174	0.00000000	10.64838000	9.05511800
142.29999173	0.00000000	11.02362000	9.84867000
142.49999172	0.00000000	11.06668000	10.58686000
142.69999170	0.00000000	11.06668000	10.53765000
142.89999169	0.00000000	11.06668000	9.47342500
143.09999168	0.00000000	11.06668000	8.31077700
143.29999167	0.00000000	11.02362000	7.51722400
143.49999166	0.00000000	10.69144000	6.72982200
143.69999165	0.00000000	10.27928000	6.35457700
143.89999163	0.00000000	10.31619000	6.31151500
144.09999162	0.00000000	10.27928000	6.35457700
144.29999161	0.00000000	10.69144000	6.72982200
144.49999160	0.00000000	11.02362000	7.51722400
144.69999159	0.00000000	11.06668000	8.26771600
144.89999157	0.00000000	11.06668000	9.05511800
145.09999156	0.00000000	11.06668000	9.43036400
145.29999155	0.00000000	11.06668000	9.43036400
145.49999154	0.00000000	11.06668000	9.05511800
145.69999153	0.00000000	11.02362000	8.31077700
145.89999151	0.00000000	10.64838000	7.89247000
146.09999150	0.00000000	9.90403500	7.51722400
146.29999149	0.00000000	9.57800100	7.10506800
146.49999148	0.00000000	9.90403500	7.14197800
146.69999147	0.00000000	10.64838000	7.10506800
146.89999146	0.00000000	11.02362000	7.51722400
147.09999144	0.00000000	11.06668000	7.84940900
147.29999143	0.00000000	11.06668000	7.89247000
147.49999142	0.00000000	11.06668000	7.89247000
147.69999141	0.00000000	11.06668000	7.89247000
147.89999140	0.00000000	11.02362000	7.89247000
148.09999138	0.00000000	10.64838000	7.89247000
148.29999137	0.00000000	9.90403500	7.89247000
148.49999136	0.00000000	9.52879000	7.89247000
148.69999135	0.00000000	9.52879000	7.89247000
148.89999134	0.00000000	9.90403500	7.89247000
149.09999132	0.00000000	10.64838000	7.89247000
149.29999131	0.00000000	11.06668000	7.89247000
149.49999130	0.00000000	11.48499000	7.89247000
149.69999129	0.00000000	12.18012000	7.89247000
149.89999128	0.00000000	12.18012000	7.89247000
150.09999127	0.00000000	11.48499000	7.89247000
150.29999125	0.00000000	11.10974000	7.89247000
150.49999124	0.00000000	11.02362000	7.89247000
150.69999123	0.00000000	10.64838000	7.93553100
150.89999122	0.00000000	9.90403500	8.26771600
151.09999121	0.00000000	9.52879000	8.63681000
151.29999119	0.00000000	9.52879000	8.26771600
151.49999118	0.00000000	9.90403500	7.93553100
151.69999117	0.00000000	10.64838000	7.89247000
151.89999116	0.00000000	11.02362000	7.89247000
152.09999115	0.00000000	11.10974000	7.89247000
152.29999113	0.00000000	11.44193000	7.89247000
152.49999112	0.00000000	11.81102000	7.89247000
152.69999111	0.00000000	11.44193000	7.89247000
152.89999110	0.00000000	11.10974000	7.89247000
153.09999109	0.00000000	11.06668000	7.89247000
153.29999108	0.00000000	11.06668000	7.89247000
153.49999106	0.00000000	11.02362000	7.89247000
153.69999105	0.00000000	10.64838000	7.89247000
153.89999104	0.00000000	9.90403500	7.89247000
154.09999103	0.00000000	9.52879000	7.89247000
154.29999102	0.00000000	9.48572700	7.89247000
154.49999100	0.00000000	9.52879000	7.89247000
154.69999099	0.00000000	9.90403500	7.89247000
154.89999098	0.00000000	10.64838000	7.89247000
155.09999097	0.00000000	11.02362000	7.89247000
155.29999096	0.00000000	11.10974000	7.89247000
155.49999094	0.00000000	11.44193000	7.89247000
155.69999093	0.00000000	11.81102000	7.89247000
155.89999092	0.00000000	11.44193000	7.89247000
156.09999091	0.00000000	11.10974000	7.89247000
156.29999090	0.00000000	11.06668000	7.89247000
156.49999089	0.00000000	11.02362000	7.93553100
156.69999087	0.00000000	10.64838000	8.26771600
156.89999086	0.00000000	9.90403500	8.67987200
157.09999085	0.00000000	9.52879000	8.68602300
157.29999084	0.00000000	9.48572700	9.09817800
157.49999083	0.00000000	9.48572700	9.38115100
157.69999081	0.00000000	9.52879000	9.05511800
157.89999080	0.00000000	9.90403500	8.31077700
158.09999079	0.00000000	10.64838000	7.93553100
158.29999078	0.00000000	11.02362000	7.84940900
158.49999077	0.00000000	11.06668000	7.47416300
158.69999075	0.00000000	11.06668000	6.77903500
158.89999074	0.00000000	11.06668000	6.77903500
159.09999073	0.00000000	11.06668000	7.47416300
159.29999072	0.00000000	11.06668000	7.84940900
159.49999071	0.00000000	11.06668000	7.93553100
159.69999070	0.00000000	11.06668000	8.31077700
159.89999068	0.00000000	11.02362000	9.05511800
160.09999067	0.00000000	10.64838000	9.43036400
160.29999066	0.00000000	9.90403500	9.43036400
160.49999065	0.00000000	9.57800100	9.05511800
160.69999064	0.00000000	9.90403500	8.31077700
160.89999062	0.00000000	10.64838000	7.93553100
161.09999061	0.00000000	11.02362000	7.89247000
161.29999060	0.00000000	11.06668000	7.84940900
161.49999059	0.00000000	11.06668000	7.51722400
161.69999058	0.00000000	11.06668000	7.14812900
161.89999056	0.00000000	11.06668000	7.51722400
162.09999055	0.00000000	11.06668000	7.84940900
162.29999054	0.00000000	11.06668000	7.89247000
162.49999053	0.00000000	11.06668000	7.89247000
162.69999052	0.00000000	11.06668000	7.89247000
162.89999051	0.00000000	11.02362000	7.89247000
163.09999049	0.00000000	10.64838000	7.89247000
163.29999048	0.00000000	9.90403500	7.89247000
163.49999047	0.00000000	9.52879000	7.89247000
163.69999046	0.00000000	9.48572700	7.89247000
163.89999045	0.00000000	9.52879000	7.89247000
164.09999043	0.00000000	9.90403500	7.89247000
164.29999042	0.00000000	10.64838000	7.89247000
164.49999041	0.00000000	11.02362000	7.89247000
164.69999040	0.00000000	11.06668000	7.89247000
164.89999039	0.00000000	11.06668000	7.89247000
165.09999037	0.00000000	11.06668000	7.89247000
165.29999036	0.00000000	11.06668000	7.89247000
165.49999035	0.00000000	11.06668000	7.89247000
165.69999034	0.00000000	11.06668000	7.89247000
165.89999033	0.00000000	11.02362000	7.89247000
166.09999032	0.00000000	10.69144000	7.89247000
166.29999030	0.00000000	10.27928000	7.89247000
166.49999029	0.00000000	10.27313000	7.89247000
166.69999028	0.00000000	9.86097400	7.89247000
166.89999027	0.00000000	9.52879000	7.89247000
167.09999026	0.00000000	9.52879000	7.89247000
167.29999024	0.00000000	9.90403500	7.89247000
167.49999023	0.00000000	10.64838000	7.89247000
167.69999022	0.00000000	11.02362000	7.89247000
167.89999021	0.00000000	11.06668000	7.89247000
168.09999020	0.00000000	11.06668000	7.89247000
168.29999018	0.00000000	11.06668000	7.89247000
168.49999017	0.00000000	11.06668000	7.89247000
168.69999016	0.00000000	11.06668000	7.89247000
168.89999015	0.00000000	11.06668000	7.89247000
169.09999014	0.00000000	11.06668000	7.89247000
169.29999013	0.00000000	11.02362000	7.89247000
169.49999011	0.00000000	10.69144000	7.89247000
169.69999010	0.00000000	10.32234000	7.89247000
169.89999009	0.00000000	10.69144000	7.89247000
170.09999008	0.00000000	10.97441000	7.89247000
170.29999007	0.00000000	10.69144000	7.89247000
170.49999005	0.00000000	10.32234000	7.89247000
170.69999004	0.00000000	10.69144000	7.89247000
170.89999003	0.00000000	11.02362000	7.89247000
171.09999002	0.00000000	11.06668000	7.89247000
171.29999001	0.00000000	11.06668000	7.89247000
171.49998999	0.00000000	11.06668000	7.89247000
171.69998998	0.00000000	11.06668000	7.89247000
171.89998997	0.00000000	11.06668000	7.89247000
172.09998996	0.00000000	11.06668000	7.89247000
172.29998995	0.00000000	11.06668000	7.89247000
172.49998994	0.00000000	11.06668000	7.89247000
172.69998992	0.00000000	11.02362000	7.89247000
172.89998991	0.00000000	10.64838000	7.93553100
173.09998990	0.00000000	9.95324800	8.26771600
173.29998989	0.00000000	9.95324800	8.67987200
173.49998988	0.00000000	10.64838000	8.64296200
173.69998986	0.00000000	11.02362000	8.67987200
173.89998985	0.00000000	11.06668000	8.26771600
174.09998984	0.00000000	11.06668000	7.93553100
174.29998983	0.00000000	11.06668000	7.89247000
174.49998982	0.00000000	11.06668000	7.89247000
174.69998980	0.00000000	11.06668000	7.89247000
174.89998979	0.00000000	11.06668000	7.89247000
175.09998978	0.00000000	11.06668000	7.89247000
175.29998977	0.00000000	11.06668000	7.89247000
175.49998976	0.00000000	11.06668000	7.89247000
175.69998975	0.00000000	11.06668000	7.89247000
175.89998973	0.00000000	11.06668000	7.89247000
176.09998972	0.00000000	11.06668000	7.89247000
176.29998971	0.00000000	11.06668000	7.89247000
176.49998970	0.00000000	11.06668000	7.89247000
176.69998969	0.00000000	11.06668000	7.89247000
176.89998967	0.00000000	11.06668000	7.89247000
177.09998966	0.00000000	11.06668000	7.89247000
177.29998965	0.00000000	11.06668000	7.89247000
177.49998964	0.00000000	11.06668000	7.89247000
177.69998963	0.00000000	11.06668000	7.89247000
177.89998961	0.00000000	11.06668000	7.89247000
178.09998960	0.00000000	11.06668000	7.89247000
178.29998959	0.00000000	11.06668000	7.89247000
178.49998958	0.00000000	11.06668000	7.89247000
178.69998957	0.00000000	11.06668000	7.93553100
178.89998956	0.00000000	11.06668000	8.31077700
179.09998954	0.00000000	11.06668000	9.00590400
179.29998953	0.00000000	11.06668000	9.00590400
179.49998952	0.00000000	11.06668000	8.31077700
179.69998951	0.00000000	11.06668000	7.93553100
179.89998950	0.00000000	11.06668000	7.89247000
180.09998948	0.00000000	11.06668000	7.89247000
180.29998947	0.00000000	11.06668000	7.89247000
180.49998946	0.00000000	11.06668000	7.89247000
180.69998945	0.00000000	11.06668000	7.89247000
180.89998944	0.00000000	11.06668000	7.89247000
181.09998942	0.00000000	11.06668000	7.89247000
181.29998941	0.00000000	11.06668000	7.89247000
181.49998940	0.00000000	11.06668000	7.93553100
181.69998939	0.00000000	11.06668000	8.31077700
181.89998938	0.00000000	11.06668000	9.05511800
182.09998937	0.00000000	11.06668000	9.38115100
182.29998935	0.00000000	11.06668000	9.05511800
182.49998934	0.00000000	11.06668000	8.31077700
182.69998933	0.00000000	11.06668000	7.93553100
182.89998932	0.00000000	11.06668000	7.89247000
183.09998931	0.00000000	11.06668000	7.89247000
183.29998929	0.00000000	11.06668000	7.89247000
183.49998928	0.00000000	11.06668000	7.89247000
183.69998927	0.00000000	11.06668000	7.89247000
183.89998926	0.00000000	11.06668000	7.89247000
184.09998925	0.00000000	11.02362000	7.89247000
184.29998923	0.00000000	10.69144000	7.93553100
184.49998922	0.00000000	10.32234000	8.26771600
184.69998921	0.00000000	10.69144000	8.67987200
184.89998920	0.00000000	11.02362000	8.68602300
185.09998919	0.00000000	11.06668000	9.09817800
185.29998918	0.00000000	11.06668000	9.38115100
185.49998916	0.00000000	11.06668000	9.05511800
185.69998915	0.00000000	11.06668000	8.31077700
185.89998914	0.00000000	11.06668000	7.93553100
186.09998913	0.00000000	11.06668000	7.89247000
186.29998912	0.00000000	11.06668000	7.89247000
186.49998910	0.00000000	11.06668000	7.89247000
186.69998909	0.00000000	11.06668000	7.89247000
186.89998908	0.00000000	11.06668000	7.89247000
187.09998907	0.00000000	11.06668000	7.93553100
187.29998906	0.00000000	11.06668000	8.31077700
187.49998904	0.00000000	11.06668000	9.05511800
187.69998903	0.00000000	11.06668000	9.43036400
187.89998902	0.00000000	11.06668000	9.47342500
188.09998901	0.00000000	11.06668000	9.43036400
188.29998900	0.00000000	11.06668000	9.05511800
188.49998899	0.00000000	11.06668000	8.31077700
188.69998897	0.00000000	11.06668000	7.93553100
188.89998896	0.00000000	11.06668000	7.89247000
189.09998895	0.00000000	11.06668000	7.89247000
189.29998894	0.00000000	11.06668000	7.89247000
189.49998893	0.00000000	11.06668000	7.89247000
189.69998891	0.00000000	11.06668000	7.89247000
189.89998890	0.00000000	11.06668000	7.89247000
190.09998889	0.00000000	11.06668000	7.89247000
190.29998888	0.00000000	11.06668000	7.89247000
190.49998887	0.00000000	11.06668000	7.89247000
190.69998885	0.00000000	11.06668000	7.89247000
190.89998884	0.00000000	11.02362000	7.89247000
191.09998883	0.00000000	10.69144000	7.89247000
191.29998882	0.00000000	10.32234000	7.89247000
191.49998881	0.00000000	10.69144000	7.89247000
191.69998880	0.00000000	11.02362000	7.89247000
191.89998878	0.00000000	11.06668000	7.89247000
192.09998877	0.00000000	11.06668000	7.89247000
192.29998876	0.00000000	11.06668000	7.89247000
192.49998875	0.00000000	11.06668000	7.89247000
192.69998874	0.00000000	11.06668000	7.89247000
192.89998872	0.00000000	11.06668000	7.89247000
193.09998871	0.00000000	11.06668000	7.89247000
193.29998870	0.00000000	11.02362000	7.89247000
193.49998869	0.00000000	10.69144000	7.89247000
193.69998868	0.00000000	10.32234000	7.89247000
193.89998866	0.00000000	10.69144000	7.89247000
194.09998865	0.00000000	11.02362000	7.93553100
194.29998864	0.00000000	11.06668000	8.26771600
194.49998863	0.00000000	11.06668000	8.63681000
194.69998862	0.00000000	11.10974000	8.26771600
194.89998861	0.00000000	11.44193000	7.93553100
195.09998859	0.00000000	11.81102000	7.89247000
195.29998858	0.00000000	11.44193000	7.89247000
195.49998857	0.00000000	11.10974000	7.89247000
195.69998856	0.00000000	11.06668000	7.89247000
195.89998855	0.00000000	11.02362000	7.89247000
196.09998853	0.00000000	10.69144000	7.89247000
