Time	Channel A	Channel B	Channel C
(us)	(V)	(mV)	(mV)

-4.59999956	0.00000000	-44.27288000	-15.40969000
-4.39999957	0.00000000	-44.27288000	-15.04675000
-4.19999958	0.00000000	-44.27288000	-15.36663000
-3.99999959	0.00000000	-44.27288000	-15.32357000
-3.79999960	0.00000000	-44.27288000	-14.67150000
-3.59999962	0.00000000	-44.27288000	-14.67150000
-3.39999963	0.00000000	-44.27288000	-15.36663000
-3.19999964	0.00000000	-44.27288000	-15.74188000
-2.99999965	0.00000000	-44.27288000	-15.78494000
-2.79999966	0.00000000	-44.27288000	-15.78494000
-2.59999968	0.00000000	-44.27288000	-15.78494000
-2.39999969	0.00000000	-44.27288000	-15.78494000
-2.19999970	0.00000000	-44.22982000	-15.78494000
-1.99999971	0.00000000	-43.89763000	-15.78494000
-1.79999972	0.00000000	-43.52854000	-15.78494000
-1.59999973	0.00000000	-43.89763000	-15.78494000
-1.39999975	0.00000000	-44.22982000	-15.78494000
-1.19999976	0.00000000	-44.27288000	-15.78494000
-0.99999977	0.00000000	-44.27288000	-15.78494000
-0.79999978	0.00000000	-44.27288000	-15.74188000
-0.59999979	0.00000000	-44.27288000	-15.40969000
-0.39999981	0.15871060	-44.27288000	-15.04675000
-0.19999982	0.63668800	-44.27288000	-15.40969000
0.00000017	0.79601380	-44.27288000	-15.74188000
0.20000016	1.11466500	-44.27288000	-15.78494000
0.40000015	0.95533960	-44.27288000	-15.78494000
0.60000013	0.47736220	-44.27288000	-15.78494000
0.80000012	-0.31803640	-44.27288000	-15.78494000
1.00000011	-1.27399100	-44.27288000	-15.78494000
1.20000010	-2.22994600	-44.27288000	-15.74188000
1.40000009	-2.70792300	-44.22982000	-15.36663000
1.60000008	-2.54859700	-43.89763000	-14.62844000
1.80000006	-1.59264300	-43.52854000	-14.30241000
2.00000005	0.15871060	-43.85457000	-14.58538000
2.20000004	2.22994600	-43.80536000	-14.94833000
2.40000003	4.14124000	-43.11023000	-14.62844000
2.60000002	5.25652100	-42.78420000	-14.67150000
2.80000000	5.09719500	-43.11023000	-15.36663000
2.99999999	3.50393700	-43.85457000	-15.69267000
3.19999998	0.63668800	-44.22982000	-15.40969000
3.39999997	-2.70792300	-44.27288000	-15.04675000
3.59999996	-5.89382400	-44.22982000	-15.36663000
3.79999994	-7.80511800	-43.85457000	-15.32357000
3.99999993	-7.80511800	-43.11023000	-14.62844000
4.19999992	-5.73449800	-42.73499000	-14.25320000
4.39999991	-2.07062000	-42.73499000	-14.21014000
4.59999990	2.38927200	-43.06717000	-14.25320000
4.79999989	6.37180100	-43.47933000	-14.62844000
4.99999987	9.07972400	-43.44242000	-15.36663000
5.19999986	9.39837600	-43.52239000	-15.74188000
5.39999985	7.32714100	-43.48548000	-15.78494000
5.59999984	3.34522600	-43.89763000	-15.78494000
5.79999983	-1.27399100	-44.22982000	-15.78494000
5.99999981	-5.73449800	-44.22982000	-15.74188000
6.19999980	-8.76107300	-43.85457000	-15.40969000
6.39999979	-9.39837600	-43.11023000	-15.00369000
6.59999978	-7.80511800	-42.73499000	-14.99139000
6.79999977	-4.30056600	-42.69193000	-14.58538000
6.99999975	0.00000000	-42.69193000	-14.25320000
7.19999974	3.98191400	-42.69193000	-14.25320000
7.39999973	6.84916400	-42.69193000	-14.62844000
7.59999972	7.80511800	-42.73499000	-15.36663000
7.79999971	6.69045300	-43.11023000	-15.74188000
7.99999970	4.14124000	-43.80536000	-15.78494000
8.19999968	0.95533960	-43.85457000	-15.78494000
8.39999967	-2.22994600	-43.52854000	-15.78494000
8.59999966	-4.45989200	-43.85457000	-15.74188000
8.79999965	-5.25652100	-43.80536000	-15.40969000
8.99999964	-4.61921700	-43.11023000	-15.00369000
9.19999962	-3.18590100	-42.73499000	-14.99139000
9.39999961	-1.11466500	-42.69193000	-14.58538000
9.59999960	0.79601380	-42.69193000	-14.25320000
9.79999959	2.07062000	-42.69193000	-14.25320000
9.99999958	2.54859700	-42.73499000	-14.62844000
10.19999956	2.38927200	-43.11023000	-15.32357000
10.39999955	1.59264300	-43.80536000	-15.36663000
10.59999954	0.79601380	-43.85457000	-15.04675000
10.79999953	-0.15871060	-43.52854000	-15.36663000
10.99999952	-0.63668800	-43.85457000	-15.36663000
11.19999951	-0.95533960	-43.85457000	-15.00369000
11.39999949	-0.95533960	-43.48548000	-15.04060000
11.59999948	-0.79601380	-43.52239000	-15.00369000
11.79999947	-0.47736220	-43.44242000	-15.40969000
11.99999946	-0.15871060	-43.47933000	-15.69267000
12.19999945	-0.15871060	-43.11023000	-15.40969000
12.39999943	-0.15871060	-43.11023000	-15.04675000
12.59999942	0.00000000	-43.43627000	-15.36663000
12.79999941	0.00000000	-43.06717000	-15.36663000
12.99999940	0.15871060	-42.73499000	-15.04675000
13.19999939	0.00000000	-42.69193000	-15.36663000
13.39999937	0.00000000	-42.69193000	-15.36663000
13.59999936	0.00000000	-42.73499000	-15.04675000
13.79999935	0.00000000	-43.06717000	-15.40969000
13.99999934	-0.15871060	-43.43627000	-15.74188000
14.19999933	-0.15871060	-43.06717000	-15.74188000
14.39999932	-0.15871060	-42.73499000	-15.36663000
14.59999930	0.00000000	-42.69193000	-14.67150000
14.79999929	0.00000000	-42.69193000	-14.67150000
14.99999928	0.00000000	-42.73499000	-15.36663000
15.19999927	0.00000000	-43.11023000	-15.74188000
15.39999926	0.00000000	-43.85457000	-15.78494000
15.59999924	0.00000000	-44.22982000	-15.74188000
15.79999923	0.00000000	-44.27288000	-15.40969000
15.99999922	0.00000000	-44.27288000	-15.04675000
16.19999921	0.00000000	-44.22982000	-15.40969000
16.39999920	0.00000000	-43.89763000	-15.74188000
16.59999919	-0.15871060	-43.48548000	-15.74188000
16.79999917	0.00000000	-43.47933000	-15.40969000
16.99999916	0.00000000	-43.02411000	-15.04675000
17.19999915	0.00000000	-42.31668000	-15.36663000
17.39999914	0.00000000	-41.52928000	-15.32357000
17.59999913	0.00000000	-41.20325000	-14.67150000
17.79999911	0.00000000	-41.57849000	-14.67150000
17.99999910	0.00000000	-42.73499000	-15.36663000
18.19999909	0.00000000	-44.22982000	-15.74188000
18.39999908	0.00000000	-45.47859000	-15.78494000
18.59999907	0.00000000	-46.64739000	-15.78494000
18.79999905	-0.15871060	-48.12992000	-15.74188000
18.99999904	0.00000000	-48.46210000	-15.40969000
19.19999903	0.00000000	-47.29946000	-15.00369000
19.39999902	0.00000000	-44.96801000	-15.04060000
19.59999901	0.00000000	-41.48622000	-15.00369000
19.79999900	0.00000000	-37.99213000	-15.40969000
19.99999898	0.00000000	-34.87328000	-15.74188000
20.19999897	0.00000000	-32.59719000	-15.74188000
20.39999896	0.00000000	-32.30807000	-15.36663000
20.59999895	0.00000000	-34.63951000	-14.67150000
20.79999894	0.00000000	-39.75148000	-14.67150000
20.99999892	0.00000000	-46.69045000	-15.36663000
21.19999891	-0.15871060	-54.41068000	-15.74188000
21.39999890	0.00000000	-60.55610000	-15.74188000
21.59999889	0.00000000	-63.58267000	-15.40969000
21.79999888	0.00000000	-62.32160000	-15.04675000
21.99999886	0.00000000	-55.72096000	-15.40969000
22.19999885	0.00000000	-45.30019000	-15.74188000
22.39999884	0.00000000	-33.24926000	-15.78494000
22.59999883	0.00000000	-21.70891000	-15.78494000
22.79999882	0.00000000	-13.66265000	-15.74188000
22.99999881	0.00000000	-11.84178000	-15.36663000
23.19999879	0.00000000	-17.28592000	-14.58538000
23.39999878	0.00000000	-29.74901000	-13.83489000
23.59999877	0.00000000	-46.73966000	-13.04749000
23.79999876	0.00000000	-64.83144000	-12.67224000
23.99999875	0.00000000	-79.07233000	-12.67224000
24.19999873	0.00000000	-85.59301000	-13.04749000
24.39999872	0.00000000	-82.84325000	-13.87795000
24.59999871	0.00000000	-70.42937000	-15.04675000
24.79999870	0.00000000	-51.11343000	-16.99065000
24.99999869	0.00000000	-29.06004000	-18.85458000
25.19999867	0.00000000	-9.00590400	-20.06029000
25.39999866	0.00000000	4.06619100	-20.43553000
25.59999865	0.00000000	6.71751900	-19.97416000
25.79999864	0.00000000	-2.20841500	-18.01796000
25.99999863	0.00000000	-21.09990000	-14.53617000
26.19999862	0.00000000	-45.43553000	-10.67298000
26.39999860	0.00000000	-69.40206000	-6.77903500
26.59999859	0.00000000	-87.91830000	-3.79552100
26.79999858	0.00000000	-96.38287000	-3.05733300
26.99999857	0.00000000	-92.56889000	-5.37647600
27.19999856	0.00000000	-77.90969000	-10.07013000
27.39999854	0.00000000	-55.85630000	-16.67077000
27.59999853	0.00000000	-31.15157000	-24.37869000
27.79999852	0.00000000	-9.51648500	-30.93627000
27.99999851	0.00000000	4.02313000	-35.11319000
28.19999850	0.00000000	6.80979300	-35.39001000
28.39999848	0.00000000	-1.27952700	-30.33341000
28.59999847	0.00000000	-17.89493000	-21.08760000
28.79999846	0.00000000	-39.53002000	-9.47342500
28.99999845	0.00000000	-61.16510000	2.14074800
29.19999844	0.00000000	-77.82357000	11.34350000
29.39999843	0.00000000	-86.38041000	15.88952000
29.59999841	0.00000000	-85.26082000	13.47810000
29.79999840	0.00000000	-75.30142000	4.23228400
29.99999839	0.00000000	-59.43651000	-10.07013000
30.19999838	0.00000000	-41.24631000	-26.28568000
30.39999837	0.00000000	-24.21875000	-40.92643000
30.59999835	0.00000000	-12.21087000	-50.58440000
30.79999834	0.00000000	-7.46801100	-52.87278000
30.99999833	0.00000000	-10.12549000	-47.42864000
31.19999832	0.00000000	-19.00837000	-34.60876000
31.39999831	0.00000000	-32.17273000	-16.90453000
31.59999829	0.00000000	-46.88115000	1.63016700
31.79999828	0.00000000	-60.04552000	16.68922000
31.99999827	0.00000000	-68.93454000	25.18455000
32.19999826	0.00000000	-71.67814000	25.18455000
32.39999825	0.00000000	-67.86417000	16.68922000
32.59999824	0.00000000	-59.01821000	1.63016700
32.79999822	0.00000000	-47.43479000	-16.90453000
32.99999821	0.00000000	-35.80217000	-34.69488000
33.19999820	0.00000000	-26.49483000	-48.26525000
33.39999819	0.00000000	-21.09990000	-55.19193000
33.59999818	0.00000000	-21.05684000	-53.61097000
33.79999816	0.00000000	-26.02731000	-43.62082000
33.99999815	0.00000000	-34.12894000	-27.86663000
34.19999814	0.00000000	-43.80536000	-10.44537000
34.39999813	0.00000000	-52.60211000	5.06889700
34.59999812	0.00000000	-58.04626000	16.31397000
34.79999810	0.00000000	-58.88287000	20.82308000
34.99999809	0.00000000	-55.85630000	17.05217000
35.19999808	0.00000000	-50.04306000	5.95472400
35.39999807	0.00000000	-42.73499000	-8.31077700
35.59999806	0.00000000	-35.85138000	-23.08686000
35.79999805	0.00000000	-31.61294000	-35.77140000
35.99999803	0.00000000	-31.19464000	-43.06717000
36.19999802	0.00000000	-34.17815000	-43.11023000
36.39999801	0.00000000	-39.19783000	-36.23277000
36.59999800	0.00000000	-44.60506000	-24.75394000
36.79999799	0.00000000	-49.62475000	-12.02633000
36.99999797	0.00000000	-52.65133000	-1.24261800
37.19999796	0.00000000	-52.69439000	5.30265700
37.39999795	0.00000000	-50.04306000	5.72096400
37.59999794	0.00000000	-45.81078000	0.42445860
37.79999793	0.00000000	-41.15403000	-8.40305000
37.99999791	0.00000000	-36.92175000	-18.39321000
38.19999790	0.00000000	-34.22121000	-26.84547000
38.39999789	0.00000000	-33.84596000	-31.40379000
38.59999788	0.00000000	-35.75910000	-30.65945000
38.79999787	0.00000000	-39.57308000	-24.52633000
38.99999786	0.00000000	-43.80536000	-15.41585000
39.19999784	0.00000000	-47.34252000	-6.17618100
39.39999783	0.00000000	-50.04306000	0.28912400
39.59999782	0.00000000	-51.20571000	2.18996000
39.79999781	0.00000000	-50.46136000	-1.61786400
39.99999780	0.00000000	-48.54823000	-9.65182000
40.19999778	0.00000000	-45.81078000	-19.27903000
40.39999777	0.00000000	-42.69193000	-28.47564000
40.59999776	0.00000000	-39.57308000	-34.14124000
40.79999775	0.00000000	-36.87869000	-34.19045000
40.99999774	0.00000000	-35.34079000	-28.84473000
41.19999772	0.00000000	-35.29773000	-19.97416000
41.39999771	0.00000000	-36.46038000	-9.56569900
41.59999770	0.00000000	-38.41658000	0.00615157
41.79999769	0.00000000	-41.11097000	5.72096400
41.99999768	0.00000000	-43.85457000	5.81323800
42.19999767	0.00000000	-46.18602000	0.84276570
42.39999765	0.00000000	-48.08686000	-7.24040300
42.59999764	0.00000000	-48.50517000	-16.90453000
42.79999763	0.00000000	-47.81004000	-25.68897000
42.99999762	0.00000000	-46.96727000	-31.12082000
43.19999761	0.00000000	-45.38631000	-31.91437000
43.39999759	0.00000000	-43.11023000	-28.51870000
43.59999758	0.00000000	-41.20325000	-21.96727000
43.79999757	0.00000000	-39.99754000	-14.34547000
43.99999756	0.00000000	-39.53002000	-7.70792300
44.19999755	0.00000000	-39.11171000	-3.46948800
44.39999753	0.00000000	-38.41658000	-1.85777500
44.59999752	0.00000000	-38.36737000	-3.42642700
44.79999751	0.00000000	-38.73647000	-7.19734200
44.99999750	0.00000000	-38.74261000	-12.21087000
45.19999749	0.00000000	-39.24704000	-16.85531000
45.39999748	0.00000000	-40.41584000	-20.34941000
45.59999746	0.00000000	-42.78420000	-22.29331000
45.79999745	0.00000000	-45.85384000	-21.96727000
45.99999744	0.00000000	-48.97269000	-20.47859000
46.19999743	0.00000000	-51.66707000	-18.47933000
46.39999742	0.00000000	-53.16190000	-15.74188000
46.59999740	0.00000000	-52.69439000	-12.72146000
46.79999739	0.00000000	-49.57554000	-10.40231000
46.99999738	0.00000000	-44.18061000	-9.60875900
47.19999737	0.00000000	-37.99213000	-9.93479300
47.39999736	0.00000000	-32.17273000	-11.14050000
47.59999734	0.00000000	-27.98351000	-13.09055000
47.79999733	0.00000000	-26.87008000	-15.78494000
47.99999732	0.00000000	-29.57062000	-18.43627000
48.19999731	0.00000000	-35.38385000	-20.06029000
48.39999730	0.00000000	-43.11023000	-20.81078000
48.59999729	0.00000000	-51.24877000	-20.75541000
48.79999727	0.00000000	-57.76944000	-18.76845000
48.99999726	0.00000000	-61.20817000	-15.40969000
49.19999725	0.00000000	-60.00246000	-11.93405000
49.39999724	0.00000000	-54.27534000	-9.60875900
49.59999723	0.00000000	-45.81078000	-8.40305000
49.79999721	0.00000000	-36.87869000	-8.48917200
49.99999720	0.00000000	-29.19537000	-10.40231000
50.19999719	0.00000000	-24.54478000	-13.83489000
50.39999718	0.00000000	-24.58169000	-17.32283000
50.59999717	0.00000000	-28.78322000	-20.43553000
50.79999715	0.00000000	-36.54650000	-22.71161000
50.99999714	0.00000000	-45.71850000	-23.08686000
51.19999713	0.00000000	-53.80782000	-21.50590000
51.39999712	0.00000000	-58.42150000	-18.06102000
51.59999711	0.00000000	-58.50763000	-13.46580000
51.79999710	0.00000000	-54.65059000	-9.60875900
51.99999708	0.00000000	-48.08686000	-6.86515700
52.19999707	0.00000000	-40.04060000	-5.79478300
52.39999706	0.00000000	-33.15083000	-7.33267600
52.59999705	0.00000000	-29.65674000	-11.09129000
52.79999704	0.00000000	-29.98893000	-15.32357000
52.99999702	0.00000000	-33.80290000	-18.81152000
53.19999701	0.00000000	-39.61614000	-21.13066000
53.39999700	0.00000000	-46.13681000	-21.50590000
53.59999699	0.00000000	-51.85777000	-20.01722000
53.79999698	0.00000000	-54.14001000	-17.32283000
53.99999696	0.00000000	-52.69439000	-14.25320000
54.19999695	0.00000000	-48.46210000	-11.55881000
54.39999694	0.00000000	-42.69193000	-10.07013000
54.59999693	0.00000000	-36.92175000	-10.44537000
54.79999692	0.00000000	-32.73252000	-12.67224000
54.99999691	0.00000000	-31.56988000	-15.32357000
55.19999689	0.00000000	-33.80290000	-17.27362000
55.39999688	0.00000000	-38.03519000	-18.39321000
55.59999687	0.00000000	-43.06717000	-17.97490000
55.79999686	0.00000000	-48.08686000	-15.69882000
55.99999685	0.00000000	-51.48868000	-12.67224000
56.19999683	0.00000000	-52.31914000	-9.98400600
56.39999682	0.00000000	-50.36909000	-8.44611200
56.59999681	0.00000000	-46.59818000	-8.48917200
56.79999680	0.00000000	-41.90453000	-10.48843000
56.99999679	0.00000000	-37.70915000	-14.67766000
57.19999677	0.00000000	-34.59645000	-19.59892000
57.39999676	0.00000000	-33.88902000	-23.08686000
57.59999675	0.00000000	-35.71604000	-24.61860000
57.79999674	0.00000000	-39.15477000	-23.78199000
57.99999673	0.00000000	-42.59965000	-19.93110000
58.19999672	0.00000000	-45.38631000	-14.16708000
58.39999670	0.00000000	-47.29946000	-8.02780400
58.59999669	0.00000000	-48.04380000	-3.05733300
58.79999668	0.00000000	-46.92421000	-1.15034400
58.99999667	0.00000000	-44.69119000	-2.68208600
59.19999666	0.00000000	-42.73499000	-7.33267600
59.39999664	0.00000000	-41.15403000	-14.25320000
59.59999663	0.00000000	-40.04060000	-21.54897000
59.79999662	0.00000000	-39.99754000	-27.31299000
59.99999661	0.00000000	-40.73573000	-30.00738000
60.19999660	0.00000000	-41.52928000	-28.84473000
60.39999658	0.00000000	-42.69193000	-24.20029000
60.59999657	0.00000000	-43.76230000	-16.90453000
60.79999656	0.00000000	-43.76230000	-8.82135800
60.99999655	0.00000000	-42.69193000	-2.31299200
61.19999654	0.00000000	-41.57849000	1.16879900
61.39999653	0.00000000	-41.11097000	0.42445860
61.59999651	0.00000000	-40.73573000	-3.80167300
61.79999650	0.00000000	-40.41584000	-10.40231000
61.99999649	0.00000000	-41.20325000	-18.47933000
62.19999648	0.00000000	-42.69193000	-25.77510000
62.39999647	0.00000000	-44.27288000	-30.37647000
62.59999645	0.00000000	-45.81078000	-31.16388000
62.79999644	0.00000000	-46.88115000	-27.73130000
62.99999643	0.00000000	-46.50590000	-21.59203000
63.19999642	0.00000000	-44.64813000	-14.25320000
63.39999641	0.00000000	-42.69193000	-7.28346400
63.59999639	0.00000000	-40.69267000	-2.26377900
63.79999638	0.00000000	-38.41658000	0.04921259
63.99999637	0.00000000	-36.92175000	-1.10728300
64.19999636	0.00000000	-36.92175000	-5.29035400
64.39999635	0.00000000	-38.45964000	-11.09744000
64.59999634	0.00000000	-41.11097000	-17.27362000
64.79999632	0.00000000	-43.80536000	-22.71161000
64.99999631	0.00000000	-45.76156000	-26.15034000
65.19999630	0.00000000	-46.92421000	-26.98080000
65.39999629	0.00000000	-46.88115000	-25.08612000
65.59999628	0.00000000	-45.38631000	-21.64124000
65.79999626	0.00000000	-43.11023000	-17.36589000
65.99999625	0.00000000	-41.15403000	-13.09670000
66.19999624	0.00000000	-39.62229000	-9.55954600
66.39999623	0.00000000	-38.87795000	-6.82209600
66.59999622	0.00000000	-39.66535000	-5.29035400
66.79999620	0.00000000	-41.52928000	-5.29035400
66.99999619	0.00000000	-43.80536000	-6.82209600
67.19999618	0.00000000	-45.34325000	-9.51648500
67.39999617	0.00000000	-45.76156000	-12.62918000
67.59999616	0.00000000	-45.34325000	-15.78494000
67.79999615	0.00000000	-43.76230000	-18.89764000
67.99999613	0.00000000	-41.11097000	-21.64124000
68.19999612	0.00000000	-38.41658000	-23.54823000
68.39999611	0.00000000	-36.54650000	-24.29257000
68.59999610	0.00000000	-36.18356000	-23.12992000
68.79999609	0.00000000	-38.12746000	-20.39247000
68.99999607	0.00000000	-41.57849000	-16.48622000
69.19999606	0.00000000	-45.81078000	-11.46653000
69.39999605	0.00000000	-49.62475000	-6.86515700
69.59999604	0.00000000	-51.53174000	-3.75246000
69.79999603	0.00000000	-51.15649000	-2.59596400
69.99999601	0.00000000	-48.41904000	-3.79552100
70.19999600	0.00000000	-43.80536000	-7.28346400
70.39999599	0.00000000	-38.36737000	-12.67224000
70.59999598	0.00000000	-33.37844000	-18.43627000
70.79999597	0.00000000	-29.93971000	-23.08686000
70.99999596	0.00000000	-29.56447000	-25.77510000
71.19999594	0.00000000	-32.26501000	-25.77510000
71.39999593	0.00000000	-37.29700000	-23.12992000
71.59999592	0.00000000	-43.85457000	-18.90379000
71.79999591	0.00000000	-50.04306000	-14.25320000
71.99999590	0.00000000	-54.69365000	-10.02707000
72.19999588	0.00000000	-56.96973000	-7.28346400
72.39999587	0.00000000	-55.81324000	-6.48991100
72.59999586	0.00000000	-51.58095000	-7.24040300
72.79999585	0.00000000	-45.43553000	-9.55954600
72.99999584	0.00000000	-38.82874000	-12.58612000
73.19999582	0.00000000	-33.42765000	-15.32357000
73.39999581	0.00000000	-29.93971000	-17.23056000
73.59999580	0.00000000	-29.56447000	-18.01796000
73.79999579	0.00000000	-32.22195000	-17.27362000
73.99999578	0.00000000	-36.82948000	-15.78494000
74.19999577	0.00000000	-42.27362000	-14.25320000
74.39999575	0.00000000	-47.29946000	-13.18282000
74.59999574	0.00000000	-51.15649000	-13.55807000
74.79999573	0.00000000	-52.69439000	-15.40969000
74.99999572	0.00000000	-51.58095000	-17.32283000
75.19999571	0.00000000	-48.54823000	-18.85458000
75.39999569	0.00000000	-44.64813000	-19.55585000
75.59999568	0.00000000	-40.82800000	-18.35015000
75.79999567	0.00000000	-37.71530000	-15.32357000
75.99999566	0.00000000	-36.54650000	-11.46653000
76.19999565	0.00000000	-36.83563000	-8.02780400
76.39999563	0.00000000	-38.04134000	-5.70866100
76.59999562	0.00000000	-39.90526000	-5.37647600
76.79999561	0.00000000	-41.85531000	-7.28346400
76.99999560	0.00000000	-42.97490000	-11.18356000
77.19999559	0.00000000	-43.47933000	-16.20325000
77.39999558	0.00000000	-43.44242000	-21.59203000
77.59999556	0.00000000	-43.47933000	-25.77510000
77.79999555	0.00000000	-43.11023000	-27.31299000
77.99999554	0.00000000	-43.15945000	-25.77510000
78.19999553	0.00000000	-43.85457000	-21.54897000
78.39999552	0.00000000	-44.22982000	-15.74188000
78.59999550	0.00000000	-44.27288000	-9.55954600
78.79999549	0.00000000	-44.22982000	-4.17691900
78.99999548	0.00000000	-43.76230000	-1.10728300
79.19999547	0.00000000	-42.22441000	-1.10728300
79.39999546	0.00000000	-39.94832000	-4.12770700
79.59999544	0.00000000	-38.04134000	-9.14124000
79.79999543	0.00000000	-36.87869000	-14.58538000
79.99999542	0.00000000	-36.87869000	-20.01722000
80.19999541	0.00000000	-38.04134000	-24.24335000
80.39999540	0.00000000	-39.99754000	-26.19955000
80.59999539	0.00000000	-42.73499000	-25.82431000
80.79999537	0.00000000	-45.76156000	-23.12992000
80.99999536	0.00000000	-48.04380000	-18.90379000
81.19999535	0.00000000	-48.41904000	-14.25320000
81.39999534	0.00000000	-46.92421000	-9.98400600
81.59999533	0.00000000	-44.22982000	-6.86515700
81.79999531	0.00000000	-41.15403000	-5.29035400
81.99999530	0.00000000	-38.45964000	-5.24729300
82.19999529	0.00000000	-36.87869000	-6.40378900
82.39999528	0.00000000	-36.46038000	-8.35383800
82.59999527	0.00000000	-36.87869000	-11.14050000
82.79999525	0.00000000	-38.45964000	-14.62844000
82.99999524	0.00000000	-41.11097000	-18.47933000
83.19999523	0.00000000	-43.76230000	-21.59203000
83.39999522	0.00000000	-45.34325000	-23.54823000
83.59999521	0.00000000	-45.76156000	-24.29257000
83.79999520	0.00000000	-45.38631000	-23.12992000
83.99999518	0.00000000	-44.22982000	-20.43553000
84.19999517	0.00000000	-42.73499000	-16.90453000
84.39999516	0.00000000	-41.57849000	-12.62918000
84.59999515	0.00000000	-41.15403000	-8.40305000
84.79999514	0.00000000	-41.11097000	-5.33341500
84.99999512	0.00000000	-41.11097000	-4.17691900
85.19999511	0.00000000	-41.15403000	-5.33341500
85.39999510	0.00000000	-41.48622000	-8.40305000
85.59999509	0.00000000	-41.85531000	-12.67224000
85.79999508	0.00000000	-41.44316000	-17.32283000
85.99999506	0.00000000	-40.77879000	-21.54897000
86.19999505	0.00000000	-40.36663000	-24.24335000
86.39999504	0.00000000	-40.77879000	-24.66781000
86.59999503	0.00000000	-41.52928000	-23.08686000
86.79999502	0.00000000	-42.69193000	-19.59892000
86.99999501	0.00000000	-43.85457000	-14.58538000
87.19999499	0.00000000	-44.60506000	-9.60875900
87.39999498	0.00000000	-45.01722000	-5.75172200
87.59999497	0.00000000	-44.60506000	-4.21998000
87.79999496	0.00000000	-43.80536000	-5.33341500
87.99999495	0.00000000	-42.27362000	-8.40305000
88.19999493	0.00000000	-40.36663000	-12.67224000
88.39999492	0.00000000	-39.19783000	-17.27362000
88.59999491	0.00000000	-38.41658000	-21.13066000
88.79999490	0.00000000	-38.45964000	-23.03765000
88.99999489	0.00000000	-39.57308000	-22.66855000
89.19999487	0.00000000	-41.11097000	-19.97416000
89.39999486	0.00000000	-42.64886000	-15.74188000
89.59999485	0.00000000	-43.80536000	-11.14050000
89.79999484	0.00000000	-44.22982000	-7.33267600
89.99999483	0.00000000	-44.22982000	-5.75172200
90.19999482	0.00000000	-43.80536000	-6.48991100
90.39999480	0.00000000	-42.69193000	-8.82135800
90.59999479	0.00000000	-41.52928000	-12.72146000
90.79999478	0.00000000	-40.73573000	-17.27362000
90.99999477	0.00000000	-39.94832000	-21.08760000
91.19999476	0.00000000	-39.62229000	-22.61934000
91.39999474	0.00000000	-39.94832000	-21.50590000
91.59999473	0.00000000	-40.73573000	-18.43627000
91.79999472	0.00000000	-41.44316000	-14.21014000
91.99999471	0.00000000	-41.85531000	-9.98400600
92.19999470	0.00000000	-41.48622000	-6.95743000
92.39999468	0.00000000	-41.20325000	-6.17002900
92.59999467	0.00000000	-41.52928000	-8.07086500
92.79999466	0.00000000	-42.31668000	-11.51575000
92.99999465	0.00000000	-43.06717000	-15.78494000
93.19999464	0.00000000	-43.85457000	-19.97416000
93.39999463	0.00000000	-44.22982000	-22.66855000
93.59999461	0.00000000	-44.22982000	-23.03765000
93.79999460	0.00000000	-43.80536000	-21.13066000
93.99999459	0.00000000	-42.64886000	-17.27362000
94.19999458	0.00000000	-41.11097000	-12.72146000
94.39999457	0.00000000	-39.53002000	-8.86441900
94.59999455	0.00000000	-37.99213000	-6.95743000
94.79999454	0.00000000	-36.87869000	-7.33267600
94.99999453	0.00000000	-36.87869000	-9.98400600
95.19999452	0.00000000	-38.04134000	-13.83489000
95.39999451	0.00000000	-39.99754000	-17.69808000
95.59999449	0.00000000	-42.73499000	-21.13066000
95.79999448	0.00000000	-45.76156000	-22.61934000
95.99999447	0.00000000	-48.08686000	-21.54897000
96.19999446	0.00000000	-48.83735000	-18.85458000
96.39999445	0.00000000	-48.08686000	-15.36663000
96.59999444	0.00000000	-45.76156000	-11.55881000
96.79999442	0.00000000	-42.64886000	-8.86441900
96.99999441	0.00000000	-39.15477000	-8.07086500
97.19999440	0.00000000	-35.71604000	-8.82135800
97.39999439	0.00000000	-33.75369000	-11.09744000
97.59999438	0.00000000	-33.37844000	-13.79183000
97.79999436	0.00000000	-34.55339000	-16.11712000
97.99999435	0.00000000	-37.65994000	-18.01796000
98.19999434	0.00000000	-41.48622000	-18.39321000
98.39999433	0.00000000	-45.38631000	-17.32283000
98.59999432	0.00000000	-48.46210000	-15.78494000
98.79999430	0.00000000	-50.04306000	-14.25320000
98.99999429	0.00000000	-50.00000000	-13.09670000
99.19999428	0.00000000	-48.08686000	-12.67224000
99.39999427	0.00000000	-44.64813000	-12.62918000
99.59999426	0.00000000	-41.15403000	-12.67224000
99.79999425	0.00000000	-37.99213000	-13.00443000
99.99999423	0.00000000	-35.34079000	-13.37352000
100.19999422	0.00000000	-34.17815000	-13.00443000
100.39999421	0.00000000	-34.87328000	-12.62918000
100.59999420	0.00000000	-36.46038000	-12.25394000
100.79999419	0.00000000	-38.78568000	-11.93405000
100.99999417	0.00000000	-41.89838000	-12.72146000
101.19999416	0.00000000	-44.55585000	-14.21014000
101.39999415	0.00000000	-46.54896000	-15.78494000
101.59999414	0.00000000	-47.29946000	-17.32283000
101.79999413	0.00000000	-46.96727000	-18.43627000
101.99999411	0.00000000	-45.76156000	-18.43627000
102.19999410	0.00000000	-43.85457000	-17.27362000
102.39999409	0.00000000	-41.52928000	-15.32357000
102.59999408	0.00000000	-39.57308000	-12.62918000
102.79999407	0.00000000	-37.99213000	-9.98400600
102.99999406	0.00000000	-36.87869000	-8.40305000
103.19999404	0.00000000	-36.87869000	-8.02780400
103.39999403	0.00000000	-37.99213000	-8.82135800
103.59999402	0.00000000	-39.53002000	-11.14050000
103.79999401	0.00000000	-41.11097000	-14.21014000
103.99999400	0.00000000	-42.69193000	-17.32283000
104.19999398	0.00000000	-44.22982000	-19.97416000
104.39999397	0.00000000	-45.34325000	-21.08760000
104.59999396	0.00000000	-45.34325000	-19.97416000
104.79999395	0.00000000	-44.22982000	-17.32283000
104.99999394	0.00000000	-42.69193000	-14.25320000
105.19999392	0.00000000	-41.15403000	-11.51575000
105.39999391	0.00000000	-39.99754000	-9.60875900
105.59999390	0.00000000	-39.57308000	-8.82135800
105.79999389	0.00000000	-39.57308000	-9.60875900
105.99999388	0.00000000	-39.99754000	-11.46653000
106.19999387	0.00000000	-41.11097000	-13.79183000
106.39999385	0.00000000	-42.22441000	-15.74188000
106.59999384	0.00000000	-42.64886000	-17.27362000
106.79999383	0.00000000	-42.69193000	-18.01796000
106.99999382	0.00000000	-42.64886000	-17.27362000
107.19999381	0.00000000	-42.22441000	-15.78494000
107.39999379	0.00000000	-41.11097000	-14.21014000
107.59999378	0.00000000	-40.04060000	-12.67224000
107.79999377	0.00000000	-39.99754000	-11.55881000
107.99999376	0.00000000	-40.73573000	-11.55881000
108.19999375	0.00000000	-41.52928000	-12.67224000
108.39999374	0.00000000	-42.64886000	-14.21014000
108.59999372	0.00000000	-43.43627000	-15.74188000
108.79999371	0.00000000	-43.48548000	-16.85531000
108.99999370	0.00000000	-43.85457000	-16.85531000
109.19999369	0.00000000	-43.76230000	-15.78494000
109.39999368	0.00000000	-42.64886000	-14.58538000
109.59999366	0.00000000	-41.11097000	-13.41658000
109.79999365	0.00000000	-39.57308000	-11.88484000
109.99999364	0.00000000	-38.41658000	-11.14050000
110.19999363	0.00000000	-38.04134000	-11.09129000
110.39999362	0.00000000	-38.41658000	-11.51575000
110.59999360	0.00000000	-39.57308000	-12.67224000
110.79999359	0.00000000	-41.11097000	-14.21014000
110.99999358	0.00000000	-42.64886000	-15.74188000
111.19999357	0.00000000	-43.80536000	-16.89837000
111.39999356	0.00000000	-44.18061000	-17.27362000
111.59999355	0.00000000	-43.85457000	-16.89837000
111.79999353	0.00000000	-43.06717000	-15.78494000
111.99999352	0.00000000	-42.27362000	-14.62844000
112.19999351	0.00000000	-41.11097000	-13.83489000
112.39999350	0.00000000	-39.99754000	-13.04749000
112.59999349	0.00000000	-39.57308000	-12.67224000
112.79999347	0.00000000	-39.57308000	-12.67224000
112.99999346	0.00000000	-39.94832000	-13.04749000
113.19999345	0.00000000	-40.73573000	-13.79183000
113.39999344	0.00000000	-41.48622000	-14.16708000
113.59999343	0.00000000	-42.27362000	-14.21014000
113.79999341	0.00000000	-42.64886000	-14.21014000
113.99999340	0.00000000	-42.69193000	-14.21014000
114.19999339	0.00000000	-42.69193000	-14.21014000
114.39999338	0.00000000	-42.64886000	-14.25320000
114.59999337	0.00000000	-42.27362000	-14.62844000
114.79999336	0.00000000	-41.52928000	-15.36663000
114.99999334	0.00000000	-41.15403000	-15.74188000
115.19999333	0.00000000	-41.06791000	-15.78494000
115.39999332	0.00000000	-40.73573000	-15.74188000
115.59999331	0.00000000	-40.36663000	-15.36663000
115.79999330	0.00000000	-40.73573000	-14.58538000
115.99999328	0.00000000	-41.11097000	-13.83489000
116.19999327	0.00000000	-41.52928000	-13.04749000
116.39999326	0.00000000	-42.27362000	-12.67224000
116.59999325	0.00000000	-42.64886000	-12.62918000
116.79999324	0.00000000	-42.69193000	-12.67224000
116.99999322	0.00000000	-42.64886000	-13.04749000
117.19999321	0.00000000	-42.27362000	-13.83489000
117.39999320	0.00000000	-41.48622000	-14.58538000
117.59999319	0.00000000	-40.69267000	-15.36663000
117.79999318	0.00000000	-39.57308000	-15.74188000
117.99999317	0.00000000	-38.83489000	-15.78494000
118.19999315	0.00000000	-39.19783000	-15.74188000
118.39999314	0.00000000	-39.94832000	-15.36663000
118.59999313	0.00000000	-41.11097000	-14.62844000
118.79999312	0.00000000	-42.27362000	-14.21014000
118.99999311	0.00000000	-43.06717000	-13.79183000
119.19999309	0.00000000	-43.85457000	-13.04749000
119.39999308	0.00000000	-44.18061000	-12.67224000
119.59999307	0.00000000	-43.80536000	-12.62918000
119.79999306	0.00000000	-42.64886000	-12.67224000
119.99999305	0.00000000	-41.15403000	-13.04749000
120.19999303	0.00000000	-39.94832000	-13.79183000
120.39999302	0.00000000	-39.15477000	-14.16708000
120.59999301	0.00000000	-38.36737000	-14.25320000
120.79999300	0.00000000	-38.04134000	-14.58538000
120.99999299	0.00000000	-38.41658000	-14.99139000
121.19999298	0.00000000	-39.57308000	-15.00369000
121.39999296	0.00000000	-41.11097000	-15.40969000
121.59999295	0.00000000	-42.64886000	-15.69267000
121.79999294	0.00000000	-43.80536000	-15.36663000
121.99999293	0.00000000	-44.22982000	-14.62844000
122.19999292	0.00000000	-44.22982000	-14.21014000
122.39999290	0.00000000	-43.80536000	-13.79183000
122.59999289	0.00000000	-42.69193000	-13.04749000
122.79999288	0.00000000	-41.52928000	-12.67224000
122.99999287	0.00000000	-40.73573000	-12.62918000
123.19999286	0.00000000	-39.94832000	-12.67224000
123.39999284	0.00000000	-39.57308000	-13.04749000
123.59999283	0.00000000	-39.53002000	-13.79183000
123.79999282	0.00000000	-39.57308000	-14.21014000
123.99999281	0.00000000	-39.94832000	-14.62844000
124.19999280	0.00000000	-40.73573000	-15.36663000
124.39999279	0.00000000	-41.48622000	-15.74188000
124.59999277	0.00000000	-42.27362000	-15.74188000
124.79999276	0.00000000	-42.64886000	-15.36663000
124.99999275	0.00000000	-42.69193000	-14.58538000
125.19999274	0.00000000	-42.69193000	-13.83489000
125.39999273	0.00000000	-42.69193000	-13.04749000
125.59999271	0.00000000	-42.64886000	-12.67224000
125.79999270	0.00000000	-42.22441000	-12.62918000
125.99999269	0.00000000	-41.11097000	-12.62918000
126.19999268	0.00000000	-39.99754000	-12.62918000
126.39999267	0.00000000	-39.57308000	-12.67224000
126.59999265	0.00000000	-39.53002000	-13.04749000
126.79999264	0.00000000	-39.57308000	-13.79183000
126.99999263	0.00000000	-39.94832000	-14.16708000
127.19999262	0.00000000	-40.73573000	-14.21014000
127.39999261	0.00000000	-41.48622000	-14.21014000
127.59999260	0.00000000	-42.31668000	-14.21014000
127.79999258	0.00000000	-43.02411000	-14.16708000
127.99999257	0.00000000	-43.43627000	-13.83489000
128.19999256	0.00000000	-42.97490000	-13.46580000
128.39999255	0.00000000	-41.89838000	-13.83489000
128.59999254	0.00000000	-40.36663000	-14.16708000
128.79999252	0.00000000	-39.62229000	-14.21014000
128.99999251	0.00000000	-39.53002000	-14.21014000
129.19999250	0.00000000	-39.57308000	-14.21014000
129.39999249	0.00000000	-39.99754000	-14.21014000
129.59999248	0.00000000	-41.11097000	-14.25320000
129.79999246	0.00000000	-42.27362000	-14.62844000
129.99999245	0.00000000	-43.06717000	-15.32357000
130.19999244	0.00000000	-43.80536000	-15.32357000
130.39999243	0.00000000	-43.80536000	-14.62844000
130.59999242	0.00000000	-43.06717000	-14.21014000
130.79999241	0.00000000	-42.27362000	-13.79183000
130.99999239	0.00000000	-41.11097000	-13.04749000
131.19999238	0.00000000	-39.99754000	-12.72146000
131.39999237	0.00000000	-39.57308000	-13.04749000
131.59999236	0.00000000	-39.57308000	-13.79183000
131.79999235	0.00000000	-39.94832000	-14.21014000
131.99999233	0.00000000	-40.73573000	-14.62844000
132.19999232	0.00000000	-41.48622000	-15.36663000
132.39999231	0.00000000	-42.27362000	-15.69267000
132.59999230	0.00000000	-42.64886000	-15.36663000
132.79999229	0.00000000	-42.64886000	-14.58538000
132.99999227	0.00000000	-42.27362000	-13.83489000
133.19999226	0.00000000	-41.52928000	-13.00443000
133.39999225	0.00000000	-41.11097000	-12.25394000
133.59999224	0.00000000	-40.69267000	-11.51575000
133.79999223	0.00000000	-39.99754000	-11.51575000
133.99999222	0.00000000	-39.99754000	-12.25394000
134.19999220	0.00000000	-40.69267000	-13.00443000
134.39999219	0.00000000	-41.06791000	-13.83489000
134.59999218	0.00000000	-41.11097000	-14.58538000
134.79999217	0.00000000	-41.11097000	-15.36663000
134.99999216	0.00000000	-41.06791000	-15.74188000
135.19999214	0.00000000	-40.69267000	-15.74188000
135.39999213	0.00000000	-39.94832000	-15.32357000
135.59999212	0.00000000	-39.62229000	-14.21014000
135.79999211	0.00000000	-39.94832000	-13.09670000
135.99999210	0.00000000	-40.69267000	-12.67224000
136.19999208	0.00000000	-41.11097000	-12.62918000
136.39999207	0.00000000	-41.52928000	-12.62918000
136.59999206	0.00000000	-42.27362000	-12.62918000
136.79999205	0.00000000	-42.59965000	-12.67224000
136.99999204	0.00000000	-42.27362000	-13.04749000
137.19999203	0.00000000	-41.48622000	-13.79183000
137.39999201	0.00000000	-40.73573000	-14.16708000
137.59999200	0.00000000	-39.94832000	-14.25320000
137.79999199	0.00000000	-39.57308000	-14.62844000
137.99999198	0.00000000	-39.53002000	-15.36663000
138.19999197	0.00000000	-39.57308000	-15.74188000
138.39999195	0.00000000	-39.94832000	-15.78494000
138.59999194	0.00000000	-40.73573000	-15.74188000
138.79999193	0.00000000	-41.48622000	-15.36663000
138.99999192	0.00000000	-42.27362000	-14.62844000
139.19999191	0.00000000	-42.64886000	-14.21014000
139.39999189	0.00000000	-42.69193000	-13.79183000
139.59999188	0.00000000	-42.64886000	-13.04749000
139.79999187	0.00000000	-42.22441000	-12.67224000
139.99999186	0.00000000	-41.11097000	-12.67224000
140.19999185	0.00000000	-39.99754000	-13.04749000
140.39999184	0.00000000	-39.57308000	-13.83489000
140.59999182	0.00000000	-39.57308000	-14.58538000
140.79999181	0.00000000	-39.94832000	-15.40969000
140.99999180	0.00000000	-40.69267000	-16.11712000
141.19999179	0.00000000	-41.06791000	-16.52928000
141.39999178	0.00000000	-41.15403000	-16.11712000
141.59999176	0.00000000	-41.48622000	-15.36663000
141.79999175	0.00000000	-41.85531000	-14.21014000
141.99999174	0.00000000	-41.48622000	-13.04749000
142.19999173	0.00000000	-41.15403000	-12.29700000
142.39999172	0.00000000	-41.11097000	-11.88484000
142.59999170	0.00000000	-41.11097000	-12.25394000
142.79999169	0.00000000	-41.11097000	-12.62918000
142.99999168	0.00000000	-41.11097000	-13.09670000
143.19999167	0.00000000	-41.11097000	-14.21014000
143.39999166	0.00000000	-41.11097000	-15.32357000
143.59999165	0.00000000	-41.11097000	-15.74188000
143.79999163	0.00000000	-41.11097000	-15.78494000
143.99999162	0.00000000	-41.11097000	-15.74188000
144.19999161	0.00000000	-41.11097000	-15.36663000
144.39999160	0.00000000	-41.06791000	-14.58538000
144.59999159	0.00000000	-40.69267000	-13.83489000
144.79999157	0.00000000	-39.94832000	-13.04749000
144.99999156	0.00000000	-39.62229000	-12.67224000
145.19999155	0.00000000	-39.94832000	-12.67224000
145.39999154	0.00000000	-40.69267000	-13.04749000
145.59999153	0.00000000	-41.06791000	-13.79183000
145.79999151	0.00000000	-41.11097000	-14.16708000
145.99999150	0.00000000	-41.11097000	-14.21014000
146.19999149	0.00000000	-41.11097000	-14.21014000
146.39999148	0.00000000	-41.11097000	-14.21014000
146.59999147	0.00000000	-41.06791000	-14.16708000
146.79999146	0.00000000	-40.69267000	-13.83489000
146.99999144	0.00000000	-39.94832000	-13.46580000
147.19999143	0.00000000	-39.57308000	-13.83489000
147.39999142	0.00000000	-39.57308000	-14.11786000
147.59999141	0.00000000	-39.94832000	-13.79183000
147.79999140	0.00000000	-40.69267000	-13.04749000
147.99999138	0.00000000	-41.06791000	-12.67224000
148.19999137	0.00000000	-41.11097000	-12.62918000
148.39999136	0.00000000	-41.11097000	-12.62918000
148.59999135	0.00000000	-41.11097000	-12.62918000
148.79999134	0.00000000	-41.11097000	-12.67224000
148.99999132	0.00000000	-41.06791000	-13.04749000
149.19999131	0.00000000	-40.73573000	-13.83489000
149.39999130	0.00000000	-40.32357000	-14.53617000
149.59999129	0.00000000	-40.27436000	-14.94833000
149.79999128	0.00000000	-39.53002000	-14.58538000
149.99999127	0.00000000	-38.87795000	-14.25320000
150.19999125	0.00000000	-39.57308000	-14.21014000
150.39999124	0.00000000	-40.64345000	-14.16708000
150.59999123	0.00000000	-41.06791000	-13.79183000
150.79999122	0.00000000	-41.11097000	-13.04749000
150.99999121	0.00000000	-41.15403000	-12.67224000
151.19999119	0.00000000	-41.48622000	-12.67224000
151.39999118	0.00000000	-41.85531000	-13.04749000
151.59999117	0.00000000	-41.48622000	-13.79183000
151.79999116	0.00000000	-41.15403000	-14.16708000
151.99999115	0.00000000	-41.06791000	-14.21014000
152.19999113	0.00000000	-40.69267000	-14.21014000
152.39999112	0.00000000	-39.99754000	-14.21014000
152.59999111	0.00000000	-39.94832000	-14.21014000
152.79999110	0.00000000	-40.27436000	-14.21014000
152.99999109	0.00000000	-39.94832000	-14.21014000
153.19999108	0.00000000	-39.99754000	-14.21014000
153.39999106	0.00000000	-40.69267000	-14.16708000
153.59999105	0.00000000	-41.06791000	-13.79183000
153.79999104	0.00000000	-41.11097000	-13.09670000
153.99999103	0.00000000	-41.11097000	-13.09670000
154.19999102	0.00000000	-41.11097000	-13.79183000
154.39999100	0.00000000	-41.11097000	-14.16708000
154.59999099	0.00000000	-41.11097000	-14.16708000
154.79999098	0.00000000	-41.11097000	-13.83489000
154.99999097	0.00000000	-41.11097000	-13.46580000
155.19999096	0.00000000	-41.06791000	-13.83489000
155.39999094	0.00000000	-40.69267000	-14.16708000
155.59999093	0.00000000	-39.94832000	-14.21014000
155.79999092	0.00000000	-39.57308000	-14.21014000
155.99999091	0.00000000	-39.53002000	-14.21014000
156.19999090	0.00000000	-39.57308000	-14.21014000
156.39999089	0.00000000	-39.94832000	-14.16708000
156.59999087	0.00000000	-40.69267000	-13.79183000
156.79999086	0.00000000	-41.06791000	-13.04749000
156.99999085	0.00000000	-41.11097000	-12.67224000
157.19999084	0.00000000	-41.11097000	-12.62918000
157.39999083	0.00000000	-41.11097000	-12.62918000
157.59999081	0.00000000	-41.11097000	-12.62918000
157.79999080	0.00000000	-41.11097000	-12.67224000
157.99999079	0.00000000	-41.06791000	-13.04749000
158.19999078	0.00000000	-40.69267000	-13.79183000
158.39999077	0.00000000	-39.94832000	-14.16708000
158.59999075	0.00000000	-39.57308000	-14.21014000
158.79999074	0.00000000	-39.53002000	-14.21014000
158.99999073	0.00000000	-39.53002000	-14.21014000
159.19999072	0.00000000	-39.57308000	-14.16708000
159.39999071	0.00000000	-39.94832000	-13.79183000
159.59999070	0.00000000	-40.69267000	-13.00443000
159.79999068	0.00000000	-41.06791000	-12.29700000
159.99999067	0.00000000	-41.11097000	-11.88484000
160.19999066	0.00000000	-41.11097000	-12.25394000
160.39999065	0.00000000	-41.11097000	-12.62918000
160.59999064	0.00000000	-41.11097000	-13.04749000
160.79999062	0.00000000	-41.11097000	-13.79183000
160.99999061	0.00000000	-41.11097000	-14.16708000
161.19999060	0.00000000	-41.06791000	-14.21014000
161.39999059	0.00000000	-40.69267000	-14.21014000
161.59999058	0.00000000	-39.94832000	-14.21014000
161.79999056	0.00000000	-39.57308000	-14.21014000
161.99999055	0.00000000	-39.53002000	-14.21014000
162.19999054	0.00000000	-39.53002000	-14.16708000
162.39999053	0.00000000	-39.57308000	-13.79183000
162.59999052	0.00000000	-39.94832000	-13.04749000
162.79999051	0.00000000	-40.69267000	-12.67224000
162.99999049	0.00000000	-41.06791000	-12.62918000
163.19999048	0.00000000	-41.11097000	-12.62918000
163.39999047	0.00000000	-41.11097000	-12.67224000
163.59999046	0.00000000	-41.11097000	-13.04749000
163.79999045	0.00000000	-41.11097000	-13.79183000
163.99999043	0.00000000	-41.11097000	-14.16708000
164.19999042	0.00000000	-41.06791000	-14.21014000
164.39999041	0.00000000	-40.69267000	-14.21014000
164.59999040	0.00000000	-39.94832000	-14.21014000
164.79999039	0.00000000	-39.57308000	-14.21014000
164.99999037	0.00000000	-39.53002000	-14.21014000
165.19999036	0.00000000	-39.53002000	-14.21014000
165.39999035	0.00000000	-39.53002000	-14.21014000
165.59999034	0.00000000	-39.57308000	-14.21014000
165.79999033	0.00000000	-39.94832000	-14.16708000
165.99999032	0.00000000	-40.69267000	-13.83489000
166.19999030	0.00000000	-41.06791000	-13.46580000
166.39999029	0.00000000	-41.11097000	-13.83489000
166.59999028	0.00000000	-41.11097000	-14.16708000
166.79999027	0.00000000	-41.11097000	-14.21014000
166.99999026	0.00000000	-41.06791000	-14.16708000
167.19999024	0.00000000	-40.73573000	-13.83489000
167.39999023	0.00000000	-40.32357000	-13.46580000
167.59999022	0.00000000	-40.31742000	-13.83489000
167.79999021	0.00000000	-39.90526000	-14.11786000
167.99999020	0.00000000	-39.57308000	-13.83489000
168.19999018	0.00000000	-39.53002000	-13.46580000
168.39999017	0.00000000	-39.53002000	-13.83489000
168.59999016	0.00000000	-39.53002000	-14.11786000
168.79999015	0.00000000	-39.57308000	-13.83489000
168.99999014	0.00000000	-39.94832000	-13.46580000
169.19999013	0.00000000	-40.69267000	-13.83489000
169.39999011	0.00000000	-41.06791000	-14.16708000
169.59999010	0.00000000	-41.11097000	-14.21014000
169.79999009	0.00000000	-41.06791000	-14.21014000
169.99999008	0.00000000	-40.73573000	-14.21014000
170.19999007	0.00000000	-40.36663000	-14.21014000
170.39999005	0.00000000	-40.73573000	-14.21014000
170.59999004	0.00000000	-41.01870000	-14.21014000
170.79999003	0.00000000	-40.69267000	-14.21014000
170.99999002	0.00000000	-39.94832000	-14.21014000
171.19999001	0.00000000	-39.57308000	-14.21014000
171.39998999	0.00000000	-39.53002000	-14.21014000
171.59998998	0.00000000	-39.53002000	-14.21014000
171.79998997	0.00000000	-39.57308000	-14.21014000
171.99998996	0.00000000	-39.94832000	-14.21014000
172.19998995	0.00000000	-40.69267000	-14.21014000
172.39998994	0.00000000	-41.01870000	-14.16708000
172.59998992	0.00000000	-40.73573000	-13.83489000
172.79998991	0.00000000	-40.36663000	-13.46580000
172.99998990	0.00000000	-40.69267000	-13.83489000
173.19998989	0.00000000	-40.64345000	-14.16708000
173.39998988	0.00000000	-39.94832000	-14.21014000
173.59998986	0.00000000	-39.57308000	-14.21014000
173.79998985	0.00000000	-39.57308000	-14.21014000
173.99998984	0.00000000	-39.90526000	-14.21014000
174.19998983	0.00000000	-40.31742000	-14.21014000
174.39998982	0.00000000	-40.28051000	-14.21014000
174.59998980	0.00000000	-40.36048000	-14.21014000
174.79998979	0.00000000	-40.32357000	-14.21014000
174.99998978	0.00000000	-40.73573000	-14.21014000
175.19998977	0.00000000	-41.06791000	-14.21014000
175.39998976	0.00000000	-41.11097000	-14.21014000
175.59998975	0.00000000	-41.11097000	-14.16708000
175.79998973	0.00000000	-41.06791000	-13.79183000
175.99998972	0.00000000	-40.69267000	-13.04749000
176.19998971	0.00000000	-39.94832000	-12.67224000
176.39998970	0.00000000	-39.57308000	-12.62918000
176.59998969	0.00000000	-39.53002000	-12.67224000
176.79998967	0.00000000	-39.57308000	-13.04749000
176.99998966	0.00000000	-39.90526000	-13.79183000
177.19998965	0.00000000	-40.31742000	-14.16708000
177.39998964	0.00000000	-40.32357000	-14.21014000
177.59998963	0.00000000	-40.73573000	-14.21014000
177.79998961	0.00000000	-41.06791000	-14.21014000
177.99998960	0.00000000	-41.11097000	-14.21014000
178.19998959	0.00000000	-41.06791000	-14.21014000
178.39998958	0.00000000	-40.73573000	-14.21014000
178.59998957	0.00000000	-40.32357000	-14.16708000
178.79998956	0.00000000	-40.31742000	-13.79183000
178.99998954	0.00000000	-39.90526000	-13.04749000
179.19998953	0.00000000	-39.57308000	-12.72146000
179.39998952	0.00000000	-39.53002000	-13.00443000
179.59998951	0.00000000	-39.53002000	-13.41658000
179.79998950	0.00000000	-39.53002000	-13.42274000
179.99998948	0.00000000	-39.57308000	-13.83489000
180.19998947	0.00000000	-39.94832000	-14.16708000
180.39998946	0.00000000	-40.64345000	-14.21014000
180.59998945	0.00000000	-40.69267000	-14.21014000
180.79998944	0.00000000	-40.36663000	-14.21014000
180.99998942	0.00000000	-40.73573000	-14.16708000
181.19998941	0.00000000	-41.06791000	-13.79183000
181.39998940	0.00000000	-41.11097000	-13.04749000
181.59998939	0.00000000	-41.11097000	-12.67224000
181.79998938	0.00000000	-41.06791000	-12.62918000
181.99998937	0.00000000	-40.69267000	-12.62918000
182.19998935	0.00000000	-39.94832000	-12.67224000
182.39998934	0.00000000	-39.57308000	-13.04749000
182.59998933	0.00000000	-39.53002000	-13.79183000
182.79998932	0.00000000	-39.53002000	-14.16708000
182.99998931	0.00000000	-39.53002000	-14.21014000
183.19998929	0.00000000	-39.53002000	-14.21014000
183.39998928	0.00000000	-39.53002000	-14.21014000
183.59998927	0.00000000	-39.57308000	-14.21014000
183.79998926	0.00000000	-39.90526000	-14.21014000
183.99998925	0.00000000	-40.31742000	-14.16708000
184.19998923	0.00000000	-40.32357000	-13.79183000
184.39998922	0.00000000	-40.73573000	-13.04749000
184.59998921	0.00000000	-41.06791000	-12.67224000
184.79998920	0.00000000	-41.06791000	-12.62918000
184.99998919	0.00000000	-40.69267000	-12.62918000
185.19998918	0.00000000	-39.94832000	-12.62918000
185.39998916	0.00000000	-39.62229000	-12.67224000
185.59998915	0.00000000	-39.90526000	-13.00443000
185.79998914	0.00000000	-40.27436000	-13.41658000
185.99998913	0.00000000	-39.90526000	-13.42274000
186.19998912	0.00000000	-39.57308000	-13.83489000
186.39998910	0.00000000	-39.53002000	-14.16708000
186.59998909	0.00000000	-39.53002000	-14.21014000
186.79998908	0.00000000	-39.57308000	-14.16708000
186.99998907	0.00000000	-39.90526000	-13.79183000
187.19998906	0.00000000	-40.31742000	-13.09670000
187.39998904	0.00000000	-40.32357000	-13.04749000
187.59998903	0.00000000	-40.69267000	-13.37352000
187.79998902	0.00000000	-40.69267000	-13.00443000
187.99998901	0.00000000	-40.32357000	-12.67224000
188.19998900	0.00000000	-40.31742000	-12.67224000
188.39998899	0.00000000	-39.90526000	-13.04749000
188.59998897	0.00000000	-39.57308000	-13.79183000
188.79998896	0.00000000	-39.53002000	-14.16708000
188.99998895	0.00000000	-39.53002000	-14.21014000
189.19998894	0.00000000	-39.53002000	-14.21014000
189.39998893	0.00000000	-39.53002000	-14.21014000
189.59998891	0.00000000	-39.53002000	-14.21014000
189.79998890	0.00000000	-39.57308000	-14.21014000
189.99998889	0.00000000	-39.94832000	-14.21014000
190.19998888	0.00000000	-40.69267000	-14.16708000
190.39998887	0.00000000	-41.06791000	-13.83489000
190.59998885	0.00000000	-41.11097000	-13.42274000
190.79998884	0.00000000	-41.06791000	-13.41658000
190.99998883	0.00000000	-40.69267000	-13.00443000
191.19998882	0.00000000	-39.90526000	-12.67224000
191.39998881	0.00000000	-39.19783000	-12.62918000
191.59998880	0.00000000	-38.78568000	-12.67224000
191.79998878	0.00000000	-39.15477000	-13.00443000
191.99998877	0.00000000	-39.48696000	-13.41658000
192.19998876	0.00000000	-39.53002000	-13.42274000
192.39998875	0.00000000	-39.53002000	-13.83489000
192.59998874	0.00000000	-39.53002000	-14.16708000
192.79998872	0.00000000	-39.53002000	-14.16708000
192.99998871	0.00000000	-39.53002000	-13.83489000
193.19998870	0.00000000	-39.57308000	-13.42274000
193.39998869	0.00000000	-39.90526000	-13.41658000
193.59998868	0.00000000	-40.27436000	-13.00443000
193.79998866	0.00000000	-39.90526000	-12.67224000
193.99998865	0.00000000	-39.57308000	-12.62918000
194.19998864	0.00000000	-39.53002000	-12.62918000
194.39998863	0.00000000	-39.53002000	-12.62918000
194.59998862	0.00000000	-39.53002000	-12.62918000
194.79998861	0.00000000	-39.53002000	-12.62918000
194.99998859	0.00000000	-39.53002000	-12.67224000
195.19998858	0.00000000	-39.53002000	-13.04749000
195.39998857	0.00000000	-39.53002000	-13.79183000
195.59998856	0.00000000	-39.53002000	-14.16708000
195.79998855	0.00000000	-39.57308000	-14.21014000
195.99998853	0.00000000	-39.90526000	-14.21014000
