Time	Channel A	Channel B	Channel C
(us)	(V)	(mV)	(mV)

-4.49999956	0.00000000	-11.81102000	-7.89247000
-4.29999957	0.00000000	-11.44193000	-7.89247000
-4.09999958	0.00000000	-11.10974000	-7.89247000
-3.89999959	0.00000000	-11.06668000	-7.89247000
-3.69999960	0.00000000	-11.06668000	-7.89247000
-3.49999962	0.00000000	-11.06668000	-7.89247000
-3.29999963	0.00000000	-11.06668000	-7.89247000
-3.09999964	0.00000000	-11.06668000	-7.89247000
-2.89999965	0.00000000	-11.06668000	-7.89247000
-2.69999966	0.00000000	-11.06668000	-7.89247000
-2.49999968	0.00000000	-11.06668000	-7.89247000
-2.29999969	0.00000000	-11.06668000	-7.89247000
-2.09999970	0.00000000	-11.06668000	-7.89247000
-1.89999971	0.00000000	-11.06668000	-7.89247000
-1.69999972	0.00000000	-11.06668000	-7.89247000
-1.49999973	0.00000000	-11.06668000	-7.89247000
-1.29999975	0.00000000	-11.06668000	-7.89247000
-1.09999976	0.00000000	-11.06668000	-7.89247000
-0.89999977	0.00000000	-11.10974000	-7.89247000
-0.69999978	0.00000000	-11.44193000	-7.89247000
-0.49999979	0.00000000	-11.81102000	-7.89247000
-0.29999981	0.31803640	-11.44193000	-7.89247000
-0.09999982	0.63668800	-11.10974000	-7.89247000
0.10000017	0.95533960	-11.06668000	-7.89247000
0.30000016	0.95533960	-11.06668000	-7.89247000
0.50000015	0.79601380	-11.10974000	-7.89247000
0.70000013	0.15871060	-11.44193000	-7.89247000
0.90000012	-0.63668800	-11.85408000	-7.89247000
1.10000011	-1.59264300	-11.81717000	-7.89247000
1.30000010	-2.38927200	-11.85408000	-7.89247000
1.50000009	-2.70792300	-11.44193000	-7.89247000
1.70000008	-2.38927200	-11.10974000	-7.89247000
1.90000006	-1.11466500	-11.06668000	-7.89247000
2.10000005	0.79601380	-11.06668000	-7.89247000
2.30000004	2.86724900	-11.10974000	-7.89247000
2.50000003	4.61921700	-11.48499000	-7.93553100
2.70000002	5.25652100	-12.22933000	-8.31077700
2.90000000	4.77854300	-12.55536000	-9.05511800
3.09999999	2.70792300	-12.22933000	-9.43036400
3.29999998	-0.47736220	-11.53420000	-9.47342500
3.49999997	-3.98191400	-11.48499000	-9.43036400
3.69999996	-6.69045300	-11.85408000	-9.05511800
3.89999994	-7.96444400	-11.81717000	-8.31077700
4.09999993	-7.32714100	-11.85408000	-7.93553100
4.29999992	-4.77854300	-11.44193000	-7.84940900
4.49999991	-0.63668800	-11.10974000	-7.51722400
4.69999990	3.82258900	-11.06668000	-7.19734200
4.89999989	7.48646600	-11.06668000	-7.89247000
5.09999987	9.39837600	-11.10974000	-8.58759800
5.29999986	8.92039900	-11.44193000	-8.31077700
5.49999985	6.21247500	-11.85408000	-8.35998900
5.69999984	1.91129400	-11.81717000	-9.05511800
5.89999983	-2.86724900	-11.85408000	-9.38115100
6.09999981	-7.00848900	-11.44193000	-9.05511800
6.29999980	-9.23905000	-11.10974000	-8.31077700
6.49999979	-9.07972400	-11.06668000	-7.93553100
6.69999978	-6.84916400	-11.06668000	-7.89247000
6.89999977	-2.86724900	-11.06668000	-7.89247000
7.09999975	1.43331700	-11.06668000	-7.89247000
7.29999974	5.09719500	-11.06668000	-7.89247000
7.49999973	7.32714100	-11.06668000	-7.89247000
7.69999972	7.64579200	-11.10974000	-7.93553100
7.89999971	6.05315000	-11.44193000	-8.31077700
8.09999970	3.18590100	-11.81102000	-9.00590400
8.29999968	-0.15871060	-11.44193000	-9.00590400
8.49999967	-3.02657500	-11.10974000	-8.31077700
8.69999966	-4.77854300	-11.06668000	-7.93553100
8.89999965	-5.25652100	-11.06668000	-7.89247000
9.09999964	-4.30056600	-11.06668000	-7.89247000
9.29999962	-2.54859700	-11.06668000	-7.89247000
9.49999961	-0.47736220	-11.06668000	-7.89247000
9.69999960	1.27399100	-11.06668000	-7.89247000
9.89999959	2.22994600	-11.06668000	-7.89247000
10.09999958	2.54859700	-11.06668000	-7.93553100
10.29999956	2.07062000	-11.06668000	-8.26771600
10.49999955	1.27399100	-11.06668000	-8.63681000
10.69999954	0.47736220	-11.06668000	-8.26771600
10.89999953	-0.31803640	-11.06668000	-7.93553100
11.09999952	-0.79601380	-11.10974000	-7.89247000
11.29999951	-0.95533960	-11.44193000	-7.89247000
11.49999949	-0.95533960	-11.81102000	-7.89247000
11.69999948	-0.63668800	-11.44193000	-7.89247000
11.89999947	-0.47736220	-11.10974000	-7.89247000
12.09999946	-0.15871060	-11.06668000	-7.89247000
12.29999945	-0.15871060	-11.06668000	-7.89247000
12.49999943	0.00000000	-11.06668000	-7.89247000
12.69999942	0.00000000	-11.06668000	-7.89247000
12.89999941	0.00000000	-11.06668000	-7.89247000
13.09999940	0.00000000	-11.10974000	-7.89247000
13.29999939	0.15871060	-11.44193000	-7.89247000
13.49999937	0.00000000	-11.81102000	-7.89247000
13.69999936	0.00000000	-11.48499000	-7.89247000
13.89999935	-0.15871060	-11.48499000	-7.89247000
14.09999934	-0.15871060	-11.81102000	-7.89247000
14.29999933	-0.15871060	-11.44193000	-7.89247000
14.49999932	-0.15871060	-11.10974000	-7.89247000
14.69999930	-0.15871060	-11.06668000	-7.89247000
14.89999929	0.00000000	-11.06668000	-7.89247000
15.09999928	0.00000000	-11.06668000	-7.89247000
15.29999927	0.00000000	-11.06668000	-7.89247000
15.49999926	0.00000000	-11.06668000	-7.89247000
15.69999924	0.00000000	-11.10974000	-7.89247000
15.89999923	0.00000000	-11.48499000	-7.89247000
16.09999922	0.00000000	-12.18012000	-7.89247000
16.29999921	0.00000000	-12.18012000	-7.89247000
16.49999920	-0.15871060	-11.48499000	-7.89247000
16.69999919	-0.15871060	-11.10974000	-7.89247000
16.89999917	0.00000000	-11.02362000	-7.89247000
17.09999916	0.00000000	-10.64838000	-7.89247000
17.29999915	0.00000000	-9.90403500	-7.89247000
17.49999914	0.00000000	-9.52879000	-7.89247000
17.69999913	0.00000000	-9.52879000	-7.89247000
17.89999911	0.00000000	-9.95324800	-7.89247000
18.09999910	0.00000000	-11.10974000	-7.89247000
18.29999909	0.00000000	-12.64764000	-7.89247000
18.49999908	0.00000000	-14.22859000	-7.89247000
18.69999907	0.00000000	-15.76649000	-7.89247000
18.89999905	0.00000000	-16.87992000	-7.89247000
19.09999904	-0.15871060	-16.87992000	-7.89247000
19.29999903	0.00000000	-15.67421000	-7.89247000
19.49999902	0.00000000	-13.34276000	-7.89247000
19.69999901	0.00000000	-9.86097400	-7.89247000
19.89999900	0.00000000	-6.36687900	-7.89247000
20.09999898	0.00000000	-3.25418300	-7.89247000
20.29999897	0.00000000	-1.02116100	-7.89247000
20.49999896	0.00000000	-1.06422200	-7.89247000
20.69999895	0.00000000	-3.80782500	-7.89247000
20.89999894	0.00000000	-8.92593500	-7.89247000
21.09999892	0.00000000	-16.22785000	-7.89247000
21.29999891	0.00000000	-23.89887000	-7.89247000
21.49999890	0.00000000	-29.30610000	-7.93553100
21.69999889	0.00000000	-31.62524000	-8.31077700
21.89999888	0.00000000	-29.90895000	-9.05511800
22.09999886	0.00000000	-23.30216000	-9.43036400
22.29999885	0.00000000	-12.46924000	-9.47342500
22.49999884	0.00000000	-0.13533460	-9.43036400
22.69999883	0.00000000	11.07283000	-9.05511800
22.89999882	0.00000000	18.28863000	-8.31077700
23.09999881	0.00000000	18.98376000	-7.93553100
23.29999879	0.00000000	12.00787000	-7.84940900
23.49999878	0.00000000	-1.15649600	-7.47416300
23.69999877	0.00000000	-17.85802000	-6.72982200
23.89999876	0.00000000	-35.21161000	-6.35457700
24.09999875	0.00000000	-48.98499000	-6.35457700
24.29999873	0.00000000	-54.71210000	-6.77903500
24.49999872	0.00000000	-50.43061000	-7.89247000
24.69999871	0.00000000	-36.84793000	-9.09817800
24.89999870	0.00000000	-16.37549000	-10.31004000
25.09999869	0.00000000	6.37303100	-12.21087000
25.29999867	0.00000000	25.68897000	-13.69956000
25.49999866	0.00000000	37.27239000	-14.07480000
25.69999865	0.00000000	38.34277000	-13.28125000
25.89999864	0.00000000	27.82972000	-10.91289000
26.09999863	0.00000000	7.40034400	-7.43110200
26.29999862	0.00000000	-18.04257000	-3.15575800
26.49999860	0.00000000	-42.00910000	1.02116100
26.69999859	0.00000000	-59.40575000	3.67249000
26.89999858	0.00000000	-66.33858000	3.67249000
27.09999857	0.00000000	-60.90059000	0.93503930
27.29999856	0.00000000	-44.32824000	-4.17691900
27.49999854	0.00000000	-20.37401000	-11.55881000
27.69999853	0.00000000	5.08120100	-19.97416000
27.89999852	0.00000000	26.38410000	-26.84547000
28.09999851	0.00000000	38.71801000	-29.91511000
28.29999850	0.00000000	39.54847000	-28.34030000
28.49999848	0.00000000	28.80167000	-22.10876000
28.69999847	0.00000000	9.86712600	-12.03248000
28.89999846	0.00000000	-12.97982000	-0.04306102
29.09999845	0.00000000	-35.35310000	11.52190000
29.29999844	0.00000000	-51.55019000	19.98031000
29.49999843	0.00000000	-57.87401000	22.95768000
29.69999841	0.00000000	-54.06004000	19.05143000
29.89999840	0.00000000	-41.72613000	8.23080600
30.09999839	0.00000000	-23.53592000	-6.82209600
30.29999838	0.00000000	-3.85088600	-23.08686000
30.49999837	0.00000000	13.21358000	-37.30315000
30.69999835	0.00000000	24.05881000	-45.76156000
30.89999834	0.00000000	26.80241000	-46.13681000
31.09999833	0.00000000	21.07529000	-38.42273000
31.29999832	0.00000000	8.75369100	-24.06496000
31.49999831	0.00000000	-6.69906400	-5.89320800
31.69999829	0.00000000	-22.23179000	12.59227000
31.89999828	0.00000000	-34.56570000	26.85777000
32.09999827	0.00000000	-41.21555000	33.45841000
32.29999826	0.00000000	-40.84645000	31.54527000
32.49999825	0.00000000	-34.32578000	21.46899000
32.69999824	0.00000000	-23.16068000	5.20423200
32.89999822	0.00000000	-10.41462000	-14.07480000
33.09999821	0.00000000	0.79970470	-32.19119000
33.29999820	0.00000000	8.56299200	-44.59892000
33.49999819	0.00000000	10.89444000	-49.29256000
33.69999818	0.00000000	7.86786400	-45.75541000
33.89999816	0.00000000	0.55979330	-34.19045000
34.09999815	0.00000000	-9.06742000	-17.27977000
34.29999814	0.00000000	-18.32554000	0.51673230
34.49999813	0.00000000	-25.25836000	15.61270000
34.69999812	0.00000000	-27.95275000	25.31988000
34.89999810	0.00000000	-25.71973000	27.60827000
35.09999809	0.00000000	-20.04183000	22.25640000
35.29999808	0.00000000	-13.06594000	10.27313000
35.49999807	0.00000000	-6.50221400	-5.11195900
35.69999806	0.00000000	-1.53174200	-20.57702000
35.89999805	0.00000000	0.00615157	-32.47416000
36.09999803	0.00000000	-2.22687000	-37.95522000
36.29999802	0.00000000	-6.83439900	-36.05438000
36.49999801	0.00000000	-12.60458000	-28.00812000
36.69999800	0.00000000	-17.95029000	-15.69882000
36.89999799	0.00000000	-21.06914000	-2.63902500
37.09999797	0.00000000	-21.48745000	7.76943800
37.29999796	0.00000000	-19.53125000	13.19513000
37.49999795	0.00000000	-15.29897000	12.45694000
37.69999794	0.00000000	-9.95324800	6.32381900
37.89999793	0.00000000	-5.33956700	-3.62327700
38.09999791	0.00000000	-2.60211600	-14.30241000
38.29999790	0.00000000	-2.22687000	-22.02264000
38.49999789	0.00000000	-4.13385800	-25.09227000
38.69999788	0.00000000	-7.94783400	-22.81004000
38.89999787	0.00000000	-12.18012000	-15.51427000
39.09999786	0.00000000	-15.71727000	-6.02854300
39.29999784	0.00000000	-18.46087000	2.83587600
39.49999783	0.00000000	-19.95571000	8.13853400
39.69999782	0.00000000	-19.62352000	8.55068800
39.89999781	0.00000000	-17.72268000	3.53715500
40.09999780	0.00000000	-15.39124000	-5.24729300
40.29999778	0.00000000	-12.64764000	-15.23130000
40.49999777	0.00000000	-9.95324800	-23.64665000
40.69999776	0.00000000	-7.94783400	-27.87278000
40.89999775	0.00000000	-6.41609200	-26.71629000
41.09999774	0.00000000	-5.62869100	-20.57702000
41.29999772	0.00000000	-5.99163300	-10.96211000
41.49999771	0.00000000	-6.74212600	-0.59670270
41.69999770	0.00000000	-7.99704600	7.85556000
41.89999769	0.00000000	-9.90403500	12.08169000
42.09999768	0.00000000	-12.22933000	10.92520000
42.29999767	0.00000000	-14.18553000	4.82898600
42.49999765	0.00000000	-15.80955000	-4.41067900
42.69999764	0.00000000	-17.29823000	-13.98868000
42.89999763	0.00000000	-18.04257000	-21.73966000
43.09999762	0.00000000	-17.29823000	-25.55364000
43.29999761	0.00000000	-15.80955000	-24.89542000
43.49999759	0.00000000	-14.18553000	-20.30020000
43.69999758	0.00000000	-12.22933000	-13.74262000
43.89999757	0.00000000	-9.95324800	-6.40378900
44.09999756	0.00000000	-8.37229300	0.09842519
44.29999755	0.00000000	-7.48646600	3.58021600
44.49999753	0.00000000	-6.36687900	3.71555100
44.69999752	0.00000000	-5.67175200	1.39640700
44.89999751	0.00000000	-6.41609200	-2.46063000
45.09999750	0.00000000	-7.90477300	-7.47416300
45.29999749	0.00000000	-9.52879000	-12.07554000
45.49999748	0.00000000	-11.53420000	-15.18824000
45.69999746	0.00000000	-14.27165000	-16.39395000
45.89999745	0.00000000	-17.34744000	-15.64960000
46.09999744	0.00000000	-20.08489000	-13.74262000
46.29999743	0.00000000	-21.99803000	-11.00517000
46.49999742	0.00000000	-22.69316000	-7.93553100
46.69999740	0.00000000	-21.11220000	-5.19808000
46.89999739	0.00000000	-17.21210000	-3.24803100
47.09999738	0.00000000	-11.76181000	-2.12844500
47.29999737	0.00000000	-5.21038300	-2.50369100
47.49999736	0.00000000	0.55979330	-4.40452700
47.69999734	0.00000000	4.05388800	-6.72982200
47.89999733	0.00000000	4.74901600	-9.47342500
48.09999732	0.00000000	1.58710600	-12.11860000
48.29999731	0.00000000	-5.33956700	-13.69956000
48.49999730	0.00000000	-14.18553000	-14.07480000
48.69999729	0.00000000	-22.69316000	-13.28125000
48.89999727	0.00000000	-28.88164000	-10.96211000
49.09999726	0.00000000	-31.58218000	-7.89247000
49.29999725	0.00000000	-29.95817000	-4.77977300
49.49999724	0.00000000	-23.76353000	-2.08538400
49.69999723	0.00000000	-14.18553000	-0.59670270
49.89999721	0.00000000	-4.13385800	-0.97194880
50.09999720	0.00000000	3.96161400	-3.29109200
50.29999719	0.00000000	8.56299200	-6.77903500
50.49999718	0.00000000	7.77559000	-11.00517000
50.69999717	0.00000000	2.05462600	-14.81299000
50.89999715	0.00000000	-6.83439900	-16.76919000
51.09999714	0.00000000	-16.83686000	-16.76919000
51.29999713	0.00000000	-25.30143000	-14.81299000
51.49999712	0.00000000	-29.90895000	-10.95595000
51.69999711	0.00000000	-29.58292000	-6.40378900
51.89999710	0.00000000	-24.60630000	-2.50369100
52.09999708	0.00000000	-16.92298000	-0.22145670
52.29999707	0.00000000	-8.41535400	0.18454720
52.49999706	0.00000000	-1.15649600	-1.75935000
52.69999705	0.00000000	2.70669300	-5.15501900
52.89999704	0.00000000	1.96235200	-9.05511800
53.09999702	0.00000000	-2.60211600	-12.49385000
53.29999701	0.00000000	-9.52879000	-14.81299000
53.49999700	0.00000000	-16.79380000	-15.18824000
53.69999699	0.00000000	-22.18258000	-13.69956000
53.89999698	0.00000000	-24.09572000	-11.00517000
54.09999696	0.00000000	-22.23179000	-7.93553100
54.29999695	0.00000000	-17.21210000	-5.29035400
54.49999694	0.00000000	-10.73450000	-4.12770700
54.69999693	0.00000000	-4.60137700	-4.87204700
54.89999692	0.00000000	-1.15649600	-6.72982200
55.09999691	0.00000000	-1.10728300	-9.05511800
55.29999689	0.00000000	-4.18307100	-10.91289000
55.49999688	0.00000000	-9.52879000	-11.70029000
55.69999687	0.00000000	-15.29897000	-10.91289000
55.89999686	0.00000000	-19.95571000	-9.00590400
56.09999685	0.00000000	-22.60704000	-6.31151500
56.29999683	0.00000000	-22.23179000	-3.66633800
56.49999682	0.00000000	-18.74385000	-2.17150600
56.69999681	0.00000000	-13.39198000	-2.59596400
56.89999680	0.00000000	-7.25270600	-5.29035400
57.09999679	0.00000000	-2.64517700	-9.47342500
57.29999677	0.00000000	-0.68897630	-13.69956000
57.49999676	0.00000000	-1.43946800	-16.76919000
57.69999675	0.00000000	-4.92125900	-17.88263000
57.89999674	0.00000000	-9.90403500	-16.30167000
58.09999673	0.00000000	-15.29897000	-12.07554000
58.29999672	0.00000000	-19.48819000	-6.31151500
58.49999670	0.00000000	-21.11220000	-0.55364170
58.69999669	0.00000000	-20.37401000	3.62942900
58.89999668	0.00000000	-18.04257000	4.78592500
59.09999667	0.00000000	-14.18553000	2.46678100
59.29999666	0.00000000	-9.99630800	-2.55290300
59.49999664	0.00000000	-6.87746000	-9.47342500
59.69999663	0.00000000	-5.29650500	-16.39395000
59.89999662	0.00000000	-5.29650500	-21.37057000
60.09999661	0.00000000	-6.87746000	-23.31447000
60.29999660	0.00000000	-9.86097400	-21.37057000
60.49999658	0.00000000	-12.96752000	-16.35089000
60.69999657	0.00000000	-14.88681000	-9.00590400
60.89999656	0.00000000	-16.08637000	-0.97194880
61.09999655	0.00000000	-15.63115000	5.16117100
61.29999654	0.00000000	-13.81028000	7.85556000
61.49999653	0.00000000	-11.48499000	6.32381900
61.69999651	0.00000000	-9.57800100	0.97810030
61.89999650	0.00000000	-8.41535400	-6.36072800
62.09999649	0.00000000	-8.41535400	-14.07480000
62.29999648	0.00000000	-9.57800100	-20.62008000
62.49999647	0.00000000	-11.48499000	-24.06496000
62.69999645	0.00000000	-13.76107000	-23.68971000
62.89999644	0.00000000	-15.29897000	-19.46358000
63.09999643	0.00000000	-15.71727000	-12.58612000
63.29999642	0.00000000	-15.29897000	-5.24729300
63.49999641	0.00000000	-13.76107000	0.93503930
63.69999639	0.00000000	-11.48499000	4.82898600
63.89999638	0.00000000	-9.52879000	5.62253900
64.09999637	0.00000000	-7.99704600	3.71555100
64.29999636	0.00000000	-7.25270600	-0.55364170
64.49999635	0.00000000	-8.04010800	-6.31151500
64.69999634	0.00000000	-9.90403500	-12.07554000
64.89999632	0.00000000	-12.22933000	-16.35089000
65.09999631	0.00000000	-14.13632000	-18.35015000
65.29999630	0.00000000	-15.29897000	-18.35015000
65.49999629	0.00000000	-15.29897000	-16.43701000
65.69999628	0.00000000	-14.18553000	-13.00443000
65.89999626	0.00000000	-12.64764000	-9.55954600
66.09999625	0.00000000	-11.06668000	-6.77903500
66.29999624	0.00000000	-9.57800100	-4.77977300
66.49999623	0.00000000	-8.83366100	-3.15575800
66.69999622	0.00000000	-9.62106200	-1.66707700
66.89999620	0.00000000	-11.48499000	-0.92888770
67.09999619	0.00000000	-13.76107000	-1.66707700
67.29999618	0.00000000	-15.29897000	-3.19881900
67.49999617	0.00000000	-15.67421000	-5.19808000
67.69999616	0.00000000	-14.88066000	-7.93553100
67.89999615	0.00000000	-12.55536000	-11.04823000
68.09999613	0.00000000	-9.52879000	-14.16092000
68.29999612	0.00000000	-6.83439900	-16.85531000
68.49999611	0.00000000	-5.33956700	-18.39321000
68.69999610	0.00000000	-5.71481200	-18.35015000
68.89999609	0.00000000	-8.04010800	-16.35089000
69.09999607	0.00000000	-11.53420000	-12.07554000
69.29999606	0.00000000	-15.80955000	-6.36072800
69.49999605	0.00000000	-19.95571000	-0.92888770
69.69999604	0.00000000	-22.27485000	2.93430100
69.89999603	0.00000000	-21.86270000	4.82898600
70.09999601	0.00000000	-19.15600000	3.62942900
70.29999600	0.00000000	-14.09326000	-0.55364170
70.49999599	0.00000000	-7.99704600	-6.36072800
70.69999598	0.00000000	-2.55290300	-12.53691000
70.89999597	0.00000000	0.89197830	-17.92569000
71.09999596	0.00000000	1.63016700	-20.99532000
71.29999594	0.00000000	-1.06422200	-21.03838000
71.49999593	0.00000000	-6.45915300	-18.35015000
71.69999592	0.00000000	-13.06594000	-13.74262000
71.89999591	0.00000000	-19.99877000	-8.31077700
72.09999590	0.00000000	-25.34449000	-3.33415300
72.29999588	0.00000000	-27.30069000	0.14148620
72.49999587	0.00000000	-25.76895000	0.93503930
72.69999586	0.00000000	-21.11220000	-0.51058070
72.89999585	0.00000000	-14.18553000	-3.24803100
73.09999584	0.00000000	-6.87746000	-6.68676100
73.29999582	0.00000000	-1.06422200	-10.11934000
73.49999581	0.00000000	2.05462600	-12.03248000
73.69999580	0.00000000	2.05462600	-12.11860000
73.89999579	0.00000000	-1.02116100	-10.96211000
74.09999578	0.00000000	-6.41609200	-9.09817800
74.29999577	0.00000000	-12.60458000	-7.24040300
74.49999575	0.00000000	-18.41781000	-6.86515700
74.69999574	0.00000000	-22.65010000	-7.93553100
74.89999573	0.00000000	-24.18799000	-9.51648500
75.09999572	0.00000000	-22.69316000	-11.42347000
75.29999571	0.00000000	-18.87918000	-13.28125000
75.49999569	0.00000000	-14.22859000	-13.61343000
75.69999568	0.00000000	-9.57800100	-12.07554000
75.89999567	0.00000000	-5.76402500	-8.96284400
76.09999566	0.00000000	-4.18307100	-4.77977300
76.29999565	0.00000000	-4.87819900	-0.97194880
76.49999563	0.00000000	-6.79133800	0.97810030
76.69999562	0.00000000	-9.48572700	0.97810030
76.89999561	0.00000000	-12.13706000	-1.02116100
77.09999560	0.00000000	-13.71801000	-5.29035400
77.29999559	0.00000000	-14.18553000	-11.04823000
77.49999558	0.00000000	-14.18553000	-16.76919000
77.69999556	0.00000000	-13.81028000	-20.62008000
77.89999555	0.00000000	-13.06594000	-21.37057000
78.09999554	0.00000000	-12.69070000	-19.08834000
78.29999553	0.00000000	-12.64764000	-14.07480000
78.49999552	0.00000000	-12.69070000	-7.89247000
78.69999550	0.00000000	-13.02288000	-1.71013800
78.89999549	0.00000000	-13.39198000	3.25418300
79.09999548	0.00000000	-12.93061000	5.20423200
79.29999547	0.00000000	-11.81102000	4.09079700
79.49999546	0.00000000	-9.90403500	0.60285430
79.69999544	0.00000000	-8.37229300	-4.77977300
79.89999543	0.00000000	-7.57258800	-10.53765000
80.09999542	0.00000000	-7.25270600	-15.23130000
80.29999541	0.00000000	-8.41535400	-18.35015000
80.49999540	0.00000000	-10.69144000	-19.46358000
80.69999539	0.00000000	-13.02288000	-17.97490000
80.89999537	0.00000000	-15.34203000	-14.53617000
81.09999536	0.00000000	-16.87992000	-10.67298000
81.29999535	0.00000000	-17.25517000	-6.77903500
81.49999534	0.00000000	-16.46161000	-3.66633800
81.69999533	0.00000000	-14.13632000	-1.66707700
81.89999531	0.00000000	-11.10974000	-0.51058070
82.09999530	0.00000000	-8.41535400	-0.51058070
82.29999529	0.00000000	-6.87746000	-1.66707700
82.49999528	0.00000000	-6.83439900	-3.61712600
82.69999527	0.00000000	-7.94783400	-6.31151500
82.89999525	0.00000000	-9.52879000	-9.05511800
83.09999524	0.00000000	-11.48499000	-11.42347000
83.29999523	0.00000000	-13.76107000	-13.74262000
83.49999522	0.00000000	-15.25591000	-15.27436000
83.69999521	0.00000000	-15.34203000	-15.69267000
83.89999520	0.00000000	-14.60384000	-15.27436000
84.09999518	0.00000000	-13.81028000	-13.65650000
84.29999517	0.00000000	-12.64764000	-10.58686000
84.49999516	0.00000000	-11.53420000	-6.72982200
84.69999515	0.00000000	-11.10974000	-3.24803100
84.89999514	0.00000000	-11.10974000	-0.55364170
85.09999512	0.00000000	-11.48499000	0.60285430
85.29999511	0.00000000	-12.18012000	-0.17839570
85.49999510	0.00000000	-12.18012000	-2.50369100
85.69999509	0.00000000	-11.44193000	-6.40378900
85.89999508	0.00000000	-10.69144000	-10.95595000
86.09999506	0.00000000	-9.90403500	-14.85605000
86.29999505	0.00000000	-9.57800100	-17.13829000
86.49999504	0.00000000	-9.95324800	-17.55044000
86.69999503	0.00000000	-11.10974000	-15.60654000
86.89999502	0.00000000	-12.64764000	-12.16166000
87.09999501	0.00000000	-14.18553000	-7.89247000
87.29999499	0.00000000	-15.34203000	-3.66633800
87.49999498	0.00000000	-15.71727000	-0.59670270
87.69999497	0.00000000	-15.29897000	0.55979330
87.89999496	0.00000000	-13.76107000	-0.59670270
88.09999495	0.00000000	-11.48499000	-3.66633800
88.29999493	0.00000000	-9.57800100	-7.89247000
88.49999492	0.00000000	-8.37229300	-12.11860000
88.69999491	0.00000000	-7.99704600	-15.18824000
88.89999490	0.00000000	-8.37229300	-16.30167000
89.09999489	0.00000000	-9.57800100	-14.76993000
89.29999487	0.00000000	-11.44193000	-11.00517000
89.49999486	0.00000000	-13.39198000	-6.77903500
89.69999485	0.00000000	-14.56078000	-3.29109200
89.89999484	0.00000000	-15.34203000	-0.97194880
90.09999483	0.00000000	-15.29897000	-0.63976370
90.29999482	0.00000000	-14.18553000	-2.54675200
90.49999480	0.00000000	-12.69070000	-6.35457700
90.69999479	0.00000000	-11.48499000	-10.58686000
90.89999478	0.00000000	-10.69144000	-14.07480000
91.09999477	0.00000000	-9.90403500	-16.35089000
91.29999476	0.00000000	-9.57800100	-16.30167000
91.49999474	0.00000000	-9.90403500	-13.65650000
91.69999473	0.00000000	-10.69144000	-9.43036400
91.89999472	0.00000000	-11.44193000	-4.82898600
92.09999471	0.00000000	-12.22933000	-0.97194880
92.29999470	0.00000000	-12.60458000	0.93503930
92.49999468	0.00000000	-12.64764000	0.55979330
92.69999467	0.00000000	-12.64764000	-2.17765700
92.89999466	0.00000000	-12.69070000	-6.77903500
93.09999465	0.00000000	-13.06594000	-12.11860000
93.29999464	0.00000000	-13.85334000	-16.35089000
93.49999463	0.00000000	-14.56078000	-18.25787000
93.69999461	0.00000000	-14.92372000	-17.50738000
93.89999460	0.00000000	-14.13632000	-14.03174000
94.09999459	0.00000000	-12.64764000	-9.09817800
94.29999458	0.00000000	-11.06668000	-4.08464600
94.49999457	0.00000000	-9.48572700	-0.64591530
94.69999455	0.00000000	-7.94783400	0.55979330
94.89999454	0.00000000	-6.83439900	-0.59670270
95.09999453	0.00000000	-6.83439900	-3.66633800
95.29999452	0.00000000	-8.04010800	-7.89247000
95.49999451	0.00000000	-10.37155000	-12.11860000
95.69999449	0.00000000	-13.81028000	-15.18824000
95.89999448	0.00000000	-16.87992000	-16.34473000
96.09999447	0.00000000	-18.83612000	-15.23130000
96.29999446	0.00000000	-19.58046000	-12.53691000
96.49999445	0.00000000	-18.41781000	-9.05511800
96.69999444	0.00000000	-15.71727000	-5.24729300
96.89999442	0.00000000	-12.22933000	-2.59596400
97.09999441	0.00000000	-8.37229300	-2.12844500
97.29999440	0.00000000	-5.29650500	-3.24803100
97.49999439	0.00000000	-3.71555100	-5.19808000
97.69999438	0.00000000	-3.71555100	-7.89247000
97.89999436	0.00000000	-5.29650500	-10.53765000
98.09999435	0.00000000	-8.41535400	-12.11860000
98.29999434	0.00000000	-12.64764000	-12.49385000
98.49999433	0.00000000	-16.87992000	-11.74951000
98.69999432	0.00000000	-19.95571000	-9.89173200
98.89999430	0.00000000	-21.16142000	-8.35998900
99.09999429	0.00000000	-20.37401000	-7.51722400
99.29999428	0.00000000	-18.08563000	-6.72982200
99.49999427	0.00000000	-14.56078000	-6.35457700
99.69999426	0.00000000	-10.73450000	-6.35457700
99.89999425	0.00000000	-7.20964500	-6.68676100
100.09999423	0.00000000	-4.92125900	-7.05585600
100.29999422	0.00000000	-4.09079700	-6.68676100
100.49999421	0.00000000	-4.87819900	-6.35457700
100.69999420	0.00000000	-6.79133800	-6.31151500
100.89999419	0.00000000	-9.52879000	-6.40378900
101.09999417	0.00000000	-12.60458000	-7.19734200
101.29999416	0.00000000	-15.34203000	-9.09817800
101.49999415	0.00000000	-17.25517000	-10.96211000
101.69999414	0.00000000	-18.04257000	-12.16166000
101.89999413	0.00000000	-17.29823000	-12.53691000
102.09999411	0.00000000	-15.76649000	-12.11860000
102.29999410	0.00000000	-13.81028000	-10.53765000
102.49999409	0.00000000	-11.48499000	-7.89247000
102.69999408	0.00000000	-9.57800100	-5.19808000
102.89999407	0.00000000	-8.37229300	-3.24803100
103.09999406	0.00000000	-7.94783400	-2.08538400
103.29999404	0.00000000	-7.94783400	-2.12844500
103.49999403	0.00000000	-8.41535400	-3.66633800
103.69999402	0.00000000	-9.95324800	-6.36072800
103.89999401	0.00000000	-12.22933000	-9.42421200
104.09999400	0.00000000	-14.13632000	-12.16781000
104.29999398	0.00000000	-15.34203000	-14.03174000
104.49999397	0.00000000	-15.71727000	-14.39468000
104.69999396	0.00000000	-15.34203000	-12.53691000
104.89999395	0.00000000	-14.22859000	-9.89173200
105.09999394	0.00000000	-13.06594000	-7.51722400
105.29999392	0.00000000	-12.22933000	-5.19808000
105.49999391	0.00000000	-11.06668000	-3.70939900
105.69999390	0.00000000	-9.99630800	-3.66633800
105.89999389	0.00000000	-9.95324800	-4.82283400
106.09999388	0.00000000	-10.69144000	-6.72982200
106.29999387	0.00000000	-11.44193000	-9.05511800
106.49999385	0.00000000	-12.22933000	-10.96211000
106.69999384	0.00000000	-12.60458000	-12.11860000
106.89999383	0.00000000	-12.64764000	-12.11860000
107.09999382	0.00000000	-12.60458000	-10.96211000
107.29999381	0.00000000	-12.22933000	-9.05511800
107.49999379	0.00000000	-11.48499000	-6.77903500
107.69999378	0.00000000	-11.10974000	-5.29035400
107.89999377	0.00000000	-11.06668000	-5.19808000
108.09999376	0.00000000	-11.10974000	-5.98548200
108.29999375	0.00000000	-11.53420000	-7.10506800
108.49999374	0.00000000	-12.64764000	-8.67987200
108.69999372	0.00000000	-13.76107000	-9.79945900
108.89999371	0.00000000	-14.18553000	-10.62992000
109.09999370	0.00000000	-14.18553000	-10.95595000
109.29999369	0.00000000	-13.76107000	-10.53765000
109.49999368	0.00000000	-12.60458000	-9.00590400
109.69999366	0.00000000	-11.10974000	-6.77903500
109.89999365	0.00000000	-9.95324800	-5.24729300
110.09999364	0.00000000	-9.52879000	-4.82898600
110.29999363	0.00000000	-9.52879000	-5.19808000
110.49999362	0.00000000	-9.95324800	-6.36072800
110.69999360	0.00000000	-11.10974000	-7.89247000
110.89999359	0.00000000	-12.60458000	-9.42421200
111.09999358	0.00000000	-13.76107000	-10.58686000
111.29999357	0.00000000	-14.18553000	-11.00517000
111.49999356	0.00000000	-14.18553000	-11.00517000
111.69999355	0.00000000	-13.76107000	-10.62992000
111.89999353	0.00000000	-12.64764000	-9.84867000
112.09999352	0.00000000	-11.48499000	-9.05511800
112.29999351	0.00000000	-10.69144000	-7.89247000
112.49999350	0.00000000	-9.90403500	-6.77903500
112.69999349	0.00000000	-9.57800100	-6.35457700
112.89999347	0.00000000	-9.95324800	-6.35457700
113.09999346	0.00000000	-11.06668000	-6.72982200
113.29999345	0.00000000	-12.18012000	-7.47416300
113.49999344	0.00000000	-12.64764000	-7.84940900
113.69999343	0.00000000	-13.06594000	-7.93553100
113.89999341	0.00000000	-13.76107000	-8.31077700
114.09999340	0.00000000	-13.76107000	-9.05511800
114.29999339	0.00000000	-13.02288000	-9.43036400
114.49999338	0.00000000	-12.27239000	-9.47342500
114.69999337	0.00000000	-11.48499000	-9.47342500
114.89999336	0.00000000	-11.10974000	-9.47342500
115.09999334	0.00000000	-11.06668000	-9.47342500
115.29999333	0.00000000	-11.06668000	-9.47342500
115.49999332	0.00000000	-11.06668000	-9.43036400
115.69999331	0.00000000	-11.10974000	-9.05511800
115.89999330	0.00000000	-11.48499000	-8.26771600
116.09999328	0.00000000	-12.27239000	-7.51722400
116.29999327	0.00000000	-13.02288000	-6.72982200
116.49999326	0.00000000	-13.76107000	-6.35457700
116.69999325	0.00000000	-13.76107000	-6.35457700
116.89999324	0.00000000	-13.06594000	-6.72982200
117.09999322	0.00000000	-12.64764000	-7.51722400
117.29999321	0.00000000	-12.22933000	-8.26771600
117.49999320	0.00000000	-11.44193000	-9.09817800
117.69999319	0.00000000	-10.69144000	-9.84867000
117.89999318	0.00000000	-9.90403500	-10.58686000
118.09999317	0.00000000	-9.57800100	-10.58686000
118.29999315	0.00000000	-9.90403500	-9.84867000
118.49999314	0.00000000	-10.69144000	-9.09817800
118.69999313	0.00000000	-11.48499000	-8.26771600
118.89999312	0.00000000	-12.64764000	-7.51722400
119.09999311	0.00000000	-13.81028000	-6.72982200
119.29999309	0.00000000	-14.56078000	-6.35457700
119.49999308	0.00000000	-14.92372000	-6.35457700
119.69999307	0.00000000	-14.18553000	-6.72982200
119.89999306	0.00000000	-13.06594000	-7.47416300
120.09999305	0.00000000	-12.22933000	-7.84940900
120.29999303	0.00000000	-11.06668000	-7.93553100
120.49999302	0.00000000	-9.95324800	-8.31077700
120.69999301	0.00000000	-9.52879000	-9.05511800
120.89999300	0.00000000	-9.52879000	-9.43036400
121.09999299	0.00000000	-9.90403500	-9.47342500
121.29999298	0.00000000	-10.69144000	-9.47342500
121.49999296	0.00000000	-11.48499000	-9.47342500
121.69999295	0.00000000	-12.64764000	-9.43036400
121.89999294	0.00000000	-13.76107000	-9.05511800
122.09999293	0.00000000	-14.18553000	-8.31077700
122.29999292	0.00000000	-14.18553000	-7.89247000
122.49999290	0.00000000	-13.81028000	-7.51722400
122.69999289	0.00000000	-13.02288000	-7.10506800
122.89999288	0.00000000	-12.27239000	-7.14197800
123.09999287	0.00000000	-11.48499000	-7.10506800
123.29999286	0.00000000	-11.10974000	-7.51722400
123.49999284	0.00000000	-11.06668000	-7.84940900
123.69999283	0.00000000	-11.06668000	-7.93553100
123.89999282	0.00000000	-11.06668000	-8.26771600
124.09999281	0.00000000	-11.06668000	-8.67987200
124.29999280	0.00000000	-11.10974000	-8.68602300
124.49999279	0.00000000	-11.48499000	-9.09817800
124.69999277	0.00000000	-12.27239000	-9.38115100
124.89999276	0.00000000	-13.02288000	-9.05511800
125.09999275	0.00000000	-13.81028000	-8.31077700
125.29999274	0.00000000	-14.18553000	-7.93553100
125.49999273	0.00000000	-14.18553000	-7.89247000
125.69999271	0.00000000	-13.81028000	-7.89247000
125.89999270	0.00000000	-13.02288000	-7.89247000
126.09999269	0.00000000	-12.27239000	-7.89247000
126.29999268	0.00000000	-11.44193000	-7.89247000
126.49999267	0.00000000	-10.73450000	-7.89247000
126.69999265	0.00000000	-10.32234000	-7.89247000
126.89999264	0.00000000	-10.69144000	-7.89247000
127.09999263	0.00000000	-11.06668000	-7.93553100
127.29999262	0.00000000	-11.53420000	-8.31077700
127.49999261	0.00000000	-12.64764000	-9.05511800
127.69999260	0.00000000	-13.76107000	-9.43036400
127.89999258	0.00000000	-14.18553000	-9.47342500
128.09999257	0.00000000	-14.18553000	-9.43036400
128.29999256	0.00000000	-13.76107000	-9.05511800
128.49999255	0.00000000	-12.64764000	-8.31077700
128.69999254	0.00000000	-11.48499000	-7.93553100
128.89999252	0.00000000	-10.69144000	-7.89247000
129.09999251	0.00000000	-9.95324800	-7.89247000
129.29999250	0.00000000	-9.95324800	-7.89247000
129.49999249	0.00000000	-10.69144000	-7.89247000
129.69999248	0.00000000	-11.48499000	-7.93553100
129.89999246	0.00000000	-12.64764000	-8.31077700
130.09999245	0.00000000	-13.76107000	-9.05511800
130.29999244	0.00000000	-14.18553000	-9.43036400
130.49999243	0.00000000	-14.18553000	-9.43036400
130.69999242	0.00000000	-13.76107000	-9.05511800
130.89999241	0.00000000	-12.64764000	-8.31077700
131.09999239	0.00000000	-11.48499000	-7.93553100
131.29999238	0.00000000	-10.69144000	-7.89247000
131.49999237	0.00000000	-9.95324800	-7.93553100
131.69999236	0.00000000	-9.95324800	-8.31077700
131.89999235	0.00000000	-10.69144000	-9.05511800
132.09999233	0.00000000	-11.44193000	-9.43036400
132.29999232	0.00000000	-12.22933000	-9.47342500
132.49999231	0.00000000	-12.64764000	-9.47342500
132.69999230	0.00000000	-13.02288000	-9.43036400
132.89999229	0.00000000	-13.39198000	-9.00590400
133.09999227	0.00000000	-13.02288000	-7.89247000
133.29999226	0.00000000	-12.64764000	-6.77903500
133.49999225	0.00000000	-12.22933000	-6.35457700
133.69999224	0.00000000	-11.48499000	-6.35457700
133.89999223	0.00000000	-11.10974000	-6.72982200
134.09999222	0.00000000	-11.10974000	-7.51722400
134.29999220	0.00000000	-11.48499000	-8.26771600
134.49999219	0.00000000	-12.22933000	-9.09817800
134.69999218	0.00000000	-12.60458000	-9.84867000
134.89999217	0.00000000	-12.60458000	-10.62992000
135.09999216	0.00000000	-12.22933000	-10.95595000
135.29999214	0.00000000	-11.48499000	-10.62992000
135.49999213	0.00000000	-11.10974000	-9.84867000
135.69999212	0.00000000	-11.06668000	-9.09817800
135.89999211	0.00000000	-11.10974000	-8.26771600
136.09999210	0.00000000	-11.48499000	-7.51722400
136.29999208	0.00000000	-12.27239000	-6.72982200
136.49999207	0.00000000	-13.02288000	-6.40378900
136.69999206	0.00000000	-13.81028000	-6.72982200
136.89999205	0.00000000	-14.13632000	-7.47416300
137.09999204	0.00000000	-13.81028000	-7.89247000
137.29999203	0.00000000	-13.02288000	-8.31077700
137.49999201	0.00000000	-12.27239000	-9.05511800
137.69999200	0.00000000	-11.48499000	-9.43036400
137.89999199	0.00000000	-11.10974000	-9.47342500
138.09999198	0.00000000	-11.06668000	-9.47342500
138.29999197	0.00000000	-11.10974000	-9.47342500
138.49999195	0.00000000	-11.48499000	-9.47342500
138.69999194	0.00000000	-12.27239000	-9.43036400
138.89999193	0.00000000	-13.02288000	-9.05511800
139.09999192	0.00000000	-13.81028000	-8.31077700
139.29999191	0.00000000	-14.13632000	-7.89247000
139.49999189	0.00000000	-13.81028000	-7.51722400
139.69999188	0.00000000	-13.06594000	-7.14812900
139.89999187	0.00000000	-12.64764000	-7.51722400
140.09999186	0.00000000	-12.22933000	-7.84940900
140.29999185	0.00000000	-11.48499000	-7.93553100
140.49999184	0.00000000	-11.10974000	-8.31077700
140.69999182	0.00000000	-11.10974000	-9.05511800
140.89999181	0.00000000	-11.48499000	-9.43036400
141.09999180	0.00000000	-12.22933000	-9.47342500
141.29999179	0.00000000	-12.60458000	-9.43036400
141.49999178	0.00000000	-12.64764000	-9.05511800
141.69999176	0.00000000	-12.64764000	-8.26771600
141.89999175	0.00000000	-12.64764000	-7.51722400
142.09999174	0.00000000	-12.60458000	-6.72982200
142.29999173	0.00000000	-12.22933000	-6.35457700
142.49999172	0.00000000	-11.48499000	-6.35457700
142.69999170	0.00000000	-11.10974000	-6.72982200
142.89999169	0.00000000	-11.10974000	-7.47416300
143.09999168	0.00000000	-11.48499000	-7.89247000
143.29999167	0.00000000	-12.22933000	-8.35998900
143.49999166	0.00000000	-12.60458000	-9.47342500
143.69999165	0.00000000	-12.64764000	-10.58686000
143.89999163	0.00000000	-12.64764000	-10.95595000
144.09999162	0.00000000	-12.64764000	-10.62992000
144.29999161	0.00000000	-12.64764000	-9.84867000
144.49999160	0.00000000	-12.60458000	-9.09817800
144.69999159	0.00000000	-12.22933000	-8.26771600
144.89999157	0.00000000	-11.48499000	-7.51722400
145.09999156	0.00000000	-11.10974000	-6.72982200
145.29999155	0.00000000	-11.10974000	-6.40378900
145.49999154	0.00000000	-11.48499000	-6.72982200
145.69999153	0.00000000	-12.22933000	-7.51722400
145.89999151	0.00000000	-12.60458000	-8.26771600
146.09999150	0.00000000	-12.64764000	-9.05511800
146.29999149	0.00000000	-12.64764000	-9.43036400
146.49999148	0.00000000	-12.64764000	-9.47342500
146.69999147	0.00000000	-12.60458000	-9.47342500
146.89999146	0.00000000	-12.22933000	-9.43036400
147.09999144	0.00000000	-11.48499000	-9.05511800
147.29999143	0.00000000	-11.10974000	-8.31077700
147.49999142	0.00000000	-11.10974000	-7.93553100
147.69999141	0.00000000	-11.48499000	-7.89247000
147.89999140	0.00000000	-12.22933000	-7.89247000
148.09999138	0.00000000	-12.60458000	-7.89247000
148.29999137	0.00000000	-12.64764000	-7.89247000
148.49999136	0.00000000	-12.64764000	-7.89247000
148.69999135	0.00000000	-12.64764000	-7.89247000
148.89999134	0.00000000	-12.60458000	-7.93553100
149.09999132	0.00000000	-12.22933000	-8.31077700
149.29999131	0.00000000	-11.48499000	-9.05511800
149.49999130	0.00000000	-11.10974000	-9.38115100
149.69999129	0.00000000	-11.06668000	-9.05511800
149.89999128	0.00000000	-11.06668000	-8.31077700
150.09999127	0.00000000	-11.10974000	-7.93553100
150.29999125	0.00000000	-11.48499000	-7.89247000
150.49999124	0.00000000	-12.22933000	-7.89247000
150.69999123	0.00000000	-12.60458000	-7.89247000
150.89999122	0.00000000	-12.64764000	-7.89247000
151.09999121	0.00000000	-12.64764000	-7.89247000
151.29999119	0.00000000	-12.64764000	-7.89247000
151.49999118	0.00000000	-12.64764000	-7.89247000
151.69999117	0.00000000	-12.64764000	-7.93553100
151.89999116	0.00000000	-12.60458000	-8.31077700
152.09999115	0.00000000	-12.22933000	-9.05511800
152.29999113	0.00000000	-11.48499000	-9.43036400
152.49999112	0.00000000	-11.10974000	-9.47342500
152.69999111	0.00000000	-11.06668000	-9.47342500
152.89999110	0.00000000	-11.06668000	-9.43036400
153.09999109	0.00000000	-11.10974000	-9.05511800
153.29999108	0.00000000	-11.48499000	-8.31077700
153.49999106	0.00000000	-12.22933000	-7.93553100
153.69999105	0.00000000	-12.60458000	-7.89247000
153.89999104	0.00000000	-12.64764000	-7.89247000
154.09999103	0.00000000	-12.64764000	-7.89247000
154.29999102	0.00000000	-12.64764000	-7.89247000
154.49999100	0.00000000	-12.64764000	-7.89247000
154.69999099	0.00000000	-12.64764000	-7.93553100
154.89999098	0.00000000	-12.64764000	-8.31077700
155.09999097	0.00000000	-12.60458000	-9.05511800
155.29999096	0.00000000	-12.22933000	-9.43036400
155.49999094	0.00000000	-11.48499000	-9.47342500
155.69999093	0.00000000	-11.10974000	-9.47342500
155.89999092	0.00000000	-11.06668000	-9.43036400
156.09999091	0.00000000	-11.10974000	-9.05511800
156.29999090	0.00000000	-11.48499000	-8.31077700
156.49999089	0.00000000	-12.22933000	-7.93553100
156.69999087	0.00000000	-12.60458000	-7.89247000
156.89999086	0.00000000	-12.64764000	-7.89247000
157.09999085	0.00000000	-12.64764000	-7.89247000
157.29999084	0.00000000	-12.64764000	-7.89247000
157.49999083	0.00000000	-12.64764000	-7.89247000
157.69999081	0.00000000	-12.64764000	-7.89247000
157.89999080	0.00000000	-12.64764000	-7.93553100
158.09999079	0.00000000	-12.60458000	-8.31077700
158.29999078	0.00000000	-12.22933000	-9.05511800
158.49999077	0.00000000	-11.48499000	-9.43036400
158.69999075	0.00000000	-11.10974000	-9.47342500
158.89999074	0.00000000	-11.10974000	-9.43036400
159.09999073	0.00000000	-11.48499000	-9.05511800
159.29999072	0.00000000	-12.22933000	-8.31077700
159.49999071	0.00000000	-12.60458000	-7.93553100
159.69999070	0.00000000	-12.64764000	-7.84940900
159.89999068	0.00000000	-12.64764000	-7.51722400
160.09999067	0.00000000	-12.64764000	-7.14812900
160.29999066	0.00000000	-12.64764000	-7.51722400
160.49999065	0.00000000	-12.64764000	-7.84940900
160.69999064	0.00000000	-12.64764000	-7.89247000
160.89999062	0.00000000	-12.64764000	-7.93553100
161.09999061	0.00000000	-12.64764000	-8.31077700
161.29999060	0.00000000	-12.60458000	-9.05511800
161.49999059	0.00000000	-12.27239000	-9.43036400
161.69999058	0.00000000	-11.90330000	-9.47342500
161.89999056	0.00000000	-12.22933000	-9.43036400
162.09999055	0.00000000	-12.18012000	-9.05511800
162.29999054	0.00000000	-11.48499000	-8.31077700
162.49999053	0.00000000	-11.15896000	-7.93553100
162.69999052	0.00000000	-11.44193000	-7.89247000
162.89999051	0.00000000	-11.85408000	-7.89247000
163.09999049	0.00000000	-11.86024000	-7.89247000
163.29999048	0.00000000	-12.27239000	-7.89247000
163.49999047	0.00000000	-12.60458000	-7.89247000
163.69999046	0.00000000	-12.64764000	-7.89247000
163.89999045	0.00000000	-12.64764000	-7.93553100
164.09999043	0.00000000	-12.64764000	-8.31077700
164.29999042	0.00000000	-12.64764000	-9.00590400
164.49999041	0.00000000	-12.60458000	-9.05511800
164.69999040	0.00000000	-12.22933000	-8.72908400
164.89999039	0.00000000	-11.48499000	-9.05511800
165.09999037	0.00000000	-11.10974000	-9.00590400
165.29999036	0.00000000	-11.06668000	-8.31077700
165.49999035	0.00000000	-11.10974000	-7.93553100
165.69999034	0.00000000	-11.48499000	-7.89247000
165.89999033	0.00000000	-12.22933000	-7.89247000
166.09999032	0.00000000	-12.60458000	-7.89247000
166.29999030	0.00000000	-12.64764000	-7.89247000
166.49999029	0.00000000	-12.64764000	-7.89247000
166.69999028	0.00000000	-12.64764000	-7.89247000
166.89999027	0.00000000	-12.64764000	-7.89247000
167.09999026	0.00000000	-12.64764000	-7.89247000
167.29999024	0.00000000	-12.64764000	-7.89247000
167.49999023	0.00000000	-12.64764000	-7.93553100
167.69999022	0.00000000	-12.60458000	-8.26771600
167.89999021	0.00000000	-12.22933000	-8.67987200
168.09999020	0.00000000	-11.48499000	-8.68602300
168.29999018	0.00000000	-11.15896000	-9.09817800
168.49999017	0.00000000	-11.48499000	-9.43036400
168.69999016	0.00000000	-12.22933000	-9.43036400
168.89999015	0.00000000	-12.60458000	-9.05511800
169.09999014	0.00000000	-12.64764000	-8.31077700
169.29999013	0.00000000	-12.64764000	-7.93553100
169.49999011	0.00000000	-12.64764000	-7.89247000
169.69999010	0.00000000	-12.64764000	-7.89247000
169.89999009	0.00000000	-12.64764000	-7.89247000
170.09999008	0.00000000	-12.64764000	-7.89247000
170.29999007	0.00000000	-12.64764000	-7.89247000
170.49999005	0.00000000	-12.64764000	-7.89247000
170.69999004	0.00000000	-12.64764000	-7.89247000
170.89999003	0.00000000	-12.60458000	-7.93553100
171.09999002	0.00000000	-12.27239000	-8.31077700
171.29999001	0.00000000	-11.86024000	-9.00590400
171.49998999	0.00000000	-11.89715000	-9.00590400
171.69998998	0.00000000	-11.86024000	-8.35998900
171.89998997	0.00000000	-12.27239000	-8.35998900
172.09998996	0.00000000	-12.60458000	-9.00590400
172.29998995	0.00000000	-12.64764000	-9.00590400
172.49998994	0.00000000	-12.64764000	-8.31077700
172.69998992	0.00000000	-12.64764000	-7.93553100
172.89998991	0.00000000	-12.64764000	-7.89247000
173.09998990	0.00000000	-12.64764000	-7.89247000
173.29998989	0.00000000	-12.60458000	-7.89247000
173.49998988	0.00000000	-12.22933000	-7.89247000
173.69998986	0.00000000	-11.53420000	-7.89247000
173.89998985	0.00000000	-11.48499000	-7.89247000
174.09998984	0.00000000	-11.85408000	-7.93553100
174.29998983	0.00000000	-11.86024000	-8.31077700
174.49998982	0.00000000	-12.27239000	-9.05511800
174.69998980	0.00000000	-12.60458000	-9.43036400
174.89998979	0.00000000	-12.64764000	-9.43036400
175.09998978	0.00000000	-12.64764000	-9.05511800
175.29998977	0.00000000	-12.64764000	-8.31077700
175.49998976	0.00000000	-12.64764000	-7.93553100
175.69998975	0.00000000	-12.60458000	-7.89247000
175.89998973	0.00000000	-12.27239000	-7.89247000
176.09998972	0.00000000	-11.90330000	-7.89247000
176.29998971	0.00000000	-12.27239000	-7.89247000
176.49998970	0.00000000	-12.60458000	-7.89247000
176.69998969	0.00000000	-12.64764000	-7.89247000
176.89998967	0.00000000	-12.64764000	-7.89247000
177.09998966	0.00000000	-12.64764000	-7.89247000
177.29998965	0.00000000	-12.64764000	-7.89247000
177.49998964	0.00000000	-12.64764000	-7.93553100
177.69998963	0.00000000	-12.64764000	-8.31077700
177.89998961	0.00000000	-12.64764000	-9.05511800
178.09998960	0.00000000	-12.64764000	-9.38115100
178.29998959	0.00000000	-12.64764000	-9.05511800
178.49998958	0.00000000	-12.64764000	-8.31077700
178.69998957	0.00000000	-12.64764000	-7.93553100
178.89998956	0.00000000	-12.64764000	-7.89247000
179.09998954	0.00000000	-12.64764000	-7.89247000
179.29998953	0.00000000	-12.64764000	-7.89247000
179.49998952	0.00000000	-12.64764000	-7.89247000
179.69998951	0.00000000	-12.64764000	-7.89247000
179.89998950	0.00000000	-12.64764000	-7.93553100
180.09998948	0.00000000	-12.60458000	-8.31077700
180.29998947	0.00000000	-12.27239000	-9.05511800
180.49998946	0.00000000	-11.90330000	-9.43036400
180.69998945	0.00000000	-12.27239000	-9.43036400
180.89998944	0.00000000	-12.60458000	-9.05511800
181.09998942	0.00000000	-12.64764000	-8.31077700
181.29998941	0.00000000	-12.64764000	-7.93553100
181.49998940	0.00000000	-12.64764000	-7.89247000
181.69998939	0.00000000	-12.64764000	-7.89247000
181.89998938	0.00000000	-12.60458000	-7.89247000
182.09998937	0.00000000	-12.27239000	-7.89247000
182.29998935	0.00000000	-11.90330000	-7.89247000
182.49998934	0.00000000	-12.22933000	-7.89247000
182.69998933	0.00000000	-12.18012000	-7.89247000
182.89998932	0.00000000	-11.53420000	-7.89247000
183.09998931	0.00000000	-11.48499000	-7.89247000
183.29998929	0.00000000	-11.85408000	-7.93553100
183.49998928	0.00000000	-11.86024000	-8.26771600
183.69998927	0.00000000	-12.27239000	-8.63681000
183.89998926	0.00000000	-12.60458000	-8.26771600
184.09998925	0.00000000	-12.64764000	-7.98474400
184.29998923	0.00000000	-12.64764000	-8.26771600
184.49998922	0.00000000	-12.64764000	-8.63681000
184.69998921	0.00000000	-12.64764000	-8.26771600
184.89998920	0.00000000	-12.64764000	-7.93553100
185.09998919	0.00000000	-12.64764000	-7.89247000
185.29998918	0.00000000	-12.64764000	-7.89247000
185.49998916	0.00000000	-12.64764000	-7.89247000
185.69998915	0.00000000	-12.64764000	-7.93553100
185.89998914	0.00000000	-12.60458000	-8.31077700
186.09998913	0.00000000	-12.27239000	-9.05511800
186.29998912	0.00000000	-11.86024000	-9.43036400
186.49998910	0.00000000	-11.89715000	-9.47342500
186.69998909	0.00000000	-11.86024000	-9.47342500
186.89998908	0.00000000	-12.27239000	-9.43036400
187.09998907	0.00000000	-12.60458000	-9.05511800
187.29998906	0.00000000	-12.64764000	-8.31077700
187.49998904	0.00000000	-12.64764000	-7.93553100
187.69998903	0.00000000	-12.64764000	-7.89247000
187.89998902	0.00000000	-12.64764000	-7.89247000
188.09998901	0.00000000	-12.64764000	-7.89247000
188.29998900	0.00000000	-12.64764000	-7.89247000
188.49998899	0.00000000	-12.64764000	-7.93553100
188.69998897	0.00000000	-12.64764000	-8.31077700
188.89998896	0.00000000	-12.64764000	-9.05511800
189.09998895	0.00000000	-12.64764000	-9.43036400
189.29998894	0.00000000	-12.64764000	-9.47342500
189.49998893	0.00000000	-12.64764000	-9.47342500
189.69998891	0.00000000	-12.64764000	-9.47342500
189.89998890	0.00000000	-12.64764000	-9.43036400
190.09998889	0.00000000	-12.64764000	-9.05511800
190.29998888	0.00000000	-12.64764000	-8.31077700
190.49998887	0.00000000	-12.64764000	-7.93553100
190.69998885	0.00000000	-12.64764000	-7.89247000
190.89998884	0.00000000	-12.64764000	-7.89247000
191.09998883	0.00000000	-12.64764000	-7.89247000
191.29998882	0.00000000	-12.60458000	-7.89247000
191.49998881	0.00000000	-12.27239000	-7.89247000
191.69998880	0.00000000	-11.90330000	-7.89247000
191.89998878	0.00000000	-12.27239000	-7.89247000
192.09998877	0.00000000	-12.60458000	-7.93553100
192.29998876	0.00000000	-12.64764000	-8.31077700
192.49998875	0.00000000	-12.64764000	-9.05511800
192.69998874	0.00000000	-12.64764000	-9.43036400
192.89998872	0.00000000	-12.64764000	-9.47342500
193.09998871	0.00000000	-12.64764000	-9.43036400
193.29998870	0.00000000	-12.64764000	-9.05511800
193.49998869	0.00000000	-12.64764000	-8.31077700
193.69998868	0.00000000	-12.64764000	-7.93553100
193.89998866	0.00000000	-12.64764000	-7.89247000
194.09998865	0.00000000	-12.64764000	-7.89247000
194.29998864	0.00000000	-12.64764000	-7.89247000
194.49998863	0.00000000	-12.60458000	-7.89247000
194.69998862	0.00000000	-12.27239000	-7.89247000
194.89998861	0.00000000	-11.86024000	-7.89247000
195.09998859	0.00000000	-11.89715000	-7.89247000
195.29998858	0.00000000	-11.86024000	-7.89247000
195.49998857	0.00000000	-12.27239000	-7.89247000
195.69998856	0.00000000	-12.60458000	-7.89247000
195.89998855	0.00000000	-12.64764000	-7.93553100
196.09998853	0.00000000	-12.64764000	-8.26771600
