Time	Channel A	Channel B	Channel C
(us)	(V)	(mV)	(mV)

-4.49999956	0.00000000	41.48622000	22.10261000
-4.29999957	0.00000000	41.15403000	22.10261000
-4.09999958	0.00000000	41.11097000	22.10261000
-3.89999959	0.00000000	41.11097000	22.10261000
-3.69999960	0.00000000	41.11097000	22.10261000
-3.49999962	0.00000000	41.11097000	22.10261000
-3.29999963	0.00000000	41.11097000	22.10261000
-3.09999964	0.00000000	41.11097000	22.10261000
-2.89999965	0.00000000	41.11097000	22.10261000
-2.69999966	0.00000000	41.15403000	22.10261000
-2.49999968	0.00000000	41.48622000	22.10261000
-2.29999969	0.00000000	41.85531000	22.10261000
-2.09999970	0.00000000	41.48622000	22.10261000
-1.89999971	0.00000000	41.20325000	22.10261000
-1.69999972	0.00000000	41.48622000	22.10261000
-1.49999973	0.00000000	41.89838000	22.10261000
-1.29999975	0.00000000	41.90453000	22.10261000
-1.09999976	0.00000000	42.31668000	22.10261000
-0.89999977	0.00000000	42.59965000	22.10261000
-0.69999978	0.00000000	42.31668000	22.10261000
-0.49999979	0.00000000	41.94759000	22.10261000
-0.29999981	0.31803640	42.31668000	22.10261000
-0.09999982	0.63668800	42.59965000	22.10261000
0.10000017	0.95533960	42.27362000	22.10261000
0.30000016	0.95533960	41.57849000	22.10261000
0.50000015	0.79601380	41.52928000	22.10261000
0.70000013	0.31803640	41.89838000	22.10261000
0.90000012	-0.47736220	41.86147000	22.10261000
1.10000011	-1.59264300	41.94144000	22.10261000
1.30000010	-2.38927200	41.90453000	22.10261000
1.50000009	-2.70792300	42.31668000	22.14567000
1.70000008	-2.38927200	42.64886000	22.52091000
1.90000006	-1.27399100	42.69193000	23.26525000
2.10000005	0.63668800	42.64886000	23.59129000
2.30000004	2.70792300	42.27362000	23.26525000
2.50000003	4.61921700	41.52928000	22.52091000
2.70000002	5.25652100	41.20325000	22.14567000
2.90000000	4.77854300	41.48622000	22.10261000
3.09999999	2.70792300	41.85531000	22.10261000
3.29999998	-0.31803640	41.48622000	22.10261000
3.49999997	-3.66326300	41.15403000	22.10261000
3.69999996	-6.53112700	41.15403000	22.10261000
3.89999994	-7.96444400	41.52928000	22.14567000
4.09999993	-7.32714100	42.27362000	22.52091000
4.29999992	-4.77854300	42.64886000	23.26525000
4.49999991	-0.79601380	42.64886000	23.59129000
4.69999990	3.66326300	42.31668000	23.26525000
4.89999989	7.32714100	41.90453000	22.52091000
5.09999987	9.23905000	41.89838000	22.10261000
5.29999986	8.92039900	41.48622000	21.68430000
5.49999985	6.37180100	41.15403000	20.94611000
5.69999984	2.22994600	41.11097000	20.57087000
5.89999983	-2.70792300	41.11097000	20.57087000
6.09999981	-6.84916400	41.11097000	20.94611000
6.29999980	-9.07972400	41.15403000	21.68430000
6.49999979	-9.23905000	41.52928000	22.05955000
6.69999978	-7.00848900	42.27362000	22.10261000
6.89999977	-3.18590100	42.64886000	22.10261000
7.09999975	1.27399100	42.69193000	22.10261000
7.29999974	4.93786900	42.64886000	22.10261000
7.49999973	7.32714100	42.27362000	22.10261000
7.69999972	7.64579200	41.57849000	22.10261000
7.89999971	6.05315000	41.52928000	22.10261000
8.09999970	3.18590100	41.85531000	22.10261000
8.29999968	-0.15871060	41.48622000	22.10261000
8.49999967	-3.02657500	41.20325000	22.10261000
8.69999966	-4.77854300	41.52928000	22.10261000
8.89999965	-5.09719500	42.22441000	22.10261000
9.09999964	-4.30056600	42.27362000	22.14567000
9.29999962	-2.54859700	41.94759000	22.47785000
9.49999961	-0.47736220	42.31668000	22.84695000
9.69999960	1.11466500	42.64886000	22.47785000
9.89999959	2.22994600	42.69193000	22.14567000
10.09999958	2.54859700	42.69193000	22.10261000
10.29999956	2.07062000	42.69193000	22.10261000
10.49999955	1.43331700	42.69193000	22.10261000
10.69999954	0.47736220	42.69193000	22.10261000
10.89999953	-0.31803640	42.69193000	22.10261000
11.09999952	-0.79601380	42.69193000	22.10261000
11.29999951	-0.95533960	42.69193000	22.10261000
11.49999949	-0.95533960	42.69193000	22.10261000
11.69999948	-0.63668800	42.69193000	22.10261000
11.89999947	-0.47736220	42.69193000	22.14567000
12.09999946	-0.15871060	42.69193000	22.47785000
12.29999945	-0.15871060	42.69193000	22.89001000
12.49999943	-0.15871060	42.69193000	22.85310000
12.69999942	0.00000000	42.69193000	22.93307000
12.89999941	0.00000000	42.69193000	22.89616000
13.09999940	0.00000000	42.69193000	23.30832000
13.29999939	0.00000000	42.69193000	23.64050000
13.49999937	0.00000000	42.69193000	23.68356000
13.69999936	0.00000000	42.69193000	23.68356000
13.89999935	0.00000000	42.69193000	23.64050000
14.09999934	-0.15871060	42.69193000	23.30832000
14.29999933	-0.15871060	42.69193000	22.93922000
14.49999932	-0.15871060	42.69193000	23.30832000
14.69999930	0.00000000	42.69193000	23.64050000
14.89999929	0.00000000	42.69193000	23.68356000
15.09999928	0.00000000	42.69193000	23.68356000
15.29999927	0.00000000	42.69193000	23.68356000
15.49999926	0.00000000	42.69193000	23.64050000
15.69999924	0.00000000	42.69193000	23.30832000
15.89999923	0.00000000	42.69193000	22.93922000
16.09999922	0.00000000	42.69193000	23.26525000
16.29999921	0.00000000	42.69193000	23.26525000
16.49999920	-0.15871060	42.69193000	22.89616000
16.69999919	-0.15871060	42.69193000	22.93307000
16.89999917	0.00000000	42.73499000	22.89616000
17.09999916	0.00000000	43.11023000	23.26525000
17.29999915	0.00000000	43.85457000	23.21604000
17.49999914	0.00000000	44.22982000	22.52091000
17.69999913	0.00000000	44.22982000	22.14567000
17.89999911	0.00000000	43.85457000	22.10261000
18.09999910	0.00000000	43.06717000	22.10261000
18.29999909	0.00000000	42.22441000	22.10261000
18.49999908	0.00000000	40.69267000	22.10261000
18.69999907	-0.15871060	38.78568000	22.10261000
18.89999905	0.00000000	37.66609000	22.10261000
19.09999904	0.00000000	37.29700000	22.10261000
19.29999903	0.00000000	38.50270000	22.10261000
19.49999902	0.00000000	41.15403000	22.10261000
19.69999901	0.00000000	44.31594000	22.10261000
19.89999900	0.00000000	47.81004000	22.10261000
20.09999898	0.00000000	51.29183000	22.10261000
20.29999897	0.00000000	53.53100000	22.10261000
20.49999896	0.00000000	53.85703000	22.10261000
20.69999895	0.00000000	51.07037000	22.10261000
20.89999894	0.00000000	45.30019000	22.10261000
21.09999892	0.00000000	37.94907000	22.10261000
21.29999891	0.00000000	30.59178000	22.10261000
21.49999890	0.00000000	24.82160000	22.10261000
21.69999889	0.00000000	22.17027000	22.10261000
21.89999888	0.00000000	23.84350000	22.10261000
22.09999886	0.00000000	30.45029000	22.10261000
22.29999885	0.00000000	41.28937000	22.10261000
22.49999884	0.00000000	53.62328000	22.10261000
22.69999883	0.00000000	64.88066000	22.10261000
22.89999882	0.00000000	72.47169000	22.14567000
23.09999881	0.00000000	73.91116000	22.52091000
23.29999879	0.00000000	67.31053000	23.26525000
23.49999878	0.00000000	54.14001000	23.68356000
23.69999877	0.00000000	37.10630000	24.05881000
23.89999876	0.00000000	19.34055000	24.42790000
24.09999875	0.00000000	5.56102300	24.05881000
24.29999873	0.00000000	-0.57824800	23.68356000
24.49999872	0.00000000	3.37106300	23.21604000
24.69999871	0.00000000	16.91068000	22.05955000
24.89999870	0.00000000	37.38312000	20.52780000
25.09999869	0.00000000	60.18085000	18.98991000
25.29999867	0.00000000	79.86589000	17.83341000
25.49999866	0.00000000	92.19364000	17.50123000
25.69999865	0.00000000	93.63927000	18.29478000
25.89999864	0.00000000	83.21850000	20.66314000
26.09999863	0.00000000	63.11515000	24.15108000
26.29999862	0.00000000	38.03519000	28.42027000
26.49999860	0.00000000	13.70571000	32.60334000
26.69999859	0.00000000	-4.06619100	35.24852000
26.89999858	0.00000000	-11.37426000	35.24852000
27.09999857	0.00000000	-6.39148600	32.51107000
27.29999856	0.00000000	9.83636800	27.40526000
27.49999854	0.00000000	33.01550000	20.01722000
27.69999853	0.00000000	58.50763000	11.60187000
27.89999852	0.00000000	80.14271000	4.73056000
28.09999851	0.00000000	92.94414000	1.66092500
28.29999850	0.00000000	94.89419000	3.19266700
28.49999848	0.00000000	85.21776000	9.09202700
28.69999847	0.00000000	66.37549000	18.80536000
28.89999846	0.00000000	43.20251000	31.15772000
29.09999845	0.00000000	21.14911000	43.05487000
29.29999844	0.00000000	4.86589500	51.56250000
29.49999843	0.00000000	-2.53444900	54.58292000
29.69999841	0.00000000	0.16609250	51.05191000
29.89999840	0.00000000	12.08169000	40.92643000
30.09999839	0.00000000	30.22268000	25.91043000
30.29999838	0.00000000	49.95078000	9.33193800
30.49999837	0.00000000	67.35358000	-4.60752900
30.69999835	0.00000000	78.61097000	-13.47810000
30.89999834	0.00000000	81.40379000	-15.29281000
31.09999833	0.00000000	76.42101000	-8.28001900
31.29999832	0.00000000	64.78838000	6.31151500
31.49999831	0.00000000	49.01575000	24.84621000
31.69999829	0.00000000	33.19390000	43.06102000
31.89999828	0.00000000	21.14296000	57.73868000
32.09999827	0.00000000	14.86836000	65.77879000
32.29999826	0.00000000	14.86836000	64.61614000
32.49999825	0.00000000	20.96457000	54.58292000
32.69999824	0.00000000	31.42839000	37.99213000
32.89999822	0.00000000	43.39321000	18.29478000
33.09999821	0.00000000	55.01968000	0.12918310
33.29999820	0.00000000	63.07209000	-13.05979000
33.49999819	0.00000000	65.85876000	-18.82382000
33.69999818	0.00000000	63.16436000	-15.75418000
33.89999816	0.00000000	55.89936000	-4.56446800
34.09999815	0.00000000	46.27214000	11.97711000
34.29999814	0.00000000	37.00787000	30.13656000
34.49999813	0.00000000	30.07505000	45.61392000
34.69999812	0.00000000	27.33145000	55.69635000
34.89999810	0.00000000	29.18922000	58.39074000
35.09999809	0.00000000	34.17815000	53.05118000
35.29999808	0.00000000	41.11097000	41.48006000
35.49999807	0.00000000	47.99458000	26.42101000
35.69999806	0.00000000	52.65133000	10.99901000
35.89999805	0.00000000	54.23228000	-0.94119090
36.09999803	0.00000000	52.69439000	-6.79133800
36.29999802	0.00000000	48.46210000	-5.63484200
36.49999801	0.00000000	42.69193000	2.03617100
36.69999800	0.00000000	36.96481000	14.34547000
36.89999799	0.00000000	33.15083000	27.73130000
37.09999797	0.00000000	32.73252000	38.55192000
37.29999796	0.00000000	35.38385000	43.99606000
37.49999795	0.00000000	39.99754000	43.66388000
37.69999794	0.00000000	45.38631000	37.85679000
37.89999793	0.00000000	50.00000000	27.95275000
38.09999791	0.00000000	52.73745000	17.22441000
38.29999790	0.00000000	53.11269000	9.17814900
38.49999789	0.00000000	51.20571000	5.70251000
38.69999788	0.00000000	47.39173000	8.02165300
38.89999787	0.00000000	43.15945000	15.22515000
39.09999786	0.00000000	39.62229000	24.79700000
39.29999784	0.00000000	36.87869000	33.63066000
39.49999783	-0.15871060	35.38385000	39.39468000
39.69999782	0.00000000	35.71604000	40.45890000
39.89999781	0.00000000	37.61687000	35.85752000
40.09999780	0.00000000	39.94832000	26.70398000
40.29999778	0.00000000	42.69193000	16.38164000
40.49999777	0.00000000	45.38631000	7.92937900
40.69999776	0.00000000	47.39173000	3.70324800
40.89999775	0.00000000	48.97269000	4.85974400
41.09999774	0.00000000	50.08612000	10.99901000
41.29999772	0.00000000	50.08612000	20.61393000
41.49999771	0.00000000	48.97269000	30.97933000
41.69999770	0.00000000	47.43479000	39.43774000
41.89999769	0.00000000	45.81078000	43.66388000
42.09999768	0.00000000	43.85457000	42.55044000
42.29999767	0.00000000	41.52928000	36.78642000
42.49999765	0.00000000	39.62229000	27.95275000
42.69999764	0.00000000	38.41658000	18.33784000
42.89999763	0.00000000	38.04134000	10.62377000
43.09999762	0.00000000	38.45964000	6.35457700
43.29999761	0.00000000	39.99754000	6.35457700
43.49999759	0.00000000	42.27362000	10.53765000
43.69999758	0.00000000	44.22982000	17.45817000
43.89999757	0.00000000	45.85384000	25.12918000
44.09999756	0.00000000	47.39173000	31.67446000
44.29999755	0.00000000	48.59744000	35.20546000
44.49999753	0.00000000	49.34793000	35.67298000
44.69999752	0.00000000	49.76009000	33.76599000
44.89999751	0.00000000	49.34793000	29.86589000
45.09999750	0.00000000	48.54823000	24.88927000
45.29999749	0.00000000	46.96727000	19.87574000
45.49999748	0.00000000	44.64813000	16.43085000
45.69999746	0.00000000	42.27362000	15.18209000
45.89999745	0.00000000	39.48696000	15.92027000
46.09999744	0.00000000	36.45423000	17.83341000
46.29999743	0.00000000	34.17815000	20.57087000
46.49999742	0.00000000	33.80290000	23.64050000
46.69999740	0.00000000	35.38385000	26.37795000
46.89999739	0.00000000	38.92101000	28.28494000
47.09999738	0.00000000	44.36515000	29.07234000
47.29999737	0.00000000	50.55364000	28.32800000
47.49999736	0.00000000	56.32381000	26.79626000
47.69999734	0.00000000	60.13164000	24.79700000
47.89999733	0.00000000	60.50689000	22.10261000
48.09999732	0.00000000	57.39419000	19.40822000
48.29999731	0.00000000	51.15649000	17.50123000
48.49999730	0.00000000	42.64272000	16.75689000
48.69999729	0.00000000	33.80290000	17.91953000
48.89999727	0.00000000	26.87008000	20.57087000
49.09999726	0.00000000	23.79429000	23.68356000
49.29999725	0.00000000	25.37524000	26.79626000
49.49999724	0.00000000	31.56988000	29.44759000
49.69999723	0.00000000	41.19709000	30.60408000
49.89999721	0.00000000	51.58095000	29.86589000
50.09999720	0.00000000	60.08858000	27.90969000
50.29999719	0.00000000	64.69611000	24.75394000
50.49999718	0.00000000	64.32086000	20.57087000
50.69999717	0.00000000	58.92593000	16.76304000
50.89999715	0.00000000	50.08612000	14.80684000
51.09999714	0.00000000	40.08366000	14.80684000
51.29999713	0.00000000	31.61294000	16.76304000
51.49999712	0.00000000	26.95620000	20.57087000
51.69999711	0.00000000	26.91314000	24.79700000
51.89999710	0.00000000	31.15157000	28.28494000
52.09999708	0.00000000	38.45964000	30.60408000
52.29999707	0.00000000	46.92421000	30.97933000
52.49999706	0.00000000	54.18307000	29.44759000
52.69999705	0.00000000	58.04626000	26.37795000
52.89999704	0.00000000	57.34498000	22.52091000
53.09999702	0.00000000	53.11269000	19.08218000
53.29999701	0.00000000	46.59818000	16.75689000
53.49999700	0.00000000	39.29626000	16.38164000
53.69999699	0.00000000	33.98130000	17.87647000
53.89999698	0.00000000	31.98819000	20.57087000
54.09999696	0.00000000	33.93824000	23.59129000
54.29999695	0.00000000	38.87795000	25.91043000
54.49999694	0.00000000	45.38631000	26.70398000
54.69999693	0.00000000	51.15649000	26.32874000
54.89999692	0.00000000	54.60752000	24.79700000
55.09999691	0.00000000	54.97047000	22.52091000
55.29999689	0.00000000	51.58095000	20.66314000
55.49999688	0.00000000	46.22908000	19.87574000
55.69999687	0.00000000	40.82800000	20.66314000
55.89999686	0.00000000	36.13435000	22.57013000
56.09999685	0.00000000	33.51378000	25.26452000
56.29999683	0.00000000	33.52608000	27.90969000
56.49999682	0.00000000	37.00787000	29.40452000
56.69999681	0.00000000	42.69193000	28.98007000
56.89999680	0.00000000	48.50517000	26.28568000
57.09999679	0.00000000	53.11269000	22.10261000
57.29999677	0.00000000	55.43799000	17.87647000
57.49999676	0.00000000	54.65059000	14.80684000
57.69999675	0.00000000	51.24877000	13.69340000
57.89999674	0.00000000	46.22908000	15.27436000
58.09999673	0.00000000	41.24631000	19.50049000
58.29999672	0.00000000	37.38927000	25.26452000
58.49999670	0.00000000	35.80832000	31.06545000
58.69999669	0.00000000	36.54650000	35.62377000
58.89999668	0.00000000	38.87795000	37.52460000
59.09999667	0.00000000	42.73499000	35.58071000
59.29999666	0.00000000	46.92421000	30.60408000
59.49999664	0.00000000	50.04306000	23.63435000
59.69999663	0.00000000	51.58095000	16.38779000
59.89999662	0.00000000	51.24877000	10.99901000
60.09999661	0.00000000	49.29871000	9.09202700
60.29999660	0.00000000	46.64124000	10.99901000
60.49999658	0.00000000	43.52854000	16.38779000
60.69999657	0.00000000	41.24631000	23.68356000
60.89999656	0.00000000	40.08366000	31.02239000
61.09999655	0.00000000	40.45890000	36.78642000
61.29999654	0.00000000	42.35974000	39.48080000
61.49999653	0.00000000	44.64813000	38.32431000
61.69999651	0.00000000	46.96727000	33.71678000
61.89999650	0.00000000	48.46210000	26.75320000
62.09999649	0.00000000	48.50517000	19.03297000
62.29999648	0.00000000	47.39173000	12.15551000
62.49999647	0.00000000	45.81078000	8.30462600
62.69999645	0.00000000	43.85457000	8.66756800
62.89999644	0.00000000	41.62155000	12.48770000
63.09999643	0.00000000	40.50196000	19.03297000
63.29999642	0.00000000	41.20325000	26.32874000
63.49999641	0.00000000	42.73499000	32.51107000
63.69999639	0.00000000	44.69119000	36.41117000
63.89999638	0.00000000	47.01648000	37.20472000
64.09999637	0.00000000	48.88041000	35.29773000
64.29999636	0.00000000	49.66781000	31.02239000
64.49999635	0.00000000	48.83735000	25.26452000
64.69999634	0.00000000	46.64124000	19.50049000
64.89999632	0.00000000	43.90379000	15.22515000
65.09999631	0.00000000	41.98450000	13.22589000
65.29999630	0.00000000	40.41584000	13.18282000
65.49999629	0.00000000	40.08366000	14.76378000
65.69999628	0.00000000	41.20325000	17.83341000
65.89999626	0.00000000	43.11023000	21.64124000
66.09999625	0.00000000	45.43553000	24.79700000
66.29999624	0.00000000	47.29946000	27.17150000
66.49999623	0.00000000	48.08686000	29.11540000
66.69999622	0.00000000	47.29946000	29.90895000
66.89999620	0.00000000	45.43553000	29.95817000
67.09999619	0.00000000	43.15945000	29.53371000
67.29999618	0.00000000	41.62155000	28.32800000
67.49999617	0.00000000	41.24631000	26.37795000
67.69999616	0.00000000	42.03986000	23.64050000
67.89999615	0.00000000	44.36515000	20.52780000
68.09999613	0.00000000	47.39173000	17.41511000
68.29999612	0.00000000	50.08612000	14.72072000
68.49999611	0.00000000	51.58095000	13.18282000
68.69999610	0.00000000	51.20571000	13.22589000
68.89999609	0.00000000	48.88041000	15.22515000
69.09999607	0.00000000	45.38631000	19.45743000
69.29999606	0.00000000	41.11097000	24.88927000
69.49999605	0.00000000	36.92175000	30.28420000
69.69999604	0.00000000	34.26427000	34.87943000
69.89999603	0.00000000	34.31348000	36.78642000
70.09999601	0.00000000	37.38312000	35.67298000
70.29999600	0.00000000	42.78420000	32.18504000
70.49999599	0.00000000	48.92347000	26.75320000
70.69999598	0.00000000	54.36761000	20.61393000
70.89999597	0.00000000	57.81250000	15.22515000
71.09999596	0.00000000	58.55069000	12.11245000
71.29999594	0.00000000	55.85630000	11.69414000
71.49999593	0.00000000	50.46136000	13.64419000
71.69999592	0.00000000	43.89763000	17.91953000
71.89999591	0.00000000	37.29700000	23.64050000
72.09999590	0.00000000	32.30807000	28.98007000
72.29999588	0.00000000	29.98893000	32.14198000
72.49999587	0.00000000	31.19464000	32.93553000
72.69999586	0.00000000	35.80217000	31.80979000
72.89999585	0.00000000	42.73499000	28.75246000
73.09999584	0.00000000	50.04306000	25.35064000
73.29999582	0.00000000	55.85630000	22.61319000
73.49999581	0.00000000	58.97515000	21.08145000
73.69999580	0.00000000	59.01821000	21.03838000
73.89999579	0.00000000	56.27460000	22.15182000
74.09999578	0.00000000	51.24877000	23.64050000
74.29999577	0.00000000	44.74040000	24.84621000
74.49999575	0.00000000	38.97022000	25.54749000
74.69999574	0.00000000	35.43307000	25.49212000
74.89999573	0.00000000	34.22121000	23.59129000
75.09999572	0.00000000	35.38385000	21.03838000
75.29999571	0.00000000	38.45964000	19.45743000
75.49999569	0.00000000	42.73499000	19.12524000
75.69999568	0.00000000	47.34252000	20.33710000
75.89999567	0.00000000	51.20571000	23.77584000
76.09999566	0.00000000	53.16190000	27.95275000
76.29999565	0.00000000	53.20496000	31.44069000
76.49999563	0.00000000	51.66707000	33.71678000
76.69999562	0.00000000	48.97269000	33.67372000
76.89999561	0.00000000	45.94611000	30.97933000
77.09999560	0.00000000	43.62082000	26.37795000
77.29999559	0.00000000	42.78420000	20.94611000
77.49999558	0.00000000	42.73499000	15.92027000
77.69999556	0.00000000	43.11023000	12.11245000
77.89999555	0.00000000	43.85457000	10.99901000
78.09999554	0.00000000	44.22982000	13.27510000
78.29999553	0.00000000	44.27288000	17.91953000
78.49999552	0.00000000	44.27288000	24.10187000
78.69999550	0.00000000	44.27288000	30.60408000
78.89999549	0.00000000	44.31594000	35.24852000
79.09999548	0.00000000	44.74040000	37.20472000
79.29999547	0.00000000	45.89690000	36.45423000
79.49999546	0.00000000	47.43479000	32.97859000
79.69999544	0.00000000	48.92347000	27.95275000
79.89999543	0.00000000	49.71087000	22.14567000
80.09999542	0.00000000	49.34793000	16.75689000
80.29999541	0.00000000	48.54823000	13.26895000
80.49999540	0.00000000	46.92421000	12.11245000
80.69999539	0.00000000	44.27288000	13.60113000
80.89999537	0.00000000	41.62155000	17.03986000
81.09999536	0.00000000	40.08366000	20.90305000
81.29999535	0.00000000	40.04060000	24.79700000
81.49999534	0.00000000	41.20325000	27.90969000
81.69999533	0.00000000	43.15945000	29.90895000
81.89999531	0.00000000	45.85384000	31.06545000
82.09999530	0.00000000	48.50517000	31.06545000
82.29999529	0.00000000	50.08612000	29.90895000
82.49999528	0.00000000	50.46136000	28.00197000
82.69999527	0.00000000	49.71087000	25.63976000
82.89999525	0.00000000	47.81004000	23.26525000
83.09999524	0.00000000	45.89690000	20.52780000
83.29999523	0.00000000	44.27288000	17.87647000
83.49999522	0.00000000	42.78420000	16.29552000
83.69999521	0.00000000	41.99680000	15.87721000
83.89999520	0.00000000	42.35974000	16.29552000
84.09999518	0.00000000	43.11023000	17.91953000
84.29999517	0.00000000	44.27288000	20.98917000
84.49999516	0.00000000	45.38631000	24.84621000
84.69999515	0.00000000	45.81078000	28.32800000
84.89999514	0.00000000	45.85384000	31.06545000
85.09999512	0.00000000	45.85384000	32.56028000
85.29999511	0.00000000	45.85384000	32.18504000
85.49999510	0.00000000	45.89690000	29.82283000
85.69999509	0.00000000	46.27214000	26.00270000
85.89999508	0.00000000	47.01648000	21.36442000
86.09999506	0.00000000	47.39173000	17.54429000
86.29999505	0.00000000	47.43479000	15.18209000
86.49999504	0.00000000	47.34252000	14.80684000
86.69999503	0.00000000	46.54896000	16.33858000
86.89999502	0.00000000	44.69119000	19.50049000
87.09999501	0.00000000	43.15945000	24.10187000
87.29999499	0.00000000	42.31668000	29.02928000
87.49999498	0.00000000	41.57849000	32.14198000
87.69999497	0.00000000	41.66461000	32.93553000
87.89999496	0.00000000	43.15945000	31.76673000
88.09999495	0.00000000	45.47859000	28.32800000
88.29999493	0.00000000	47.76698000	24.15108000
88.49999492	0.00000000	49.71087000	20.61393000
88.69999491	0.00000000	50.46136000	17.91953000
88.89999490	0.00000000	50.12918000	16.80610000
89.09999489	0.00000000	48.92347000	17.96260000
89.29999487	0.00000000	47.01648000	21.03838000
89.49999486	0.00000000	44.74040000	25.26452000
89.69999485	0.00000000	43.20251000	29.44759000
89.89999484	0.00000000	42.73499000	32.14198000
90.09999483	0.00000000	42.73499000	32.51107000
90.29999482	0.00000000	43.15945000	30.60408000
90.49999480	0.00000000	44.31594000	26.79626000
90.69999479	0.00000000	45.85384000	22.57013000
90.89999478	0.00000000	47.39173000	19.08218000
91.09999477	0.00000000	48.54823000	16.80610000
91.29999476	0.00000000	48.92347000	16.84916000
91.49999474	0.00000000	48.59744000	19.50049000
91.69999473	0.00000000	47.81004000	23.72662000
91.89999472	0.00000000	47.05954000	28.32800000
92.09999471	0.00000000	46.27214000	32.14198000
92.29999470	0.00000000	45.89690000	33.67372000
92.49999468	0.00000000	45.85384000	32.56028000
92.69999467	0.00000000	45.81078000	29.44759000
92.89999466	0.00000000	45.43553000	24.84621000
93.09999465	0.00000000	44.69119000	19.82652000
93.29999464	0.00000000	44.27288000	16.01255000
93.49999463	0.00000000	43.89763000	14.06865000
93.69999461	0.00000000	43.52854000	14.84990000
93.89999460	0.00000000	43.94069000	17.91953000
94.09999459	0.00000000	44.74040000	22.52091000
94.29999458	0.00000000	46.32135000	27.53445000
94.49999457	0.00000000	48.59744000	31.35457000
94.69999455	0.00000000	50.50443000	33.29847000
94.89999454	0.00000000	51.66707000	32.46801000
95.09999453	0.00000000	51.62401000	29.07234000
95.29999452	0.00000000	50.08612000	24.10187000
95.49999451	0.00000000	47.39173000	19.50049000
95.69999449	0.00000000	44.31594000	16.38779000
95.89999448	0.00000000	41.57849000	15.22515000
96.09999447	0.00000000	39.66535000	16.38779000
96.29999446	0.00000000	38.87795000	19.45743000
96.49999445	0.00000000	39.70842000	23.68356000
96.69999444	0.00000000	41.99680000	27.86663000
96.89999442	0.00000000	45.52165000	30.56102000
97.09999441	0.00000000	49.39099000	30.97933000
97.29999440	0.00000000	53.20496000	29.49065000
97.49999439	0.00000000	55.48105000	26.83932000
97.69999438	0.00000000	55.16117000	24.14493000
97.89999436	0.00000000	53.24803000	22.15182000
98.09999435	0.00000000	50.08612000	20.61393000
98.29999434	0.00000000	45.85384000	19.87574000
98.49999433	0.00000000	41.62155000	20.61393000
98.69999432	0.00000000	38.54576000	22.10261000
98.89999430	0.00000000	37.34006000	23.68356000
99.09999429	0.00000000	38.08440000	25.21530000
99.29999428	0.00000000	40.04060000	26.32874000
99.49999427	0.00000000	43.20251000	26.37795000
99.69999426	0.00000000	47.39173000	25.68282000
99.89999425	0.00000000	51.24877000	25.30758000
100.09999423	0.00000000	53.58022000	25.26452000
100.29999422	0.00000000	54.41068000	25.30758000
100.49999421	0.00000000	53.62328000	25.68282000
100.69999420	0.00000000	51.71013000	26.37795000
100.89999419	0.00000000	48.97269000	26.32874000
101.09999417	0.00000000	45.89690000	25.21530000
101.29999416	0.00000000	43.15945000	23.68356000
101.49999415	0.00000000	41.20325000	22.15182000
101.69999414	0.00000000	40.04060000	20.98917000
101.89999413	0.00000000	40.08366000	20.62008000
102.09999411	0.00000000	41.57849000	20.98917000
102.29999410	0.00000000	43.89763000	22.19488000
102.49999409	0.00000000	46.22908000	24.10187000
102.69999408	0.00000000	48.54823000	26.42101000
102.89999407	0.00000000	50.08612000	28.32800000
103.09999406	0.00000000	50.55364000	29.49065000
103.29999404	0.00000000	50.55364000	29.49065000
103.49999403	0.00000000	50.08612000	28.28494000
103.69999402	0.00000000	48.54823000	26.00270000
103.89999401	0.00000000	46.27214000	22.89616000
104.09999400	0.00000000	44.36515000	20.23868000
104.29999398	0.00000000	43.15945000	18.29478000
104.49999397	0.00000000	42.78420000	17.96260000
104.69999396	0.00000000	43.15945000	19.45743000
104.89999395	0.00000000	44.31594000	22.15182000
105.09999394	0.00000000	45.85384000	25.21530000
105.29999392	0.00000000	47.39173000	27.90969000
105.49999391	0.00000000	48.54823000	29.49065000
105.69999390	0.00000000	48.97269000	29.86589000
105.89999389	0.00000000	48.97269000	29.07234000
106.09999388	0.00000000	48.54823000	26.79626000
106.29999387	0.00000000	47.43479000	24.14493000
106.49999385	0.00000000	46.32135000	22.19488000
106.69999384	0.00000000	45.89690000	21.03838000
106.89999383	0.00000000	45.85384000	21.03838000
107.09999382	0.00000000	45.89690000	22.19488000
107.29999381	0.00000000	46.27214000	24.10187000
107.49999379	0.00000000	47.01648000	26.37795000
107.69999378	0.00000000	47.39173000	27.86663000
107.89999377	0.00000000	47.43479000	27.95275000
108.09999376	0.00000000	47.39173000	27.17150000
108.29999375	0.00000000	46.96727000	26.00270000
108.49999374	0.00000000	45.85384000	24.10187000
108.69999372	0.00000000	44.74040000	22.61319000
108.89999371	0.00000000	44.31594000	22.14567000
109.09999370	0.00000000	44.31594000	22.14567000
109.29999369	0.00000000	44.74040000	22.61319000
109.49999368	0.00000000	45.89690000	24.10187000
109.69999366	0.00000000	47.43479000	26.00270000
109.89999365	0.00000000	48.97269000	27.17150000
110.09999364	0.00000000	50.08612000	27.95275000
110.29999363	0.00000000	50.08612000	27.90969000
110.49999362	0.00000000	48.97269000	26.79626000
110.69999360	0.00000000	47.43479000	25.26452000
110.89999359	0.00000000	45.89690000	23.68356000
111.09999358	0.00000000	44.74040000	22.15182000
111.29999357	0.00000000	44.31594000	21.03838000
111.49999356	0.00000000	44.31594000	20.98917000
111.69999355	0.00000000	44.74040000	21.72736000
111.89999353	0.00000000	45.85384000	22.52091000
112.09999352	0.00000000	47.01648000	23.68356000
112.29999351	0.00000000	47.81004000	24.84621000
112.49999350	0.00000000	48.59744000	25.59055000
112.69999349	0.00000000	48.92347000	26.00270000
112.89999347	0.00000000	48.59744000	25.63976000
113.09999346	0.00000000	47.81004000	25.30758000
113.29999345	0.00000000	47.05954000	25.22145000
113.49999344	0.00000000	46.27214000	24.84621000
113.69999343	0.00000000	45.85384000	24.10187000
113.89999341	0.00000000	45.47859000	23.72662000
114.09999340	0.00000000	45.15871000	23.64050000
114.29999339	0.00000000	45.89690000	23.30832000
114.49999338	0.00000000	46.96727000	22.89616000
114.69999337	0.00000000	47.39173000	22.89001000
114.89999336	0.00000000	47.43479000	22.47785000
115.09999334	0.00000000	47.43479000	22.14567000
115.29999333	0.00000000	47.43479000	22.14567000
115.49999332	0.00000000	47.43479000	22.52091000
115.69999331	0.00000000	47.39173000	23.30832000
115.89999330	0.00000000	47.01648000	24.05881000
116.09999328	0.00000000	46.27214000	24.88927000
116.29999327	0.00000000	45.89690000	25.63976000
116.49999326	0.00000000	45.85384000	26.42101000
116.69999325	0.00000000	45.85384000	26.74705000
116.89999324	0.00000000	45.89690000	26.42101000
117.09999322	0.00000000	46.27214000	25.63976000
117.29999321	0.00000000	47.05954000	24.84621000
117.49999320	0.00000000	47.81004000	23.68356000
117.69999319	0.00000000	48.59744000	22.57013000
117.89999318	0.00000000	48.97269000	22.19488000
118.09999317	0.00000000	49.01575000	22.52091000
118.29999315	0.00000000	48.97269000	23.30832000
118.49999314	0.00000000	48.54823000	24.05881000
118.69999313	0.00000000	47.39173000	24.88927000
118.89999312	0.00000000	45.89690000	25.63976000
119.09999311	0.00000000	44.74040000	26.42101000
119.29999309	0.00000000	44.31594000	26.79626000
119.49999308	0.00000000	44.31594000	26.83932000
119.69999307	0.00000000	44.74040000	26.83932000
119.89999306	0.00000000	45.85384000	26.79626000
120.09999305	0.00000000	47.05954000	26.42101000
120.29999303	0.00000000	48.22834000	25.68282000
120.49999302	0.00000000	49.76009000	25.26452000
120.69999301	0.00000000	50.50443000	24.84621000
120.89999300	0.00000000	50.55364000	24.10187000
121.09999299	0.00000000	50.12918000	23.77584000
121.29999298	0.00000000	49.01575000	24.05881000
121.49999296	0.00000000	47.85310000	24.47096000
121.69999295	0.00000000	47.05954000	24.47712000
121.89999294	0.00000000	46.22908000	24.88927000
122.09999293	0.00000000	45.52165000	25.22145000
122.29999292	0.00000000	45.10950000	25.30758000
122.49999290	0.00000000	45.52165000	25.68282000
122.69999289	0.00000000	46.22908000	26.42101000
122.89999288	0.00000000	47.05954000	26.79626000
123.09999287	0.00000000	47.81004000	26.79626000
123.29999286	0.00000000	48.59744000	26.42101000
123.49999284	0.00000000	48.97269000	25.63976000
123.69999283	0.00000000	49.01575000	24.88927000
123.89999282	0.00000000	49.01575000	24.10187000
124.09999281	0.00000000	48.97269000	23.72662000
124.29999280	0.00000000	48.59744000	23.68356000
124.49999279	0.00000000	47.85310000	23.68356000
124.69999277	0.00000000	47.43479000	23.72662000
124.89999276	0.00000000	47.01648000	24.10187000
125.09999275	0.00000000	46.27214000	24.84621000
125.29999274	0.00000000	45.89690000	25.22145000
125.49999273	0.00000000	45.85384000	25.26452000
125.69999271	0.00000000	45.89690000	25.26452000
125.89999270	0.00000000	46.27214000	25.26452000
126.09999269	0.00000000	47.05954000	25.26452000
126.29999268	0.00000000	47.85310000	25.26452000
126.49999267	0.00000000	48.97269000	25.26452000
126.69999265	0.00000000	49.71087000	25.26452000
126.89999264	0.00000000	49.34793000	25.22145000
127.09999263	0.00000000	48.64050000	24.84621000
127.29999262	0.00000000	47.81004000	24.10187000
127.49999261	0.00000000	47.01648000	23.72662000
127.69999260	0.00000000	45.89690000	23.68356000
127.89999258	0.00000000	45.15871000	23.68356000
128.09999257	0.00000000	45.47859000	23.68356000
128.29999256	0.00000000	45.85384000	23.72662000
128.49999255	0.00000000	46.32135000	24.10187000
128.69999254	0.00000000	47.43479000	24.84621000
128.89999252	0.00000000	48.54823000	25.22145000
129.09999251	0.00000000	49.01575000	25.26452000
129.29999250	0.00000000	49.39099000	25.22145000
129.49999249	0.00000000	49.71087000	24.84621000
129.69999248	0.00000000	48.92347000	24.10187000
129.89999246	0.00000000	47.47785000	23.72662000
130.09999245	0.00000000	46.27214000	23.68356000
130.29999244	0.00000000	45.52165000	23.72662000
130.49999243	0.00000000	45.15871000	24.10187000
130.69999242	0.00000000	45.89690000	24.84621000
130.89999241	0.00000000	47.01648000	25.22145000
131.09999239	0.00000000	47.81004000	25.26452000
131.29999238	0.00000000	48.59744000	25.26452000
131.49999237	0.00000000	48.97269000	25.22145000
131.69999236	0.00000000	49.01575000	24.84621000
131.89999235	0.00000000	48.97269000	24.10187000
132.09999233	0.00000000	48.59744000	23.72662000
132.29999232	0.00000000	47.81004000	23.68356000
132.49999231	0.00000000	47.05954000	23.68356000
132.69999230	0.00000000	46.27214000	23.72662000
132.89999229	0.00000000	45.94611000	24.15108000
133.09999227	0.00000000	46.27214000	25.26452000
133.29999226	0.00000000	47.01648000	26.37795000
133.49999225	0.00000000	47.43479000	26.79626000
133.69999224	0.00000000	47.85310000	26.83932000
133.89999223	0.00000000	48.54823000	26.79626000
134.09999222	0.00000000	48.59744000	26.42101000
134.29999220	0.00000000	48.22834000	25.63976000
134.49999219	0.00000000	48.22219000	24.88927000
134.69999218	0.00000000	47.81004000	24.05881000
134.89999217	0.00000000	47.52707000	23.35138000
135.09999216	0.00000000	47.85310000	22.93922000
135.29999214	0.00000000	48.59744000	23.35138000
135.49999213	0.00000000	48.97269000	24.05881000
135.69999212	0.00000000	49.01575000	24.88927000
135.89999211	0.00000000	48.97269000	25.63976000
136.09999210	0.00000000	48.59744000	26.42101000
136.29999208	0.00000000	47.85310000	26.79626000
136.49999207	0.00000000	47.47785000	26.83932000
136.69999206	0.00000000	47.43479000	26.79626000
136.89999205	0.00000000	47.43479000	26.42101000
137.09999204	0.00000000	47.43479000	25.68282000
137.29999203	0.00000000	47.47785000	25.30758000
137.49999201	0.00000000	47.85310000	25.22145000
137.69999200	0.00000000	48.64050000	24.88927000
137.89999199	0.00000000	49.39099000	24.52018000
138.09999198	0.00000000	50.12918000	24.84621000
138.29999197	0.00000000	50.12918000	24.79700000
138.49999195	0.00000000	49.39099000	24.15108000
138.69999194	0.00000000	48.64050000	24.15108000
138.89999193	0.00000000	47.81004000	24.84621000
139.09999192	0.00000000	47.05954000	25.22145000
139.29999191	0.00000000	46.32135000	25.26452000
139.49999189	0.00000000	46.32135000	25.30758000
139.69999188	0.00000000	47.05954000	25.68282000
139.89999187	0.00000000	47.81004000	26.37795000
140.09999186	0.00000000	48.59744000	26.37795000
140.29999185	0.00000000	48.97269000	25.63976000
140.49999184	0.00000000	49.01575000	24.88927000
140.69999182	0.00000000	49.01575000	24.10187000
140.89999181	0.00000000	48.97269000	23.72662000
141.09999180	0.00000000	48.59744000	23.68356000
141.29999179	0.00000000	47.85310000	23.68356000
141.49999178	0.00000000	47.47785000	23.72662000
141.69999176	0.00000000	47.43479000	24.10187000
141.89999175	0.00000000	47.43479000	24.88927000
142.09999174	0.00000000	47.47785000	25.63976000
142.29999173	0.00000000	47.85310000	26.42101000
142.49999172	0.00000000	48.59744000	26.79626000
142.69999170	0.00000000	48.97269000	26.79626000
142.89999169	0.00000000	49.01575000	26.42101000
143.09999168	0.00000000	48.97269000	25.63976000
143.29999167	0.00000000	48.59744000	24.88927000
143.49999166	0.00000000	47.90231000	24.10187000
143.69999165	0.00000000	47.85310000	23.72662000
143.89999163	0.00000000	48.17913000	23.68356000
144.09999162	0.00000000	47.85310000	23.72662000
144.29999161	0.00000000	47.90231000	24.10187000
144.49999160	0.00000000	48.59744000	24.88927000
144.69999159	0.00000000	48.97269000	25.63976000
144.89999157	0.00000000	49.01575000	26.42101000
145.09999156	0.00000000	49.01575000	26.79626000
145.29999155	0.00000000	49.01575000	26.79626000
145.49999154	0.00000000	48.97269000	26.42101000
145.69999153	0.00000000	48.59744000	25.68282000
145.89999151	0.00000000	47.85310000	25.26452000
146.09999150	0.00000000	47.47785000	24.84621000
146.29999149	0.00000000	47.43479000	24.10187000
146.49999148	0.00000000	47.43479000	23.72662000
146.69999147	0.00000000	47.47785000	23.68356000
146.89999146	0.00000000	47.85310000	23.72662000
147.09999144	0.00000000	48.59744000	24.10187000
147.29999143	0.00000000	48.97269000	24.84621000
147.49999142	0.00000000	49.01575000	25.22145000
147.69999141	0.00000000	49.01575000	25.26452000
147.89999140	0.00000000	48.97269000	25.30758000
148.09999138	0.00000000	48.59744000	25.63976000
148.29999137	0.00000000	47.85310000	26.00270000
148.49999136	0.00000000	47.47785000	25.63976000
148.69999135	0.00000000	47.47785000	25.30758000
148.89999134	0.00000000	47.85310000	25.22145000
149.09999132	0.00000000	48.59744000	24.88927000
149.29999131	0.00000000	48.97269000	24.52018000
149.49999130	0.00000000	49.01575000	24.88927000
149.69999129	0.00000000	49.01575000	25.22145000
149.89999128	0.00000000	49.01575000	25.26452000
150.09999127	0.00000000	49.01575000	25.26452000
150.29999125	0.00000000	49.01575000	25.26452000
150.49999124	0.00000000	48.97269000	25.30758000
150.69999123	0.00000000	48.59744000	25.68282000
150.89999122	0.00000000	47.85310000	26.42101000
151.09999121	0.00000000	47.47785000	26.79626000
151.29999119	0.00000000	47.47785000	26.83932000
151.49999118	0.00000000	47.85310000	26.79626000
151.69999117	0.00000000	48.59744000	26.42101000
151.89999116	0.00000000	48.97269000	25.68282000
152.09999115	0.00000000	49.05881000	25.30758000
152.29999113	0.00000000	49.43405000	25.26452000
152.49999112	0.00000000	50.12918000	25.26452000
152.69999111	0.00000000	50.12918000	25.26452000
152.89999110	0.00000000	49.43405000	25.26452000
153.09999109	0.00000000	49.05881000	25.26452000
153.29999108	0.00000000	49.01575000	25.30758000
153.49999106	0.00000000	49.01575000	25.68282000
153.69999105	0.00000000	48.97269000	26.42101000
153.89999104	0.00000000	48.64050000	26.79626000
154.09999103	0.00000000	48.27140000	26.83932000
154.29999102	0.00000000	48.59744000	26.83932000
154.49999100	0.00000000	48.59744000	26.79626000
154.69999099	0.00000000	48.27140000	26.42101000
154.89999098	0.00000000	48.64050000	25.68282000
155.09999097	0.00000000	48.97269000	25.30758000
155.29999096	0.00000000	49.05881000	25.26452000
155.49999094	0.00000000	49.43405000	25.26452000
155.69999093	0.00000000	50.17839000	25.26452000
155.89999092	0.00000000	50.50443000	25.26452000
156.09999091	0.00000000	50.17839000	25.26452000
156.29999090	0.00000000	49.43405000	25.26452000
156.49999089	0.00000000	49.05881000	25.30758000
156.69999087	0.00000000	48.97269000	25.68282000
156.89999086	0.00000000	48.59744000	26.42101000
157.09999085	0.00000000	47.85310000	26.79626000
157.29999084	0.00000000	47.47785000	26.83932000
157.49999083	0.00000000	47.47785000	26.79626000
157.69999081	0.00000000	47.85310000	26.42101000
157.89999080	0.00000000	48.59744000	25.68282000
158.09999079	0.00000000	48.97269000	25.26452000
158.29999078	0.00000000	49.05881000	24.84621000
158.49999077	0.00000000	49.39099000	24.10187000
158.69999075	0.00000000	49.76009000	23.72662000
158.89999074	0.00000000	49.39099000	23.72662000
159.09999073	0.00000000	49.05881000	24.10187000
159.29999072	0.00000000	49.01575000	24.84621000
159.49999071	0.00000000	49.01575000	25.22145000
159.69999070	0.00000000	49.01575000	25.26452000
159.89999068	0.00000000	49.01575000	25.26452000
160.09999067	0.00000000	49.01575000	25.30758000
160.29999066	0.00000000	49.01575000	25.63976000
160.49999065	0.00000000	49.01575000	26.00270000
160.69999064	0.00000000	48.97269000	25.59055000
160.89999062	0.00000000	48.64050000	24.88927000
161.09999061	0.00000000	48.27140000	24.10187000
161.29999060	0.00000000	48.64050000	23.72662000
161.49999059	0.00000000	48.97269000	23.68356000
161.69999058	0.00000000	49.01575000	23.72662000
161.89999056	0.00000000	49.01575000	24.10187000
162.09999055	0.00000000	49.01575000	24.84621000
162.29999054	0.00000000	49.01575000	25.22145000
162.49999053	0.00000000	49.01575000	25.26452000
162.69999052	0.00000000	49.01575000	25.26452000
162.89999051	0.00000000	49.01575000	25.26452000
163.09999049	0.00000000	49.01575000	25.26452000
163.29999048	0.00000000	49.01575000	25.26452000
163.49999047	0.00000000	49.01575000	25.26452000
163.69999046	0.00000000	49.01575000	25.26452000
163.89999045	0.00000000	49.01575000	25.26452000
164.09999043	0.00000000	49.01575000	25.26452000
164.29999042	0.00000000	49.01575000	25.26452000
164.49999041	0.00000000	49.05881000	25.26452000
164.69999040	0.00000000	49.39099000	25.26452000
164.89999039	0.00000000	49.80315000	25.26452000
165.09999037	0.00000000	49.80930000	25.26452000
165.29999036	0.00000000	50.22145000	25.26452000
165.49999035	0.00000000	50.55364000	25.30758000
165.69999034	0.00000000	50.55364000	25.68282000
165.89999033	0.00000000	50.17839000	26.42101000
166.09999032	0.00000000	49.43405000	26.79626000
166.29999030	0.00000000	49.05881000	26.83932000
166.49999029	0.00000000	49.01575000	26.83932000
166.69999028	0.00000000	49.01575000	26.83932000
166.89999027	0.00000000	49.01575000	26.79626000
167.09999026	0.00000000	49.01575000	26.42101000
167.29999024	0.00000000	49.05881000	25.68282000
167.49999023	0.00000000	49.39099000	25.30758000
167.69999022	0.00000000	49.80315000	25.26452000
167.89999021	0.00000000	49.80930000	25.26452000
168.09999020	0.00000000	50.22145000	25.26452000
168.29999018	0.00000000	50.55364000	25.26452000
168.49999017	0.00000000	50.59670000	25.30758000
168.69999016	0.00000000	50.55364000	25.63976000
168.89999015	0.00000000	50.17839000	26.00270000
169.09999014	0.00000000	49.43405000	25.63976000
169.29999013	0.00000000	49.05881000	25.30758000
169.49999011	0.00000000	49.05881000	25.30758000
169.69999010	0.00000000	49.39099000	25.68282000
169.89999009	0.00000000	49.76009000	26.37795000
170.09999008	0.00000000	49.39099000	26.37795000
170.29999007	0.00000000	49.05881000	25.68282000
170.49999005	0.00000000	49.01575000	25.30758000
170.69999004	0.00000000	49.05881000	25.26452000
170.89999003	0.00000000	49.43405000	25.26452000
171.09999002	0.00000000	50.17839000	25.26452000
171.29999001	0.00000000	50.55364000	25.26452000
171.49998999	0.00000000	50.59670000	25.26452000
171.69998998	0.00000000	50.59670000	25.26452000
171.89998997	0.00000000	50.55364000	25.26452000
172.09998996	0.00000000	50.17839000	25.26452000
172.29998995	0.00000000	49.43405000	25.26452000
172.49998994	0.00000000	49.05881000	25.26452000
172.69998992	0.00000000	49.01575000	25.26452000
172.89998991	0.00000000	49.01575000	25.26452000
173.09998990	0.00000000	49.01575000	25.26452000
173.29998989	0.00000000	49.01575000	25.26452000
173.49998988	0.00000000	49.05881000	25.26452000
173.69998986	0.00000000	49.43405000	25.26452000
173.89998985	0.00000000	50.12918000	25.26452000
174.09998984	0.00000000	50.17839000	25.26452000
174.29998983	0.00000000	49.80930000	25.26452000
174.49998982	0.00000000	49.84621000	25.26452000
174.69998980	0.00000000	49.76624000	25.26452000
174.89998979	0.00000000	49.80315000	25.26452000
175.09998978	0.00000000	49.39099000	25.26452000
175.29998977	0.00000000	49.10802000	25.26452000
175.49998976	0.00000000	49.39099000	25.26452000
175.69998975	0.00000000	49.76009000	25.26452000
175.89998973	0.00000000	49.39099000	25.26452000
176.09998972	0.00000000	49.10802000	25.26452000
176.29998971	0.00000000	49.43405000	25.26452000
176.49998970	0.00000000	50.12918000	25.26452000
176.69998969	0.00000000	50.17839000	25.26452000
176.89998967	0.00000000	49.80930000	25.26452000
177.09998966	0.00000000	49.84621000	25.26452000
177.29998965	0.00000000	49.76624000	25.26452000
177.49998964	0.00000000	49.80315000	25.26452000
177.69998963	0.00000000	49.39099000	25.26452000
177.89998961	0.00000000	49.05881000	25.26452000
178.09998960	0.00000000	49.01575000	25.26452000
178.29998959	0.00000000	49.05881000	25.26452000
178.49998958	0.00000000	49.39099000	25.26452000
178.69998957	0.00000000	49.80315000	25.30758000
178.89998956	0.00000000	49.80930000	25.63976000
179.09998954	0.00000000	50.22145000	26.04577000
179.29998953	0.00000000	50.55364000	26.05807000
179.49998952	0.00000000	50.59670000	26.42101000
179.69998951	0.00000000	50.59670000	26.37795000
179.89998950	0.00000000	50.59670000	25.68282000
180.09998948	0.00000000	50.59670000	25.35679000
180.29998947	0.00000000	50.59670000	25.63976000
180.49998946	0.00000000	50.59670000	26.00270000
180.69998945	0.00000000	50.59670000	25.63976000
180.89998944	0.00000000	50.55364000	25.30758000
181.09998942	0.00000000	50.17839000	25.30758000
181.29998941	0.00000000	49.48326000	25.68282000
181.49998940	0.00000000	49.48326000	26.42101000
181.69998939	0.00000000	50.17839000	26.79626000
181.89998938	0.00000000	50.55364000	26.83932000
182.09998937	0.00000000	50.59670000	26.83932000
182.29998935	0.00000000	50.59670000	26.83932000
182.49998934	0.00000000	50.59670000	26.83932000
182.69998933	0.00000000	50.59670000	26.79626000
182.89998932	0.00000000	50.63976000	26.46407000
183.09998931	0.00000000	50.97194000	26.05807000
183.29998929	0.00000000	51.34104000	26.04577000
183.49998928	0.00000000	50.97194000	25.63976000
183.69998927	0.00000000	50.63976000	25.35679000
183.89998926	0.00000000	50.59670000	25.68282000
184.09998925	0.00000000	50.59670000	26.42101000
184.29998923	0.00000000	50.59670000	26.79626000
184.49998922	0.00000000	50.59670000	26.83932000
184.69998921	0.00000000	50.59670000	26.83932000
184.89998920	0.00000000	50.59670000	26.83932000
185.09998919	0.00000000	50.59670000	26.83932000
185.29998918	0.00000000	50.59670000	26.83932000
185.49998916	0.00000000	50.59670000	26.83932000
185.69998915	0.00000000	50.59670000	26.79626000
185.89998914	0.00000000	50.59670000	26.42101000
186.09998913	0.00000000	50.59670000	25.68282000
186.29998912	0.00000000	50.59670000	25.30758000
186.49998910	0.00000000	50.59670000	25.26452000
186.69998909	0.00000000	50.59670000	25.26452000
186.89998908	0.00000000	50.59670000	25.26452000
187.09998907	0.00000000	50.59670000	25.30758000
187.29998906	0.00000000	50.59670000	25.68282000
187.49998904	0.00000000	50.59670000	26.42101000
187.69998903	0.00000000	50.59670000	26.79626000
187.89998902	0.00000000	50.59670000	26.83932000
188.09998901	0.00000000	50.59670000	26.79626000
188.29998900	0.00000000	50.59670000	26.42101000
188.49998899	0.00000000	50.59670000	25.68282000
188.69998897	0.00000000	50.59670000	25.30758000
188.89998896	0.00000000	50.59670000	25.26452000
189.09998895	0.00000000	50.59670000	25.26452000
189.29998894	0.00000000	50.59670000	25.26452000
189.49998893	0.00000000	50.59670000	25.26452000
189.69998891	0.00000000	50.59670000	25.26452000
189.89998890	0.00000000	50.59670000	25.26452000
190.09998889	0.00000000	50.59670000	25.26452000
190.29998888	0.00000000	50.59670000	25.30758000
190.49998887	0.00000000	50.55364000	25.63976000
190.69998885	0.00000000	50.22145000	26.00270000
190.89998884	0.00000000	49.85236000	25.68282000
191.09998883	0.00000000	50.22145000	25.68282000
191.29998882	0.00000000	50.55364000	26.04577000
191.49998881	0.00000000	50.59670000	26.00886000
191.69998880	0.00000000	50.59670000	26.04577000
191.89998878	0.00000000	50.59670000	25.63976000
192.09998877	0.00000000	50.59670000	25.30758000
192.29998876	0.00000000	50.59670000	25.26452000
192.49998875	0.00000000	50.59670000	25.26452000
192.69998874	0.00000000	50.59670000	25.26452000
192.89998872	0.00000000	50.59670000	25.26452000
193.09998871	0.00000000	50.59670000	25.26452000
193.29998870	0.00000000	50.55364000	25.30758000
193.49998869	0.00000000	50.22145000	25.63976000
193.69998868	0.00000000	49.85236000	26.04577000
193.89998866	0.00000000	50.22145000	26.05807000
194.09998865	0.00000000	50.55364000	26.46407000
194.29998864	0.00000000	50.59670000	26.79626000
194.49998863	0.00000000	50.59670000	26.83932000
194.69998862	0.00000000	50.59670000	26.83932000
194.89998861	0.00000000	50.59670000	26.83932000
195.09998859	0.00000000	50.59670000	26.83932000
195.29998858	0.00000000	50.59670000	26.83932000
195.49998857	0.00000000	50.59670000	26.83932000
195.69998856	0.00000000	50.59670000	26.83932000
195.89998855	0.00000000	50.59670000	26.83932000
196.09998853	0.00000000	50.59670000	26.83932000
