Time	Channel A	Channel B
(us)	(V)	(mV)

-4.49999956	0.00000000	29.43528000
-4.29999957	0.00000000	29.43528000
-4.09999958	0.00000000	29.43528000
-3.89999959	0.00000000	29.43528000
-3.69999960	0.00000000	29.43528000
-3.49999962	0.00000000	29.43528000
-3.29999963	0.00000000	29.43528000
-3.09999964	0.00000000	29.43528000
-2.89999965	0.00000000	29.43528000
-2.69999966	0.00000000	29.43528000
-2.49999968	0.00000000	29.43528000
-2.29999969	0.00000000	29.43528000
-2.09999970	0.00000000	29.43528000
-1.89999971	0.00000000	29.43528000
-1.69999972	0.00000000	29.43528000
-1.49999973	0.00000000	29.43528000
-1.29999975	0.00000000	29.43528000
-1.09999976	0.00000000	29.43528000
-0.89999977	0.00000000	29.43528000
-0.69999978	0.00000000	29.43528000
-0.49999979	0.00000000	29.43528000
-0.29999981	0.52657480	29.43528000
-0.09999982	0.70250980	29.43528000
0.10000017	1.05376500	29.43528000
0.30000016	1.05376500	29.43528000
0.50000015	0.70250980	29.43528000
0.70000013	0.00000000	29.43528000
0.90000012	-0.87844490	29.43528000
1.10000011	-1.93282500	29.43528000
1.30000010	-2.63533500	29.43528000
1.50000009	-2.81127000	29.43528000
1.70000008	-2.10814500	29.43528000
1.90000006	-0.70250980	29.43528000
2.10000005	1.40563500	29.43528000
2.30000004	3.51377900	29.43528000
2.50000003	4.91941500	29.43528000
2.70000002	5.27128500	29.38607000
2.90000000	4.21690500	28.97392000
3.09999999	1.75689000	28.21727000
3.29999998	-1.40563500	28.21727000
3.49999997	-4.91941500	29.02313000
3.69999996	-7.20410900	29.84744000
3.89999994	-8.08255400	30.70866000
4.09999993	-6.67691900	31.07160000
4.29999992	-3.51377900	30.70866000
4.49999991	0.70250980	29.94586000
4.69999990	5.09534900	29.89665000
4.89999989	8.25849000	30.19808000
5.09999987	9.48818900	29.38607000
5.29999986	8.25849000	28.21727000
5.49999985	4.91941500	27.75590000
5.69999984	0.35125490	27.70669000
5.89999983	-4.21690500	27.70669000
6.09999981	-7.90661900	27.75590000
6.29999980	-9.48818900	28.16806000
6.49999979	-8.60974400	28.97392000
6.69999978	-5.79847400	29.38607000
6.89999977	-1.58095500	29.48450000
7.09999975	2.81127000	29.84744000
7.29999974	6.14972900	30.24729000
7.49999973	7.55536400	29.84744000
7.69999972	7.20410900	29.48450000
7.89999971	5.09534900	29.43528000
8.09999970	1.93282500	29.43528000
8.29999968	-1.40563500	29.43528000
8.49999967	-3.86565000	29.43528000
8.69999966	-5.09534900	29.48450000
8.89999965	-4.91941500	29.84744000
9.09999964	-3.51377900	30.24729000
9.29999962	-1.58095500	29.84744000
9.49999961	0.35125490	29.53371000
9.69999960	1.75689000	29.84744000
9.89999959	2.45940000	30.24729000
10.09999958	2.28408000	29.84744000
10.29999956	1.75689000	29.48450000
10.49999955	0.87844490	29.43528000
10.69999954	0.00000000	29.43528000
10.89999953	-0.70250980	29.43528000
11.09999952	-0.87844490	29.43528000
11.29999951	-0.87844490	29.43528000
11.49999949	-0.70250980	29.43528000
11.69999948	-0.35125490	29.43528000
11.89999947	0.00000000	29.43528000
12.09999946	0.00000000	29.43528000
12.29999945	0.00000000	29.43528000
12.49999943	0.00000000	29.43528000
12.69999942	-0.17531990	29.43528000
12.89999941	-0.17531990	29.43528000
13.09999940	-0.17531990	29.43528000
13.29999939	-0.17531990	29.43528000
13.49999937	-0.17531990	29.43528000
13.69999936	0.00000000	29.43528000
13.89999935	0.00000000	29.43528000
14.09999934	0.00000000	29.43528000
14.29999933	0.00000000	29.43528000
14.49999932	0.00000000	29.43528000
14.69999930	0.00000000	29.43528000
14.89999929	0.00000000	29.38607000
15.09999928	0.00000000	28.97392000
15.29999927	0.00000000	28.16806000
15.49999926	0.00000000	27.75590000
15.69999924	0.00000000	27.75590000
15.89999923	0.00000000	28.16806000
16.09999922	0.00000000	28.97392000
16.29999921	0.00000000	29.38607000
16.49999920	0.00000000	29.43528000
16.69999919	0.00000000	29.43528000
16.89999917	0.00000000	29.43528000
17.09999916	0.00000000	29.43528000
17.29999915	0.00000000	29.38607000
17.49999914	0.00000000	29.02313000
17.69999913	0.00000000	28.62328000
17.89999911	0.00000000	29.02313000
18.09999910	0.00000000	29.38607000
18.29999909	0.00000000	29.43528000
18.49999908	0.00000000	29.43528000
18.69999907	0.00000000	29.43528000
18.89999905	0.00000000	29.43528000
19.09999904	0.00000000	29.38607000
19.29999903	0.00000000	29.02313000
19.49999902	0.00000000	28.62328000
19.69999901	0.00000000	29.02313000
19.89999900	0.00000000	29.43528000
20.09999898	0.00000000	29.89665000
20.29999897	0.00000000	30.65945000
20.49999896	0.00000000	30.65945000
20.69999895	0.00000000	29.89665000
20.89999894	0.00000000	29.48450000
21.09999892	0.00000000	29.43528000
21.29999891	0.00000000	29.43528000
21.49999890	0.00000000	29.43528000
21.69999889	0.00000000	29.43528000
21.89999888	0.00000000	29.43528000
22.09999886	0.00000000	29.43528000
22.29999885	0.00000000	29.43528000
22.49999884	0.00000000	29.43528000
22.69999883	0.00000000	29.43528000
22.89999882	0.00000000	29.43528000
23.09999881	0.00000000	29.38607000
23.29999879	0.00000000	28.97392000
23.49999878	0.00000000	28.16806000
23.69999877	0.00000000	27.75590000
23.89999876	0.00000000	27.75590000
24.09999875	0.00000000	28.16806000
24.29999873	0.00000000	29.02313000
24.49999872	0.00000000	29.89665000
24.69999871	0.00000000	31.17003000
24.89999870	0.00000000	32.38804000
25.09999869	0.00000000	32.80019000
25.29999867	0.00000000	32.38804000
25.49999866	0.00000000	31.12082000
25.69999865	0.00000000	29.38607000
25.89999864	0.00000000	27.19611000
26.09999863	0.00000000	24.24335000
26.29999862	0.00000000	21.33981000
26.49999860	0.00000000	19.75271000
26.69999859	0.00000000	20.62008000
26.89999858	0.00000000	24.44020000
27.09999857	0.00000000	29.94586000
27.29999856	0.00000000	36.31274000
27.49999854	0.00000000	42.22441000
27.69999853	0.00000000	45.95226000
27.89999852	0.00000000	46.30290000
28.09999851	0.00000000	41.97834000
28.29999850	0.00000000	33.51993000
28.49999848	0.00000000	22.50861000
28.69999847	0.00000000	11.55266000
28.89999846	0.00000000	3.55561000
29.09999845	0.00000000	0.64591530
29.29999844	0.00000000	4.06003900
29.49999843	0.00000000	13.48425000
29.69999841	0.00000000	27.49754000
29.89999840	0.00000000	44.00837000
30.09999839	0.00000000	58.69217000
30.29999838	0.00000000	67.55659000
30.49999837	0.00000000	67.86417000
30.69999835	0.00000000	58.94439000
30.89999834	0.00000000	41.97834000
31.09999833	0.00000000	20.82923000
31.29999832	0.00000000	0.09227362
31.49999831	0.00000000	-15.45275000
31.69999829	0.00000000	-21.35827000
31.89999828	0.00000000	-15.80955000
32.09999827	0.00000000	-0.11687990
32.29999826	0.00000000	23.16683000
32.49999825	0.00000000	48.54207000
32.69999824	0.00000000	70.15256000
32.89999822	0.00000000	83.65527000
33.09999821	0.00000000	85.24236000
33.29999820	0.00000000	73.82504000
33.49999819	0.00000000	51.86393000
33.69999818	0.00000000	24.75394000
33.89999816	0.00000000	-1.54404500
34.09999815	0.00000000	-21.77042000
34.29999814	0.00000000	-30.63484000
34.49999813	0.00000000	-25.59670000
34.69999812	0.00000000	-8.67371900
34.89999810	0.00000000	16.79995000
35.09999809	0.00000000	45.49089000
35.29999808	0.00000000	70.36171000
35.49999807	0.00000000	84.78100000
35.69999806	0.00000000	85.75294000
35.89999805	0.00000000	74.38484000
36.09999803	0.00000000	53.59251000
36.29999802	0.00000000	27.80512000
36.49999801	0.00000000	2.89124000
36.69999800	0.00000000	-14.89296000
36.89999799	0.00000000	-21.77042000
37.09999797	0.00000000	-17.13213000
37.29999796	0.00000000	-2.30684000
37.49999795	0.00000000	19.60507000
37.69999794	0.00000000	42.79035000
37.89999793	0.00000000	60.98671000
38.09999791	0.00000000	70.36171000
38.29999790	0.00000000	69.13755000
38.49999789	0.00000000	58.28002000
38.69999788	0.00000000	41.41240000
38.89999787	0.00000000	23.26525000
39.09999786	0.00000000	8.03395600
39.29999784	0.00000000	-0.42445860
39.49999783	0.00000000	-0.57209640
39.69999782	0.00000000	6.50836600
39.89999781	0.00000000	17.87647000
40.09999780	0.00000000	30.56102000
40.29999778	0.00000000	41.52312000
40.49999777	0.00000000	47.89001000
40.69999776	0.00000000	48.40059000
40.89999775	0.00000000	43.81151000
41.09999774	0.00000000	35.85138000
41.29999772	0.00000000	27.08538000
41.49999771	0.00000000	20.71850000
41.69999770	0.00000000	18.07332000
41.89999769	0.00000000	18.43012000
42.09999768	0.00000000	21.38902000
42.29999767	0.00000000	25.97195000
42.49999765	0.00000000	30.56102000
42.69999764	0.00000000	33.51993000
42.89999763	0.00000000	34.02436000
43.09999762	0.00000000	32.80019000
43.29999761	0.00000000	30.75787000
43.49999759	0.00000000	28.67249000
43.69999758	0.00000000	27.85433000
43.89999757	0.00000000	28.21727000
44.09999756	0.00000000	29.43528000
44.29999755	0.00000000	30.65945000
44.49999753	0.00000000	31.07160000
44.69999752	0.00000000	30.65945000
44.89999751	0.00000000	29.33686000
45.09999750	0.00000000	27.24532000
45.29999749	0.00000000	24.75394000
45.49999748	0.00000000	23.16683000
45.69999746	0.00000000	23.57283000
45.89999745	0.00000000	26.07037000
46.09999744	0.00000000	29.43528000
46.29999743	0.00000000	32.84941000
46.49999742	0.00000000	35.80217000
46.69999740	0.00000000	37.43848000
46.89999739	0.00000000	36.98326000
47.09999738	0.00000000	33.97514000
47.29999737	0.00000000	28.97392000
47.49999736	0.00000000	23.57283000
47.69999734	0.00000000	20.15871000
47.89999733	0.00000000	19.19291000
48.09999732	0.00000000	19.70349000
48.29999731	0.00000000	22.30561000
48.49999730	0.00000000	27.29453000
48.69999729	0.00000000	32.28962000
48.89999727	0.00000000	35.75295000
49.09999726	0.00000000	37.48769000
49.29999725	0.00000000	37.53691000
49.49999724	0.00000000	36.21432000
49.69999723	0.00000000	33.71063000
49.89999721	0.00000000	30.30881000
50.09999720	0.00000000	27.34375000
50.29999719	0.00000000	24.70472000
50.49999718	0.00000000	22.65625000
50.69999717	0.00000000	21.79503000
50.89999715	0.00000000	22.65625000
51.09999714	0.00000000	24.70472000
51.29999713	0.00000000	27.29453000
51.49999712	0.00000000	29.84744000
51.69999711	0.00000000	32.38804000
51.89999710	0.00000000	34.07357000
52.09999708	0.00000000	34.53494000
52.29999707	0.00000000	34.12278000
52.49999706	0.00000000	32.84941000
52.69999705	0.00000000	31.07160000
52.89999704	0.00000000	28.51870000
53.09999702	0.00000000	25.20915000
53.29999701	0.00000000	23.11762000
53.49999700	0.00000000	22.60704000
53.69999699	0.00000000	23.01919000
53.89999698	0.00000000	24.34178000
54.09999696	0.00000000	26.48253000
54.29999695	0.00000000	29.43528000
54.49999694	0.00000000	32.33883000
54.69999693	0.00000000	34.02436000
54.89999692	0.00000000	34.07357000
55.09999691	0.00000000	32.84941000
55.29999689	0.00000000	31.12082000
55.49999688	0.00000000	28.92470000
55.69999687	0.00000000	26.02116000
55.89999686	0.00000000	23.57283000
56.09999685	0.00000000	23.16683000
56.29999683	0.00000000	24.75394000
56.49999682	0.00000000	27.29453000
56.69999681	0.00000000	29.84744000
56.89999680	0.00000000	32.38804000
57.09999679	0.00000000	34.07357000
57.29999677	0.00000000	34.48573000
57.49999676	0.00000000	33.61835000
57.69999675	0.00000000	31.07160000
57.89999674	0.00000000	27.75590000
58.09999673	0.00000000	24.80315000
58.29999672	0.00000000	23.11762000
58.49999670	0.00000000	23.06841000
58.69999669	0.00000000	24.34178000
58.89999668	0.00000000	26.53174000
59.09999667	0.00000000	29.89665000
59.29999666	0.00000000	33.66142000
59.49999664	0.00000000	36.16510000
59.69999663	0.00000000	37.02633000
59.89999662	0.00000000	35.70374000
60.09999661	0.00000000	32.38804000
60.29999660	0.00000000	28.16806000
60.49999658	0.00000000	24.39099000
60.69999657	0.00000000	21.79503000
60.89999656	0.00000000	20.97687000
61.09999655	0.00000000	21.79503000
61.29999654	0.00000000	24.39099000
61.49999653	0.00000000	28.11885000
61.69999651	0.00000000	31.93282000
61.89999650	0.00000000	34.48573000
62.09999649	0.00000000	35.75295000
62.29999648	0.00000000	35.34695000
62.49999647	0.00000000	33.26156000
62.69999645	0.00000000	30.70866000
62.89999644	0.00000000	27.70669000
63.09999643	0.00000000	24.80315000
63.29999642	0.00000000	23.11762000
63.49999641	0.00000000	23.01919000
63.69999639	0.00000000	23.78199000
63.89999638	0.00000000	24.29257000
64.09999637	0.00000000	25.11073000
64.29999636	0.00000000	26.42716000
64.49999635	0.00000000	27.34990000
64.69999634	0.00000000	29.53371000
64.89999632	0.00000000	32.28962000
65.09999631	0.00000000	33.61220000
65.29999630	0.00000000	33.26156000
65.49999629	0.00000000	32.43725000
65.69999628	0.00000000	31.12082000
65.89999626	0.00000000	29.38607000
66.09999625	0.00000000	27.24532000
66.29999624	0.00000000	24.65551000
66.49999623	0.00000000	22.14567000
66.69999622	0.00000000	20.06029000
66.89999620	0.00000000	19.75271000
67.09999619	0.00000000	21.79503000
67.29999618	0.00000000	25.60900000
67.49999617	0.00000000	29.84744000
67.69999616	0.00000000	34.12278000
67.89999615	0.00000000	37.48769000
68.09999613	0.00000000	39.17323000
68.29999612	0.00000000	38.66264000
68.49999611	0.00000000	35.29773000
68.69999610	0.00000000	29.84744000
68.89999609	0.00000000	24.34178000
69.09999607	0.00000000	19.65428000
69.29999606	0.00000000	16.69537000
69.49999605	0.00000000	16.28937000
69.69999604	0.00000000	18.43012000
69.89999603	0.00000000	23.11762000
70.09999601	0.00000000	29.38607000
70.29999600	0.00000000	35.29773000
70.49999599	0.00000000	39.17323000
70.69999598	0.00000000	40.90182000
70.89999597	0.00000000	40.44660000
71.09999596	0.00000000	37.43848000
71.29999594	0.00000000	32.38804000
71.49999593	0.00000000	26.48253000
71.69999592	0.00000000	21.38902000
71.89999591	0.00000000	17.97490000
72.09999590	0.00000000	16.70152000
72.29999588	0.00000000	17.97490000
72.49999587	0.00000000	21.33981000
72.69999586	0.00000000	26.02116000
72.89999585	0.00000000	31.12082000
73.09999584	0.00000000	35.75910000
73.29999582	0.00000000	38.71186000
73.49999581	0.00000000	39.12401000
73.69999580	0.00000000	37.03248000
73.89999579	0.00000000	32.80019000
74.09999578	0.00000000	27.75590000
74.29999577	0.00000000	23.06841000
74.49999575	0.00000000	19.65428000
74.69999574	0.00000000	17.97490000
74.89999573	0.00000000	18.43012000
75.09999572	0.00000000	21.38902000
75.29999571	0.00000000	26.02116000
75.49999569	0.00000000	31.12082000
75.69999568	0.00000000	35.70989000
75.89999567	0.00000000	38.25049000
76.09999566	0.00000000	37.85064000
76.29999565	0.00000000	35.29773000
76.49999563	0.00000000	30.61023000
76.69999562	0.00000000	24.75394000
76.89999561	0.00000000	19.70349000
77.09999560	0.00000000	16.74459000
77.29999559	0.00000000	16.74459000
77.49999558	0.00000000	19.70349000
77.69999556	0.00000000	24.80315000
77.89999555	0.00000000	31.12082000
78.09999554	0.00000000	37.03248000
78.29999553	0.00000000	40.80339000
78.49999552	0.00000000	41.62155000
78.69999550	0.00000000	38.66264000
78.89999549	0.00000000	32.80019000
79.09999548	0.00000000	25.97195000
79.29999547	0.00000000	19.24212000
79.49999546	0.00000000	14.25320000
79.69999544	0.00000000	13.37967000
79.89999543	0.00000000	16.24016000
80.09999542	0.00000000	21.33981000
80.29999541	0.00000000	27.75590000
80.49999540	0.00000000	34.53494000
80.69999539	0.00000000	40.44660000
80.89999537	0.00000000	43.81151000
81.09999536	0.00000000	43.81151000
81.29999535	0.00000000	40.39739000
81.49999534	0.00000000	34.02436000
81.69999533	0.00000000	26.02116000
81.89999531	0.00000000	18.43012000
82.09999530	0.00000000	13.38583000
82.29999529	0.00000000	12.06324000
82.49999528	0.00000000	14.56078000
82.69999527	0.00000000	19.65428000
82.89999525	0.00000000	26.48253000
83.09999524	0.00000000	34.07357000
83.29999523	0.00000000	40.39739000
83.49999522	0.00000000	43.86073000
83.69999521	0.00000000	44.26673000
83.89999520	0.00000000	41.71383000
84.09999518	0.00000000	36.16510000
84.29999517	0.00000000	28.97392000
84.49999516	0.00000000	21.38902000
84.69999515	0.00000000	15.47736000
84.89999514	0.00000000	12.87525000
85.09999512	0.00000000	13.23204000
85.29999511	0.00000000	16.24016000
85.49999510	0.00000000	21.33981000
85.69999509	0.00000000	27.70669000
85.89999508	0.00000000	34.07357000
86.09999506	0.00000000	39.17323000
86.29999505	0.00000000	42.13213000
86.49999504	0.00000000	42.13213000
86.69999503	0.00000000	39.22244000
86.89999502	0.00000000	34.53494000
87.09999501	0.00000000	28.97392000
87.29999499	0.00000000	22.96998000
87.49999498	0.00000000	17.56274000
87.69999497	0.00000000	14.15477000
87.89999496	0.00000000	14.14862000
88.09999495	0.00000000	16.65231000
88.29999493	0.00000000	21.38902000
88.49999492	0.00000000	27.65748000
88.69999491	0.00000000	33.61835000
88.89999490	0.00000000	37.89985000
89.09999489	0.00000000	40.44660000
89.29999487	0.00000000	40.39739000
89.49999486	0.00000000	37.48769000
89.69999485	0.00000000	32.84941000
89.89999484	0.00000000	27.70669000
90.09999483	0.00000000	22.60704000
90.29999482	0.00000000	18.43012000
90.49999480	0.00000000	16.70152000
90.69999479	0.00000000	17.51353000
90.89999478	0.00000000	20.06643000
91.09999477	0.00000000	24.34178000
91.29999476	0.00000000	29.33686000
91.49999474	0.00000000	33.56299000
91.69999473	0.00000000	35.75295000
91.89999472	0.00000000	36.21432000
92.09999471	0.00000000	35.39616000
92.29999470	0.00000000	33.21235000
92.49999468	0.00000000	30.29650000
92.69999467	0.00000000	26.89468000
92.89999466	0.00000000	24.39099000
93.09999465	0.00000000	23.06841000
93.29999464	0.00000000	23.01919000
93.49999463	0.00000000	23.83120000
93.69999461	0.00000000	24.75394000
93.89999460	0.00000000	26.43332000
94.09999459	0.00000000	28.51870000
94.29999458	0.00000000	29.79823000
94.49999457	0.00000000	30.70866000
94.69999455	0.00000000	31.07160000
94.89999454	0.00000000	30.70866000
95.09999453	0.00000000	29.84744000
95.29999452	0.00000000	29.02313000
95.49999451	0.00000000	28.16806000
95.69999449	0.00000000	27.75590000
95.89999448	0.00000000	27.65748000
96.09999447	0.00000000	27.24532000
96.29999446	0.00000000	26.43332000
96.49999445	0.00000000	26.02116000
96.69999444	0.00000000	26.02116000
96.89999442	0.00000000	26.43332000
97.09999441	0.00000000	27.29453000
97.29999440	0.00000000	28.11885000
97.49999439	0.00000000	28.97392000
97.69999438	0.00000000	29.38607000
97.89999436	0.00000000	29.43528000
98.09999435	0.00000000	29.43528000
98.29999434	0.00000000	29.43528000
98.49999433	0.00000000	29.38607000
98.69999432	0.00000000	28.92470000
98.89999430	0.00000000	27.70669000
99.09999429	0.00000000	26.48253000
99.29999428	0.00000000	26.02116000
99.49999427	0.00000000	26.02116000
99.69999426	0.00000000	26.43332000
99.89999425	0.00000000	27.24532000
100.09999423	0.00000000	27.70669000
100.29999422	0.00000000	28.16806000
100.49999421	0.00000000	28.97392000
100.69999420	0.00000000	29.43528000
100.89999419	0.00000000	29.84744000
101.09999417	0.00000000	30.24729000
101.29999416	0.00000000	29.79823000
101.49999415	0.00000000	29.02313000
101.69999414	0.00000000	28.11885000
101.89999413	0.00000000	27.29453000
102.09999411	0.00000000	26.43332000
102.29999410	0.00000000	26.02116000
102.49999409	0.00000000	26.02116000
102.69999408	0.00000000	26.43332000
102.89999407	0.00000000	27.29453000
103.09999406	0.00000000	28.11885000
103.29999404	0.00000000	29.02313000
103.49999403	0.00000000	29.79823000
103.69999402	0.00000000	30.24729000
103.89999401	0.00000000	29.79823000
104.09999400	0.00000000	29.02313000
104.29999398	0.00000000	28.11885000
104.49999397	0.00000000	27.29453000
104.69999396	0.00000000	26.43332000
104.89999395	0.00000000	26.02116000
105.09999394	0.00000000	25.97195000
105.29999392	0.00000000	26.02116000
105.49999391	0.00000000	26.48253000
105.69999390	0.00000000	27.70669000
105.89999389	0.00000000	28.97392000
106.09999388	0.00000000	29.79823000
106.29999387	0.00000000	30.24729000
106.49999385	0.00000000	29.79823000
106.69999384	0.00000000	28.97392000
106.89999383	0.00000000	27.70669000
107.09999382	0.00000000	26.43332000
107.29999381	0.00000000	25.55979000
107.49999379	0.00000000	24.75394000
107.69999378	0.00000000	24.75394000
107.89999377	0.00000000	25.60900000
108.09999376	0.00000000	26.83932000
108.29999375	0.00000000	28.56791000
108.49999374	0.00000000	29.79823000
108.69999372	0.00000000	30.65945000
108.89999371	0.00000000	30.61023000
109.09999370	0.00000000	29.43528000
109.29999369	0.00000000	28.16806000
109.49999368	0.00000000	27.24532000
109.69999366	0.00000000	25.92274000
109.89999365	0.00000000	24.29257000
110.09999364	0.00000000	23.06841000
110.29999363	0.00000000	23.06841000
110.49999362	0.00000000	24.34178000
110.69999360	0.00000000	26.43332000
110.89999359	0.00000000	28.97392000
111.09999358	0.00000000	31.07160000
111.29999357	0.00000000	32.33883000
111.49999356	0.00000000	32.38804000
111.69999355	0.00000000	31.53297000
111.89999353	0.00000000	30.20423000
112.09999352	0.00000000	27.65748000
112.29999351	0.00000000	24.80315000
112.49999350	0.00000000	23.06841000
112.69999349	0.00000000	22.60704000
112.89999347	0.00000000	23.01919000
113.09999346	0.00000000	24.34178000
113.29999345	0.00000000	26.48253000
113.49999344	0.00000000	29.38607000
113.69999343	0.00000000	31.88361000
113.89999341	0.00000000	32.75098000
114.09999340	0.00000000	32.38804000
114.29999339	0.00000000	31.12082000
114.49999338	0.00000000	29.38607000
114.69999337	0.00000000	27.24532000
114.89999336	0.00000000	24.75394000
115.09999334	0.00000000	23.06841000
115.29999333	0.00000000	22.65625000
115.49999332	0.00000000	23.47441000
115.69999331	0.00000000	25.60900000
115.89999330	0.00000000	28.06963000
116.09999328	0.00000000	30.25344000
116.29999327	0.00000000	31.53297000
116.49999326	0.00000000	32.38804000
116.69999325	0.00000000	32.33883000
116.89999324	0.00000000	31.07160000
117.09999322	0.00000000	28.97392000
117.29999321	0.00000000	26.48253000
117.49999320	0.00000000	24.75394000
117.69999319	0.00000000	23.88041000
117.89999318	0.00000000	23.48056000
118.09999317	0.00000000	24.34178000
118.29999315	0.00000000	25.97195000
118.49999314	0.00000000	27.65748000
118.69999313	0.00000000	28.97392000
118.89999312	0.00000000	29.79823000
119.09999311	0.00000000	30.19808000
119.29999309	0.00000000	29.33686000
119.49999308	0.00000000	27.75590000
119.69999307	0.00000000	26.48253000
119.89999306	0.00000000	26.02116000
120.09999305	0.00000000	25.97195000
120.29999303	0.00000000	25.97195000
120.49999302	0.00000000	26.02116000
120.69999301	0.00000000	26.48253000
120.89999300	0.00000000	27.70669000
121.09999299	0.00000000	28.92470000
121.29999298	0.00000000	29.38607000
121.49999296	0.00000000	29.43528000
121.69999295	0.00000000	29.38607000
121.89999294	0.00000000	28.97392000
122.09999293	0.00000000	28.16806000
122.29999292	0.00000000	27.70669000
122.49999290	0.00000000	27.29453000
122.69999289	0.00000000	26.89468000
122.89999288	0.00000000	27.34375000
123.09999287	0.00000000	28.06963000
123.29999286	0.00000000	28.51870000
123.49999284	0.00000000	28.21727000
123.69999283	0.00000000	28.57406000
123.89999282	0.00000000	29.33071000
124.09999281	0.00000000	28.57406000
124.29999280	0.00000000	28.21727000
124.49999279	0.00000000	28.46949000
124.69999277	0.00000000	27.65748000
124.89999276	0.00000000	26.48253000
125.09999275	0.00000000	26.02116000
125.29999274	0.00000000	26.02116000
125.49999273	0.00000000	26.43332000
125.69999271	0.00000000	27.29453000
125.89999270	0.00000000	28.11885000
126.09999269	0.00000000	28.97392000
126.29999268	0.00000000	29.38607000
126.49999267	0.00000000	29.38607000
126.69999265	0.00000000	28.97392000
126.89999264	0.00000000	28.11885000
127.09999263	0.00000000	27.24532000
127.29999262	0.00000000	25.97195000
127.49999261	0.00000000	24.80315000
127.69999260	0.00000000	24.75394000
127.89999258	0.00000000	25.55979000
128.09999257	0.00000000	26.43332000
128.29999256	0.00000000	27.70669000
128.49999255	0.00000000	28.92470000
128.69999254	0.00000000	29.38607000
128.89999252	0.00000000	29.43528000
129.09999251	0.00000000	29.38607000
129.29999250	0.00000000	28.92470000
129.49999249	0.00000000	27.65748000
129.69999248	0.00000000	26.02116000
129.89999246	0.00000000	24.75394000
130.09999245	0.00000000	24.34178000
130.29999244	0.00000000	24.75394000
130.49999243	0.00000000	25.97195000
130.69999242	0.00000000	27.24532000
130.89999241	0.00000000	28.11885000
131.09999239	0.00000000	28.97392000
131.29999238	0.00000000	29.38607000
131.49999237	0.00000000	29.38607000
131.69999236	0.00000000	28.97392000
131.89999235	0.00000000	28.11885000
132.09999233	0.00000000	27.29453000
132.29999232	0.00000000	26.48253000
132.49999231	0.00000000	26.43332000
132.69999230	0.00000000	26.83317000
132.89999229	0.00000000	26.84547000
133.09999227	0.00000000	27.29453000
133.29999226	0.00000000	27.65748000
133.49999225	0.00000000	27.70669000
133.69999224	0.00000000	27.70669000
133.89999223	0.00000000	27.70669000
134.09999222	0.00000000	27.70669000
134.29999220	0.00000000	27.70669000
134.49999219	0.00000000	27.70669000
134.69999218	0.00000000	27.70669000
134.89999217	0.00000000	27.75590000
135.09999216	0.00000000	28.16806000
135.29999214	0.00000000	28.92470000
135.49999213	0.00000000	28.97392000
135.69999212	0.00000000	28.57406000
135.89999211	0.00000000	28.56791000
136.09999210	0.00000000	28.06963000
136.29999208	0.00000000	27.29453000
136.49999207	0.00000000	26.43332000
136.69999206	0.00000000	26.02116000
136.89999205	0.00000000	25.97195000
137.09999204	0.00000000	26.02116000
137.29999203	0.00000000	26.48253000
137.49999201	0.00000000	27.70669000
137.69999200	0.00000000	28.97392000
137.89999199	0.00000000	29.79823000
138.09999198	0.00000000	30.24729000
138.29999197	0.00000000	29.79823000
138.49999195	0.00000000	29.02313000
138.69999194	0.00000000	28.16806000
138.89999193	0.00000000	27.70669000
139.09999192	0.00000000	27.19611000
139.29999191	0.00000000	25.97195000
139.49999189	0.00000000	24.75394000
139.69999188	0.00000000	24.34178000
139.89999187	0.00000000	24.75394000
140.09999186	0.00000000	25.97195000
140.29999185	0.00000000	27.24532000
140.49999184	0.00000000	28.11885000
140.69999182	0.00000000	28.97392000
140.89999181	0.00000000	29.33686000
141.09999180	0.00000000	28.97392000
141.29999179	0.00000000	28.16806000
141.49999178	0.00000000	27.70669000
141.69999176	0.00000000	27.24532000
141.89999175	0.00000000	26.43332000
142.09999174	0.00000000	26.02116000
142.29999173	0.00000000	25.92274000
142.49999172	0.00000000	25.55979000
142.69999170	0.00000000	25.15994000
142.89999169	0.00000000	25.60900000
143.09999168	0.00000000	26.43332000
143.29999167	0.00000000	27.65748000
143.49999166	0.00000000	28.46949000
143.69999165	0.00000000	28.16806000
143.89999163	0.00000000	28.21727000
144.09999162	0.00000000	28.92470000
144.29999161	0.00000000	28.92470000
144.49999160	0.00000000	28.11885000
144.69999159	0.00000000	27.29453000
144.89999157	0.00000000	26.43332000
145.09999156	0.00000000	26.02116000
145.29999155	0.00000000	25.97195000
145.49999154	0.00000000	25.97195000
145.69999153	0.00000000	25.97195000
145.89999151	0.00000000	26.02116000
146.09999150	0.00000000	26.43332000
146.29999149	0.00000000	27.24532000
146.49999148	0.00000000	27.70669000
146.69999147	0.00000000	28.16806000
146.89999146	0.00000000	28.97392000
147.09999144	0.00000000	29.33686000
147.29999143	0.00000000	28.97392000
147.49999142	0.00000000	28.11885000
147.69999141	0.00000000	27.34375000
147.89999140	0.00000000	26.84547000
148.09999138	0.00000000	26.83317000
148.29999137	0.00000000	26.38410000
148.49999136	0.00000000	26.02116000
148.69999135	0.00000000	25.97195000
148.89999134	0.00000000	26.02116000
149.09999132	0.00000000	26.48253000
149.29999131	0.00000000	27.70669000
149.49999130	0.00000000	28.92470000
149.69999129	0.00000000	29.33686000
149.89999128	0.00000000	28.97392000
150.09999127	0.00000000	28.16806000
150.29999125	0.00000000	27.70669000
150.49999124	0.00000000	27.24532000
150.69999123	0.00000000	26.43332000
150.89999122	0.00000000	26.02116000
151.09999121	0.00000000	25.97195000
151.29999119	0.00000000	25.97195000
151.49999118	0.00000000	26.02116000
151.69999117	0.00000000	26.43332000
151.89999116	0.00000000	27.24532000
152.09999115	0.00000000	27.65748000
152.29999113	0.00000000	27.75590000
152.49999112	0.00000000	28.11885000
152.69999111	0.00000000	28.46949000
152.89999110	0.00000000	27.65748000
153.09999109	0.00000000	26.48253000
153.29999108	0.00000000	26.02116000
153.49999106	0.00000000	26.02116000
153.69999105	0.00000000	26.43332000
153.89999104	0.00000000	27.24532000
154.09999103	0.00000000	27.60827000
154.29999102	0.00000000	27.29453000
154.49999100	0.00000000	26.89468000
154.69999099	0.00000000	27.29453000
154.89999098	0.00000000	27.65748000
155.09999097	0.00000000	27.70669000
155.29999096	0.00000000	27.70669000
155.49999094	0.00000000	27.65748000
155.69999093	0.00000000	27.24532000
155.89999092	0.00000000	26.48253000
156.09999091	0.00000000	26.48253000
156.29999090	0.00000000	27.24532000
156.49999089	0.00000000	27.65748000
156.69999087	0.00000000	27.70669000
156.89999086	0.00000000	27.70669000
157.09999085	0.00000000	27.65748000
157.29999084	0.00000000	27.24532000
157.49999083	0.00000000	26.48253000
157.69999081	0.00000000	26.48253000
157.89999080	0.00000000	27.24532000
158.09999079	0.00000000	27.65748000
158.29999078	0.00000000	27.70669000
158.49999077	0.00000000	27.70669000
158.69999075	0.00000000	27.75590000
158.89999074	0.00000000	28.11885000
159.09999073	0.00000000	28.51870000
159.29999072	0.00000000	28.06963000
159.49999071	0.00000000	27.29453000
159.69999070	0.00000000	26.43332000
159.89999068	0.00000000	26.02116000
160.09999067	0.00000000	25.97195000
160.29999066	0.00000000	25.97195000
160.49999065	0.00000000	26.02116000
160.69999064	0.00000000	26.43332000
160.89999062	0.00000000	27.24532000
161.09999061	0.00000000	27.65748000
161.29999060	0.00000000	27.70669000
161.49999059	0.00000000	27.70669000
161.69999058	0.00000000	27.70669000
161.89999056	0.00000000	27.70669000
162.09999055	0.00000000	27.65748000
162.29999054	0.00000000	27.24532000
162.49999053	0.00000000	26.43332000
162.69999052	0.00000000	26.02116000
162.89999051	0.00000000	25.97195000
163.09999049	0.00000000	25.97195000
163.29999048	0.00000000	25.97195000
163.49999047	0.00000000	26.02116000
163.69999046	0.00000000	26.48253000
163.89999045	0.00000000	27.65748000
164.09999043	0.00000000	28.46949000
164.29999042	0.00000000	28.11885000
164.49999041	0.00000000	27.75590000
164.69999040	0.00000000	27.70669000
164.89999039	0.00000000	27.70669000
165.09999037	0.00000000	27.60827000
165.29999036	0.00000000	26.83932000
165.49999035	0.00000000	25.62131000
165.69999034	0.00000000	25.60900000
165.89999033	0.00000000	25.92274000
166.09999032	0.00000000	25.97195000
166.29999030	0.00000000	25.97195000
166.49999029	0.00000000	25.97195000
166.69999028	0.00000000	25.97195000
166.89999027	0.00000000	26.02116000
167.09999026	0.00000000	26.43332000
167.29999024	0.00000000	27.24532000
167.49999023	0.00000000	27.60827000
167.69999022	0.00000000	27.24532000
167.89999021	0.00000000	26.43332000
168.09999020	0.00000000	26.02116000
168.29999018	0.00000000	25.97195000
168.49999017	0.00000000	26.02116000
168.69999016	0.00000000	26.43332000
168.89999015	0.00000000	27.19611000
169.09999014	0.00000000	27.24532000
169.29999013	0.00000000	26.89468000
169.49999011	0.00000000	27.29453000
169.69999010	0.00000000	27.65748000
169.89999009	0.00000000	27.65748000
170.09999008	0.00000000	27.29453000
170.29999007	0.00000000	26.84547000
170.49999005	0.00000000	26.83317000
170.69999004	0.00000000	26.43332000
170.89999003	0.00000000	26.48253000
171.09999002	0.00000000	27.24532000
171.29999001	0.00000000	27.65748000
171.49998999	0.00000000	27.70669000
171.69998998	0.00000000	27.70669000
171.89998997	0.00000000	27.70669000
172.09998996	0.00000000	27.70669000
172.29998995	0.00000000	27.70669000
172.49998994	0.00000000	27.70669000
172.69998992	0.00000000	27.70669000
172.89998991	0.00000000	27.65748000
173.09998990	0.00000000	27.24532000
173.29998989	0.00000000	26.43332000
173.49998988	0.00000000	26.02116000
173.69998986	0.00000000	26.02116000
173.89998985	0.00000000	26.38410000
174.09998984	0.00000000	26.83317000
174.29998983	0.00000000	26.84547000
174.49998982	0.00000000	27.29453000
174.69998980	0.00000000	27.65748000
174.89998979	0.00000000	27.70669000
175.09998978	0.00000000	27.65748000
175.29998977	0.00000000	27.24532000
175.49998976	0.00000000	26.43332000
175.69998975	0.00000000	26.02116000
175.89998973	0.00000000	25.97195000
176.09998972	0.00000000	25.97195000
176.29998971	0.00000000	25.97195000
176.49998970	0.00000000	25.97195000
176.69998969	0.00000000	25.97195000
176.89998967	0.00000000	26.02116000
177.09998966	0.00000000	26.43332000
177.29998965	0.00000000	27.24532000
177.49998964	0.00000000	27.65748000
177.69998963	0.00000000	27.70669000
177.89998961	0.00000000	27.65748000
178.09998960	0.00000000	27.24532000
178.29998959	0.00000000	26.43332000
178.49998958	0.00000000	26.02116000
178.69998957	0.00000000	25.97195000
178.89998956	0.00000000	25.97195000
179.09998954	0.00000000	25.97195000
179.29998953	0.00000000	25.97195000
179.49998952	0.00000000	26.02116000
179.69998951	0.00000000	26.43332000
179.89998950	0.00000000	27.24532000
180.09998948	0.00000000	27.65748000
180.29998947	0.00000000	27.70669000
180.49998946	0.00000000	27.70669000
180.69998945	0.00000000	27.70669000
180.89998944	0.00000000	27.70669000
181.09998942	0.00000000	27.70669000
181.29998941	0.00000000	27.65748000
181.49998940	0.00000000	27.24532000
181.69998939	0.00000000	26.43332000
181.89998938	0.00000000	26.07037000
182.09998937	0.00000000	26.43332000
182.29998935	0.00000000	27.24532000
182.49998934	0.00000000	27.60827000
182.69998933	0.00000000	27.29453000
182.89998932	0.00000000	26.89468000
183.09998931	0.00000000	27.29453000
183.29998929	0.00000000	27.65748000
183.49998928	0.00000000	27.70669000
183.69998927	0.00000000	27.65748000
183.89998926	0.00000000	27.24532000
184.09998925	0.00000000	26.43332000
184.29998923	0.00000000	26.02116000
184.49998922	0.00000000	25.97195000
184.69998921	0.00000000	25.97195000
184.89998920	0.00000000	25.97195000
185.09998919	0.00000000	25.97195000
185.29998918	0.00000000	25.97195000
185.49998916	0.00000000	25.97195000
185.69998915	0.00000000	26.02116000
185.89998914	0.00000000	26.43332000
186.09998913	0.00000000	27.24532000
186.29998912	0.00000000	27.65748000
186.49998910	0.00000000	27.65748000
186.69998909	0.00000000	27.24532000
186.89998908	0.00000000	26.43332000
187.09998907	0.00000000	26.02116000
187.29998906	0.00000000	26.02116000
187.49998904	0.00000000	26.38410000
187.69998903	0.00000000	26.78395000
187.89998902	0.00000000	26.38410000
188.09998901	0.00000000	26.02116000
188.29998900	0.00000000	25.97195000
188.49998899	0.00000000	25.97195000
188.69998897	0.00000000	25.97195000
188.89998896	0.00000000	25.97195000
189.09998895	0.00000000	25.97195000
189.29998894	0.00000000	26.02116000
189.49998893	0.00000000	26.43332000
189.69998891	0.00000000	27.24532000
189.89998890	0.00000000	27.60827000
190.09998889	0.00000000	27.24532000
190.29998888	0.00000000	26.43332000
190.49998887	0.00000000	26.02116000
190.69998885	0.00000000	25.97195000
190.89998884	0.00000000	25.97195000
191.09998883	0.00000000	25.97195000
191.29998882	0.00000000	25.97195000
191.49998881	0.00000000	26.02116000
191.69998880	0.00000000	26.43332000
191.89998878	0.00000000	27.24532000
192.09998877	0.00000000	27.65748000
192.29998876	0.00000000	27.70669000
192.49998875	0.00000000	27.70669000
192.69998874	0.00000000	27.70669000
192.89998872	0.00000000	27.65748000
193.09998871	0.00000000	27.24532000
193.29998870	0.00000000	26.43332000
193.49998869	0.00000000	26.02116000
193.69998868	0.00000000	25.97195000
193.89998866	0.00000000	25.97195000
194.09998865	0.00000000	25.97195000
194.29998864	0.00000000	26.02116000
194.49998863	0.00000000	26.43332000
194.69998862	0.00000000	27.24532000
194.89998861	0.00000000	27.65748000
195.09998859	0.00000000	27.70669000
195.29998858	0.00000000	27.65748000
195.49998857	0.00000000	27.24532000
195.69998856	0.00000000	26.43332000
195.89998855	0.00000000	26.02116000
196.09998853	0.00000000	25.97195000
