Time	Channel A	Channel B	Channel C
(us)	(V)	(mV)	(mV)

-4.53333289	0.00000000	56.92052000	28.79552000
-4.33333290	0.00000000	56.92052000	29.16461000
-4.13333291	0.00000000	56.92052000	28.79552000
-3.93333293	0.00000000	56.92052000	28.51255000
-3.73333294	0.00000000	56.92052000	28.79552000
-3.53333295	0.00000000	56.92052000	29.20767000
-3.33333296	0.00000000	56.92052000	29.21383000
-3.13333297	0.00000000	56.92052000	29.58292000
-2.93333299	0.00000000	56.92052000	29.53371000
-2.73333300	0.00000000	56.92052000	28.83858000
-2.53333301	0.00000000	56.92052000	28.46333000
-2.33333302	0.00000000	56.92052000	28.42027000
-2.13333303	0.00000000	56.92052000	28.46333000
-1.93333304	0.00000000	56.92052000	28.79552000
-1.73333306	0.00000000	56.92052000	29.16461000
-1.53333307	0.00000000	56.92052000	28.79552000
-1.33333308	0.00000000	56.92052000	28.46333000
-1.13333309	0.00000000	56.92052000	28.42027000
-0.93333310	0.00000000	56.92052000	28.42027000
-0.73333312	0.00000000	56.92052000	28.42027000
-0.53333313	0.00000000	56.92052000	28.42027000
-0.33333314	0.15871060	56.92052000	28.42027000
-0.13333315	0.47736220	56.92052000	28.42027000
0.06666684	0.95533960	56.92052000	28.42027000
0.26666682	0.95533960	56.92052000	28.42027000
0.46666681	0.95533960	56.92052000	28.42027000
0.66666680	0.47736220	56.92052000	28.42027000
0.86666679	-0.31803640	56.92052000	28.42027000
1.06666678	-1.27399100	56.92052000	28.42027000
1.26666677	-2.22994600	56.92052000	28.42027000
1.46666675	-2.70792300	56.92052000	28.42027000
1.66666674	-2.70792300	56.92052000	28.42027000
1.86666673	-1.75196900	56.92052000	28.42027000
2.06666672	0.00000000	56.92052000	28.42027000
2.26666671	2.07062000	56.92052000	28.42027000
2.46666669	3.98191400	56.92052000	28.42027000
2.66666668	5.25652100	56.92052000	28.37721000
2.86666667	5.09719500	56.92052000	28.04503000
3.06666666	3.50393700	56.92052000	27.67593000
3.26666665	0.63668800	56.92052000	28.00197000
3.46666663	-2.70792300	56.92052000	28.00197000
3.66666662	-5.89382400	56.92052000	27.67593000
3.86666661	-7.80511800	56.92052000	28.08809000
4.06666660	-7.80511800	56.92052000	28.75246000
4.26666659	-5.89382400	56.92052000	29.20767000
4.46666658	-2.22994600	56.92052000	29.17077000
4.66666656	2.22994600	56.92052000	29.20767000
4.86666655	6.37180100	56.92052000	28.79552000
5.06666654	8.92039900	56.92052000	28.46333000
5.26666653	9.39837600	56.92052000	28.42027000
5.46666652	7.48646600	56.92052000	28.37721000
5.66666650	3.66326300	56.92052000	28.04503000
5.86666649	-1.27399100	56.92052000	27.67593000
6.06666648	-5.73449800	56.92052000	28.04503000
6.26666647	-8.76107300	56.96358000	28.37721000
6.46666646	-9.55770200	57.33883000	28.46333000
6.66666644	-7.96444400	58.03395000	28.83858000
6.86666643	-4.45989200	58.03395000	29.58292000
7.06666642	-0.15871060	57.33883000	29.95817000
7.26666641	3.98191400	56.96358000	29.95817000
7.46666640	6.69045300	56.92052000	29.58292000
7.66666639	7.80511800	56.96358000	28.83858000
7.86666637	6.69045300	57.29576000	28.46333000
8.06666636	4.14124000	57.66486000	28.42027000
8.26666635	0.95533960	57.29576000	28.42027000
8.46666634	-2.22994600	56.96358000	28.46333000
8.66666633	-4.30056600	56.92052000	28.83858000
8.86666631	-5.25652100	56.92052000	29.58292000
9.06666630	-4.77854300	56.92052000	29.95817000
9.26666629	-3.18590100	56.96358000	30.00123000
9.46666628	-1.27399100	57.33883000	30.00123000
9.66666627	0.63668800	58.08316000	30.00123000
9.86666625	1.91129400	58.40920000	30.00123000
10.06666624	2.54859700	58.12622000	30.00123000
10.26666623	2.38927200	57.71407000	30.00123000
10.46666622	1.59264300	57.75098000	30.00123000
10.66666621	0.79601380	57.71407000	29.95817000
10.86666620	0.00000000	58.08316000	29.58292000
11.06666618	-0.63668800	58.08316000	28.88779000
11.26666617	-0.95533960	57.75713000	28.83858000
11.46666616	-0.95533960	58.12622000	29.20767000
11.66666615	-0.79601380	58.45841000	29.21383000
11.86666614	-0.47736220	58.45841000	29.58292000
12.06666612	-0.31803640	58.12622000	29.58292000
12.26666611	-0.15871060	57.75713000	29.25689000
12.46666610	-0.15871060	58.08316000	29.58292000
12.66666609	0.00000000	58.08316000	29.58292000
12.86666608	0.00000000	57.75713000	29.25689000
13.06666606	0.00000000	58.08316000	29.58292000
13.26666605	0.00000000	58.08316000	29.58292000
13.46666604	0.00000000	57.71407000	29.21383000
13.66666603	0.00000000	57.70792000	29.20767000
13.86666602	-0.15871060	57.33883000	28.79552000
14.06666601	-0.15871060	57.38804000	28.46333000
14.26666599	-0.15871060	58.08316000	28.42027000
14.46666598	-0.15871060	58.45841000	28.42027000
14.66666597	-0.15871060	58.50147000	28.42027000
14.86666596	0.00000000	58.50147000	28.42027000
15.06666595	0.00000000	58.45841000	28.42027000
15.26666593	0.00000000	58.12622000	28.42027000
15.46666592	0.00000000	57.71407000	28.42027000
15.66666591	0.00000000	57.70792000	28.42027000
15.86666590	0.00000000	57.29576000	28.42027000
16.06666589	0.00000000	57.01279000	28.42027000
16.26666587	0.00000000	57.33883000	28.42027000
16.46666586	-0.15871060	58.08316000	28.42027000
16.66666585	-0.15871060	58.45841000	28.42027000
16.86666584	-0.15871060	58.50147000	28.42027000
17.06666583	-0.15871060	58.54454000	28.42027000
17.26666582	0.00000000	58.91978000	28.42027000
17.46666580	0.00000000	59.66412000	28.42027000
17.66666579	0.00000000	59.99015000	28.42027000
17.86666578	0.00000000	59.61491000	28.42027000
18.06666577	0.00000000	58.45841000	28.42027000
18.26666576	0.00000000	56.92052000	28.42027000
18.46666574	-0.15871060	55.33957000	28.42027000
18.66666573	-0.15871060	53.80167000	28.46333000
18.86666572	-0.15871060	52.68823000	28.79552000
19.06666571	-0.15871060	52.68823000	29.16461000
19.26666570	0.00000000	53.89394000	28.79552000
19.46666568	0.00000000	56.26845000	28.46333000
19.66666567	0.00000000	60.12549000	28.42027000
19.86666566	0.00000000	64.31471000	28.42027000
20.06666565	0.00000000	67.43970000	28.42027000
20.26666564	0.00000000	68.97145000	28.42027000
20.46666563	0.00000000	68.51008000	28.42027000
20.66666561	0.00000000	65.34202000	28.46333000
20.86666560	0.00000000	59.48573000	28.79552000
21.06666559	0.00000000	51.75935000	29.16461000
21.26666558	0.00000000	43.75615000	28.79552000
21.46666557	0.00000000	38.36122000	28.51255000
21.66666555	0.00000000	37.19242000	28.83858000
21.86666554	0.00000000	40.03444000	29.58292000
22.06666553	0.00000000	47.84694000	29.90895000
22.26666552	0.00000000	59.79945000	29.58292000
22.46666551	0.00000000	72.50861000	28.88779000
22.66666549	0.00000000	83.34768000	28.88779000
22.86666548	0.00000000	89.44389000	29.58292000
23.06666547	0.00000000	88.98252000	29.95817000
23.26666546	0.00000000	81.12081000	30.04429000
23.46666545	0.00000000	66.41855000	30.41954000
23.66666544	0.00000000	47.94537000	31.15772000
23.86666542	0.00000000	30.58563000	31.53297000
24.06666541	0.00000000	18.67003000	31.53297000
24.26666540	0.00000000	15.23130000	31.11466000
24.46666539	0.00000000	21.83809000	29.95201000
24.66666538	0.00000000	36.95866000	28.42027000
24.86666536	0.00000000	57.89862000	26.83932000
25.06666535	0.00000000	80.64714000	25.30758000
25.26666534	0.00000000	99.45251000	24.19414000
25.46666533	0.00000000	109.07970000	24.23720000
25.66666532	0.00000000	106.75440000	25.77510000
25.86666530	-0.15871060	93.25787000	28.51255000
26.06666529	0.00000000	71.62278000	31.99434000
26.26666528	0.00000000	46.87500000	35.89444000
26.46666527	0.00000000	24.48942000	39.29626000
26.66666526	0.00000000	9.41806000	41.19709000
26.86666525	0.00000000	5.59793300	40.36663000
27.06666523	0.00000000	13.65034000	36.87869000
27.26666522	0.00000000	31.84055000	31.02239000
27.46666521	0.00000000	55.75787000	23.68356000
27.66666520	0.00000000	80.09350000	16.38779000
27.86666519	0.00000000	98.98498000	10.99901000
28.06666517	0.00000000	107.96630000	9.13508800
28.26666516	-0.15871060	105.68410000	11.50960000
28.46666515	0.00000000	93.35014000	18.52239000
28.66666514	0.00000000	73.67126000	28.93085000
28.86666513	0.00000000	51.66092000	40.54502000
29.06666511	0.00000000	32.30191000	50.91043000
29.26666510	0.00000000	19.51279000	57.45570000
29.46666509	0.00000000	15.93258000	58.16314000
29.66666508	-0.15871060	21.27830000	52.71899000
29.86666507	-0.15871060	33.66142000	41.48006000
30.06666506	0.00000000	50.68897000	26.83932000
30.26666504	0.00000000	68.41782000	12.11245000
30.46666503	0.00000000	82.78789000	0.17224410
30.66666502	0.00000000	90.98178000	-6.32997000
30.86666501	0.00000000	92.18749000	-5.12426100
31.06666500	0.00000000	86.41732000	3.74630900
31.26666498	0.00000000	75.25220000	18.43012000
31.46666497	0.00000000	61.71259000	35.80217000
31.66666496	0.00000000	48.49901000	52.02386000
31.86666495	0.00000000	38.07209000	63.63803000
32.06666494	-0.15871060	32.63410000	68.23942000
32.26666492	0.00000000	33.32923000	64.75147000
32.46666491	-0.15871060	39.05635000	53.55561000
32.66666490	0.00000000	47.98843000	37.34006000
32.86666489	0.00000000	58.45841000	19.58661000
33.06666488	0.00000000	68.46087000	4.12155500
33.26666487	0.00000000	75.44291000	-5.58562900
33.46666485	0.00000000	77.81741000	-8.32308000
33.66666484	0.00000000	75.94734000	-3.63558100
33.86666483	0.00000000	70.50935000	7.92937900
34.06666482	0.00000000	62.82603000	23.72662000
34.26666481	0.00000000	54.73056000	39.99138000
34.46666479	0.00000000	48.54207000	53.51254000
34.66666478	0.00000000	45.38017000	61.63877000
34.86666477	0.00000000	45.38017000	62.38927000
35.06666476	0.00000000	48.49901000	55.87475000
35.26666475	0.00000000	54.22613000	43.56545000
35.46666473	0.00000000	60.73450000	28.93085000
35.66666472	0.00000000	65.76648000	15.36048000
35.86666471	0.00000000	68.46087000	5.32726300
36.06666470	0.00000000	68.08563000	1.10113200
36.26666469	0.00000000	64.68996000	3.78937000
36.46666468	0.00000000	60.08243000	12.57382000
36.66666466	0.00000000	55.43184000	24.88927000
36.86666465	0.00000000	51.61786000	37.16166000
37.06666464	0.00000000	50.07997000	46.44439000
37.26666463	0.00000000	51.19340000	50.30758000
37.46666462	0.00000000	54.26919000	48.44365000
37.66666460	-0.15871060	58.50147000	41.52312000
37.86666459	0.00000000	62.73376000	31.57603000
38.06666458	0.00000000	65.85260000	21.63509000
38.26666457	0.00000000	67.43970000	14.75763000
38.46666456	0.00000000	67.39050000	13.17667000
38.66666454	0.00000000	65.43430000	16.98450000
38.86666453	0.00000000	61.57111000	24.61245000
39.06666452	0.00000000	56.96358000	33.85211000
39.26666451	-0.15871060	52.73130000	41.85531000
39.46666450	0.00000000	50.03691000	46.44439000
39.66666449	0.00000000	49.56939000	45.66314000
39.86666447	0.00000000	50.73204000	39.94832000
40.06666446	0.00000000	53.10654000	31.11466000
40.26666445	0.00000000	57.01279000	21.54281000
40.46666444	0.00000000	61.57111000	14.24705000
40.66666443	0.00000000	65.47736000	11.17741000
40.86666441	0.00000000	67.85802000	13.13361000
41.06666440	0.00000000	69.02066000	20.05413000
41.26666439	0.00000000	68.59621000	29.95817000
41.46666438	0.00000000	66.27091000	39.57308000
41.66666437	0.00000000	62.77681000	46.17372000
41.86666435	0.00000000	58.50147000	48.91117000
42.06666434	0.00000000	54.31225000	47.33021000
42.26666433	0.00000000	51.56865000	41.56618000
42.46666432	0.00000000	50.77510000	33.11393000
42.66666431	0.00000000	51.52559000	24.28026000
42.86666430	0.00000000	53.85088000	17.35974000
43.06666428	0.00000000	56.87746000	14.24705000
43.26666427	0.00000000	59.61491000	15.31742000
43.46666426	0.00000000	61.57111000	19.54355000
43.66666425	0.00000000	62.77681000	25.68282000
43.86666424	0.00000000	63.20127000	32.22810000
44.06666422	0.00000000	63.20127000	37.25394000
44.26666421	0.00000000	62.77681000	39.99138000
44.46666420	0.00000000	61.70644000	39.99138000
44.66666419	-0.15871060	60.96825000	37.38312000
44.86666418	0.00000000	61.28814000	33.53223000
45.06666416	0.00000000	61.57111000	29.66904000
45.26666415	0.00000000	61.19586000	26.14419000
45.46666414	0.00000000	59.99015000	23.86196000
45.66666413	0.00000000	58.03395000	23.07455000
45.86666412	0.00000000	55.29650000	24.23720000
46.06666411	0.00000000	52.26993000	26.83932000
46.26666409	0.00000000	49.98769000	29.53371000
46.46666408	0.00000000	49.66166000	31.53297000
46.66666407	0.00000000	51.61786000	33.11393000
46.86666406	0.00000000	55.89320000	34.22736000
47.06666405	0.00000000	61.66338000	34.22736000
47.26666403	0.00000000	67.48277000	33.06471000
47.46666402	0.00000000	72.13951000	31.15772000
47.66666401	0.00000000	74.74163000	28.83858000
47.86666400	-0.15871060	73.90501000	26.88853000
48.06666399	0.00000000	68.88533000	25.35064000
48.26666397	0.00000000	61.20201000	24.61245000
48.46666396	0.00000000	52.68823000	25.39985000
48.66666395	0.00000000	45.38017000	27.30684000
48.86666394	0.00000000	41.14788000	30.04429000
49.06666393	0.00000000	41.19094000	33.11393000
49.26666392	0.00000000	45.80462000	35.75910000
49.46666390	0.00000000	53.89394000	36.92175000
49.66666389	0.00000000	63.15822000	36.17741000
49.86666388	0.00000000	71.67200000	34.22736000
50.06666387	0.00000000	77.39911000	31.11466000
50.26666386	-0.15871060	78.55560000	27.25763000
50.46666384	0.00000000	74.69857000	23.81890000
50.66666383	0.00000000	67.01525000	21.49975000
50.86666382	0.00000000	57.38804000	21.12451000
51.06666381	0.00000000	48.59129000	22.65625000
51.26666380	0.00000000	43.14714000	25.77510000
51.46666379	0.00000000	42.35359000	30.00123000
51.66666377	0.00000000	45.80462000	34.22736000
51.86666376	0.00000000	52.73130000	37.29700000
52.06666375	0.00000000	61.20201000	38.50270000
52.26666374	0.00000000	68.88533000	37.71530000
52.46666373	0.00000000	73.86195000	35.38385000
52.66666371	0.00000000	74.28026000	31.53297000
52.86666370	0.00000000	70.46629000	27.34990000
53.06666369	0.00000000	63.89641000	24.23720000
53.26666368	-0.15871060	55.89320000	22.65625000
53.46666367	0.00000000	49.38484000	22.65625000
53.66666365	0.00000000	46.63509000	24.19414000
53.86666364	0.00000000	47.33637000	26.88853000
54.06666363	0.00000000	51.24261000	29.95201000
54.26666362	0.00000000	57.38804000	32.64640000
54.46666361	0.00000000	64.27164000	34.18430000
54.66666360	0.00000000	69.62352000	34.18430000
54.86666358	0.00000000	71.57972000	32.69562000
55.06666357	0.00000000	70.09104000	30.46260000
55.26666356	0.00000000	65.85260000	28.93085000
55.46666355	0.00000000	60.08243000	28.51255000
55.66666354	0.00000000	54.31225000	28.88779000
55.86666352	-0.15871060	50.07997000	30.04429000
56.06666351	0.00000000	48.54207000	31.53297000
56.26666350	0.00000000	50.07997000	32.68946000
56.46666349	0.00000000	54.26919000	33.06471000
56.66666348	0.00000000	59.61491000	32.60334000
56.86666346	0.00000000	64.27164000	30.69636000
57.06666345	0.00000000	67.39050000	27.63287000
57.26666344	0.00000000	68.55315000	24.97539000
57.46666343	0.00000000	67.39050000	23.07455000
57.66666342	0.00000000	64.36392000	23.16683000
57.86666341	0.00000000	60.50073000	25.81816000
58.06666339	0.00000000	57.05585000	30.04429000
58.26666338	0.00000000	54.68750000	34.69488000
58.46666337	0.00000000	53.93700000	38.87795000
58.66666336	0.00000000	54.64444000	41.19709000
58.86666335	0.00000000	56.58833000	40.78494000
59.06666333	0.00000000	58.87672000	38.08440000
59.26666332	0.00000000	61.24508000	32.97859000
59.46666331	0.00000000	63.10900000	26.51329000
59.66666330	0.00000000	63.89641000	20.38017000
59.86666329	0.00000000	63.15207000	16.94144000
60.06666327	0.00000000	61.66338000	16.89222000
60.26666326	0.00000000	60.12549000	20.01107000
60.46666325	0.00000000	58.96899000	25.81816000
60.66666324	0.00000000	58.54454000	33.11393000
60.86666323	0.00000000	58.54454000	39.99138000
61.06666322	0.00000000	58.91978000	44.21752000
61.26666320	0.00000000	59.66412000	44.63582000
61.46666319	0.00000000	60.08243000	41.56618000
61.66666318	0.00000000	60.45767000	35.75910000
61.86666317	0.00000000	60.77756000	28.42027000
62.06666316	0.00000000	60.03937000	21.12451000
62.26666314	-0.15871060	58.91978000	15.73573000
62.46666313	0.00000000	58.16929000	13.82874000
62.66666312	0.00000000	57.75713000	15.73573000
62.86666311	0.00000000	58.16929000	21.12451000
63.06666310	0.00000000	58.87672000	28.42027000
63.26666308	0.00000000	59.70718000	35.75910000
63.46666307	0.00000000	60.45767000	41.56618000
63.66666306	0.00000000	61.28814000	44.63582000
63.86666305	0.00000000	61.99557000	44.26673000
64.06666304	0.00000000	62.35851000	40.45890000
64.26666303	0.00000000	61.57111000	34.69488000
64.46666301	-0.15871060	60.12549000	28.46333000
64.66666300	0.00000000	58.91978000	22.65625000
64.86666299	0.00000000	58.12622000	18.43012000
65.06666298	0.00000000	57.38804000	16.84916000
65.26666297	0.00000000	57.43110000	18.01181000
65.46666295	0.00000000	58.54454000	21.45669000
65.66666294	0.00000000	60.03937000	26.46407000
65.86666293	0.00000000	61.19586000	31.44069000
66.06666292	0.00000000	61.57111000	35.38385000
66.26666291	0.00000000	61.19586000	37.75836000
66.46666289	0.00000000	60.08243000	38.96407000
66.66666288	0.00000000	58.91978000	38.92101000
66.86666287	0.00000000	58.12622000	37.38312000
67.06666286	0.00000000	57.38804000	34.68873000
67.26666285	0.00000000	57.47416000	31.57603000
67.46666284	0.00000000	58.96899000	28.42027000
67.66666282	0.00000000	61.24508000	25.30758000
67.86666281	0.00000000	63.20127000	22.61319000
68.06666280	0.00000000	64.78223000	21.08145000
68.26666279	0.00000000	65.85260000	21.08145000
68.46666278	0.00000000	65.38509000	22.61319000
68.66666276	0.00000000	62.73376000	25.35064000
68.86666275	0.00000000	58.91978000	28.88779000
69.06666274	-0.15871060	55.43184000	33.15699000
69.26666273	0.00000000	52.68823000	37.38312000
69.46666272	0.00000000	51.19340000	40.50196000
69.66666270	0.00000000	51.61786000	41.99065000
69.86666269	0.00000000	54.35531000	41.19094000
70.06666268	0.00000000	58.96899000	37.75836000
70.26666267	0.00000000	64.36392000	33.15699000
70.46666266	0.00000000	68.97145000	28.42027000
70.66666265	0.00000000	71.67200000	23.81890000
70.86666263	0.00000000	71.67200000	20.33710000
71.06666262	0.00000000	69.02066000	19.21752000
71.26666261	0.00000000	64.73917000	20.33710000
71.46666260	0.00000000	59.66412000	23.86196000
71.66666259	0.00000000	54.26919000	28.79552000
71.86666257	0.00000000	50.07997000	33.85211000
72.06666256	0.00000000	48.49901000	37.67224000
72.26666255	0.00000000	49.66166000	39.65920000
72.46666254	0.00000000	53.10654000	39.29626000
72.66666253	0.00000000	58.16929000	37.38312000
72.86666251	0.00000000	63.57652000	34.27042000
73.06666250	-0.15871060	68.59621000	30.46260000
73.26666249	0.00000000	71.67200000	27.39296000
73.46666248	-0.15871060	72.09030000	25.81816000
73.66666247	0.00000000	70.13410000	25.77510000
73.86666246	0.00000000	65.94488000	26.93159000
74.06666244	0.00000000	60.96825000	28.79552000
74.26666243	0.00000000	57.05585000	30.69636000
74.46666242	0.00000000	54.26919000	31.44069000
74.66666241	0.00000000	52.77436000	31.11466000
74.86666240	0.00000000	53.14960000	30.00123000
75.06666238	0.00000000	55.43184000	28.88779000
75.26666237	0.00000000	58.50147000	28.51255000
75.46666236	0.00000000	61.57111000	28.88779000
75.66666235	0.00000000	63.89641000	30.08735000
75.86666234	0.00000000	64.73302000	31.99434000
76.06666232	0.00000000	64.78223000	34.31963000
76.26666231	0.00000000	64.31471000	36.17741000
76.46666230	0.00000000	62.82603000	36.92175000
76.66666229	0.00000000	60.96825000	35.71604000
76.86666228	0.00000000	60.17470000	32.68946000
77.06666227	0.00000000	60.08243000	28.79552000
77.26666225	0.00000000	60.08243000	24.93233000
77.46666224	0.00000000	60.08243000	21.49975000
77.66666223	0.00000000	60.08243000	20.01107000
77.86666222	0.00000000	60.03937000	21.12451000
78.06666221	0.00000000	59.61491000	24.19414000
78.26666219	-0.15871060	58.54454000	28.46333000
78.46666218	0.00000000	57.80634000	33.11393000
78.66666217	0.00000000	58.16929000	37.34006000
78.86666216	0.00000000	58.91978000	40.03444000
79.06666215	0.00000000	60.17470000	40.40969000
79.26666213	0.00000000	62.08169000	38.50270000
79.46666212	0.00000000	64.35777000	34.64567000
79.66666211	0.00000000	65.85260000	30.04429000
79.86666210	0.00000000	65.89567000	25.77510000
80.06666209	0.00000000	64.73302000	22.65625000
80.26666208	0.00000000	62.77681000	21.08145000
80.46666206	0.00000000	60.08243000	21.08145000
80.66666205	0.00000000	57.38804000	22.65625000
80.86666204	0.00000000	55.47490000	25.72589000
81.06666203	0.00000000	54.73056000	29.58292000
81.26666202	0.00000000	55.89320000	33.06471000
81.46666200	0.00000000	58.54454000	35.80217000
81.66666199	0.00000000	61.62032000	37.34006000
81.86666198	0.00000000	64.31471000	37.42618000
82.06666197	0.00000000	65.89567000	36.64493000
82.26666196	0.00000000	66.27091000	35.43307000
82.46666194	0.00000000	65.52042000	33.06471000
82.66666193	0.00000000	63.57652000	30.04429000
82.86666192	0.00000000	61.28814000	27.30684000
83.06666191	0.00000000	58.96899000	25.30758000
83.26666190	0.00000000	57.43110000	23.72662000
83.46666189	0.00000000	57.01279000	22.65625000
83.66666187	0.00000000	57.38804000	23.07455000
83.86666186	0.00000000	58.54454000	25.35064000
84.06666185	0.00000000	60.03937000	28.46333000
84.26666184	-0.15871060	61.19586000	31.99434000
84.46666183	0.00000000	61.62032000	35.80217000
84.66666181	0.00000000	61.66338000	38.50270000
84.86666180	0.00000000	61.66338000	39.29626000
85.06666179	0.00000000	61.62032000	38.50270000
85.26666178	0.00000000	61.28814000	35.80217000
85.46666177	0.00000000	60.91904000	31.95128000
85.66666175	0.00000000	61.28814000	28.04503000
85.86666174	0.00000000	61.62032000	24.19414000
86.06666173	0.00000000	61.66338000	21.54281000
86.26666172	0.00000000	61.62032000	21.16757000
86.46666171	0.00000000	61.19586000	23.07455000
86.66666170	0.00000000	60.08243000	26.93159000
86.86666168	0.00000000	58.96899000	31.53297000
87.06666167	0.00000000	58.59375000	35.80217000
87.26666166	0.00000000	58.91978000	38.87795000
87.46666165	0.00000000	59.70718000	40.03444000
87.66666164	0.00000000	60.50073000	38.87795000
87.86666162	0.00000000	61.66338000	35.75910000
88.06666161	0.00000000	62.82603000	31.15772000
88.26666160	0.00000000	63.57652000	26.19340000
88.46666159	0.00000000	63.93946000	22.74852000
88.66666158	0.00000000	63.15207000	21.54281000
88.86666156	0.00000000	61.70644000	22.70546000
89.06666155	0.00000000	60.50073000	25.81816000
89.26666154	0.00000000	59.70718000	30.41954000
89.46666153	0.00000000	58.91978000	35.38385000
89.66666152	0.00000000	58.59375000	38.82874000
89.86666151	0.00000000	58.96899000	40.03444000
90.06666149	0.00000000	60.08243000	38.87795000
90.26666148	0.00000000	61.19586000	35.75910000
90.46666147	0.00000000	61.62032000	31.15772000
90.66666146	0.00000000	61.66338000	26.19340000
90.86666145	0.00000000	61.66338000	22.70546000
91.06666143	0.00000000	61.66338000	21.16757000
91.26666142	0.00000000	61.66338000	21.96727000
91.46666141	0.00000000	61.66338000	25.44291000
91.66666140	0.00000000	61.66338000	30.37647000
91.86666139	0.00000000	61.66338000	35.38385000
92.06666137	0.00000000	61.66338000	38.82874000
92.26666136	0.00000000	61.66338000	40.03444000
92.46666135	0.00000000	61.62032000	38.82874000
92.66666134	0.00000000	61.19586000	35.34079000
92.86666133	0.00000000	60.08243000	30.00123000
93.06666132	0.00000000	58.96899000	24.70472000
93.26666130	0.00000000	58.54454000	21.59203000
93.46666129	0.00000000	58.50147000	21.16757000
93.66666128	0.00000000	58.59375000	23.07455000
93.86666127	0.00000000	59.38730000	26.93159000
94.06666126	0.00000000	61.33120000	31.48376000
94.26666124	0.00000000	63.57652000	35.34079000
94.46666123	0.00000000	65.52042000	37.29700000
94.66666122	0.00000000	66.31397000	37.34006000
94.86666121	0.00000000	66.31397000	35.75910000
95.06666120	0.00000000	65.47736000	32.68946000
95.26666118	0.00000000	63.15207000	28.83858000
95.46666117	0.00000000	60.08243000	25.44291000
95.66666116	0.00000000	57.01279000	23.49901000
95.86666115	0.00000000	54.68750000	23.86196000
96.06666114	0.00000000	53.93700000	25.72589000
96.26666113	0.00000000	54.68750000	28.46333000
96.46666111	0.00000000	57.05585000	31.53297000
96.66666110	0.00000000	60.50073000	34.22736000
96.86666109	0.00000000	64.40699000	35.75910000
97.06666108	0.00000000	67.85802000	35.75910000
97.26666107	0.00000000	70.18331000	34.22736000
97.46666105	0.00000000	70.55856000	31.57603000
97.66666104	0.00000000	69.02066000	28.93085000
97.86666103	0.00000000	65.94488000	27.34990000
98.06666102	0.00000000	62.03863000	26.93159000
98.26666101	0.00000000	58.16929000	27.30684000
98.46666099	0.00000000	54.68750000	28.42027000
98.66666098	0.00000000	52.82357000	29.58292000
98.86666097	0.00000000	53.14960000	30.37647000
99.06666096	0.00000000	55.43184000	31.15772000
99.26666095	0.00000000	58.54454000	31.53297000
99.46666094	0.00000000	62.03863000	31.57603000
99.66666092	0.00000000	65.52657000	31.61909000
99.86666091	0.00000000	67.85802000	31.99434000
100.06666090	0.00000000	69.06373000	32.73868000
100.26666089	0.00000000	69.02066000	33.11393000
100.46666088	0.00000000	67.48277000	33.11393000
100.66666086	-0.15871060	64.78223000	32.68946000
100.86666085	0.00000000	61.70644000	31.53297000
101.06666084	0.00000000	58.96899000	30.00123000
101.26666083	0.00000000	57.01279000	28.46333000
101.46666082	0.00000000	55.85014000	27.30684000
101.66666080	0.00000000	55.89320000	26.93159000
101.86666079	0.00000000	57.38804000	27.30684000
102.06666078	0.00000000	59.70718000	28.51255000
102.26666077	0.00000000	62.03863000	30.46260000
102.46666076	0.00000000	64.40699000	33.15699000
102.66666075	0.00000000	66.27091000	35.80217000
102.86666073	0.00000000	67.05831000	37.34006000
103.06666072	0.00000000	66.32012000	37.34006000
103.26666071	0.00000000	64.82529000	35.80217000
103.46666070	0.00000000	63.24434000	33.11393000
103.66666069	0.00000000	61.66338000	30.04429000
103.86666067	0.00000000	60.12549000	27.30684000
104.06666066	0.00000000	58.96899000	25.39985000
104.26666065	0.00000000	58.54454000	24.65551000
104.46666064	0.00000000	58.59375000	25.81816000
104.66666063	-0.15871060	59.38730000	28.46333000
104.86666061	0.00000000	61.28814000	31.53297000
105.06666060	0.00000000	63.15207000	34.22736000
105.26666059	0.00000000	64.35777000	35.80217000
105.46666058	0.00000000	64.73302000	36.17741000
105.66666057	0.00000000	64.35777000	35.38385000
105.86666056	0.00000000	63.20127000	33.11393000
106.06666054	0.00000000	61.70644000	30.46260000
106.26666053	0.00000000	60.54995000	28.51255000
106.46666052	0.00000000	60.12549000	27.30684000
106.66666051	0.00000000	60.12549000	26.93159000
106.86666050	0.00000000	60.50073000	27.34990000
107.06666048	0.00000000	61.28814000	28.88164000
107.26666047	0.00000000	62.03863000	31.15772000
107.46666046	0.00000000	62.82603000	33.06471000
107.66666045	0.00000000	63.20127000	34.22736000
107.86666044	0.00000000	63.20127000	34.22736000
108.06666042	0.00000000	62.82603000	33.06471000
108.26666041	-0.15871060	62.03863000	31.20078000
108.46666040	0.00000000	61.28814000	29.25689000
108.66666039	0.00000000	60.45767000	28.08809000
108.86666038	0.00000000	59.75024000	27.30684000
109.06666037	0.00000000	59.38730000	27.39296000
109.26666035	0.00000000	60.17470000	28.83858000
109.46666034	-0.15871060	61.62032000	30.73942000
109.66666033	0.00000000	62.82603000	31.95128000
109.86666032	0.00000000	63.61958000	33.11393000
110.06666031	0.00000000	64.35777000	33.85211000
110.26666029	0.00000000	64.35777000	33.48917000
110.46666028	0.00000000	63.61958000	32.73868000
110.66666027	0.00000000	62.86909000	31.53297000
110.86666026	0.00000000	62.03863000	30.00123000
111.06666025	0.00000000	61.28814000	28.46333000
111.26666023	0.00000000	60.50073000	27.34990000
111.46666022	0.00000000	60.17470000	27.30684000
111.66666021	0.00000000	60.50073000	28.04503000
111.86666020	0.00000000	61.24508000	28.83858000
112.06666019	0.00000000	61.66338000	30.00123000
112.26666018	0.00000000	62.08169000	31.15772000
112.46666016	0.00000000	62.82603000	31.90822000
112.66666015	0.00000000	63.20127000	32.32037000
112.86666014	0.00000000	63.24434000	31.95128000
113.06666013	0.00000000	63.24434000	31.61909000
113.26666012	0.00000000	63.20127000	31.53297000
113.46666010	0.00000000	62.82603000	31.15772000
113.66666009	0.00000000	62.08169000	30.41954000
113.86666008	0.00000000	61.70644000	30.04429000
114.06666007	0.00000000	61.66338000	30.00123000
114.26666006	0.00000000	61.66338000	29.95817000
114.46666004	0.00000000	61.66338000	29.62598000
114.66666003	0.00000000	61.66338000	29.25689000
114.86666002	0.00000000	61.70644000	29.62598000
115.06666001	0.00000000	62.08169000	29.95817000
115.26666000	0.00000000	62.82603000	30.04429000
115.46665999	0.00000000	63.20127000	30.41954000
115.66665997	0.00000000	63.24434000	31.15772000
115.86665996	0.00000000	63.20127000	31.57603000
116.06665995	0.00000000	62.82603000	31.99434000
116.26665994	0.00000000	62.08169000	32.73868000
116.46665993	0.00000000	61.70644000	33.11393000
116.66665991	0.00000000	61.66338000	33.11393000
116.86665990	0.00000000	61.66338000	32.68946000
117.06665989	0.00000000	61.70644000	31.53297000
117.26665988	0.00000000	62.13090000	30.04429000
117.46665987	0.00000000	63.24434000	28.88779000
117.66665985	0.00000000	64.31471000	28.46333000
117.86665984	0.00000000	64.40699000	28.46333000
118.06665983	0.00000000	64.03790000	28.83858000
118.26665982	0.00000000	64.03174000	29.62598000
118.46665981	0.00000000	63.57652000	30.41954000
118.66665980	0.00000000	62.82603000	31.57603000
118.86665978	0.00000000	61.66338000	32.68946000
119.06665977	0.00000000	60.54995000	33.11393000
119.26665976	0.00000000	60.12549000	33.15699000
119.46665975	-0.15871060	60.12549000	33.15699000
119.66665974	0.00000000	60.54995000	33.11393000
119.86665972	0.00000000	61.70644000	32.68946000
120.06665971	0.00000000	63.24434000	31.57603000
120.26665970	0.00000000	64.78223000	30.46260000
120.46665969	0.00000000	65.89567000	30.04429000
120.66665968	0.00000000	65.93873000	30.00123000
120.86665966	0.00000000	65.20053000	30.00123000
121.06665965	0.00000000	64.40699000	30.00123000
121.26665964	0.00000000	63.20127000	30.00123000
121.46665963	0.00000000	61.70644000	30.04429000
121.66665962	0.00000000	60.54995000	30.41954000
121.86665961	0.00000000	60.12549000	31.15772000
122.06665959	0.00000000	60.08243000	31.53297000
122.26665958	0.00000000	60.12549000	31.57603000
122.46665957	0.00000000	60.54995000	31.57603000
122.66665956	0.00000000	61.66338000	31.57603000
122.86665955	0.00000000	62.82603000	31.57603000
123.06665953	0.00000000	63.61958000	31.57603000
123.26665952	0.00000000	64.40699000	31.57603000
123.46665951	0.00000000	64.78223000	31.53297000
123.66665950	0.00000000	64.78223000	31.15772000
123.86665949	0.00000000	64.40699000	30.41954000
124.06665947	0.00000000	63.61958000	30.00123000
124.26665946	0.00000000	62.86909000	29.62598000
124.46665945	0.00000000	62.03863000	29.25689000
124.66665944	0.00000000	61.28814000	29.62598000
124.86665943	0.00000000	60.50073000	29.95817000
125.06665942	0.00000000	60.12549000	30.04429000
125.26665940	0.00000000	60.12549000	30.41954000
125.46665939	0.00000000	60.54995000	31.20078000
125.66665938	0.00000000	61.70644000	31.95128000
125.86665937	-0.15871060	63.20127000	32.68946000
126.06665936	0.00000000	64.35777000	32.68946000
126.26665934	0.00000000	64.78223000	31.99434000
126.46665933	0.00000000	64.82529000	31.57603000
126.66665932	0.00000000	64.78223000	31.15772000
126.86665931	0.00000000	64.35777000	30.41954000
127.06665930	0.00000000	63.20127000	30.00123000
127.26665928	0.00000000	61.70644000	29.58292000
127.46665927	0.00000000	60.54995000	28.88779000
127.66665926	0.00000000	60.12549000	28.88779000
127.86665925	0.00000000	60.12549000	29.62598000
128.06665924	0.00000000	60.50073000	30.37647000
128.26665923	0.00000000	61.28814000	31.15772000
128.46665921	0.00000000	62.08169000	31.53297000
128.66665920	0.00000000	63.24434000	31.57603000
128.86665919	0.00000000	64.35777000	31.57603000
129.06665918	0.00000000	64.73302000	31.57603000
129.26665917	0.00000000	64.40699000	31.53297000
129.46665915	0.00000000	63.61958000	31.15772000
129.66665914	0.00000000	62.86909000	30.41954000
129.86665913	0.00000000	62.03863000	30.09350000
130.06665912	0.00000000	61.33120000	30.41954000
130.26665911	0.00000000	60.91904000	31.15772000
130.46665909	0.00000000	61.33120000	31.53297000
130.66665908	0.00000000	62.03863000	31.57603000
130.86665907	0.00000000	62.86909000	31.61909000
131.06665906	0.00000000	63.61958000	31.95128000
131.26665905	0.00000000	64.40699000	32.32037000
131.46665904	0.00000000	64.78223000	31.95128000
131.66665902	0.00000000	64.78223000	31.57603000
131.86665901	0.00000000	64.40699000	31.15772000
132.06665900	0.00000000	63.66264000	30.41954000
132.26665899	0.00000000	63.28740000	30.09350000
132.46665898	0.00000000	63.24434000	30.41954000
132.66665896	0.00000000	63.24434000	31.20078000
132.86665895	0.00000000	63.24434000	31.95128000
133.06665894	0.00000000	63.24434000	32.73868000
133.26665893	0.00000000	63.24434000	33.15699000
133.46665892	0.00000000	63.20127000	33.53223000
133.66665890	0.00000000	62.86909000	33.90133000
133.86665889	0.00000000	62.50000000	33.48917000
134.06665888	0.00000000	62.86909000	32.78174000
134.26665887	0.00000000	63.20127000	31.95128000
134.46665886	0.00000000	63.24434000	31.20078000
134.66665885	0.00000000	63.28740000	30.41954000
134.86665883	0.00000000	63.61958000	30.04429000
135.06665882	0.00000000	64.03174000	30.00123000
135.26665881	0.00000000	63.99483000	30.04429000
135.46665880	0.00000000	64.03174000	30.41954000
135.66665879	0.00000000	63.61958000	31.15772000
135.86665877	0.00000000	63.24434000	31.57603000
136.06665876	0.00000000	62.82603000	31.99434000
136.26665875	0.00000000	62.08169000	32.73868000
136.46665874	0.00000000	61.75566000	33.06471000
136.66665873	0.00000000	62.08169000	32.73868000
136.86665871	0.00000000	62.82603000	31.95128000
137.06665870	0.00000000	63.24434000	31.20078000
137.26665869	0.00000000	63.66264000	30.41954000
137.46665868	0.00000000	64.40699000	30.04429000
137.66665867	0.00000000	64.78223000	30.00123000
137.86665866	0.00000000	64.78223000	30.00123000
138.06665864	0.00000000	64.40699000	30.00123000
138.26665863	0.00000000	63.61958000	30.00123000
138.46665862	0.00000000	62.86909000	30.04429000
138.66665861	0.00000000	62.08169000	30.41954000
138.86665860	0.00000000	61.70644000	31.15772000
139.06665858	0.00000000	61.70644000	31.57603000
139.26665857	-0.15871060	62.08169000	31.95128000
139.46665856	0.00000000	62.82603000	32.32037000
139.66665855	0.00000000	63.24434000	31.95128000
139.86665854	0.00000000	63.61958000	31.57603000
140.06665852	0.00000000	63.98867000	31.15772000
140.26665851	0.00000000	63.61958000	30.41954000
140.46665850	0.00000000	63.28740000	30.04429000
140.66665849	0.00000000	63.20127000	29.95817000
140.86665848	0.00000000	62.86909000	29.62598000
141.06665847	0.00000000	62.50000000	29.25689000
141.26665845	0.00000000	62.86909000	29.62598000
141.46665844	0.00000000	63.20127000	30.00123000
141.66665843	0.00000000	63.24434000	30.46260000
141.86665842	0.00000000	63.28740000	31.57603000
142.06665841	0.00000000	63.61958000	32.68946000
142.26665839	0.00000000	64.03174000	33.06471000
142.46665838	0.00000000	63.99483000	32.73868000
142.66665837	0.00000000	64.03174000	31.99434000
142.86665836	0.00000000	63.61958000	31.57603000
143.06665835	0.00000000	63.28740000	31.15772000
143.26665834	0.00000000	63.24434000	30.41954000
143.46665832	0.00000000	63.24434000	30.04429000
143.66665831	0.00000000	63.24434000	30.00123000
143.86665830	0.00000000	63.24434000	30.04429000
144.06665829	0.00000000	63.28740000	30.41954000
144.26665828	0.00000000	63.66264000	31.15772000
144.46665826	0.00000000	64.40699000	31.57603000
144.66665825	0.00000000	64.78223000	31.99434000
144.86665824	0.00000000	64.78223000	32.73868000
145.06665823	-0.15871060	64.40699000	33.06471000
145.26665822	0.00000000	63.66264000	32.73868000
145.46665820	0.00000000	63.28740000	31.99434000
145.66665819	0.00000000	63.24434000	31.57603000
145.86665818	0.00000000	63.24434000	31.15772000
146.06665817	0.00000000	63.24434000	30.41954000
146.26665816	0.00000000	63.28740000	30.04429000
146.46665815	0.00000000	63.61958000	30.04429000
146.66665813	0.00000000	64.03174000	30.41954000
146.86665812	0.00000000	64.03790000	31.15772000
147.06665811	0.00000000	64.45004000	31.57603000
147.26665810	0.00000000	64.78223000	31.99434000
147.46665809	0.00000000	64.78223000	32.73868000
147.66665807	0.00000000	64.40699000	33.11393000
147.86665806	0.00000000	63.66264000	33.11393000
148.06665805	0.00000000	63.28740000	32.73868000
148.26665804	0.00000000	63.24434000	31.99434000
148.46665803	0.00000000	63.24434000	31.61909000
148.66665801	0.00000000	63.24434000	31.57603000
148.86665800	0.00000000	63.28740000	31.57603000
149.06665799	0.00000000	63.66264000	31.57603000
149.26665798	0.00000000	64.40699000	31.57603000
149.46665797	0.00000000	64.73302000	31.57603000
149.66665796	0.00000000	64.45004000	31.57603000
149.86665794	0.00000000	64.08095000	31.57603000
150.06665793	0.00000000	64.45004000	31.61909000
150.26665792	0.00000000	64.73302000	31.99434000
150.46665791	0.00000000	64.40699000	32.68946000
150.66665790	0.00000000	63.66264000	32.68946000
150.86665788	0.00000000	63.28740000	31.99434000
151.06665787	0.00000000	63.24434000	31.61909000
151.26665786	0.00000000	63.24434000	31.57603000
151.46665785	0.00000000	63.24434000	31.57603000
151.66665784	0.00000000	63.28740000	31.57603000
151.86665782	0.00000000	63.66264000	31.57603000
152.06665781	0.00000000	64.40699000	31.57603000
152.26665780	0.00000000	64.78223000	31.57603000
152.46665779	0.00000000	64.82529000	31.57603000
152.66665778	0.00000000	64.82529000	31.57603000
152.86665777	0.00000000	64.82529000	31.57603000
153.06665775	0.00000000	64.78223000	31.57603000
153.26665774	0.00000000	64.40699000	31.57603000
153.46665773	0.00000000	63.66264000	31.57603000
153.66665772	0.00000000	63.28740000	31.57603000
153.86665771	0.00000000	63.24434000	31.57603000
154.06665769	0.00000000	63.24434000	31.57603000
154.26665768	0.00000000	63.24434000	31.57603000
154.46665767	0.00000000	63.24434000	31.57603000
154.66665766	0.00000000	63.28740000	31.57603000
154.86665765	0.00000000	63.66264000	31.53297000
155.06665763	0.00000000	64.40699000	31.15772000
155.26665762	0.00000000	64.78223000	30.46260000
155.46665761	-0.15871060	64.82529000	30.46260000
155.66665760	0.00000000	64.82529000	31.15772000
155.86665759	0.00000000	64.82529000	31.53297000
156.06665758	0.00000000	64.78223000	31.57603000
156.26665756	0.00000000	64.40699000	31.57603000
156.46665755	0.00000000	63.66264000	31.57603000
156.66665754	0.00000000	63.28740000	31.61909000
156.86665753	0.00000000	63.24434000	31.95128000
157.06665752	0.00000000	63.24434000	32.32037000
157.26665750	0.00000000	63.24434000	31.90822000
157.46665749	0.00000000	63.28740000	31.25000000
157.66665748	0.00000000	63.66264000	30.79478000
157.86665747	0.00000000	64.40699000	30.78248000
158.06665746	0.00000000	64.78223000	30.37647000
158.26665744	0.00000000	64.82529000	30.04429000
158.46665743	0.00000000	64.82529000	30.04429000
158.66665742	0.00000000	64.82529000	30.41954000
158.86665741	0.00000000	64.82529000	31.15772000
159.06665740	0.00000000	64.82529000	31.57603000
159.26665739	0.00000000	64.78223000	31.99434000
159.46665737	0.00000000	64.40699000	32.73868000
159.66665736	0.00000000	63.66264000	33.11393000
159.86665735	0.00000000	63.28740000	33.11393000
160.06665734	0.00000000	63.24434000	32.73868000
160.26665733	0.00000000	63.24434000	31.99434000
160.46665731	0.00000000	63.28740000	31.57603000
160.66665730	0.00000000	63.66264000	31.20078000
160.86665729	0.00000000	64.40699000	30.83784000
161.06665728	0.00000000	64.78223000	31.20078000
161.26665727	0.00000000	64.82529000	31.53297000
161.46665725	0.00000000	64.82529000	31.57603000
161.66665724	0.00000000	64.82529000	31.57603000
161.86665723	0.00000000	64.82529000	31.61909000
162.06665722	0.00000000	64.82529000	31.99434000
162.26665721	0.00000000	64.82529000	32.73868000
162.46665720	0.00000000	64.82529000	33.11393000
162.66665718	0.00000000	64.82529000	33.15699000
162.86665717	0.00000000	64.78223000	33.11393000
163.06665716	0.00000000	64.40699000	32.73868000
163.26665715	0.00000000	63.66264000	32.04355000
163.46665714	0.00000000	63.28740000	31.99434000
163.66665712	0.00000000	63.24434000	32.32037000
163.86665711	0.00000000	63.28740000	31.95128000
164.06665710	0.00000000	63.66264000	31.61909000
164.26665709	0.00000000	64.40699000	31.57603000
164.46665708	0.00000000	64.78223000	31.57603000
164.66665706	0.00000000	64.82529000	31.57603000
164.86665705	0.00000000	64.82529000	31.57603000
165.06665704	0.00000000	64.82529000	31.57603000
165.26665703	0.00000000	64.82529000	31.61909000
165.46665702	0.00000000	64.82529000	31.95128000
165.66665701	0.00000000	64.78223000	32.32037000
165.86665699	0.00000000	64.40699000	31.95128000
166.06665698	0.00000000	63.66264000	31.66830000
166.26665697	0.00000000	63.33661000	31.95128000
166.46665696	0.00000000	63.61958000	32.32037000
166.66665695	0.00000000	64.03174000	31.95128000
166.86665693	0.00000000	64.03790000	31.61909000
167.06665692	0.00000000	64.45004000	31.57603000
167.26665691	0.00000000	64.78223000	31.57603000
167.46665690	0.00000000	64.82529000	31.57603000
167.66665689	0.00000000	64.82529000	31.57603000
167.86665687	0.00000000	64.82529000	31.57603000
168.06665686	0.00000000	64.82529000	31.57603000
168.26665685	0.00000000	64.82529000	31.57603000
168.46665684	0.00000000	64.82529000	31.57603000
168.66665683	0.00000000	64.82529000	31.57603000
168.86665682	0.00000000	64.82529000	31.57603000
169.06665680	0.00000000	64.82529000	31.57603000
169.26665679	0.00000000	64.82529000	31.57603000
169.46665678	0.00000000	64.82529000	31.57603000
169.66665677	0.00000000	64.82529000	31.57603000
169.86665676	0.00000000	64.82529000	31.57603000
170.06665674	0.00000000	64.82529000	31.57603000
170.26665673	0.00000000	64.82529000	31.57603000
170.46665672	0.00000000	64.82529000	31.57603000
170.66665671	0.00000000	64.82529000	31.57603000
170.86665670	0.00000000	64.82529000	31.57603000
171.06665668	0.00000000	64.82529000	31.57603000
171.26665667	0.00000000	64.82529000	31.57603000
171.46665666	0.00000000	64.82529000	31.57603000
171.66665665	0.00000000	64.82529000	31.57603000
171.86665664	0.00000000	64.82529000	31.57603000
172.06665663	0.00000000	64.82529000	31.57603000
172.26665661	0.00000000	64.82529000	31.57603000
172.46665660	0.00000000	64.82529000	31.61909000
172.66665659	0.00000000	64.78223000	31.95128000
172.86665658	0.00000000	64.40699000	32.32037000
173.06665657	0.00000000	63.71186000	31.95128000
173.26665655	0.00000000	63.71186000	31.61909000
173.46665654	0.00000000	64.40699000	31.57603000
173.66665653	0.00000000	64.78223000	31.57603000
173.86665652	0.00000000	64.82529000	31.57603000
174.06665651	0.00000000	64.82529000	31.57603000
174.26665649	0.00000000	64.82529000	31.57603000
174.46665648	0.00000000	64.82529000	31.57603000
174.66665647	0.00000000	64.82529000	31.57603000
174.86665646	0.00000000	64.82529000	31.57603000
175.06665645	0.00000000	64.82529000	31.57603000
175.26665644	0.00000000	64.82529000	31.57603000
175.46665642	0.00000000	64.82529000	31.57603000
175.66665641	0.00000000	64.82529000	31.57603000
175.86665640	0.00000000	64.82529000	31.57603000
176.06665639	0.00000000	64.82529000	31.57603000
176.26665638	0.00000000	64.82529000	31.57603000
176.46665636	0.00000000	64.82529000	31.61909000
176.66665635	0.00000000	64.82529000	31.95128000
176.86665634	0.00000000	64.82529000	32.32037000
177.06665633	0.00000000	64.82529000	31.99434000
177.26665632	0.00000000	64.82529000	32.04355000
177.46665630	-0.15871060	64.82529000	32.73868000
177.66665629	0.00000000	64.82529000	33.11393000
177.86665628	0.00000000	64.82529000	33.15699000
178.06665627	0.00000000	64.82529000	33.15699000
178.26665626	0.00000000	64.82529000	33.15699000
178.46665625	0.00000000	64.82529000	33.15699000
178.66665623	0.00000000	64.82529000	33.15699000
178.86665622	0.00000000	64.82529000	33.15699000
179.06665621	0.00000000	64.82529000	33.15699000
179.26665620	0.00000000	64.82529000	33.15699000
179.46665619	0.00000000	64.82529000	33.11393000
179.66665617	0.00000000	64.82529000	32.73868000
179.86665616	0.00000000	64.82529000	31.99434000
180.06665615	0.00000000	64.82529000	31.61909000
180.26665614	0.00000000	64.82529000	31.57603000
180.46665613	0.00000000	64.82529000	31.57603000
180.66665611	-0.15871060	64.82529000	31.61909000
180.86665610	0.00000000	64.82529000	31.99434000
181.06665609	0.00000000	64.82529000	32.73868000
181.26665608	0.00000000	64.82529000	33.11393000
181.46665607	0.00000000	64.82529000	33.15699000
181.66665606	0.00000000	64.82529000	33.11393000
181.86665604	0.00000000	64.86835000	32.73868000
182.06665603	0.00000000	65.20053000	31.99434000
182.26665602	0.00000000	65.56963000	31.61909000
182.46665601	0.00000000	65.20053000	31.57603000
182.66665600	0.00000000	64.86835000	31.57603000
182.86665598	0.00000000	64.82529000	31.57603000
183.06665597	0.00000000	64.82529000	31.57603000
183.26665596	0.00000000	64.82529000	31.57603000
183.46665595	0.00000000	64.82529000	31.57603000
183.66665594	0.00000000	64.82529000	31.57603000
183.86665592	0.00000000	64.82529000	31.57603000
184.06665591	0.00000000	64.82529000	31.57603000
184.26665590	0.00000000	64.82529000	31.57603000
184.46665589	0.00000000	64.82529000	31.57603000
184.66665588	0.00000000	64.82529000	31.57603000
184.86665587	0.00000000	64.82529000	31.57603000
185.06665585	0.00000000	64.82529000	31.57603000
185.26665584	0.00000000	64.82529000	31.57603000
185.46665583	0.00000000	64.82529000	31.53297000
185.66665582	0.00000000	64.82529000	31.20078000
185.86665581	-0.15871060	64.82529000	30.83784000
186.06665579	0.00000000	64.82529000	31.20078000
186.26665578	0.00000000	64.82529000	31.53297000
186.46665577	0.00000000	64.82529000	31.57603000
186.66665576	0.00000000	64.82529000	31.57603000
186.86665575	0.00000000	64.82529000	31.57603000
187.06665573	0.00000000	64.82529000	31.61909000
187.26665572	0.00000000	64.82529000	31.99434000
187.46665571	0.00000000	64.82529000	32.73868000
187.66665570	0.00000000	64.82529000	33.06471000
187.86665569	0.00000000	64.82529000	32.73868000
188.06665568	0.00000000	64.82529000	31.99434000
188.26665566	0.00000000	64.86835000	31.61909000
188.46665565	0.00000000	65.20053000	31.57603000
188.66665564	0.00000000	65.56963000	31.57603000
188.86665563	0.00000000	65.20053000	31.57603000
189.06665562	0.00000000	64.86835000	31.57603000
189.26665560	0.00000000	64.82529000	31.57603000
189.46665559	0.00000000	64.82529000	31.57603000
189.66665558	0.00000000	64.82529000	31.57603000
189.86665557	0.00000000	64.82529000	31.57603000
190.06665556	0.00000000	64.82529000	31.57603000
190.26665554	0.00000000	64.82529000	31.57603000
190.46665553	0.00000000	64.82529000	31.57603000
190.66665552	0.00000000	64.82529000	31.61909000
190.86665551	0.00000000	64.86835000	31.95128000
191.06665550	0.00000000	65.24360000	32.32037000
191.26665549	0.00000000	65.98794000	31.95128000
191.46665547	0.00000000	66.36318000	31.61909000
191.66665546	0.00000000	66.40624000	31.57603000
191.86665545	0.00000000	66.40624000	31.57603000
192.06665544	0.00000000	66.36318000	31.57603000
192.26665543	0.00000000	65.98794000	31.57603000
192.46665541	0.00000000	65.24360000	31.57603000
192.66665540	0.00000000	64.86835000	31.61909000
192.86665539	0.00000000	64.82529000	31.95128000
193.06665538	0.00000000	64.82529000	32.32037000
193.26665537	0.00000000	64.82529000	31.99434000
193.46665535	0.00000000	64.82529000	32.04355000
193.66665534	0.00000000	64.86835000	32.73868000
193.86665533	0.00000000	65.24360000	33.11393000
194.06665532	0.00000000	65.98794000	33.15699000
194.26665531	0.00000000	66.36318000	33.15699000
194.46665530	0.00000000	66.40624000	33.15699000
194.66665528	0.00000000	66.40624000	33.11393000
194.86665527	0.00000000	66.40624000	32.78174000
195.06665526	0.00000000	66.40624000	32.36959000
195.26665525	0.00000000	66.36318000	32.36343000
195.46665524	0.00000000	65.98794000	31.95128000
195.66665522	0.00000000	65.29281000	31.61909000
195.86665521	0.00000000	65.29281000	31.57603000
196.06665520	0.00000000	65.98794000	31.61909000
