Time	Channel A	Channel B	Channel C
(us)	(V)	(mV)	(mV)

-4.59999956	0.00000000	31.99434000	20.10950000
-4.39999957	0.00000000	31.66215000	19.36516000
-4.19999958	0.00000000	31.61909000	18.98991000
-3.99999959	0.00000000	31.66215000	18.98991000
-3.79999960	0.00000000	31.99434000	19.32210000
-3.59999962	0.00000000	32.36343000	19.69119000
-3.39999963	0.00000000	31.99434000	19.36516000
-3.19999964	0.00000000	31.66215000	19.36516000
-2.99999965	0.00000000	31.61909000	19.69119000
-2.79999966	0.00000000	31.61909000	19.32210000
-2.59999968	0.00000000	31.61909000	18.98991000
-2.39999969	0.00000000	31.61909000	18.94685000
-2.19999970	0.00000000	31.61909000	18.94685000
-1.99999971	0.00000000	31.61909000	18.94685000
-1.79999972	0.00000000	31.61909000	18.94685000
-1.59999973	0.00000000	31.61909000	18.94685000
-1.39999975	0.00000000	31.61909000	18.94685000
-1.19999976	0.00000000	31.61909000	18.94685000
-0.99999977	0.00000000	31.61909000	18.94685000
-0.79999978	0.00000000	31.61909000	18.98991000
-0.59999979	0.00000000	31.61909000	19.32210000
-0.39999981	0.00000000	31.61909000	19.69119000
-0.19999982	0.31803640	31.61909000	19.32210000
0.00000017	0.79601380	31.61909000	18.98991000
0.20000016	0.95533960	31.61909000	18.94685000
0.40000015	0.95533960	31.61909000	18.94685000
0.60000013	0.63668800	31.61909000	18.94685000
0.80000012	0.00000000	31.61909000	18.94685000
1.00000011	-0.95533960	31.61909000	18.94685000
1.20000010	-1.91129400	31.61909000	18.94685000
1.40000009	-2.70792300	31.61909000	18.94685000
1.60000008	-2.86724900	31.61909000	18.94685000
1.80000006	-2.07062000	31.61909000	18.98991000
2.00000005	-0.63668800	31.66215000	19.32210000
2.20000004	1.43331700	32.03740000	19.69119000
2.40000003	3.50393700	32.73252000	19.32210000
2.60000002	4.93786900	32.73252000	18.98991000
2.80000000	5.25652100	32.03740000	18.94685000
2.99999999	4.14124000	31.66215000	18.94685000
3.19999998	1.75196900	31.61909000	18.94685000
3.39999997	-1.59264300	31.61909000	18.94685000
3.59999996	-4.77854300	31.66215000	18.94685000
3.79999994	-7.32714100	32.03740000	18.94685000
3.99999993	-7.96444400	32.78174000	18.98991000
4.19999992	-6.69045300	33.15699000	19.32210000
4.39999991	-3.50393700	33.20005000	19.73425000
4.59999990	0.63668800	33.20005000	19.74040000
4.79999989	5.09719500	33.15699000	20.10950000
4.99999987	8.28309500	32.82480000	20.06029000
5.19999986	9.39837600	32.45571000	19.36516000
5.39999985	8.28309500	32.78174000	18.98991000
5.59999984	5.09719500	32.73252000	18.94685000
5.79999983	0.31803640	32.08661000	18.94685000
5.99999981	-4.30056600	32.08661000	18.94685000
6.19999980	-7.96444400	32.78174000	18.98991000
6.39999979	-9.55770200	33.15699000	19.36516000
6.59999978	-8.76107300	33.20005000	20.10950000
6.79999977	-5.73449800	33.20005000	20.48474000
6.99999975	-1.59264300	33.20005000	20.52780000
7.19999974	2.70792300	33.20005000	20.52780000
7.39999973	6.05315000	33.20005000	20.52780000
7.59999972	7.64579200	33.20005000	20.48474000
7.79999971	7.32714100	33.15699000	20.10950000
7.99999970	5.09719500	32.82480000	19.36516000
8.19999968	2.07062000	32.45571000	18.98991000
8.39999967	-1.27399100	32.82480000	18.98991000
8.59999966	-3.82258900	33.15699000	19.36516000
8.79999965	-5.09719500	33.20005000	20.10950000
8.99999964	-5.09719500	33.20005000	20.48474000
9.19999962	-3.66326300	33.20005000	20.52780000
9.39999961	-1.91129400	33.20005000	20.52780000
9.59999960	0.00000000	33.20005000	20.52780000
9.79999959	1.59264300	33.20005000	20.48474000
9.99999958	2.38927200	33.20005000	20.10950000
10.19999956	2.38927200	33.20005000	19.41437000
10.39999955	1.91129400	33.20005000	19.41437000
10.59999954	0.95533960	33.20005000	20.10950000
10.79999953	0.15871060	33.20005000	20.48474000
10.99999952	-0.47736220	33.20005000	20.52780000
11.19999951	-0.95533960	33.20005000	20.48474000
11.39999949	-0.95533960	33.20005000	20.10950000
11.59999948	-0.95533960	33.20005000	19.36516000
11.79999947	-0.63668800	33.20005000	19.03912000
11.99999946	-0.31803640	33.20005000	19.32210000
12.19999945	-0.15871060	33.20005000	19.73425000
12.39999943	-0.15871060	33.20005000	19.69734000
12.59999942	-0.15871060	33.20005000	19.73425000
12.79999941	0.00000000	33.20005000	19.32210000
12.99999940	0.00000000	33.20005000	18.98991000
13.19999939	0.00000000	33.20005000	18.94685000
13.39999937	0.00000000	33.20005000	18.94685000
13.59999936	0.00000000	33.20005000	18.94685000
13.79999935	0.00000000	33.20005000	18.94685000
13.99999934	-0.15871060	33.20005000	18.94685000
14.19999933	-0.15871060	33.20005000	18.98991000
14.39999932	-0.15871060	33.20005000	19.32210000
14.59999930	-0.15871060	33.20005000	19.69119000
14.79999929	0.00000000	33.20005000	19.32210000
14.99999928	0.00000000	33.15699000	18.98991000
15.19999927	0.00000000	32.82480000	18.94685000
15.39999926	0.00000000	32.45571000	18.94685000
15.59999924	0.00000000	32.82480000	18.94685000
15.79999923	0.00000000	33.15699000	18.94685000
15.99999922	0.00000000	33.20005000	18.94685000
16.19999921	-0.15871060	33.20005000	18.94685000
16.39999920	-0.15871060	33.24311000	18.94685000
16.59999919	-0.15871060	33.61835000	18.94685000
16.79999917	-0.15871060	34.36884000	18.94685000
16.99999916	-0.15871060	34.74409000	18.94685000
17.19999915	0.00000000	34.78716000	18.94685000
17.39999914	0.00000000	34.78716000	18.94685000
17.59999913	0.00000000	34.78716000	18.94685000
17.79999911	0.00000000	34.74409000	18.98991000
17.99999910	0.00000000	34.31963000	19.32210000
18.19999909	0.00000000	33.15699000	19.69119000
18.39999908	-0.15871060	31.61909000	19.32210000
18.59999907	-0.15871060	30.03814000	18.98991000
18.79999905	0.00000000	28.54946000	18.94685000
18.99999904	-0.15871060	27.80512000	18.94685000
19.19999903	-0.15871060	28.63558000	18.94685000
19.39999902	-0.15871060	30.96703000	18.94685000
19.59999901	0.00000000	34.83022000	18.94685000
19.79999900	0.00000000	39.06250000	18.94685000
19.99999898	0.00000000	42.55659000	18.98991000
20.19999897	0.00000000	44.83267000	19.32210000
20.39999896	0.00000000	44.78961000	19.69119000
20.59999895	0.00000000	42.04601000	19.32210000
20.79999894	0.00000000	36.92790000	18.98991000
20.99999892	0.00000000	29.57677000	18.94685000
21.19999891	-0.15871060	21.52436000	18.98991000
21.39999890	0.00000000	15.38509000	19.36516000
21.59999889	0.00000000	12.68455000	20.06029000
21.79999888	0.00000000	14.30856000	20.06029000
21.99999886	0.00000000	20.58932000	19.36516000
22.19999885	0.00000000	31.05930000	19.03912000
22.39999884	0.00000000	43.80536000	19.32210000
22.59999883	0.00000000	55.76402000	19.73425000
22.79999882	0.00000000	64.14247000	19.74040000
22.99999881	0.00000000	66.00639000	20.15256000
23.19999879	-0.15871060	59.77485000	20.52780000
23.39999878	-0.15871060	47.02263000	20.94611000
23.59999877	0.00000000	29.95201000	21.72736000
23.79999876	-0.15871060	12.22318000	22.43479000
23.99999875	0.00000000	-2.01771600	22.79773000
24.19999873	0.00000000	-8.90132800	22.05955000
24.39999872	0.00000000	-6.11466500	20.90305000
24.59999871	0.00000000	6.31151500	19.69119000
24.79999870	0.00000000	26.40871000	17.74114000
24.99999869	0.00000000	49.48942000	15.87721000
25.19999867	-0.15871060	69.58661000	14.72072000
25.39999866	-0.15871060	81.92052000	14.72072000
25.59999865	0.00000000	83.82751000	15.87721000
25.79999864	-0.15871060	74.10802000	17.87647000
25.99999863	0.00000000	54.83513000	21.03838000
26.19999862	0.00000000	30.50566000	25.22145000
26.39999860	0.00000000	6.91437000	29.02928000
26.59999859	0.00000000	-10.85753000	30.97933000
26.79999858	0.00000000	-18.90379000	30.97933000
26.99999857	0.00000000	-14.67150000	28.93701000
27.19999856	0.00000000	0.72588580	24.24335000
27.39999854	0.00000000	23.15453000	17.32283000
27.59999853	0.00000000	47.85925000	9.98400600
27.79999852	0.00000000	69.07603000	3.80167300
27.99999851	0.00000000	81.50221000	0.04306102
28.19999850	0.00000000	83.12623000	0.54749010
28.39999848	0.00000000	74.23720000	6.31151500
28.59999847	0.00000000	56.88361000	15.96334000
28.79999846	0.00000000	35.24852000	27.21457000
28.99999845	0.00000000	14.35777000	38.41043000
29.19999844	0.00000000	-1.50713600	46.77657000
29.39999843	0.00000000	-8.85826700	49.47096000
29.59999841	0.00000000	-6.25000000	45.57086000
29.79999840	0.00000000	4.87204700	35.90059000
29.99999839	0.00000000	21.06299000	21.96727000
30.19999838	0.00000000	38.50886000	6.91437000
30.39999837	0.00000000	53.67864000	-6.23154500
30.59999835	0.00000000	64.14247000	-14.64075000
30.79999834	0.00000000	68.00565000	-15.75418000
30.99999833	0.00000000	64.19168000	-8.83366100
31.19999832	0.00000000	54.23228000	4.31225400
31.39999831	0.00000000	41.11097000	20.94611000
31.59999829	0.00000000	27.89739000	37.94907000
31.79999828	0.00000000	16.96604000	51.42716000
31.99999827	-0.15871060	9.65797200	58.39074000
32.19999826	0.00000000	7.70792300	57.23425000
32.39999825	-0.15871060	11.89099000	48.35752000
32.59999824	-0.15871060	19.99262000	33.67372000
32.79999822	0.00000000	30.45644000	16.25246000
32.99999821	0.00000000	41.25246000	-0.33218500
33.19999820	0.00000000	49.35408000	-12.69070000
33.39999819	0.00000000	53.30339000	-17.75344000
33.59999818	0.00000000	52.55905000	-15.10827000
33.79999816	0.00000000	47.95152000	-5.77017700
33.99999815	0.00000000	40.64345000	8.91363100
34.19999814	0.00000000	32.54798000	25.86737000
34.39999813	0.00000000	25.94119000	40.92643000
34.59999812	-0.15871060	21.65969000	51.00270000
34.79999810	-0.15871060	20.54626000	54.12155000
34.99999809	-0.15871060	23.19759000	49.88927000
35.19999808	0.00000000	28.54946000	39.48080000
35.39999807	0.00000000	34.69488000	25.22145000
35.59999806	0.00000000	40.08981000	10.58071000
35.79999805	0.00000000	43.16560000	-1.03346500
35.99999803	0.00000000	43.25172000	-7.20964500
36.19999802	0.00000000	40.93258000	-6.84055100
36.39999801	0.00000000	37.10630000	0.08612204
36.59999800	0.00000000	32.46186000	11.55881000
36.79999799	0.00000000	28.63558000	24.24335000
36.99999797	-0.15871060	26.26722000	34.65182000
37.19999796	0.00000000	25.94119000	40.45890000
37.39999795	0.00000000	27.84818000	40.45890000
37.59999794	0.00000000	31.71137000	34.74409000
37.79999793	0.00000000	36.31890000	25.17224000
37.99999791	0.00000000	40.55733000	14.85605000
38.19999790	0.00000000	43.25172000	6.77288300
38.39999789	0.00000000	43.67618000	3.32800200
38.59999788	0.00000000	42.13828000	5.23499000
38.79999787	0.00000000	39.01944000	12.11245000
38.99999786	-0.15871060	34.78716000	21.63509000
39.19999784	0.00000000	30.50566000	30.46875000
39.39999783	0.00000000	27.05462000	36.23277000
39.59999782	0.00000000	25.11073000	37.34621000
39.79999781	0.00000000	25.47367000	33.12008000
39.99999780	0.00000000	27.38681000	24.75394000
40.19999778	0.00000000	30.54872000	15.13902000
40.39999777	0.00000000	34.78716000	7.04970500
40.59999776	0.00000000	39.06250000	2.07923200
40.79999775	0.00000000	42.55659000	2.12229300
40.99999774	0.00000000	44.83267000	7.46801100
41.19999772	0.00000000	44.83267000	16.29552000
41.39999771	0.00000000	42.55659000	26.28568000
41.59999770	0.00000000	39.06250000	34.69488000
41.79999769	0.00000000	34.78716000	38.97022000
41.99999768	0.00000000	30.59178000	38.27509000
42.19999767	0.00000000	27.80512000	33.67372000
42.39999765	0.00000000	26.59326000	26.32874000
42.59999764	0.00000000	26.22416000	17.87647000
42.79999763	0.00000000	27.47293000	10.58071000
42.99999762	0.00000000	30.50566000	6.35457700
43.19999761	0.00000000	34.27657000	6.26230300
43.39999759	0.00000000	37.02018000	9.65182000
43.59999758	0.00000000	38.28125000	14.67766000
43.79999757	0.00000000	39.06250000	20.47859000
43.99999756	0.00000000	39.01944000	25.86737000
44.19999755	0.00000000	37.94907000	29.35531000
44.39999753	0.00000000	36.83563000	30.51796000
44.59999752	0.00000000	36.41117000	29.02928000
44.79999751	0.00000000	36.41117000	25.59055000
44.99999750	0.00000000	36.74335000	21.72736000
45.19999749	0.00000000	37.06324000	17.87647000
45.39999748	0.00000000	36.23277000	15.18209000
45.59999746	0.00000000	34.31963000	14.34547000
45.79999745	0.00000000	31.57603000	14.72072000
45.99999744	0.00000000	28.50024000	16.25246000
46.19999743	0.00000000	25.84892000	18.57160000
46.39999742	0.00000000	24.73548000	20.90305000
46.59999740	0.00000000	25.94119000	23.22219000
46.79999739	0.00000000	29.43528000	24.71087000
46.99999738	0.00000000	34.87328000	24.75394000
47.19999737	0.00000000	41.06791000	23.64050000
47.39999736	0.00000000	46.83809000	22.05955000
47.59999734	0.00000000	50.60285000	20.10950000
47.79999733	0.00000000	50.55979000	17.78420000
47.99999732	0.00000000	46.37057000	15.87721000
48.19999731	0.00000000	39.39468000	14.76378000
48.39999730	0.00000000	31.24384000	15.13902000
48.59999729	-0.15871060	23.15453000	17.03986000
48.79999727	-0.15871060	17.42741000	19.36516000
48.99999726	-0.15871060	15.88952000	22.10261000
49.19999725	0.00000000	19.00837000	24.79700000
49.39999724	0.00000000	26.31643000	26.70398000
49.59999723	0.00000000	35.94980000	27.44832000
49.79999721	0.00000000	45.20792000	26.24262000
49.99999720	0.00000000	52.14074000	23.21604000
50.19999719	0.00000000	54.79207000	19.36516000
50.39999718	0.00000000	52.14074000	15.87721000
50.59999717	0.00000000	45.25713000	13.18282000
50.79999715	0.00000000	36.36811000	12.02018000
50.99999714	-0.15871060	27.47908000	12.80758000
51.19999713	0.00000000	20.54626000	15.13902000
51.39999712	0.00000000	17.51968000	18.98991000
51.59999711	0.00000000	19.42667000	23.21604000
51.79999710	0.00000000	25.89813000	26.70398000
51.99999708	0.00000000	34.36884000	29.02928000
52.19999707	0.00000000	42.46432000	29.35531000
52.39999706	0.00000000	48.60359000	27.49138000
52.59999705	0.00000000	50.51673000	24.01575000
52.79999704	0.00000000	47.90846000	20.19562000
52.99999702	0.00000000	42.13828000	16.67077000
53.19999701	0.00000000	34.83022000	14.38853000
53.39999700	-0.15871060	27.89739000	13.55807000
53.59999699	0.00000000	23.33292000	14.38853000
53.79999698	0.00000000	22.50246000	16.67077000
53.99999696	0.00000000	25.56594000	20.10950000
54.19999695	0.00000000	30.92396000	23.12992000
54.39999694	0.00000000	37.53075000	24.71087000
54.59999693	0.00000000	43.62696000	24.75394000
54.79999692	0.00000000	47.44094000	23.64050000
54.99999691	0.00000000	47.44094000	22.10261000
55.19999689	0.00000000	43.67618000	20.57087000
55.39999688	0.00000000	37.94907000	19.41437000
55.59999687	0.00000000	32.12967000	19.08218000
55.79999686	0.00000000	27.52214000	19.82652000
55.99999685	0.00000000	25.19685000	21.72736000
56.19999683	0.00000000	25.94119000	23.54823000
56.39999682	0.00000000	29.01082000	24.33563000
56.59999681	0.00000000	33.61835000	23.54823000
56.79999680	0.00000000	38.64419000	21.64124000
56.99999679	0.00000000	42.46432000	18.94685000
57.19999677	0.00000000	44.45743000	16.25246000
57.39999676	0.00000000	44.04527000	14.34547000
57.59999675	0.00000000	41.76304000	13.65034000
57.79999674	0.00000000	37.89985000	15.22515000
57.99999673	0.00000000	33.71063000	19.03912000
58.19999672	0.00000000	30.59178000	23.64050000
58.39999670	0.00000000	29.01082000	27.90969000
58.59999669	0.00000000	29.05389000	30.93627000
58.79999668	0.00000000	30.92396000	31.67446000
58.99999667	0.00000000	33.99360000	29.35531000
59.19999666	0.00000000	36.65108000	24.75394000
59.39999664	0.00000000	38.64419000	18.90379000
59.59999663	0.00000000	39.39468000	12.80758000
59.79999662	0.00000000	39.11171000	8.21235200
59.99999661	0.00000000	38.32431000	7.09276500
60.19999660	0.00000000	37.53075000	9.37500000
60.39999658	0.00000000	36.36811000	14.76378000
60.59999657	0.00000000	35.25467000	21.68430000
60.79999656	0.00000000	34.83022000	28.24188000
60.99999655	0.00000000	34.83022000	33.25541000
61.19999654	0.00000000	35.25467000	35.16240000
61.39999653	0.00000000	36.32505000	33.63066000
61.59999651	0.00000000	37.06324000	28.98007000
61.79999650	0.00000000	36.74335000	22.01649000
61.99999649	0.00000000	36.36811000	14.34547000
62.19999648	0.00000000	35.90059000	7.79404500
62.39999647	0.00000000	34.83022000	4.35531500
62.59999645	0.00000000	34.04282000	4.72440900
62.79999644	0.00000000	34.03666000	8.95669300
62.99999643	0.00000000	34.04282000	15.87721000
63.19999642	0.00000000	34.87328000	23.59129000
63.39999641	0.00000000	36.32505000	30.51181000
63.59999639	0.00000000	37.48154000	34.78716000
63.79999638	0.00000000	37.94907000	35.58071000
63.99999637	0.00000000	38.28125000	33.29847000
64.19999636	0.00000000	38.26894000	28.24188000
64.39999635	0.00000000	37.11860000	21.72736000
64.59999634	0.00000000	35.99286000	15.13902000
64.79999632	0.00000000	34.78716000	10.11319000
64.99999631	0.00000000	33.71063000	7.37573800
65.19999630	0.00000000	33.66756000	7.41879900
65.39999629	0.00000000	34.41191000	10.44537000
65.59999628	0.00000000	35.20546000	15.41585000
65.79999626	0.00000000	36.36811000	20.43553000
65.99999625	0.00000000	37.43848000	24.79700000
66.19999624	0.00000000	37.48154000	28.28494000
66.39999623	0.00000000	36.74335000	30.60408000
66.59999622	0.00000000	35.94980000	30.97933000
66.79999620	0.00000000	34.78716000	29.49065000
66.99999619	0.00000000	33.71063000	26.75320000
67.19999618	0.00000000	33.71063000	23.30832000
67.39999617	0.00000000	34.83022000	19.78346000
67.59999616	0.00000000	36.41117000	17.03986000
67.79999615	0.00000000	38.36737000	14.62844000
67.99999613	0.00000000	40.60039000	12.72146000
68.19999612	0.00000000	41.71998000	11.60187000
68.39999611	0.00000000	40.97564000	12.02018000
68.59999610	-0.15871060	39.01944000	14.34547000
68.79999609	0.00000000	35.90059000	17.83341000
68.99999607	0.00000000	32.08661000	22.10261000
69.19999606	0.00000000	29.01082000	26.37795000
69.39999605	0.00000000	27.42987000	29.86589000
69.59999604	0.00000000	27.47293000	32.14198000
69.79999603	0.00000000	29.47835000	32.14198000
69.99999601	0.00000000	33.71063000	29.82283000
70.19999600	0.00000000	39.06250000	25.91043000
70.39999599	0.00000000	43.71924000	20.52780000
70.59999598	0.00000000	46.83809000	15.18209000
70.79999597	0.00000000	47.95152000	11.65108000
70.99999596	0.00000000	46.41363000	10.07013000
71.19999594	0.00000000	42.55659000	10.48843000
71.39999593	-0.15871060	37.53075000	13.22589000
71.59999592	0.00000000	32.08661000	17.83341000
71.79999591	0.00000000	27.47293000	23.17298000
71.99999590	0.00000000	24.77854000	27.44832000
72.19999588	0.00000000	24.77854000	29.82283000
72.39999587	0.00000000	27.47293000	30.56102000
72.59999586	0.00000000	32.12967000	29.02928000
72.79999585	0.00000000	37.85679000	25.63976000
72.99999584	0.00000000	42.92569000	22.15182000
73.19999582	0.00000000	46.05069000	19.03297000
73.39999581	0.00000000	47.61934000	16.75689000
73.59999580	0.00000000	46.74582000	16.33858000
73.79999579	0.00000000	43.34399000	17.45817000
73.99999578	0.00000000	38.36737000	19.32210000
74.19999577	0.00000000	33.71063000	21.22293000
74.39999575	0.00000000	30.21653000	22.01033000
74.59999574	0.00000000	28.27264000	22.05955000
74.79999573	0.00000000	28.63558000	21.64124000
74.99999572	0.00000000	30.50566000	20.47859000
75.19999571	0.00000000	33.24926000	19.03912000
75.39999569	0.00000000	36.31890000	18.33784000
75.59999568	0.00000000	39.06250000	19.45743000
75.79999567	0.00000000	40.97564000	21.72736000
75.99999566	0.00000000	41.76304000	24.05881000
76.19999565	0.00000000	41.01870000	26.32874000
76.39999563	0.00000000	39.53002000	27.44832000
76.59999562	0.00000000	37.99213000	26.66092000
76.79999561	0.00000000	36.78642000	24.33563000
76.99999560	0.00000000	36.03592000	20.47859000
77.19999559	0.00000000	35.62377000	16.25246000
77.39999558	0.00000000	35.99286000	12.76452000
77.59999556	0.00000000	36.32505000	10.48843000
77.79999555	0.00000000	36.32505000	10.53765000
77.99999554	0.00000000	35.90059000	13.18282000
78.19999553	0.00000000	34.78716000	17.40895000
78.39999552	0.00000000	33.71063000	22.05955000
78.59999550	0.00000000	33.66756000	26.32874000
78.79999549	0.00000000	34.45497000	29.39837000
78.99999548	0.00000000	35.62377000	30.56102000
79.19999547	0.00000000	37.57381000	29.39837000
79.39999546	0.00000000	39.48696000	26.32874000
79.59999544	0.00000000	41.01870000	22.05955000
79.79999543	0.00000000	41.76304000	17.45817000
79.99999542	0.00000000	40.97564000	13.60113000
80.19999541	-0.15871060	39.06250000	11.64493000
80.39999540	0.00000000	36.36811000	11.60187000
80.59999539	0.00000000	33.66756000	13.13976000
80.79999537	0.00000000	31.75443000	15.83415000
80.99999536	0.00000000	30.96703000	18.94685000
81.19999535	0.00000000	31.75443000	22.05955000
81.39999534	0.00000000	33.66756000	24.79700000
81.59999533	0.00000000	36.36811000	26.75320000
81.79999531	0.00000000	39.06250000	27.90969000
81.99999530	0.00000000	41.01870000	27.90969000
82.19999529	0.00000000	42.18134000	26.75320000
82.39999528	0.00000000	42.13828000	24.79700000
82.59999527	0.00000000	40.64345000	22.10261000
82.79999525	0.00000000	38.36737000	19.36516000
82.99999524	-0.15871060	36.41117000	17.03986000
83.19999523	0.00000000	34.83022000	15.08981000
83.39999522	0.00000000	33.71063000	14.34547000
83.59999521	0.00000000	33.66756000	14.67150000
83.79999520	0.00000000	34.45497000	15.92027000
83.99999518	0.00000000	35.58071000	18.29478000
84.19999517	0.00000000	37.11245000	22.14567000
84.39999516	0.00000000	37.85679000	26.32874000
84.59999515	0.00000000	37.94907000	29.44759000
84.79999514	0.00000000	37.94907000	30.97933000
84.99999512	0.00000000	37.94907000	30.60408000
85.19999511	0.00000000	37.94907000	28.28494000
85.39999510	0.00000000	37.94907000	24.79700000
85.59999509	0.00000000	37.94907000	20.52780000
85.79999508	0.00000000	37.94907000	16.29552000
85.99999506	0.00000000	37.94907000	13.22589000
86.19999505	0.00000000	37.90600000	12.06939000
86.39999504	0.00000000	37.48154000	13.22589000
86.59999503	0.00000000	36.36811000	16.29552000
86.79999502	0.00000000	35.25467000	20.57087000
86.99999501	0.00000000	34.87943000	25.17224000
87.19999499	0.00000000	35.20546000	29.02928000
87.39999498	0.00000000	35.99286000	30.93627000
87.59999497	0.00000000	36.78642000	30.56102000
87.79999496	0.00000000	37.94907000	27.86663000
87.99999495	0.00000000	39.06250000	23.64050000
88.19999493	0.00000000	39.48696000	18.98991000
88.39999492	0.00000000	39.53002000	14.76378000
88.59999491	0.00000000	39.48696000	12.11245000
88.79999490	0.00000000	39.06250000	12.11245000
88.99999489	0.00000000	37.90600000	14.76378000
89.19999487	0.00000000	36.41117000	18.98991000
89.39999486	0.00000000	35.25467000	23.64050000
89.59999485	0.00000000	34.83022000	27.82357000
89.79999484	-0.15871060	34.83022000	30.14272000
89.99999483	0.00000000	35.25467000	29.77362000
90.19999482	-0.15871060	36.36811000	27.44832000
90.39999480	0.00000000	37.48154000	23.17298000
90.59999479	0.00000000	37.90600000	17.87647000
90.79999478	0.00000000	37.94907000	13.64419000
90.99999477	0.00000000	37.94907000	11.69414000
91.19999476	0.00000000	37.94907000	12.06939000
91.39999474	0.00000000	37.94907000	14.80684000
91.59999473	0.00000000	37.94907000	19.41437000
91.79999472	0.00000000	37.94907000	24.75394000
91.99999471	0.00000000	37.94907000	28.93701000
92.19999470	0.00000000	37.94907000	30.51796000
92.39999468	0.00000000	37.94907000	29.39837000
92.59999467	0.00000000	37.90600000	26.32874000
92.79999466	0.00000000	37.48154000	22.05955000
92.99999465	0.00000000	36.36811000	17.45817000
93.19999464	0.00000000	35.25467000	13.64419000
93.39999463	0.00000000	34.83022000	12.11245000
93.59999461	0.00000000	34.83022000	13.22589000
93.79999460	0.00000000	35.25467000	16.29552000
93.99999459	0.00000000	36.46038000	20.52780000
94.19999458	0.00000000	38.36737000	24.75394000
94.39999457	0.00000000	40.64345000	27.82357000
94.59999455	0.00000000	42.18134000	28.98007000
94.79999454	0.00000000	42.59965000	27.82357000
94.99999453	0.00000000	42.18134000	24.79700000
95.19999452	0.00000000	40.60039000	20.94611000
95.39999451	0.00000000	37.90600000	17.50123000
95.59999449	0.00000000	34.78716000	15.13902000
95.79999448	0.00000000	31.75443000	14.43159000
95.99999447	0.00000000	29.85359000	15.55733000
96.19999446	0.00000000	30.21653000	18.61466000
96.39999445	0.00000000	32.12967000	22.01649000
96.59999444	0.00000000	35.24852000	24.75394000
96.79999442	0.00000000	39.11171000	26.28568000
96.99999441	0.00000000	42.59965000	26.32874000
97.19999440	0.00000000	45.30019000	25.17224000
97.39999439	0.00000000	46.41363000	23.26525000
97.59999438	0.00000000	45.30019000	20.94611000
97.79999436	0.00000000	42.59965000	19.03912000
97.99999435	0.00000000	39.11171000	17.87647000
98.19999434	0.00000000	35.20546000	17.83341000
98.39999433	0.00000000	31.75443000	18.57160000
98.59999432	0.00000000	29.42913000	19.36516000
98.79999430	0.00000000	29.05389000	20.52780000
98.99999429	0.00000000	30.54872000	21.64124000
99.19999428	0.00000000	33.29232000	22.10261000
99.39999427	0.00000000	36.78642000	22.52091000
99.59999426	0.00000000	40.64345000	23.26525000
99.79999425	0.00000000	43.71924000	23.64050000
99.99999423	0.00000000	45.30019000	23.68356000
100.19999422	0.00000000	45.34325000	23.72662000
100.39999421	0.00000000	44.13755000	24.05881000
100.59999420	0.00000000	41.80610000	24.37869000
100.79999419	0.00000000	38.36737000	23.59129000
100.99999417	0.00000000	35.29773000	22.10261000
101.19999416	0.00000000	33.29232000	20.52780000
101.39999415	0.00000000	32.12967000	18.98991000
101.59999414	0.00000000	32.12967000	17.83341000
101.79999413	0.00000000	33.29232000	17.50123000
101.99999411	0.00000000	35.20546000	18.29478000
102.19999410	0.00000000	37.53075000	20.57087000
102.39999409	0.00000000	39.48696000	23.26525000
102.59999408	0.00000000	41.06791000	25.59055000
102.79999407	0.00000000	42.22441000	27.49138000
102.99999406	0.00000000	42.59965000	27.86663000
103.19999404	0.00000000	42.18134000	26.75320000
103.39999403	-0.15871060	40.64345000	24.75394000
103.59999402	0.00000000	38.36737000	21.68430000
103.79999401	0.00000000	36.41117000	18.25172000
103.99999400	0.00000000	34.83022000	15.96334000
104.19999398	0.00000000	33.71063000	15.13902000
104.39999397	0.00000000	33.71063000	15.92027000
104.59999396	0.00000000	34.83022000	17.83341000
104.79999395	0.00000000	36.36811000	20.57087000
104.99999394	0.00000000	37.94907000	23.64050000
105.19999392	0.00000000	39.53002000	26.28568000
105.39999391	0.00000000	40.97564000	27.39911000
105.59999390	0.00000000	41.38779000	26.32874000
105.79999389	0.00000000	40.28051000	24.10187000
105.99999388	0.00000000	39.15477000	22.10261000
106.19999387	0.00000000	37.94907000	20.15256000
106.39999385	0.00000000	36.83563000	18.25172000
106.59999384	0.00000000	36.41117000	17.50123000
106.79999383	0.00000000	36.41117000	17.87647000
106.99999382	0.00000000	36.83563000	19.40822000
107.19999381	0.00000000	37.94907000	21.68430000
107.39999379	0.00000000	39.06250000	23.59129000
107.59999378	0.00000000	39.48696000	24.75394000
107.79999377	0.00000000	39.53002000	24.79700000
107.99999376	0.00000000	39.48696000	24.01575000
108.19999375	0.00000000	39.06250000	22.84695000
108.39999374	0.00000000	37.94907000	20.94611000
108.59999372	0.00000000	36.78642000	19.41437000
108.79999371	0.00000000	36.03592000	18.61466000
108.99999370	0.00000000	35.67298000	18.25172000
109.19999369	0.00000000	36.41117000	19.03912000
109.39999368	0.00000000	37.53075000	20.52780000
109.59999366	0.00000000	38.36737000	22.10261000
109.79999365	0.00000000	39.53002000	23.64050000
109.99999364	0.00000000	40.60039000	24.75394000
110.19999363	0.00000000	40.64345000	24.75394000
110.39999362	0.00000000	39.90526000	23.64050000
110.59999360	0.00000000	39.11171000	22.10261000
110.79999359	0.00000000	37.94907000	20.57087000
110.99999358	0.00000000	36.83563000	19.41437000
111.19999357	0.00000000	36.41117000	18.98991000
111.39999356	0.00000000	36.36811000	18.94685000
111.59999355	0.00000000	36.41117000	18.98991000
111.79999353	0.00000000	36.78642000	19.41437000
111.99999352	0.00000000	37.57381000	20.57087000
112.19999351	-0.15871060	38.32431000	22.05955000
112.39999350	0.00000000	39.11171000	23.21604000
112.59999349	0.00000000	39.48696000	23.64050000
112.79999347	0.00000000	39.53002000	23.68356000
112.99999346	0.00000000	39.48696000	23.64050000
113.19999345	0.00000000	39.15477000	23.26525000
113.39999344	0.00000000	38.74261000	22.52091000
113.59999343	0.00000000	38.73647000	22.10261000
113.79999341	0.00000000	38.32431000	21.68430000
113.99999340	0.00000000	37.99213000	20.94611000
114.19999339	0.00000000	37.94907000	20.57087000
114.39999338	0.00000000	37.94907000	20.52780000
114.59999337	0.00000000	37.94907000	20.52780000
114.79999336	0.00000000	37.99213000	20.52780000
114.99999334	0.00000000	38.32431000	20.52780000
115.19999333	0.00000000	38.73647000	20.57087000
115.39999332	0.00000000	38.74261000	20.94611000
115.59999331	0.00000000	39.15477000	21.72736000
115.79999330	0.00000000	39.48696000	22.47785000
115.99999328	0.00000000	39.48696000	23.26525000
116.19999327	0.00000000	39.15477000	23.64050000
116.39999326	0.00000000	38.74261000	23.68356000
116.59999325	0.00000000	38.73647000	23.68356000
116.79999324	0.00000000	38.32431000	23.64050000
116.99999322	0.00000000	38.04134000	23.21604000
117.19999321	0.00000000	38.36737000	22.10261000
117.39999320	-0.15871060	39.11171000	20.94611000
117.59999319	0.00000000	39.53002000	20.19562000
117.79999318	0.00000000	39.94832000	19.78346000
117.99999317	0.00000000	40.64345000	20.15256000
118.19999315	0.00000000	40.64345000	20.52780000
118.39999314	0.00000000	39.90526000	20.94611000
118.59999313	0.00000000	39.15477000	21.77658000
118.79999312	0.00000000	38.32431000	22.85310000
118.99999311	-0.15871060	37.57381000	24.00344000
119.19999309	0.00000000	36.78642000	24.01575000
119.39999308	0.00000000	36.46038000	23.72662000
119.59999307	0.00000000	36.83563000	23.64050000
119.79999306	0.00000000	37.94907000	23.26525000
119.99999305	0.00000000	39.11171000	22.47785000
120.19999303	0.00000000	39.94832000	21.72736000
120.39999302	0.00000000	41.11097000	20.94611000
120.59999301	0.00000000	42.18134000	20.57087000
120.79999300	0.00000000	42.18134000	20.52780000
120.99999299	0.00000000	41.06791000	20.52780000
121.19999298	0.00000000	39.53002000	20.52780000
121.39999296	0.00000000	37.99213000	20.57087000
121.59999295	0.00000000	36.83563000	20.94611000
121.79999294	0.00000000	36.41117000	21.68430000
121.99999293	0.00000000	36.36811000	22.05955000
122.19999292	0.00000000	36.41117000	22.10261000
122.39999290	0.00000000	36.83563000	22.14567000
122.59999289	0.00000000	37.94907000	22.47785000
122.79999288	0.00000000	39.11171000	22.84695000
122.99999287	0.00000000	39.90526000	22.47785000
123.19999286	0.00000000	40.69267000	22.14567000
123.39999284	0.00000000	41.06791000	22.05955000
123.59999283	0.00000000	41.11097000	21.72736000
123.79999282	0.00000000	41.06791000	21.32136000
123.99999281	0.00000000	40.69267000	21.30905000
124.19999280	0.00000000	39.90526000	20.90305000
124.39999279	0.00000000	39.11171000	20.57087000
124.59999277	0.00000000	37.94907000	20.52780000
124.79999276	0.00000000	36.83563000	20.57087000
124.99999275	0.00000000	36.41117000	20.94611000
125.19999274	0.00000000	36.41117000	21.72736000
125.39999273	0.00000000	36.78642000	22.47785000
125.59999271	0.00000000	37.57381000	23.26525000
125.79999270	0.00000000	38.36737000	23.64050000
125.99999269	0.00000000	39.53002000	23.68356000
126.19999268	0.00000000	40.64345000	23.64050000
126.39999267	0.00000000	41.06791000	23.26525000
126.59999265	0.00000000	41.06791000	22.47785000
126.79999264	0.00000000	40.64345000	21.72736000
126.99999263	0.00000000	39.53002000	20.94611000
127.19999262	0.00000000	38.36737000	20.57087000
127.39999261	0.00000000	37.57381000	20.57087000
127.59999260	0.00000000	36.83563000	20.94611000
127.79999258	0.00000000	36.83563000	21.68430000
127.99999257	0.00000000	37.53075000	22.05955000
128.19999256	0.00000000	37.94907000	22.14567000
128.39999255	0.00000000	38.41658000	22.47785000
128.59999254	0.00000000	39.53002000	22.84695000
128.79999252	0.00000000	40.64345000	22.47785000
128.99999251	0.00000000	41.06791000	22.14567000
129.19999250	0.00000000	41.11097000	22.10261000
129.39999249	0.00000000	41.06791000	22.10261000
129.59999248	0.00000000	40.64345000	22.10261000
129.79999246	0.00000000	39.53002000	22.10261000
129.99999245	0.00000000	38.41658000	22.10261000
130.19999244	0.00000000	37.99213000	22.10261000
130.39999243	0.00000000	37.94907000	22.10261000
130.59999242	0.00000000	37.99213000	22.14567000
130.79999241	0.00000000	38.41658000	22.52091000
130.99999239	0.00000000	39.53002000	23.21604000
131.19999238	0.00000000	40.64345000	23.21604000
131.39999237	0.00000000	41.06791000	22.52091000
131.59999236	0.00000000	41.06791000	22.10261000
131.79999235	0.00000000	40.69267000	21.68430000
131.99999233	0.00000000	39.94832000	20.94611000
132.19999232	0.00000000	39.57308000	20.62008000
132.39999231	0.00000000	39.53002000	20.94611000
132.59999230	0.00000000	39.48696000	21.68430000
132.79999229	0.00000000	39.15477000	22.10261000
132.99999227	0.00000000	38.78568000	22.52091000
133.19999226	0.00000000	39.15477000	23.26525000
133.39999225	0.00000000	39.48696000	23.64050000
133.59999224	0.00000000	39.53002000	23.68356000
133.79999223	0.00000000	39.53002000	23.64050000
133.99999222	0.00000000	39.53002000	23.26525000
134.19999220	0.00000000	39.53002000	22.47785000
134.39999219	0.00000000	39.53002000	21.72736000
134.59999218	0.00000000	39.57308000	20.94611000
134.79999217	0.00000000	39.94832000	20.57087000
134.99999216	0.00000000	40.69267000	20.52780000
135.19999214	0.00000000	41.01870000	20.57087000
135.39999213	0.00000000	40.69267000	20.94611000
135.59999212	0.00000000	39.94832000	21.72736000
135.79999211	0.00000000	39.53002000	22.47785000
135.99999210	0.00000000	39.11171000	23.26525000
136.19999208	0.00000000	38.36737000	23.64050000
136.39999207	0.00000000	37.99213000	23.68356000
136.59999206	0.00000000	37.99213000	23.64050000
136.79999205	0.00000000	38.36737000	23.26525000
136.99999204	0.00000000	39.15477000	22.52091000
137.19999203	0.00000000	39.90526000	22.10261000
137.39999201	0.00000000	40.69267000	21.68430000
137.59999200	0.00000000	41.06791000	20.94611000
137.79999199	0.00000000	41.06791000	20.57087000
137.99999198	0.00000000	40.69267000	20.52780000
138.19999197	0.00000000	39.94832000	20.57087000
138.39999195	0.00000000	39.53002000	20.94611000
138.59999194	0.00000000	39.11171000	21.68430000
138.79999193	0.00000000	38.36737000	22.10261000
138.99999192	0.00000000	38.04134000	22.52091000
139.19999191	0.00000000	38.36737000	23.26525000
139.39999189	0.00000000	39.11171000	23.64050000
139.59999188	0.00000000	39.53002000	23.68356000
139.79999187	0.00000000	39.94832000	23.64050000
139.99999186	0.00000000	40.69267000	23.26525000
140.19999185	0.00000000	41.01870000	22.47785000
140.39999184	0.00000000	40.69267000	21.72736000
140.59999182	0.00000000	39.94832000	20.94611000
140.79999181	0.00000000	39.57308000	20.62008000
140.99999180	0.00000000	39.53002000	20.94611000
141.19999179	0.00000000	39.53002000	21.68430000
141.39999178	0.00000000	39.53002000	22.05955000
141.59999176	0.00000000	39.53002000	22.14567000
141.79999175	0.00000000	39.53002000	22.52091000
141.99999174	0.00000000	39.57308000	23.26525000
142.19999173	0.00000000	39.90526000	23.64050000
142.39999172	0.00000000	40.27436000	23.64050000
142.59999170	0.00000000	39.90526000	23.26525000
142.79999169	0.00000000	39.57308000	22.52091000
142.99999168	0.00000000	39.53002000	22.10261000
143.19999167	0.00000000	39.53002000	21.68430000
143.39999166	0.00000000	39.53002000	20.94611000
143.59999165	0.00000000	39.53002000	20.57087000
143.79999163	0.00000000	39.57308000	20.57087000
143.99999162	0.00000000	39.94832000	20.94611000
144.19999161	0.00000000	40.69267000	21.72736000
144.39999160	0.00000000	41.06791000	22.47785000
144.59999159	0.00000000	41.11097000	23.26525000
144.79999157	0.00000000	41.06791000	23.64050000
144.99999156	0.00000000	40.69267000	23.68356000
145.19999155	0.00000000	39.94832000	23.64050000
145.39999154	0.00000000	39.57308000	23.26525000
145.59999153	0.00000000	39.53002000	22.52091000
145.79999151	0.00000000	39.53002000	22.14567000
145.99999150	0.00000000	39.53002000	22.10261000
146.19999149	0.00000000	39.53002000	22.10261000
146.39999148	0.00000000	39.57308000	22.10261000
146.59999147	0.00000000	39.94832000	22.10261000
146.79999146	0.00000000	40.69267000	22.14567000
146.99999144	0.00000000	41.06791000	22.52091000
147.19999143	0.00000000	41.11097000	23.26525000
147.39999142	0.00000000	41.06791000	23.64050000
147.59999141	0.00000000	40.69267000	23.68356000
147.79999140	0.00000000	39.94832000	23.68356000
147.99999138	0.00000000	39.57308000	23.68356000
148.19999137	0.00000000	39.53002000	23.64050000
148.39999136	0.00000000	39.53002000	23.26525000
148.59999135	0.00000000	39.53002000	22.52091000
148.79999134	0.00000000	39.57308000	22.14567000
148.99999132	0.00000000	39.94832000	22.10261000
149.19999131	0.00000000	40.69267000	22.10261000
149.39999130	0.00000000	41.06791000	22.10261000
149.59999129	0.00000000	41.11097000	22.14567000
149.79999128	0.00000000	41.11097000	22.52091000
149.99999127	0.00000000	41.11097000	23.26525000
150.19999125	0.00000000	41.11097000	23.64050000
150.39999124	-0.15871060	41.06791000	23.68356000
150.59999123	0.00000000	40.69267000	23.68356000
150.79999122	0.00000000	39.99754000	23.68356000
150.99999121	0.00000000	39.94832000	23.68356000
151.19999119	0.00000000	40.27436000	23.68356000
151.39999118	0.00000000	39.94832000	23.64050000
151.59999117	0.00000000	39.99754000	23.26525000
151.79999116	0.00000000	40.69267000	22.52091000
151.99999115	0.00000000	41.06791000	22.14567000
152.19999113	0.00000000	41.15403000	22.05955000
152.39999112	0.00000000	41.48622000	21.72736000
152.59999111	0.00000000	41.85531000	21.36442000
152.79999110	0.00000000	41.48622000	21.72736000
152.99999109	0.00000000	41.15403000	22.05955000
153.19999108	0.00000000	41.11097000	22.10261000
153.39999106	-0.15871060	41.06791000	22.10261000
153.59999105	0.00000000	40.69267000	22.10261000
153.79999104	0.00000000	39.90526000	22.10261000
153.99999103	-0.15871060	39.19783000	22.14567000
154.19999102	0.00000000	38.78568000	22.47785000
154.39999100	0.00000000	39.15477000	22.84695000
154.59999099	0.00000000	39.53002000	22.47785000
154.79999098	0.00000000	39.94832000	22.14567000
154.99999097	0.00000000	40.69267000	22.10261000
155.19999096	0.00000000	41.11097000	22.10261000
155.39999094	0.00000000	41.48622000	22.10261000
155.59999093	0.00000000	41.85531000	22.10261000
155.79999092	0.00000000	41.48622000	22.10261000
155.99999091	0.00000000	41.11097000	22.14567000
156.19999090	0.00000000	40.69267000	22.52091000
156.39999089	0.00000000	39.94832000	23.26525000
156.59999087	0.00000000	39.57308000	23.64050000
156.79999086	0.00000000	39.53002000	23.68356000
156.99999085	0.00000000	39.53002000	23.68356000
157.19999084	0.00000000	39.53002000	23.68356000
157.39999083	0.00000000	39.57308000	23.64050000
157.59999081	0.00000000	39.94832000	23.26525000
157.79999080	0.00000000	40.69267000	22.52091000
157.99999079	0.00000000	41.06791000	22.14567000
158.19999078	0.00000000	41.11097000	22.10261000
158.39999077	0.00000000	41.11097000	22.10261000
158.59999075	0.00000000	41.11097000	22.14567000
158.79999074	0.00000000	41.11097000	22.52091000
158.99999073	0.00000000	41.11097000	23.26525000
159.19999072	0.00000000	41.11097000	23.64050000
159.39999071	0.00000000	41.11097000	23.68356000
159.59999070	0.00000000	41.11097000	23.68356000
159.79999068	0.00000000	41.06791000	23.64050000
159.99999067	0.00000000	40.73573000	23.30832000
160.19999066	0.00000000	40.36663000	22.89616000
160.39999065	0.00000000	40.73573000	22.89001000
160.59999064	0.00000000	41.06791000	22.47785000
160.79999062	0.00000000	41.11097000	22.14567000
160.99999061	0.00000000	41.11097000	22.10261000
161.19999060	0.00000000	41.11097000	22.10261000
161.39999059	0.00000000	41.11097000	22.10261000
161.59999058	0.00000000	41.11097000	22.10261000
161.79999056	0.00000000	41.11097000	22.14567000
161.99999055	0.00000000	41.11097000	22.52091000
162.19999054	0.00000000	41.11097000	23.26525000
162.39999053	0.00000000	41.06791000	23.64050000
162.59999052	0.00000000	40.69267000	23.68356000
162.79999051	0.00000000	39.99754000	23.68356000
162.99999049	0.00000000	39.94832000	23.68356000
163.19999048	0.00000000	40.27436000	23.68356000
163.39999047	0.00000000	39.94832000	23.68356000
163.59999046	0.00000000	39.99754000	23.64050000
163.79999045	0.00000000	40.69267000	23.26525000
163.99999043	0.00000000	41.06791000	22.52091000
164.19999042	0.00000000	41.11097000	22.14567000
164.39999041	0.00000000	41.15403000	22.10261000
164.59999040	0.00000000	41.52928000	22.10261000
164.79999039	0.00000000	42.22441000	22.10261000
164.99999037	0.00000000	42.22441000	22.10261000
165.19999036	0.00000000	41.52928000	22.14567000
165.39999035	0.00000000	41.15403000	22.52091000
165.59999034	0.00000000	41.11097000	23.26525000
165.79999033	0.00000000	41.06791000	23.64050000
165.99999032	0.00000000	40.73573000	23.68356000
166.19999030	0.00000000	40.36663000	23.68356000
166.39999029	0.00000000	40.73573000	23.68356000
166.59999028	0.00000000	41.06791000	23.64050000
166.79999027	0.00000000	41.11097000	23.26525000
166.99999026	0.00000000	41.11097000	22.52091000
167.19999024	0.00000000	41.11097000	22.14567000
167.39999023	0.00000000	41.15403000	22.10261000
167.59999022	0.00000000	41.52928000	22.10261000
167.79999021	-0.15871060	42.27362000	22.14567000
167.99999020	0.00000000	42.55659000	22.47785000
168.19999018	0.00000000	41.89838000	22.89001000
168.39999017	0.00000000	40.79109000	22.89616000
168.59999016	0.00000000	40.77879000	23.26525000
168.79999015	0.00000000	41.06791000	23.26525000
168.99999014	-0.15871060	41.11097000	22.93922000
169.19999013	0.00000000	41.11097000	23.26525000
169.39999011	0.00000000	41.11097000	23.26525000
169.59999010	0.00000000	41.11097000	22.89616000
169.79999009	0.00000000	41.11097000	22.89001000
169.99999008	0.00000000	41.11097000	22.47785000
170.19999007	0.00000000	41.11097000	22.14567000
170.39999005	0.00000000	41.11097000	22.10261000
170.59999004	0.00000000	41.15403000	22.10261000
170.79999003	0.00000000	41.48622000	22.10261000
170.99999002	0.00000000	41.85531000	22.10261000
171.19999001	0.00000000	41.48622000	22.10261000
171.39998999	0.00000000	41.15403000	22.10261000
171.59998998	0.00000000	41.11097000	22.10261000
171.79998997	0.00000000	41.11097000	22.10261000
171.99998996	0.00000000	41.11097000	22.10261000
172.19998995	0.00000000	41.11097000	22.10261000
172.39998994	0.00000000	41.11097000	22.10261000
172.59998992	0.00000000	41.11097000	22.10261000
172.79998991	0.00000000	41.11097000	22.14567000
172.99998990	0.00000000	41.11097000	22.47785000
173.19998989	0.00000000	41.11097000	22.84695000
173.39998988	0.00000000	41.11097000	22.47785000
173.59998986	0.00000000	41.11097000	22.14567000
173.79998985	0.00000000	41.11097000	22.10261000
173.99998984	0.00000000	41.11097000	22.10261000
174.19998983	0.00000000	41.11097000	22.14567000
174.39998982	0.00000000	41.11097000	22.47785000
174.59998980	0.00000000	41.11097000	22.84695000
174.79998979	0.00000000	41.11097000	22.47785000
174.99998978	0.00000000	41.11097000	22.14567000
175.19998977	0.00000000	41.11097000	22.14567000
175.39998976	0.00000000	41.11097000	22.47785000
175.59998975	0.00000000	41.11097000	22.89001000
175.79998973	0.00000000	41.11097000	22.89616000
175.99998972	0.00000000	41.11097000	23.30832000
176.19998971	0.00000000	41.11097000	23.64050000
176.39998970	0.00000000	41.11097000	23.68356000
176.59998969	0.00000000	41.15403000	23.68356000
176.79998967	0.00000000	41.48622000	23.68356000
176.99998966	0.00000000	41.89838000	23.64050000
177.19998965	0.00000000	41.86147000	23.30832000
177.39998964	0.00000000	41.89838000	22.93922000
177.59998963	0.00000000	41.48622000	23.30832000
177.79998961	0.00000000	41.15403000	23.64050000
177.99998960	0.00000000	41.15403000	23.68356000
178.19998959	0.00000000	41.52928000	23.68356000
178.39998958	0.00000000	42.27362000	23.68356000
178.59998957	0.00000000	42.64886000	23.68356000
178.79998956	0.00000000	42.69193000	23.68356000
178.99998954	0.00000000	42.69193000	23.68356000
179.19998953	0.00000000	42.69193000	23.68356000
179.39998952	0.00000000	42.69193000	23.68356000
179.59998951	0.00000000	42.69193000	23.68356000
179.79998950	0.00000000	42.69193000	23.68356000
179.99998948	0.00000000	42.69193000	23.68356000
180.19998947	0.00000000	42.69193000	23.68356000
180.39998946	0.00000000	42.69193000	23.68356000
180.59998945	0.00000000	42.64886000	23.68356000
180.79998944	0.00000000	42.27362000	23.68356000
180.99998942	0.00000000	41.52928000	23.68356000
181.19998941	0.00000000	41.20325000	23.68356000
181.39998940	0.00000000	41.52928000	23.68356000
181.59998939	0.00000000	42.22441000	23.68356000
181.79998938	0.00000000	42.27362000	23.68356000
181.99998937	0.00000000	41.94759000	23.68356000
182.19998935	0.00000000	42.31668000	23.64050000
182.39998934	0.00000000	42.64886000	23.26525000
182.59998933	0.00000000	42.69193000	22.52091000
182.79998932	0.00000000	42.64886000	22.14567000
182.99998931	0.00000000	42.27362000	22.10261000
183.19998929	0.00000000	41.57849000	22.10261000
183.39998928	0.00000000	41.57849000	22.10261000
183.59998927	0.00000000	42.22441000	22.14567000
183.79998926	0.00000000	42.27362000	22.57013000
183.99998925	0.00000000	41.94759000	23.64050000
184.19998923	0.00000000	42.27362000	24.37869000
184.39998922	0.00000000	42.27362000	24.05881000
184.59998921	-0.15871060	41.94759000	23.72662000
184.79998920	0.00000000	42.31668000	23.68356000
184.99998919	0.00000000	42.64886000	23.68356000
185.19998918	0.00000000	42.69193000	23.68356000
185.39998916	0.00000000	42.69193000	23.64050000
185.59998915	0.00000000	42.69193000	23.26525000
185.79998914	0.00000000	42.69193000	22.52091000
185.99998913	0.00000000	42.69193000	22.14567000
186.19998912	0.00000000	42.69193000	22.10261000
186.39998910	0.00000000	42.69193000	22.14567000
186.59998909	0.00000000	42.64886000	22.47785000
186.79998908	0.00000000	42.31668000	22.89001000
186.99998907	0.00000000	41.94759000	22.89616000
187.19998906	0.00000000	42.27362000	23.30832000
187.39998904	0.00000000	42.22441000	23.64050000
187.59998903	0.00000000	41.57849000	23.68356000
187.79998902	0.00000000	41.57849000	23.68356000
187.99998901	0.00000000	42.27362000	23.68356000
188.19998900	0.00000000	42.64886000	23.64050000
188.39998899	0.00000000	42.69193000	23.26525000
188.59998897	0.00000000	42.69193000	22.52091000
188.79998896	0.00000000	42.69193000	22.14567000
188.99998895	0.00000000	42.69193000	22.10261000
189.19998894	0.00000000	42.69193000	22.14567000
189.39998893	0.00000000	42.69193000	22.52091000
189.59998891	0.00000000	42.69193000	23.26525000
189.79998890	0.00000000	42.69193000	23.64050000
189.99998889	0.00000000	42.69193000	23.68356000
190.19998888	0.00000000	42.69193000	23.68356000
190.39998887	0.00000000	42.69193000	23.68356000
190.59998885	-0.15871060	42.69193000	23.68356000
190.79998884	0.00000000	42.69193000	23.68356000
190.99998883	0.00000000	42.69193000	23.68356000
191.19998882	0.00000000	42.69193000	23.68356000
191.39998881	0.00000000	42.69193000	23.68356000
191.59998880	0.00000000	42.69193000	23.68356000
191.79998878	0.00000000	42.64886000	23.64050000
191.99998877	0.00000000	42.31668000	23.30832000
192.19998876	0.00000000	41.94759000	22.93922000
192.39998875	0.00000000	42.31668000	23.30832000
192.59998874	0.00000000	42.64886000	23.64050000
192.79998872	-0.15871060	42.69193000	23.68356000
192.99998871	0.00000000	42.69193000	23.68356000
193.19998870	0.00000000	42.69193000	23.68356000
193.39998869	0.00000000	42.69193000	23.68356000
193.59998868	0.00000000	42.69193000	23.68356000
193.79998866	0.00000000	42.69193000	23.68356000
193.99998865	0.00000000	42.69193000	23.68356000
194.19998864	0.00000000	42.69193000	23.68356000
194.39998863	0.00000000	42.69193000	23.68356000
194.59998862	0.00000000	42.69193000	23.68356000
194.79998861	0.00000000	42.69193000	23.68356000
194.99998859	0.00000000	42.69193000	23.68356000
195.19998858	0.00000000	42.69193000	23.68356000
195.39998857	0.00000000	42.69193000	23.68356000
195.59998856	0.00000000	42.69193000	23.68356000
195.79998855	-0.15871060	42.69193000	23.68356000
195.99998853	0.00000000	42.69193000	23.68356000
