Time	Channel A	Channel B	Channel C
(us)	(V)	(mV)	(mV)

-4.59999956	0.00000000	47.43479000	25.26452000
-4.39999957	0.00000000	47.43479000	25.26452000
-4.19999958	0.00000000	47.43479000	25.26452000
-3.99999959	0.00000000	47.43479000	25.26452000
-3.79999960	0.00000000	47.43479000	25.26452000
-3.59999962	0.00000000	47.43479000	25.26452000
-3.39999963	0.00000000	47.43479000	25.26452000
-3.19999964	0.00000000	47.43479000	25.26452000
-2.99999965	0.00000000	47.43479000	25.26452000
-2.79999966	0.00000000	47.39173000	25.26452000
-2.59999968	0.00000000	47.05954000	25.26452000
-2.39999969	0.00000000	46.69045000	25.26452000
-2.19999970	0.00000000	47.05954000	25.26452000
-1.99999971	0.00000000	47.39173000	25.26452000
-1.79999972	0.00000000	47.43479000	25.26452000
-1.59999973	0.00000000	47.43479000	25.26452000
-1.39999975	0.00000000	47.43479000	25.26452000
-1.19999976	0.00000000	47.43479000	25.26452000
-0.99999977	0.00000000	47.43479000	25.26452000
-0.79999978	0.00000000	47.43479000	25.26452000
-0.59999979	0.00000000	47.43479000	25.26452000
-0.39999981	0.15871060	47.43479000	25.26452000
-0.19999982	0.47736220	47.43479000	25.26452000
0.00000017	0.79601380	47.43479000	25.26452000
0.20000016	0.95533960	47.43479000	25.26452000
0.40000015	0.95533960	47.43479000	25.26452000
0.60000013	0.47736220	47.43479000	25.26452000
0.80000012	-0.31803640	47.43479000	25.26452000
1.00000011	-1.27399100	47.43479000	25.26452000
1.20000010	-2.22994600	47.43479000	25.26452000
1.40000009	-2.70792300	47.43479000	25.26452000
1.60000008	-2.54859700	47.43479000	25.26452000
1.80000006	-1.59264300	47.43479000	25.26452000
2.00000005	0.00000000	47.43479000	25.26452000
2.20000004	2.07062000	47.43479000	25.26452000
2.40000003	4.14124000	47.43479000	25.22145000
2.60000002	5.25652100	47.43479000	24.84621000
2.80000000	5.09719500	47.43479000	24.10187000
2.99999999	3.50393700	47.43479000	23.72662000
3.19999998	0.63668800	47.43479000	23.72662000
3.39999997	-2.86724900	47.43479000	24.10187000
3.59999996	-5.89382400	47.43479000	24.84621000
3.79999994	-7.80511800	47.43479000	25.22145000
3.99999993	-7.80511800	47.43479000	25.26452000
4.19999992	-5.73449800	47.43479000	25.30758000
4.39999991	-2.07062000	47.43479000	25.63976000
4.59999990	2.38927200	47.43479000	26.00270000
4.79999989	6.37180100	47.43479000	25.63976000
4.99999987	9.07972400	47.43479000	25.30758000
5.19999986	9.23905000	47.43479000	25.22145000
5.39999985	7.32714100	47.43479000	24.84621000
5.59999984	3.34522600	47.43479000	24.10187000
5.79999983	-1.43331700	47.43479000	23.72662000
5.99999981	-5.73449800	47.43479000	23.72662000
6.19999980	-8.76107300	47.43479000	24.10187000
6.39999979	-9.55770200	47.43479000	24.84621000
6.59999978	-7.80511800	47.43479000	25.26452000
6.79999977	-4.30056600	47.43479000	25.63976000
6.99999975	0.00000000	47.43479000	26.00270000
7.19999974	3.98191400	47.43479000	25.63976000
7.39999973	6.84916400	47.43479000	25.30758000
7.59999972	7.64579200	47.43479000	25.26452000
7.79999971	6.69045300	47.43479000	25.26452000
7.99999970	4.14124000	47.43479000	25.26452000
8.19999968	0.79601380	47.43479000	25.26452000
8.39999967	-2.22994600	47.43479000	25.26452000
8.59999966	-4.45989200	47.43479000	25.30758000
8.79999965	-5.25652100	47.43479000	25.68282000
8.99999964	-4.61921700	47.43479000	26.42101000
9.19999962	-3.18590100	47.43479000	26.74705000
9.39999961	-1.11466500	47.43479000	26.42101000
9.59999960	0.79601380	47.43479000	25.72589000
9.79999959	2.07062000	47.43479000	25.68282000
9.99999958	2.54859700	47.43479000	26.00270000
10.19999956	2.38927200	47.43479000	25.63976000
10.39999955	1.59264300	47.43479000	25.30758000
10.59999954	0.63668800	47.43479000	25.26452000
10.79999953	-0.15871060	47.43479000	25.26452000
10.99999952	-0.63668800	47.43479000	25.26452000
11.19999951	-0.95533960	47.43479000	25.26452000
11.39999949	-0.95533960	47.43479000	25.26452000
11.59999948	-0.79601380	47.43479000	25.26452000
11.79999947	-0.47736220	47.43479000	25.26452000
11.99999946	-0.31803640	47.43479000	25.26452000
12.19999945	-0.15871060	47.43479000	25.26452000
12.39999943	-0.15871060	47.43479000	25.26452000
12.59999942	0.00000000	47.43479000	25.26452000
12.79999941	0.00000000	47.43479000	25.26452000
12.99999940	0.00000000	47.47785000	25.26452000
13.19999939	0.00000000	47.81004000	25.26452000
13.39999937	0.00000000	48.17913000	25.26452000
13.59999936	0.00000000	47.81004000	25.26452000
13.79999935	-0.15871060	47.47785000	25.26452000
13.99999934	-0.15871060	47.43479000	25.26452000
14.19999933	-0.15871060	47.43479000	25.26452000
14.39999932	-0.15871060	47.43479000	25.26452000
14.59999930	-0.15871060	47.43479000	25.26452000
14.79999929	0.00000000	47.43479000	25.26452000
14.99999928	0.00000000	47.43479000	25.26452000
15.19999927	0.00000000	47.43479000	25.26452000
15.39999926	0.00000000	47.43479000	25.26452000
15.59999924	0.00000000	47.43479000	25.26452000
15.79999923	0.00000000	47.43479000	25.26452000
15.99999922	0.00000000	47.43479000	25.26452000
16.19999921	0.00000000	47.47785000	25.26452000
16.39999920	-0.15871060	47.85310000	25.26452000
16.59999919	-0.15871060	48.59744000	25.26452000
16.79999917	-0.15871060	48.97269000	25.26452000
16.99999916	-0.15871060	49.05881000	25.26452000
17.19999915	0.00000000	49.39099000	25.26452000
17.39999914	0.00000000	49.76009000	25.26452000
17.59999913	0.00000000	49.39099000	25.26452000
17.79999911	0.00000000	49.01575000	25.26452000
17.99999910	0.00000000	48.50517000	25.26452000
18.19999909	0.00000000	46.96727000	25.26452000
18.39999908	0.00000000	44.74040000	25.26452000
18.59999907	0.00000000	43.20251000	25.26452000
18.79999905	-0.15871060	42.78420000	25.26452000
18.99999904	-0.15871060	43.15945000	25.26452000
19.19999903	0.00000000	44.36515000	25.26452000
19.39999902	0.00000000	46.40748000	25.26452000
19.59999901	0.00000000	49.90157000	25.26452000
19.79999900	0.00000000	54.45374000	25.26452000
19.99999898	0.00000000	57.90477000	25.26452000
20.19999897	0.00000000	59.48573000	25.26452000
20.39999896	0.00000000	58.97515000	25.26452000
20.59999895	0.00000000	55.43799000	25.26452000
20.79999894	-0.15871060	48.88041000	25.26452000
20.99999892	-0.15871060	41.15403000	25.26452000
21.19999891	0.00000000	33.80290000	25.26452000
21.39999890	-0.15871060	28.45103000	25.26452000
21.59999889	0.00000000	26.95620000	25.26452000
21.79999888	0.00000000	30.12426000	25.22145000
21.99999886	0.00000000	37.94291000	24.88927000
22.19999885	0.00000000	49.52633000	24.52018000
22.39999884	0.00000000	62.27239000	24.88927000
22.59999883	0.00000000	73.07455000	25.22145000
22.79999882	0.00000000	79.53986000	25.26452000
22.99999881	0.00000000	79.02928000	25.30758000
23.19999879	-0.15871060	70.47243000	25.68282000
23.39999878	0.00000000	55.43799000	26.42101000
23.59999877	0.00000000	37.25394000	26.79626000
23.79999876	-0.15871060	20.30635000	26.83932000
23.99999875	0.00000000	8.35383800	26.79626000
24.19999873	0.00000000	4.99507900	26.37795000
24.39999872	0.00000000	11.60802000	25.26452000
24.59999871	0.00000000	27.47293000	24.10187000
24.79999870	0.00000000	49.05881000	23.26525000
24.99999869	0.00000000	71.11835000	22.10261000
25.19999867	0.00000000	88.89025000	21.03838000
25.39999866	0.00000000	98.47440000	21.08145000
25.59999865	-0.15871060	96.85039000	22.61319000
25.79999864	0.00000000	83.67986000	25.35064000
25.99999863	0.00000000	61.71875000	28.83858000
26.19999862	0.00000000	36.26968000	32.68946000
26.39999860	0.00000000	13.84104000	35.75910000
26.59999859	0.00000000	-0.86122040	37.29700000
26.79999858	0.00000000	-4.67519700	36.82948000
26.99999857	0.00000000	3.83858300	33.67372000
27.19999856	0.00000000	22.68085000	27.86663000
27.39999854	0.00000000	47.01648000	20.52780000
27.59999853	-0.15871060	70.98302000	13.18282000
27.79999852	0.00000000	89.54231000	7.46801100
27.99999851	0.00000000	98.43134000	5.23499000
28.19999850	-0.15871060	95.82307000	7.97244000
28.39999848	0.00000000	83.12007000	15.31742000
28.59999847	0.00000000	63.76107000	25.77510000
28.79999846	0.00000000	41.75689000	37.38312000
28.99999845	0.00000000	22.07800000	47.74852000
29.19999844	-0.15871060	9.65182000	54.25689000
29.39999843	0.00000000	6.44685000	54.58292000
29.59999841	0.00000000	12.16781000	48.44980000
29.79999840	0.00000000	24.91388000	37.16166000
29.99999839	0.00000000	41.57234000	22.84695000
30.19999838	0.00000000	58.97515000	7.79404500
30.39999837	0.00000000	73.25910000	-4.09694900
30.59999835	0.00000000	81.07775000	-9.90403500
30.79999834	0.00000000	81.58218000	-8.32308000
30.99999833	0.00000000	75.76894000	0.59670270
31.19999832	0.00000000	64.92371000	15.27436000
31.39999831	0.00000000	51.06422000	32.64640000
31.59999829	0.00000000	37.89370000	48.86811000
31.79999828	0.00000000	28.16806000	60.43307000
31.99999827	0.00000000	23.05610000	64.65919000
32.19999826	0.00000000	23.46826000	60.43307000
32.39999825	0.00000000	28.86934000	48.91117000
32.59999824	0.00000000	38.50270000	33.02165000
32.79999822	0.00000000	49.62475000	15.96949000
32.99999821	0.00000000	58.97515000	0.50442900
33.19999820	0.00000000	65.25590000	-9.86097400
33.39999819	0.00000000	67.90723000	-12.59842000
33.59999818	0.00000000	66.00024000	-7.20964500
33.79999816	0.00000000	59.90403000	4.73056000
33.99999815	0.00000000	52.22071000	20.57087000
34.19999814	0.00000000	44.78346000	36.78642000
34.39999813	0.00000000	38.63804000	49.98154000
34.59999812	0.00000000	35.15010000	57.69562000
34.79999810	0.00000000	35.51919000	58.48302000
34.99999809	0.00000000	38.92101000	51.93774000
35.19999808	0.00000000	44.36515000	39.99138000
35.39999807	0.00000000	50.46136000	25.30758000
35.59999806	0.00000000	55.48105000	11.09129000
35.79999805	0.00000000	57.81250000	1.05807100
35.99999803	0.00000000	57.48031000	-2.47293300
36.19999802	0.00000000	54.74286000	0.59055110
36.39999801	0.00000000	50.17839000	9.41806000
36.59999800	0.00000000	45.20177000	21.72736000
36.79999799	0.00000000	41.70767000	34.00591000
36.99999797	0.00000000	40.12672000	43.24557000
37.19999796	0.00000000	40.55118000	46.73351000
37.39999795	0.00000000	43.24557000	44.13140000
37.59999794	0.00000000	47.47785000	36.82948000
37.79999793	0.00000000	52.08538000	26.88238000
37.99999791	0.00000000	55.94857000	17.26747000
38.19999790	0.00000000	57.85556000	10.75910000
38.39999789	0.00000000	57.48031000	8.85826700
38.59999788	0.00000000	54.78592000	12.66609000
38.79999787	0.00000000	50.59670000	20.66314000
38.99999786	0.00000000	46.32135000	29.86589000
39.19999784	-0.15871060	42.78420000	37.94907000
39.39999783	0.00000000	40.08366000	42.50738000
39.59999782	-0.15871060	38.97022000	42.08292000
39.79999781	0.00000000	40.08366000	36.36811000
39.99999780	0.00000000	42.78420000	27.17150000
40.19999778	0.00000000	46.32135000	17.59350000
40.39999777	0.00000000	50.59670000	9.92864100
40.59999776	0.00000000	54.82898000	6.85900500
40.79999775	0.00000000	57.90477000	9.13508800
40.99999774	0.00000000	59.06127000	15.69267000
41.19999772	0.00000000	57.94783000	25.30758000
41.39999771	0.00000000	55.24729000	35.20546000
41.59999770	0.00000000	51.71013000	42.17519000
41.79999769	0.00000000	47.47785000	44.54970000
41.99999768	0.00000000	43.66388000	42.63656000
42.19999767	0.00000000	41.62155000	36.82948000
42.39999765	0.00000000	40.87106000	28.42027000
42.59999764	0.00000000	41.25246000	19.96186000
42.79999763	0.00000000	43.56545000	13.78568000
42.99999762	0.00000000	46.22908000	11.04208000
43.19999761	0.00000000	49.01575000	12.15551000
43.39999759	0.00000000	51.66707000	16.33858000
43.59999758	0.00000000	53.24803000	22.14567000
43.79999757	0.00000000	53.66634000	28.32800000
43.99999756	0.00000000	53.29109000	33.67372000
44.19999755	0.00000000	52.17765000	36.41117000
44.39999753	0.00000000	51.06422000	36.09129000
44.59999752	0.00000000	50.68897000	33.80905000
44.79999751	0.00000000	50.97194000	29.95817000
44.99999750	0.00000000	51.34104000	25.77510000
45.19999749	0.00000000	50.87967000	22.61319000
45.39999748	0.00000000	49.71087000	20.66314000
45.59999746	0.00000000	47.39173000	19.87574000
45.79999745	0.00000000	44.69119000	20.66314000
45.99999744	0.00000000	42.31668000	22.57013000
46.19999743	0.00000000	40.08366000	25.26452000
46.39999742	0.00000000	39.38853000	27.90969000
46.59999740	0.00000000	41.33858000	29.49065000
46.79999739	0.00000000	45.24483000	29.90895000
46.99999738	0.00000000	51.06422000	29.53371000
47.19999737	0.00000000	57.57259000	28.37721000
47.39999736	0.00000000	62.55536000	26.79626000
47.59999734	0.00000000	64.87450000	24.84621000
47.79999733	0.00000000	63.66880000	22.57013000
47.99999732	0.00000000	58.97515000	21.03838000
48.19999731	0.00000000	51.24877000	20.66314000
48.39999730	-0.15871060	42.03986000	21.40748000
48.59999729	0.00000000	34.35654000	23.35753000
48.79999727	0.00000000	30.11811000	25.68282000
48.99999726	0.00000000	30.49951000	28.42027000
49.19999725	0.00000000	35.51919000	31.06545000
49.39999724	0.00000000	43.62082000	32.60334000
49.59999723	0.00000000	53.29109000	32.56028000
49.79999721	0.00000000	62.09399000	30.64714000
49.99999720	0.00000000	67.48892000	27.17150000
50.19999719	0.00000000	67.90723000	23.35138000
50.39999718	0.00000000	63.71801000	19.87574000
50.59999717	0.00000000	56.36687000	17.96260000
50.79999715	0.00000000	47.47785000	17.91953000
50.99999714	0.00000000	39.01329000	19.50049000
51.19999713	0.00000000	33.28617000	22.57013000
51.39999712	0.00000000	32.12352000	26.42101000
51.59999711	0.00000000	35.93750000	29.95201000
51.79999710	0.00000000	43.20251000	33.02165000
51.99999708	0.00000000	51.66707000	34.87943000
52.19999707	0.00000000	58.97515000	34.13509000
52.39999706	0.00000000	63.20743000	31.44069000
52.59999705	0.00000000	63.25048000	27.62672000
52.79999704	0.00000000	59.43651000	23.40674000
52.99999702	0.00000000	53.24803000	20.66314000
53.19999701	0.00000000	45.94611000	19.08218000
53.39999700	-0.15871060	39.43159000	18.76230000
53.59999699	0.00000000	36.02977000	20.66314000
53.79999698	0.00000000	36.73720000	23.64050000
53.99999696	0.00000000	41.28937000	26.37795000
54.19999695	0.00000000	47.43479000	28.32800000
54.39999694	0.00000000	53.62328000	29.49065000
54.59999693	0.00000000	58.64296000	29.49065000
54.79999692	0.00000000	60.88213000	28.37721000
54.99999691	0.00000000	59.76255000	26.83932000
55.19999689	0.00000000	55.20423000	25.35064000
55.39999688	0.00000000	49.48326000	24.56939000
55.59999687	0.00000000	44.40821000	24.98154000
55.79999686	0.00000000	40.55118000	26.10113000
55.99999685	0.00000000	39.05635000	28.00197000
56.19999683	0.00000000	40.55118000	29.44759000
56.39999682	0.00000000	44.40821000	29.49065000
56.59999681	0.00000000	49.39099000	28.32800000
56.79999680	0.00000000	54.41068000	26.32874000
56.99999679	0.00000000	57.85556000	23.26525000
57.19999677	0.00000000	59.06127000	19.91880000
57.39999676	0.00000000	57.90477000	18.43012000
57.59999675	0.00000000	54.87204000	19.54355000
57.79999674	0.00000000	51.01501000	22.61319000
57.99999673	0.00000000	47.52707000	26.88238000
58.19999672	0.00000000	44.82652000	31.48376000
58.39999670	0.00000000	43.66388000	35.34079000
58.59999669	0.00000000	44.40821000	37.24778000
58.79999668	0.00000000	46.32135000	36.82948000
58.99999667	0.00000000	49.01575000	33.71678000
59.19999666	0.00000000	51.66707000	28.32800000
59.39999664	0.00000000	53.24803000	22.14567000
59.59999663	0.00000000	53.66634000	16.38164000
59.79999662	0.00000000	53.29109000	12.62303000
59.99999661	0.00000000	52.13459000	12.62303000
60.19999660	0.00000000	50.59670000	16.43085000
60.39999658	0.00000000	49.05881000	22.57013000
60.59999657	0.00000000	47.94537000	29.53371000
60.79999656	0.00000000	47.90231000	35.71604000
60.99999655	0.00000000	48.64050000	39.94832000
61.19999654	0.00000000	49.39099000	41.06176000
61.39999653	0.00000000	50.17839000	38.36737000
61.59999651	0.00000000	50.55364000	32.56028000
61.79999650	0.00000000	50.55364000	24.88927000
61.99999649	0.00000000	50.12918000	17.18135000
62.19999648	0.00000000	49.01575000	11.82948000
62.39999647	0.00000000	47.90231000	9.87942800
62.59999645	0.00000000	47.47785000	12.20472000
62.79999644	0.00000000	47.47785000	17.91953000
62.99999643	0.00000000	47.90231000	25.26452000
63.19999642	0.00000000	49.05881000	32.60334000
63.39999641	0.00000000	50.55364000	38.41043000
63.59999639	0.00000000	51.71013000	41.48006000
63.79999638	0.00000000	52.13459000	41.10482000
63.99999637	0.00000000	52.13459000	37.29700000
64.19999636	0.00000000	51.71013000	31.48991000
64.39999635	0.00000000	50.59670000	24.93233000
64.59999634	0.00000000	49.43405000	18.71309000
64.79999632	0.00000000	48.64050000	14.48081000
64.99999631	0.00000000	47.90231000	12.53076000
65.19999630	0.00000000	47.94537000	13.73647000
65.39999629	0.00000000	49.01575000	17.87647000
65.59999628	0.00000000	50.12918000	23.21604000
65.79999626	0.00000000	50.55364000	27.90969000
65.99999625	0.00000000	50.59670000	31.48991000
66.19999624	0.00000000	50.55364000	34.22736000
66.39999623	0.00000000	50.12918000	35.75910000
66.59999622	0.00000000	49.01575000	35.75910000
66.79999620	0.00000000	47.90231000	34.18430000
66.99999619	0.00000000	47.52707000	31.11466000
67.19999618	0.00000000	47.90231000	27.25763000
67.39999617	0.00000000	49.10802000	23.77584000
67.59999616	0.00000000	51.01501000	20.98917000
67.79999615	0.00000000	53.29109000	19.03912000
67.99999613	0.00000000	54.82898000	17.83341000
68.19999612	0.00000000	55.20423000	17.50123000
68.39999611	0.00000000	54.41068000	18.29478000
68.59999610	0.00000000	52.04232000	20.66314000
68.79999609	0.00000000	48.59744000	24.15108000
68.99999607	0.00000000	44.74040000	28.42027000
69.19999606	0.00000000	41.70767000	32.64640000
69.39999605	0.00000000	40.55118000	35.75910000
69.59999604	0.00000000	41.70767000	37.29700000
69.79999603	0.00000000	44.78346000	36.87869000
69.99999601	0.00000000	49.05881000	34.14124000
70.19999600	0.00000000	53.71555000	29.53371000
70.39999599	0.00000000	57.94783000	24.10187000
70.59999598	0.00000000	60.64222000	19.12524000
70.79999597	0.00000000	61.01746000	15.64960000
70.99999596	0.00000000	59.06127000	14.84990000
71.19999594	0.00000000	54.78592000	16.38779000
71.39999593	0.00000000	49.05881000	19.87574000
71.59999592	0.00000000	43.62082000	24.88927000
71.79999591	0.00000000	39.75763000	29.86589000
71.99999590	0.00000000	37.85064000	33.76599000
72.19999588	0.00000000	39.01329000	35.67298000
72.39999587	0.00000000	42.82726000	35.34079000
72.59999586	0.00000000	47.85310000	33.06471000
72.79999585	0.00000000	53.29109000	30.00123000
72.99999584	0.00000000	57.90477000	26.88853000
73.19999582	0.00000000	60.64222000	24.19414000
73.39999581	0.00000000	61.01746000	22.65625000
73.59999580	0.00000000	59.11048000	22.61319000
73.79999579	0.00000000	55.24729000	23.72662000
73.99999578	0.00000000	50.63976000	25.26452000
74.19999577	0.00000000	46.36442000	26.79626000
74.39999575	0.00000000	43.28863000	27.90969000
74.59999574	0.00000000	42.13213000	27.90969000
74.79999573	0.00000000	43.24557000	26.83932000
74.99999572	0.00000000	45.89690000	25.72589000
75.19999571	0.00000000	48.97269000	25.30758000
75.39999569	0.00000000	51.71013000	25.35679000
75.59999568	0.00000000	53.66634000	26.14419000
75.79999567	0.00000000	54.82898000	28.09424000
75.99999566	0.00000000	54.82898000	30.32726000
76.19999565	0.00000000	53.75861000	32.27731000
76.39999563	0.00000000	52.59596000	32.97859000
76.59999562	0.00000000	51.80241000	32.18504000
76.79999561	0.00000000	51.01501000	29.49065000
76.99999560	0.00000000	50.63976000	25.63976000
77.19999559	-0.15871060	50.59670000	21.77658000
77.39999558	0.00000000	50.59670000	18.33784000
77.59999556	0.00000000	50.55364000	16.84916000
77.79999555	0.00000000	50.17839000	17.96260000
77.99999554	0.00000000	49.39099000	21.03838000
78.19999553	0.00000000	48.64050000	25.30758000
78.39999552	0.00000000	47.90231000	29.95817000
78.59999550	0.00000000	47.94537000	34.18430000
78.79999549	0.00000000	49.05881000	36.82948000
78.99999548	0.00000000	50.63976000	36.87869000
79.19999547	0.00000000	52.55290000	34.60261000
79.39999546	0.00000000	54.45374000	31.11466000
79.59999544	0.00000000	55.24729000	26.79626000
79.79999543	0.00000000	55.24729000	22.19488000
79.99999542	0.00000000	54.41068000	18.38090000
80.19999541	0.00000000	52.08538000	16.80610000
80.39999540	0.00000000	49.05881000	17.50123000
80.59999539	0.00000000	46.36442000	19.40822000
80.79999537	0.00000000	44.82652000	22.19488000
80.99999536	0.00000000	44.78346000	25.63976000
81.19999535	0.00000000	45.94611000	29.11540000
81.39999534	0.00000000	47.90231000	31.44069000
81.59999533	0.00000000	50.59670000	32.68946000
81.79999531	0.00000000	53.29109000	33.06471000
81.99999530	0.00000000	55.20423000	32.64640000
82.19999529	0.00000000	55.99163000	31.06545000
82.39999528	0.00000000	55.20423000	28.42027000
82.59999527	0.00000000	53.34030000	25.68282000
82.79999525	0.00000000	51.01501000	23.30832000
82.99999524	0.00000000	49.05881000	20.98917000
83.19999523	0.00000000	47.52707000	19.45743000
83.39999522	0.00000000	46.78272000	19.03912000
83.59999521	-0.15871060	47.47785000	19.45743000
83.79999520	0.00000000	48.64050000	21.08145000
83.99999518	0.00000000	49.76624000	24.15108000
84.19999517	0.00000000	50.96579000	28.00197000
84.39999516	-0.15871060	51.30413000	31.48991000
84.59999515	0.00000000	51.42716000	34.22736000
84.79999514	0.00000000	51.34719000	35.67298000
84.99999512	0.00000000	51.42716000	34.92249000
85.19999511	0.00000000	51.39025000	31.85900000
85.39999510	0.00000000	51.80241000	28.00197000
85.59999509	0.00000000	52.13459000	23.72662000
85.79999508	0.00000000	52.13459000	19.87574000
85.99999506	0.00000000	51.75935000	17.59350000
86.19999505	0.00000000	50.97194000	17.18135000
86.39999504	0.00000000	50.22145000	19.16830000
86.59999503	0.00000000	49.43405000	22.98843000
86.79999502	0.00000000	49.05881000	28.00197000
86.99999501	0.00000000	49.01575000	32.60334000
87.19999499	0.00000000	49.05881000	35.71604000
87.39999498	0.00000000	49.48326000	36.87254000
87.59999497	0.00000000	50.63976000	35.67298000
87.79999496	0.00000000	52.13459000	32.22810000
87.99999495	0.00000000	53.29109000	27.25763000
88.19999493	0.00000000	53.71555000	22.65625000
88.39999492	0.00000000	53.71555000	19.54355000
88.59999491	0.00000000	53.29109000	18.38706000
88.79999490	0.00000000	52.13459000	19.54355000
88.99999489	0.00000000	50.63976000	22.61319000
89.19999487	0.00000000	49.48326000	26.88238000
89.39999486	0.00000000	49.05881000	31.48376000
89.59999485	0.00000000	49.05881000	35.29773000
89.79999484	0.00000000	49.43405000	36.82948000
89.99999483	0.00000000	50.22145000	35.67298000
90.19999482	0.00000000	50.97194000	32.22810000
90.39999480	0.00000000	51.75935000	27.21457000
90.59999479	0.00000000	52.13459000	22.23794000
90.79999478	0.00000000	52.17765000	18.38090000
90.99999477	0.00000000	52.17765000	16.89222000
91.19999476	0.00000000	52.13459000	18.38090000
91.39999474	0.00000000	51.80241000	22.19488000
91.59999473	0.00000000	51.43332000	26.83932000
91.79999472	0.00000000	51.80241000	31.48376000
91.99999471	0.00000000	52.13459000	35.29773000
92.19999470	0.00000000	52.17765000	36.78642000
92.39999468	0.00000000	52.13459000	35.29773000
92.59999467	0.00000000	51.71013000	31.44069000
92.79999466	0.00000000	50.59670000	26.46407000
92.99999465	0.00000000	49.43405000	21.49975000
93.19999464	0.00000000	48.64050000	18.43012000
93.39999463	0.00000000	47.85310000	17.96260000
93.59999461	0.00000000	47.57013000	19.54355000
93.79999460	0.00000000	48.36368000	23.03149000
93.99999459	0.00000000	50.63976000	27.95275000
94.19999458	0.00000000	53.29109000	32.14198000
94.39999457	0.00000000	55.24729000	34.09203000
94.59999455	0.00000000	56.45300000	33.76599000
94.79999454	0.00000000	56.78519000	31.44069000
94.99999453	0.00000000	55.99163000	28.00197000
95.19999452	0.00000000	53.66634000	24.15108000
95.39999451	0.00000000	50.59670000	21.08145000
95.59999449	0.00000000	47.47785000	19.54355000
95.79999448	0.00000000	44.82652000	19.91880000
95.99999447	0.00000000	43.66388000	22.19488000
96.19999446	0.00000000	44.45127000	25.26452000
96.39999445	0.00000000	46.73966000	28.32800000
96.59999444	0.00000000	50.26451000	30.64714000
96.79999442	0.00000000	54.09079000	31.44069000
96.99999441	0.00000000	57.57259000	31.06545000
97.19999440	-0.15871060	59.48573000	29.53371000
97.39999439	0.00000000	59.52879000	27.25763000
97.59999438	0.00000000	57.99089000	25.30758000
97.79999436	0.00000000	55.24729000	23.77584000
97.99999435	0.00000000	51.75935000	22.98843000
98.19999434	0.00000000	47.90231000	23.35138000
98.39999433	0.00000000	44.82652000	24.10187000
98.59999432	0.00000000	43.24557000	25.26452000
98.79999430	0.00000000	43.28863000	26.42101000
98.99999429	0.00000000	45.20177000	27.21457000
99.19999428	0.00000000	48.64050000	28.00197000
99.39999427	0.00000000	52.13459000	28.37721000
99.59999426	0.00000000	55.29650000	28.42027000
99.79999425	0.00000000	57.94783000	28.42027000
99.99999423	0.00000000	59.11048000	28.46333000
100.19999422	0.00000000	58.36614000	28.79552000
100.39999421	0.00000000	56.45300000	29.16461000
100.59999420	0.00000000	53.71555000	28.75246000
100.79999419	0.00000000	50.63976000	28.00197000
100.99999417	0.00000000	47.90231000	26.79626000
101.19999416	0.00000000	45.98917000	25.26452000
101.39999415	0.00000000	45.20177000	23.72662000
101.59999414	0.00000000	45.94611000	22.65625000
101.79999413	0.00000000	47.47785000	23.03149000
101.99999411	0.00000000	49.43405000	24.93233000
102.19999410	0.00000000	51.80241000	27.25763000
102.39999409	0.00000000	54.09079000	30.00123000
102.59999408	0.00000000	56.03469000	32.64640000
102.79999407	0.00000000	56.78519000	34.14124000
102.99999406	0.00000000	56.45300000	33.80905000
103.19999404	0.00000000	55.24729000	31.90822000
103.39999403	0.00000000	53.34030000	29.58292000
103.59999402	0.00000000	51.01501000	26.79626000
103.79999401	0.00000000	49.10802000	23.77584000
103.99999400	0.00000000	47.90231000	21.49975000
104.19999398	0.00000000	47.52707000	21.08145000
104.39999397	0.00000000	47.90231000	22.19488000
104.59999396	0.00000000	49.05881000	24.14493000
104.79999395	0.00000000	50.59670000	26.88853000
104.99999394	0.00000000	52.17765000	29.90895000
105.19999392	0.00000000	53.71555000	32.18504000
105.39999391	0.00000000	54.82898000	32.60334000
105.59999390	0.00000000	54.82898000	31.48991000
105.79999389	0.00000000	53.71555000	29.53371000
105.99999388	0.00000000	52.22071000	26.88853000
106.19999387	0.00000000	51.06422000	24.61245000
106.39999385	0.00000000	50.63976000	23.77584000
106.59999384	0.00000000	50.59670000	23.72662000
106.79999383	0.00000000	50.63976000	24.15108000
106.99999382	0.00000000	51.06422000	25.35064000
107.19999381	0.00000000	52.17765000	27.21457000
107.39999379	0.00000000	53.29109000	29.11540000
107.59999378	0.00000000	53.71555000	29.90895000
107.79999377	0.00000000	53.71555000	29.90895000
107.99999376	0.00000000	53.29109000	29.11540000
108.19999375	0.00000000	52.17765000	27.21457000
108.39999374	0.00000000	51.01501000	25.35064000
108.59999372	0.00000000	50.26451000	24.15108000
108.79999371	0.00000000	49.85236000	23.77584000
108.99999370	0.00000000	50.26451000	24.15108000
109.19999369	0.00000000	51.01501000	25.30758000
109.39999368	0.00000000	52.17765000	26.83932000
109.59999366	0.00000000	53.29109000	28.37721000
109.79999365	0.00000000	53.71555000	29.53371000
109.99999364	0.00000000	53.75861000	29.90895000
110.19999363	0.00000000	53.71555000	29.53371000
110.39999362	0.00000000	53.34030000	28.37721000
110.59999360	0.00000000	52.55290000	26.88853000
110.79999359	0.00000000	51.80241000	25.68282000
110.99999358	0.00000000	50.97194000	24.88927000
111.19999357	0.00000000	50.26451000	24.15108000
111.39999356	0.00000000	49.85236000	24.15108000
111.59999355	0.00000000	50.26451000	24.88927000
111.79999353	0.00000000	50.97194000	25.63976000
111.99999352	-0.15871060	51.75935000	26.46407000
112.19999351	0.00000000	52.17765000	27.21457000
112.39999350	0.00000000	52.55290000	28.00197000
112.59999349	0.00000000	52.96506000	28.37721000
112.79999347	0.00000000	52.92815000	28.37721000
112.99999346	0.00000000	53.00812000	28.00197000
113.19999345	0.00000000	52.92815000	27.25763000
113.39999344	0.00000000	52.96506000	26.88238000
113.59999343	0.00000000	52.55290000	26.83932000
113.79999341	0.00000000	52.22071000	26.83932000
113.99999340	0.00000000	52.17765000	26.79626000
114.19999339	0.00000000	52.17765000	26.42101000
114.39999338	0.00000000	52.17765000	25.68282000
114.59999337	0.00000000	52.17765000	25.30758000
114.79999336	0.00000000	52.17765000	25.26452000
114.99999334	0.00000000	52.17765000	25.30758000
115.19999333	0.00000000	52.22071000	25.68282000
115.39999332	0.00000000	52.59596000	26.46407000
115.59999331	0.00000000	53.29109000	27.21457000
115.79999330	0.00000000	53.29109000	28.00197000
115.99999328	0.00000000	52.59596000	28.42027000
116.19999327	0.00000000	52.22071000	28.83858000
116.39999326	0.00000000	52.17765000	29.53371000
116.59999325	0.00000000	52.17765000	29.53371000
116.79999324	0.00000000	52.17765000	28.79552000
116.99999322	0.00000000	52.22071000	28.00197000
117.19999321	0.00000000	52.59596000	26.83932000
117.39999320	0.00000000	53.34030000	25.72589000
117.59999319	0.00000000	53.71555000	25.30758000
117.79999318	0.00000000	53.75861000	25.26452000
117.99999317	0.00000000	53.75861000	25.30758000
118.19999315	0.00000000	53.71555000	25.72589000
118.39999314	0.00000000	53.34030000	26.83932000
118.59999313	0.00000000	52.55290000	28.00197000
118.79999312	0.00000000	51.80241000	28.79552000
118.99999311	0.00000000	51.01501000	29.58292000
119.19999309	0.00000000	50.63976000	29.90895000
119.39999308	0.00000000	50.63976000	29.58292000
119.59999307	0.00000000	51.06422000	28.83858000
119.79999306	0.00000000	52.22071000	28.42027000
119.99999305	0.00000000	53.71555000	28.00197000
120.19999303	0.00000000	54.87204000	27.25763000
120.39999302	0.00000000	55.29650000	26.88238000
120.59999301	0.00000000	55.33957000	26.83932000
120.79999300	0.00000000	55.29650000	26.83932000
120.99999299	0.00000000	54.87204000	26.83932000
121.19999298	0.00000000	53.71555000	26.83932000
121.39999296	0.00000000	52.22071000	26.88238000
121.59999295	0.00000000	51.01501000	27.21457000
121.79999294	0.00000000	50.22145000	27.62672000
121.99999293	0.00000000	49.48326000	27.63287000
122.19999292	0.00000000	49.52633000	28.04503000
122.39999290	0.00000000	50.63976000	28.37721000
122.59999289	0.00000000	52.13459000	28.42027000
122.79999288	0.00000000	53.34030000	28.42027000
122.99999287	0.00000000	54.13385000	28.42027000
123.19999286	0.00000000	54.92125000	28.37721000
123.39999284	0.00000000	55.29650000	28.00197000
123.59999283	0.00000000	55.29650000	27.25763000
123.79999282	0.00000000	54.92125000	26.88238000
123.99999281	0.00000000	54.13385000	26.83932000
124.19999280	0.00000000	53.38336000	26.83932000
124.39999279	0.00000000	52.55290000	26.83932000
124.59999277	0.00000000	51.75935000	26.83932000
124.79999276	0.00000000	50.63976000	26.88238000
124.99999275	0.00000000	49.90157000	27.25763000
125.19999274	0.00000000	50.26451000	28.00197000
125.39999273	0.00000000	51.01501000	28.37721000
125.59999271	0.00000000	52.17765000	28.42027000
125.79999270	0.00000000	53.34030000	28.42027000
125.99999269	0.00000000	54.13385000	28.42027000
126.19999268	0.00000000	54.92125000	28.37721000
126.39999267	0.00000000	55.24729000	28.00197000
126.59999265	0.00000000	54.92125000	27.25763000
126.79999264	0.00000000	54.13385000	26.83932000
126.99999263	0.00000000	53.34030000	26.42101000
127.19999262	0.00000000	52.17765000	25.72589000
127.39999261	0.00000000	51.06422000	25.72589000
127.59999260	0.00000000	50.63976000	26.42101000
127.79999258	0.00000000	50.63976000	26.79626000
127.99999257	0.00000000	51.06422000	26.88238000
128.19999256	0.00000000	52.17765000	27.25763000
128.39999255	0.00000000	53.34030000	28.00197000
128.59999254	0.00000000	54.13385000	28.32800000
128.79999252	0.00000000	54.92125000	28.00197000
128.99999251	0.00000000	55.24729000	27.25763000
129.19999250	0.00000000	54.87204000	26.88238000
129.39999249	0.00000000	53.75861000	26.83932000
129.59999248	0.00000000	52.59596000	26.83932000
129.79999246	0.00000000	51.80241000	26.83932000
129.99999245	0.00000000	51.01501000	26.83932000
130.19999244	0.00000000	50.68897000	26.83932000
130.39999243	0.00000000	51.01501000	26.83932000
130.59999242	0.00000000	51.80241000	26.88238000
130.79999241	0.00000000	52.55290000	27.25763000
130.99999239	0.00000000	53.34030000	28.00197000
131.19999238	0.00000000	53.71555000	28.32800000
131.39999237	0.00000000	53.75861000	28.00197000
131.59999236	0.00000000	53.75861000	27.25763000
131.79999235	0.00000000	53.75861000	26.88238000
131.99999233	0.00000000	53.75861000	26.83932000
132.19999232	0.00000000	53.71555000	26.83932000
132.39999231	0.00000000	53.34030000	26.83932000
132.59999230	0.00000000	52.59596000	26.88238000
132.79999229	0.00000000	52.26993000	27.25763000
132.99999227	0.00000000	52.55290000	28.04503000
133.19999226	0.00000000	52.92200000	28.75246000
133.39999225	0.00000000	52.59596000	29.20767000
133.59999224	0.00000000	52.64517000	29.17077000
133.79999223	0.00000000	53.34030000	29.20767000
133.99999222	0.00000000	53.71555000	28.75246000
134.19999220	0.00000000	53.75861000	28.04503000
134.39999219	0.00000000	53.75861000	27.25763000
134.59999218	0.00000000	53.75861000	26.88238000
134.79999217	0.00000000	53.75861000	26.83932000
134.99999216	0.00000000	53.75861000	26.83932000
135.19999214	0.00000000	53.75861000	26.88238000
135.39999213	0.00000000	53.75861000	27.25763000
135.59999212	0.00000000	53.71555000	28.00197000
135.79999211	0.00000000	53.34030000	28.37721000
135.99999210	-0.15871060	52.59596000	28.46333000
136.19999208	0.00000000	52.22071000	28.79552000
136.39999207	0.00000000	52.17765000	29.20767000
136.59999206	0.00000000	52.22071000	29.17077000
136.79999205	0.00000000	52.59596000	29.20767000
136.99999204	0.00000000	53.38336000	28.79552000
137.19999203	0.00000000	54.13385000	28.42027000
137.39999201	0.00000000	54.92125000	28.00197000
137.59999200	0.00000000	55.29650000	27.25763000
137.79999199	0.00000000	55.29650000	26.83932000
137.99999198	0.00000000	54.92125000	26.46407000
138.19999197	0.00000000	54.13385000	26.10113000
138.39999195	0.00000000	53.38336000	26.46407000
138.59999194	0.00000000	52.59596000	26.83932000
138.79999193	0.00000000	52.22071000	27.25763000
138.99999192	0.00000000	52.17765000	28.00197000
139.19999191	0.00000000	52.22071000	28.37721000
139.39999189	0.00000000	52.59596000	28.42027000
139.59999188	-0.15871060	53.34030000	28.42027000
139.79999187	0.00000000	53.75861000	28.37721000
139.99999186	0.00000000	54.13385000	28.00197000
140.19999185	0.00000000	54.50295000	27.25763000
140.39999184	0.00000000	54.13385000	26.88238000
140.59999182	0.00000000	53.75861000	26.79626000
140.79999181	0.00000000	53.38336000	26.46407000
140.99999180	0.00000000	52.97121000	26.10113000
141.19999179	0.00000000	52.96506000	26.46407000
141.39999178	0.00000000	52.59596000	26.83932000
141.59999176	0.00000000	52.64517000	27.25763000
141.79999175	0.00000000	53.34030000	28.04503000
141.99999174	0.00000000	53.71555000	28.79552000
142.19999173	0.00000000	53.75861000	29.53371000
142.39999172	0.00000000	53.75861000	29.53371000
142.59999170	0.00000000	53.75861000	28.79552000
142.79999169	0.00000000	53.75861000	28.04503000
142.99999168	0.00000000	53.75861000	27.25763000
143.19999167	0.00000000	53.75861000	26.88238000
143.39999166	0.00000000	53.75861000	26.83932000
143.59999165	0.00000000	53.75861000	26.83932000
143.79999163	0.00000000	53.75861000	26.83932000
143.99999162	0.00000000	53.75861000	26.88238000
144.19999161	0.00000000	53.75861000	27.25763000
144.39999160	0.00000000	53.75861000	28.00197000
144.59999159	0.00000000	53.75861000	28.37721000
144.79999157	0.00000000	53.75861000	28.46333000
144.99999156	0.00000000	53.75861000	28.79552000
145.19999155	0.00000000	53.71555000	29.11540000
145.39999154	0.00000000	53.38336000	28.37721000
145.59999153	0.00000000	52.97121000	27.30684000
145.79999151	0.00000000	53.00812000	26.88238000
145.99999150	0.00000000	52.97121000	26.83932000
146.19999149	0.00000000	53.38336000	26.83932000
146.39999148	0.00000000	53.71555000	26.83932000
146.59999147	0.00000000	53.75861000	26.88238000
146.79999146	0.00000000	53.80167000	27.25763000
146.99999144	0.00000000	54.17691000	28.00197000
147.19999143	0.00000000	54.87204000	28.37721000
147.39999142	0.00000000	54.87204000	28.42027000
147.59999141	0.00000000	54.17691000	28.42027000
147.79999140	0.00000000	53.75861000	28.42027000
147.99999138	0.00000000	53.34030000	28.37721000
148.19999137	0.00000000	52.64517000	28.04503000
148.39999136	0.00000000	52.64517000	27.63287000
148.59999135	0.00000000	53.34030000	27.62672000
148.79999134	0.00000000	53.75861000	27.25763000
148.99999132	0.00000000	54.13385000	27.25763000
149.19999131	0.00000000	54.50295000	27.58366000
149.39999130	0.00000000	54.13385000	27.25763000
149.59999129	0.00000000	53.80167000	27.30684000
149.79999128	0.00000000	53.75861000	28.00197000
149.99999127	0.00000000	53.75861000	28.37721000
150.19999125	0.00000000	53.75861000	28.42027000
150.39999124	0.00000000	53.75861000	28.42027000
150.59999123	0.00000000	53.75861000	28.42027000
150.79999122	0.00000000	53.75861000	28.42027000
150.99999121	0.00000000	53.75861000	28.42027000
151.19999119	0.00000000	53.75861000	28.42027000
151.39999118	0.00000000	53.75861000	28.42027000
151.59999117	0.00000000	53.75861000	28.37721000
151.79999116	0.00000000	53.80167000	28.04503000
151.99999115	0.00000000	54.17691000	27.67593000
152.19999113	0.00000000	54.92125000	28.04503000
152.39999112	0.00000000	55.29650000	28.37721000
152.59999111	0.00000000	55.33957000	28.42027000
152.79999110	0.00000000	55.33957000	28.42027000
152.99999109	0.00000000	55.29650000	28.42027000
153.19999108	0.00000000	54.92125000	28.42027000
153.39999106	0.00000000	54.17691000	28.42027000
153.59999105	0.00000000	53.75861000	28.42027000
153.79999104	0.00000000	53.38336000	28.42027000
153.99999103	0.00000000	53.01427000	28.42027000
154.19999102	0.00000000	53.38336000	28.42027000
154.39999100	0.00000000	53.71555000	28.37721000
154.59999099	0.00000000	53.80167000	28.00197000
154.79999098	0.00000000	54.17691000	27.25763000
154.99999097	0.00000000	54.92125000	26.88238000
155.19999096	0.00000000	55.29650000	26.83932000
155.39999094	0.00000000	55.33957000	26.88238000
155.59999093	0.00000000	55.33957000	27.25763000
155.79999092	0.00000000	55.29650000	28.00197000
155.99999091	0.00000000	54.92125000	28.37721000
156.19999090	0.00000000	54.17691000	28.42027000
156.39999089	0.00000000	53.80167000	28.42027000
156.59999087	0.00000000	53.75861000	28.42027000
156.79999086	0.00000000	53.75861000	28.42027000
156.99999085	0.00000000	53.75861000	28.42027000
157.19999084	0.00000000	53.75861000	28.37721000
157.39999083	0.00000000	53.75861000	28.00197000
157.59999081	0.00000000	53.80167000	27.25763000
157.79999080	0.00000000	54.17691000	26.88238000
157.99999079	0.00000000	54.92125000	26.83932000
158.19999078	0.00000000	55.29650000	26.83932000
158.39999077	0.00000000	55.33957000	26.83932000
158.59999075	0.00000000	55.33957000	26.88238000
158.79999074	0.00000000	55.29650000	27.25763000
158.99999073	0.00000000	54.92125000	28.00197000
159.19999072	0.00000000	54.17691000	28.37721000
159.39999071	0.00000000	53.80167000	28.42027000
159.59999070	0.00000000	53.75861000	28.42027000
159.79999068	0.00000000	53.75861000	28.42027000
159.99999067	0.00000000	53.75861000	28.42027000
160.19999066	0.00000000	53.75861000	28.37721000
160.39999065	0.00000000	53.75861000	28.00197000
160.59999064	0.00000000	53.75861000	27.25763000
160.79999062	0.00000000	53.75861000	26.88238000
160.99999061	0.00000000	53.80167000	26.83932000
161.19999060	0.00000000	54.17691000	26.83932000
161.39999059	0.00000000	54.92125000	26.88238000
161.59999058	0.00000000	55.29650000	27.25763000
161.79999056	0.00000000	55.33957000	28.00197000
161.99999055	0.00000000	55.33957000	28.37721000
162.19999054	0.00000000	55.33957000	28.42027000
162.39999053	0.00000000	55.33957000	28.42027000
162.59999052	0.00000000	55.33957000	28.42027000
162.79999051	0.00000000	55.29650000	28.42027000
162.99999049	0.00000000	54.92125000	28.42027000
163.19999048	0.00000000	54.17691000	28.42027000
163.39999047	0.00000000	53.80167000	28.42027000
163.59999046	0.00000000	53.75861000	28.42027000
163.79999045	0.00000000	53.75861000	28.42027000
163.99999043	0.00000000	53.80167000	28.42027000
164.19999042	0.00000000	54.17691000	28.42027000
164.39999041	0.00000000	54.92125000	28.42027000
164.59999040	0.00000000	55.29650000	28.42027000
164.79999039	0.00000000	55.33957000	28.42027000
164.99999037	0.00000000	55.33957000	28.42027000
165.19999036	0.00000000	55.33957000	28.42027000
165.39999035	0.00000000	55.29650000	28.42027000
165.59999034	0.00000000	54.92125000	28.42027000
165.79999033	0.00000000	54.17691000	28.42027000
165.99999032	0.00000000	53.80167000	28.42027000
166.19999030	0.00000000	53.75861000	28.42027000
166.39999029	0.00000000	53.75861000	28.42027000
166.59999028	0.00000000	53.80167000	28.42027000
166.79999027	0.00000000	54.17691000	28.42027000
166.99999026	0.00000000	54.92125000	28.42027000
167.19999024	0.00000000	55.29650000	28.42027000
167.39999023	0.00000000	55.33957000	28.42027000
167.59999022	0.00000000	55.33957000	28.42027000
167.79999021	0.00000000	55.33957000	28.42027000
167.99999020	0.00000000	55.33957000	28.42027000
168.19999018	0.00000000	55.33957000	28.42027000
168.39999017	0.00000000	55.33957000	28.42027000
168.59999016	0.00000000	55.33957000	28.42027000
168.79999015	0.00000000	55.29650000	28.42027000
168.99999014	0.00000000	54.96432000	28.42027000
169.19999013	0.00000000	54.59522000	28.42027000
169.39999011	0.00000000	54.96432000	28.42027000
169.59999010	0.00000000	55.29650000	28.42027000
169.79999009	0.00000000	55.33957000	28.42027000
169.99999008	0.00000000	55.33957000	28.42027000
170.19999007	0.00000000	55.33957000	28.42027000
170.39999005	0.00000000	55.33957000	28.42027000
170.59999004	0.00000000	55.33957000	28.42027000
170.79999003	0.00000000	55.33957000	28.37721000
170.99999002	0.00000000	55.33957000	28.04503000
171.19999001	0.00000000	55.33957000	27.67593000
171.39998999	0.00000000	55.33957000	28.00197000
171.59998998	0.00000000	55.33957000	27.95275000
171.79998997	0.00000000	55.33957000	27.25763000
171.99998996	0.00000000	55.33957000	26.88238000
172.19998995	0.00000000	55.33957000	26.88238000
172.39998994	0.00000000	55.33957000	27.25763000
172.59998992	0.00000000	55.33957000	28.00197000
172.79998991	0.00000000	55.33957000	28.37721000
172.99998990	0.00000000	55.33957000	28.42027000
173.19998989	0.00000000	55.29650000	28.37721000
173.39998988	0.00000000	54.96432000	28.04503000
173.59998986	0.00000000	54.59522000	27.67593000
173.79998985	0.00000000	54.96432000	28.04503000
173.99998984	0.00000000	55.29650000	28.32800000
174.19998983	0.00000000	55.29650000	28.00197000
174.39998982	0.00000000	54.96432000	27.30684000
174.59998980	0.00000000	54.59522000	27.30684000
174.79998979	0.00000000	54.96432000	27.95275000
174.99998978	0.00000000	55.29650000	27.95275000
175.19998977	0.00000000	55.33957000	27.25763000
175.39998976	0.00000000	55.33957000	26.93159000
175.59998975	0.00000000	55.33957000	27.25763000
175.79998973	0.00000000	55.33957000	28.00197000
175.99998972	0.00000000	55.33957000	28.37721000
176.19998971	0.00000000	55.33957000	28.42027000
176.39998970	0.00000000	55.33957000	28.42027000
176.59998969	0.00000000	55.33957000	28.42027000
176.79998967	0.00000000	55.33957000	28.42027000
176.99998966	0.00000000	55.33957000	28.42027000
177.19998965	0.00000000	55.33957000	28.42027000
177.39998964	0.00000000	55.33957000	28.42027000
177.59998963	0.00000000	55.33957000	28.42027000
177.79998961	0.00000000	55.33957000	28.42027000
177.99998960	0.00000000	55.33957000	28.42027000
178.19998959	0.00000000	55.33957000	28.42027000
178.39998958	-0.15871060	55.33957000	28.42027000
178.59998957	0.00000000	55.33957000	28.42027000
178.79998956	0.00000000	55.33957000	28.42027000
178.99998954	0.00000000	55.33957000	28.42027000
179.19998953	0.00000000	55.33957000	28.42027000
179.39998952	0.00000000	55.33957000	28.42027000
179.59998951	0.00000000	55.33957000	28.42027000
179.79998950	0.00000000	55.33957000	28.42027000
179.99998948	0.00000000	55.33957000	28.42027000
180.19998947	0.00000000	55.33957000	28.42027000
180.39998946	0.00000000	55.33957000	28.42027000
180.59998945	0.00000000	55.33957000	28.42027000
180.79998944	0.00000000	55.33957000	28.46333000
180.99998942	0.00000000	55.33957000	28.83858000
181.19998941	0.00000000	55.33957000	29.58292000
181.39998940	0.00000000	55.33957000	29.90895000
181.59998939	0.00000000	55.33957000	29.58292000
181.79998938	0.00000000	55.33957000	28.83858000
181.99998937	0.00000000	55.33957000	28.46333000
182.19998935	0.00000000	55.33957000	28.42027000
182.39998934	0.00000000	55.33957000	28.42027000
182.59998933	0.00000000	55.33957000	28.42027000
182.79998932	0.00000000	55.33957000	28.42027000
182.99998931	0.00000000	55.33957000	28.42027000
183.19998929	0.00000000	55.33957000	28.42027000
183.39998928	0.00000000	55.33957000	28.42027000
183.59998927	0.00000000	55.33957000	28.42027000
183.79998926	0.00000000	55.33957000	28.46333000
183.99998925	0.00000000	55.33957000	28.79552000
184.19998923	0.00000000	55.33957000	29.20767000
184.39998922	0.00000000	55.33957000	29.17077000
184.59998921	0.00000000	55.33957000	29.20767000
184.79998920	0.00000000	55.33957000	28.79552000
184.99998919	0.00000000	55.33957000	28.46333000
185.19998918	0.00000000	55.33957000	28.42027000
185.39998916	0.00000000	55.33957000	28.42027000
185.59998915	0.00000000	55.33957000	28.42027000
185.79998914	0.00000000	55.33957000	28.42027000
185.99998913	0.00000000	55.33957000	28.37721000
186.19998912	0.00000000	55.33957000	28.04503000
186.39998910	0.00000000	55.33957000	27.67593000
186.59998909	0.00000000	55.33957000	28.04503000
186.79998908	0.00000000	55.33957000	28.37721000
186.99998907	0.00000000	55.33957000	28.42027000
187.19998906	0.00000000	55.33957000	28.42027000
187.39998904	0.00000000	55.33957000	28.42027000
187.59998903	0.00000000	55.33957000	28.42027000
187.79998902	0.00000000	55.33957000	28.42027000
187.99998901	0.00000000	55.33957000	28.42027000
188.19998900	0.00000000	55.38263000	28.42027000
188.39998899	0.00000000	55.71481000	28.37721000
188.59998897	0.00000000	56.08390000	28.00197000
188.79998896	0.00000000	55.71481000	27.30684000
188.99998895	0.00000000	55.38263000	27.30684000
189.19998894	0.00000000	55.33957000	28.00197000
189.39998893	0.00000000	55.33957000	28.37721000
189.59998891	0.00000000	55.33957000	28.42027000
189.79998890	0.00000000	55.38263000	28.42027000
189.99998889	0.00000000	55.71481000	28.42027000
190.19998888	0.00000000	56.08390000	28.42027000
190.39998887	0.00000000	55.71481000	28.42027000
190.59998885	0.00000000	55.43184000	28.42027000
190.79998884	0.00000000	55.71481000	28.42027000
190.99998883	0.00000000	56.08390000	28.42027000
191.19998882	0.00000000	55.71481000	28.42027000
191.39998881	0.00000000	55.38263000	28.42027000
191.59998880	0.00000000	55.38263000	28.42027000
191.79998878	0.00000000	55.71481000	28.42027000
191.99998877	0.00000000	56.08390000	28.42027000
192.19998876	0.00000000	55.71481000	28.42027000
192.39998875	0.00000000	55.38263000	28.42027000
192.59998874	0.00000000	55.33957000	28.42027000
192.79998872	0.00000000	55.33957000	28.42027000
192.99998871	0.00000000	55.33957000	28.42027000
193.19998870	0.00000000	55.33957000	28.42027000
193.39998869	0.00000000	55.38263000	28.42027000
193.59998868	0.00000000	55.71481000	28.42027000
193.79998866	0.00000000	56.12696000	28.42027000
193.99998865	0.00000000	56.13312000	28.42027000
194.19998864	0.00000000	56.54527000	28.42027000
194.39998863	0.00000000	56.87746000	28.42027000
194.59998862	0.00000000	56.92052000	28.46333000
194.79998861	-0.15871060	56.87746000	28.79552000
194.99998859	0.00000000	56.50221000	29.16461000
195.19998858	0.00000000	55.75787000	28.79552000
195.39998857	0.00000000	55.38263000	28.46333000
195.59998856	0.00000000	55.38263000	28.42027000
195.79998855	0.00000000	55.71481000	28.42027000
195.99998853	0.00000000	56.08390000	28.42027000
