Time	Channel A	Channel B	Channel C
(us)	(V)	(mV)	(mV)

-4.49999956	0.00000000	20.55241000	6.26845500
-4.29999957	0.00000000	20.55241000	5.93626900
-4.09999958	0.00000000	20.55241000	5.53026500
-3.89999959	0.00000000	20.55241000	5.56717500
-3.69999960	0.00000000	20.55241000	5.53026500
-3.49999962	0.00000000	20.55241000	5.93626900
-3.29999963	0.00000000	20.55241000	6.26845500
-3.09999964	0.00000000	20.55241000	6.31151500
-2.89999965	0.00000000	20.55241000	6.31151500
-2.69999966	0.00000000	20.55241000	6.31151500
-2.49999968	0.00000000	20.55241000	6.31151500
-2.29999969	0.00000000	20.55241000	6.31151500
-2.09999970	0.00000000	20.55241000	6.31151500
-1.89999971	0.00000000	20.55241000	6.31151500
-1.69999972	0.00000000	20.55241000	6.31151500
-1.49999973	0.00000000	20.55241000	6.31151500
-1.29999975	0.00000000	20.55241000	6.31151500
-1.09999976	0.00000000	20.55241000	6.31151500
-0.89999977	0.00000000	20.55241000	6.31151500
-0.69999978	0.00000000	20.55241000	6.31151500
-0.49999979	0.00000000	20.55241000	6.26845500
-0.29999981	0.31803640	20.55241000	5.93626900
-0.09999982	0.63668800	20.50935000	5.53026500
0.10000017	0.95533960	20.17716000	5.56717500
0.30000016	0.95533960	19.80807000	5.48105300
0.50000015	0.79601380	20.17716000	5.51796200
0.70000013	0.31803640	20.50935000	5.11195900
0.90000012	-0.47736220	20.55241000	4.82898600
1.10000011	-1.43331700	20.55241000	5.11195900
1.30000010	-2.38927200	20.55241000	5.51796200
1.50000009	-2.86724900	20.55241000	5.53026500
1.70000008	-2.54859700	20.55241000	5.93626900
1.90000006	-1.43331700	20.55241000	6.26845500
2.10000005	0.31803640	20.55241000	6.31151500
2.30000004	2.54859700	20.55241000	6.31151500
2.50000003	4.30056600	20.55241000	6.26845500
2.70000002	5.41584600	20.55241000	5.89320800
2.90000000	4.93786900	20.55241000	5.15501900
3.09999999	3.02657500	20.55241000	4.77977300
3.29999998	0.00000000	20.55241000	4.73671200
3.49999997	-3.34522600	20.55241000	4.77977300
3.69999996	-6.21247500	20.55241000	5.15501900
3.89999994	-7.80511800	20.55241000	5.89320800
4.09999993	-7.48646600	20.55241000	6.26845500
4.29999992	-5.25652100	20.55241000	6.31151500
4.49999991	-1.43331700	20.55241000	6.31151500
4.69999990	3.02657500	20.55241000	6.31151500
4.89999989	6.84916400	20.55241000	6.26845500
5.09999987	9.23905000	20.55241000	5.89320800
5.29999986	9.07972400	20.50935000	5.15501900
5.49999985	6.84916400	20.17716000	4.77977300
5.69999984	2.70792300	19.80807000	4.73671200
5.89999983	-2.07062000	20.17716000	4.73671200
6.09999981	-6.37180100	20.50935000	4.77977300
6.29999980	-9.07972400	20.55241000	5.15501900
6.49999979	-9.39837600	20.55241000	5.89320800
6.69999978	-7.48646600	20.55241000	6.26845500
6.89999977	-3.82258900	20.55241000	6.31151500
7.09999975	0.63668800	20.55241000	6.31151500
7.29999974	4.61921700	20.55241000	6.26845500
7.49999973	7.16781500	20.55241000	5.89320800
7.69999972	7.64579200	20.55241000	5.15501900
7.89999971	6.37180100	20.50935000	4.77977300
8.09999970	3.66326300	20.13410000	4.73671200
8.29999968	0.31803640	19.43897000	4.73671200
8.49999967	-2.70792300	19.43897000	4.77977300
8.69999966	-4.61921700	20.13410000	5.15501900
8.89999965	-5.25652100	20.50935000	5.89320800
9.09999964	-4.45989200	20.55241000	6.26845500
9.29999962	-2.86724900	20.55241000	6.31151500
9.49999961	-0.79601380	20.55241000	6.31151500
9.69999960	0.95533960	20.55241000	6.31151500
9.89999959	2.22994600	20.55241000	6.26845500
10.09999958	2.54859700	20.55241000	5.89320800
10.29999956	2.22994600	20.55241000	5.15501900
10.49999955	1.43331700	20.55241000	4.77977300
10.69999954	0.63668800	20.55241000	4.73671200
10.89999953	-0.15871060	20.55241000	4.77977300
11.09999952	-0.63668800	20.55241000	5.15501900
11.29999951	-0.95533960	20.55241000	5.85014700
11.49999949	-0.95533960	20.55241000	5.89320800
11.69999948	-0.79601380	20.55241000	5.53026500
11.89999947	-0.47736220	20.55241000	5.51796200
12.09999946	-0.15871060	20.55241000	5.15501900
12.29999945	-0.15871060	20.55241000	5.15501900
12.49999943	-0.15871060	20.55241000	5.47490100
12.69999942	0.00000000	20.55241000	5.11195900
12.89999941	0.00000000	20.55241000	4.77977300
13.09999940	0.15871060	20.55241000	4.73671200
13.29999939	0.00000000	20.55241000	4.77977300
13.49999937	0.00000000	20.55241000	5.15501900
13.69999936	0.00000000	20.55241000	5.89320800
13.89999935	0.00000000	20.55241000	6.21924200
14.09999934	-0.15871060	20.55241000	5.89320800
14.29999933	-0.15871060	20.55241000	5.19808000
14.49999932	-0.15871060	20.55241000	5.19808000
14.69999930	0.00000000	20.55241000	5.85014700
14.89999929	0.00000000	20.55241000	5.89320800
15.09999928	0.00000000	20.55241000	5.57332700
15.29999927	0.00000000	20.50935000	5.93626900
15.49999926	0.00000000	20.13410000	6.21924200
15.69999924	0.00000000	19.43897000	5.93626900
15.89999923	0.00000000	19.43897000	5.57332700
16.09999922	0.00000000	20.13410000	5.93626900
16.29999921	0.00000000	20.50935000	6.21924200
16.49999920	-0.15871060	20.55241000	5.93626900
16.69999919	0.00000000	20.55241000	5.53026500
16.89999917	-0.15871060	20.55241000	5.51796200
17.09999916	0.00000000	20.59547000	5.15501900
17.29999915	0.00000000	20.97072000	5.19808000
17.49999914	0.00000000	21.71506000	5.89320800
17.69999913	0.00000000	22.04109000	6.26845500
17.89999911	0.00000000	21.66585000	6.26845500
18.09999910	0.00000000	20.50935000	5.93626900
18.29999909	0.00000000	18.97145000	5.53026500
18.49999908	0.00000000	17.39050000	5.56717500
18.69999907	0.00000000	15.85261000	5.53026500
18.89999905	0.00000000	14.73917000	5.93626900
19.09999904	0.00000000	14.78223000	6.26845500
19.29999903	0.00000000	16.32013000	6.31151500
19.49999902	0.00000000	19.06373000	6.31151500
19.69999901	0.00000000	22.55167000	6.26845500
19.89999900	0.00000000	26.40871000	5.89320800
20.09999898	0.00000000	29.48450000	5.15501900
20.29999897	0.00000000	31.02239000	4.77977300
20.49999896	0.00000000	30.51181000	4.73671200
20.69999895	0.00000000	26.97465000	4.77977300
20.89999894	0.00000000	20.41708000	5.11195900
21.09999892	0.00000000	12.69070000	5.47490100
21.29999891	0.00000000	5.33956700	5.11195900
21.49999890	0.00000000	-0.00615157	4.77977300
21.69999889	0.00000000	-1.45177200	4.73671200
21.89999888	0.00000000	2.08538400	4.73671200
22.09999886	0.00000000	10.59301000	4.73671200
22.29999885	0.00000000	22.22564000	4.73671200
22.49999884	0.00000000	34.60876000	4.73671200
22.69999883	0.00000000	45.34940000	4.73671200
22.89999882	0.00000000	51.07652000	4.77977300
23.09999881	0.00000000	49.87081000	5.15501900
23.29999879	0.00000000	41.67692000	5.89320800
23.49999878	0.00000000	27.30684000	6.31151500
23.69999877	0.00000000	9.57800100	6.72982200
23.89999876	0.00000000	-7.40034400	7.42495000
24.09999875	0.00000000	-19.27288000	7.42495000
24.29999873	0.00000000	-22.71161000	6.68676100
24.49999872	0.00000000	-16.06176000	5.89320800
24.69999871	0.00000000	-0.61515740	4.64443900
24.89999870	0.00000000	20.64468000	2.78051200
25.09999869	0.00000000	42.65502000	0.87967510
25.29999867	0.00000000	60.38385000	0.13533460
25.49999866	0.00000000	69.59277000	0.46136810
25.69999865	-0.15871060	67.22440000	1.71013800
25.89999864	0.00000000	53.72785000	4.08464600
26.09999863	0.00000000	32.09276000	7.93553100
26.29999862	0.00000000	7.38804100	12.11860000
26.49999860	0.00000000	-14.66535000	15.23130000
26.69999859	0.00000000	-29.31840000	16.76919000
26.89999858	0.00000000	-33.13238000	16.30167000
27.09999857	0.00000000	-24.62475000	13.14591000
27.29999856	0.00000000	-5.77632800	7.33882900
27.49999854	0.00000000	18.51009000	0.00000000
27.69999853	0.00000000	42.09522000	-7.33882900
27.89999852	0.00000000	59.96555000	-13.05364000
28.09999851	0.00000000	68.85458000	-15.28666000
28.29999850	0.00000000	66.89837000	-12.54921000
28.49999848	0.00000000	54.19537000	-5.20423200
28.69999847	0.00000000	34.18430000	5.24729300
28.89999846	0.00000000	12.18012000	16.81225000
29.09999845	0.00000000	-6.84670200	26.84547000
29.29999844	0.00000000	-19.27288000	32.98474000
29.49999843	0.00000000	-23.17298000	33.72293000
29.69999841	0.00000000	-17.77805000	28.24803000
29.89999840	0.00000000	-4.70595500	17.42126000
30.09999839	0.00000000	12.64764000	3.06963600
30.29999838	0.00000000	30.09350000	-11.94021000
30.49999837	0.00000000	44.05143000	-24.24951000
30.69999835	0.00000000	52.23917000	-30.38878000
30.89999834	0.00000000	53.03272000	-28.85088000
31.09999833	0.00000000	46.93036000	-19.93110000
31.29999832	0.00000000	35.72219000	-5.25344500
31.49999831	0.00000000	22.18258000	12.12475000
31.69999829	0.00000000	9.01205700	28.34030000
31.89999828	0.00000000	-1.07652500	39.95448000
32.09999827	0.00000000	-6.15157400	44.55585000
32.29999826	0.00000000	-5.77632800	41.06791000
32.49999825	0.00000000	-0.00615157	29.87205000
32.69999824	0.00000000	9.62106200	13.69956000
32.89999822	0.00000000	20.41708000	-3.76476400
33.09999821	0.00000000	30.13656000	-19.19291000
33.29999820	0.00000000	36.70644000	-29.63828000
33.49999819	0.00000000	39.07480000	-32.34498000
33.69999818	0.00000000	36.79257000	-27.36835000
33.89999816	0.00000000	31.02239000	-15.74803000
34.09999815	0.00000000	23.29601000	0.09227362
34.29999814	0.00000000	15.20054000	16.67692000
34.49999813	0.00000000	9.01205700	30.56717000
34.69999812	0.00000000	5.89936000	38.33046000
34.89999810	0.00000000	6.27460600	38.79183000
35.09999809	0.00000000	10.08243000	32.60949000
35.29999808	0.00000000	15.85261000	20.99532000
35.49999807	0.00000000	21.99803000	6.36072800
35.69999806	0.00000000	26.97465000	-7.90477300
35.89999805	0.00000000	28.97392000	-18.31324000
36.09999803	0.00000000	28.22958000	-22.58243000
36.29999802	0.00000000	25.52903000	-19.93110000
36.49999801	0.00000000	20.88459000	-11.47884000
36.69999800	0.00000000	15.94488000	0.41830710
36.89999799	0.00000000	12.08784000	12.72761000
37.09999797	0.00000000	10.54995000	21.97957000
37.29999796	0.00000000	11.66339000	26.24877000
37.49999795	0.00000000	14.73917000	24.71703000
37.69999794	0.00000000	18.97145000	17.83957000
37.89999793	0.00000000	23.24680000	7.89247000
38.09999791	0.00000000	26.69783000	-2.09153500
38.29999790	0.00000000	28.64173000	-9.34424200
38.49999789	0.00000000	28.22958000	-11.66339000
38.69999788	0.00000000	25.94734000	-8.23080600
38.89999787	0.00000000	22.04109000	-0.60285430
39.09999786	0.00000000	17.43356000	8.96284400
39.29999784	0.00000000	13.20128000	17.37820000
39.49999783	0.00000000	10.45768000	21.97957000
39.69999782	0.00000000	9.66412400	21.60433000
39.89999781	0.00000000	10.45768000	16.21555000
40.09999780	0.00000000	13.20128000	7.43110200
40.29999778	0.00000000	17.39050000	-2.18380900
40.49999777	0.00000000	21.66585000	-9.84867000
40.69999776	0.00000000	25.20300000	-13.66265000
40.89999775	0.00000000	27.90354000	-12.12475000
41.09999774	0.00000000	29.06619000	-5.62253900
41.29999772	0.00000000	28.32185000	3.57406500
41.49999771	0.00000000	26.36565000	13.23819000
41.69999770	0.00000000	23.20374000	20.85999000
41.89999769	0.00000000	18.97145000	24.34178000
42.09999768	0.00000000	14.78223000	22.48400000
42.29999767	0.00000000	12.03863000	16.76919000
42.49999765	0.00000000	11.20202000	9.00590400
42.69999764	0.00000000	11.57726000	0.55364170
42.89999763	0.00000000	13.15822000	-6.36687900
43.09999762	0.00000000	15.85261000	-9.84867000
43.29999761	0.00000000	18.92839000	-9.52263600
43.49999759	0.00000000	21.62278000	-5.67175200
43.69999758	0.00000000	23.20374000	0.41830710
43.89999757	0.00000000	23.62205000	6.96358300
44.09999756	0.00000000	23.29601000	11.98327000
44.29999755	0.00000000	22.50861000	14.76993000
44.49999753	0.00000000	21.75812000	15.14518000
44.69999752	0.00000000	20.97072000	13.28125000
44.89999751	0.00000000	20.59547000	9.79945900
45.09999750	0.00000000	20.55241000	5.98548200
45.29999749	0.00000000	20.50935000	2.46063000
45.49999748	0.00000000	20.04183000	0.17839570
45.69999746	0.00000000	18.46087000	-0.65206690
45.89999745	0.00000000	15.76649000	0.13533460
46.09999744	0.00000000	12.73991000	1.99311000
46.29999743	0.00000000	10.45768000	4.36146600
46.49999742	0.00000000	10.08243000	6.68676100
46.69999740	0.00000000	11.66339000	8.96284400
46.89999739	0.00000000	15.24975000	10.11934000
47.09999738	0.00000000	21.01993000	9.75639700
47.29999737	0.00000000	27.52830000	8.63681000
47.49999736	0.00000000	32.51107000	6.64370100
47.69999734	0.00000000	34.83636000	4.36146600
47.89999733	0.00000000	33.63066000	2.04232300
48.09999732	0.00000000	28.97392000	0.51058070
48.29999731	0.00000000	21.62278000	0.09227362
48.49999730	0.00000000	13.15822000	0.51058070
48.69999729	0.00000000	5.80708600	2.08538400
48.89999727	0.00000000	1.19955700	4.77977300
49.09999726	0.00000000	0.45521650	7.84940900
49.29999725	0.00000000	4.36146600	10.53765000
49.49999724	0.00000000	12.03863000	12.07554000
49.69999723	0.00000000	21.66585000	12.07554000
49.89999721	0.00000000	30.51181000	10.49459000
50.09999720	0.00000000	36.33120000	7.42495000
50.29999719	0.00000000	37.86909000	3.57406500
50.49999718	0.00000000	34.79330000	0.09227362
50.69999717	0.00000000	27.81742000	-2.60211600
50.89999715	0.00000000	18.59621000	-3.71555100
51.09999714	0.00000000	9.38730200	-2.55905500
51.29999713	0.00000000	3.24188000	0.51058070
51.49999712	0.00000000	1.66092500	4.73671200
51.69999711	0.00000000	4.73671200	9.00590400
51.89999710	0.00000000	11.62032000	12.45079000
52.09999708	0.00000000	20.08489000	14.39468000
52.29999707	0.00000000	27.81742000	13.98253000
52.49999706	0.00000000	33.16929000	11.70029000
52.69999705	0.00000000	34.32578000	7.84940900
52.89999704	0.00000000	30.88705000	3.62327700
53.09999702	0.00000000	24.40945000	0.13533460
53.29999701	0.00000000	16.69537000	-2.18380900
53.49999700	0.00000000	10.17470000	-2.55905500
53.69999699	0.00000000	6.31766700	-1.02116100
53.89999698	0.00000000	6.31766700	1.99311000
54.09999696	0.00000000	10.13164000	5.43184000
54.29999695	0.00000000	16.27707000	7.75713500
54.49999694	0.00000000	23.20374000	8.96284400
54.69999693	0.00000000	28.93085000	8.96284400
54.89999692	0.00000000	31.62524000	7.84940900
55.09999691	0.00000000	30.51181000	6.31151500
55.29999689	0.00000000	26.32259000	4.77977300
55.49999688	0.00000000	20.55241000	3.66633800
55.69999687	0.00000000	14.78223000	3.66633800
55.89999686	0.00000000	10.54995000	4.77977300
56.09999685	0.00000000	8.96899500	6.31151500
56.29999683	0.00000000	10.08243000	7.80019600
56.49999682	0.00000000	13.20128000	8.54453700
56.69999681	0.00000000	17.80881000	7.75713500
56.89999680	0.00000000	22.78543000	5.85014700
57.09999679	0.00000000	26.27953000	3.15575800
57.29999677	0.00000000	27.86048000	0.46751960
57.49999676	0.00000000	27.43602000	-1.39640700
57.69999675	0.00000000	24.74163000	-1.76550200
57.89999674	0.00000000	20.59547000	0.17839570
58.09999673	0.00000000	16.73843000	3.62327700
58.29999672	0.00000000	14.36393000	7.93553100
58.49999670	0.00000000	13.20128000	12.49385000
58.69999669	0.00000000	13.57652000	15.88336000
58.89999668	0.00000000	15.47736000	16.21555000
59.09999667	0.00000000	17.76575000	13.18898000
59.29999666	0.00000000	20.13410000	7.80019600
59.49999664	0.00000000	21.99803000	1.62401600
59.69999663	0.00000000	22.82849000	-4.14000900
59.89999662	0.00000000	22.46555000	-7.94783400
60.09999661	0.00000000	21.71506000	-8.31692900
60.29999660	0.00000000	20.50935000	-5.25344500
60.49999658	0.00000000	19.01451000	0.55364170
60.69999657	0.00000000	17.85802000	7.84940900
60.89999656	0.00000000	17.48277000	14.76993000
61.09999655	0.00000000	17.80881000	19.37131000
61.29999654	0.00000000	18.59621000	20.53395000
61.49999653	0.00000000	19.34670000	17.83957000
61.69999651	0.00000000	20.08489000	12.07554000
61.89999650	0.00000000	20.08489000	4.73671200
62.09999649	0.00000000	19.34670000	-2.60211600
62.29999648	0.00000000	18.59621000	-8.36614100
62.49999647	0.00000000	17.80881000	-11.05438000
62.69999645	0.00000000	17.43356000	-9.94094400
62.89999644	0.00000000	17.43356000	-5.62253900
63.09999643	0.00000000	17.85802000	1.30413400
63.29999642	0.00000000	18.97145000	9.70103300
63.49999641	0.00000000	20.13410000	16.25861000
63.69999639	0.00000000	20.92766000	19.78961000
63.89999638	0.00000000	21.66585000	20.20177000
64.09999637	0.00000000	21.62278000	17.09523000
64.29999636	0.00000000	20.55241000	11.74951000
64.49999635	0.00000000	19.38976000	5.15501900
64.69999634	0.00000000	18.59621000	-1.02116100
64.89999632	0.00000000	17.80881000	-5.67175200
65.09999631	0.00000000	17.43356000	-7.99089500
65.29999630	0.00000000	17.43356000	-7.25270600
65.49999629	0.00000000	17.85802000	-4.18307100
65.69999628	0.00000000	18.97145000	0.41830710
65.89999626	0.00000000	20.08489000	5.47490100
66.09999625	0.00000000	20.46014000	9.75639700
66.29999624	0.00000000	20.08489000	13.28125000
66.49999623	0.00000000	18.97145000	15.14518000
66.69999622	0.00000000	17.80881000	14.85605000
66.89999620	0.00000000	17.01525000	12.95522000
67.09999619	0.00000000	16.27707000	10.62992000
67.29999618	0.00000000	16.32013000	7.84940900
67.49999617	0.00000000	17.48277000	4.73671200
67.69999616	0.00000000	19.38976000	1.62401600
67.89999615	0.00000000	21.71506000	-1.11343500
68.09999613	0.00000000	23.62205000	-3.02042300
68.29999612	0.00000000	24.74163000	-3.80782500
68.49999611	0.00000000	24.32333000	-3.02042300
68.69999610	0.00000000	21.99803000	-1.07037400
68.89999609	0.00000000	18.55315000	2.04232300
69.09999607	0.00000000	14.69611000	5.93626900
69.29999606	0.00000000	11.62032000	9.84867000
69.49999605	0.00000000	10.03937000	13.69956000
69.69999604	0.00000000	10.08243000	16.30167000
69.89999603	0.00000000	12.08784000	16.30167000
70.09999601	0.00000000	16.32013000	13.65650000
70.29999600	0.00000000	21.66585000	9.43036400
70.49999599	0.00000000	26.32259000	4.73671200
70.69999598	0.00000000	29.44143000	0.09227362
70.89999597	0.00000000	30.55487000	-3.76476400
71.09999596	0.00000000	28.97392000	-5.67175200
71.29999594	0.00000000	24.74163000	-5.29650500
71.49999593	0.00000000	18.97145000	-2.60211600
71.69999592	0.00000000	13.15822000	1.62401600
71.89999591	0.00000000	8.55068800	6.26845500
72.09999590	0.00000000	6.18233200	10.49459000
72.29999588	0.00000000	6.59448800	13.18898000
72.49999587	0.00000000	9.30118100	13.61343000
72.69999586	0.00000000	14.36393000	12.11860000
72.89999585	0.00000000	20.46014000	9.42421200
73.09999584	0.00000000	25.90428000	6.31151500
73.29999582	0.00000000	29.39222000	3.24803100
73.49999581	0.00000000	30.55487000	0.97194880
73.69999580	0.00000000	29.01698000	0.55364170
73.89999579	0.00000000	25.20300000	1.62401600
74.09999578	0.00000000	20.55241000	3.11269700
74.29999577	0.00000000	15.90182000	4.31840500
74.49999575	0.00000000	12.03863000	5.06274600
74.69999574	0.00000000	10.13164000	5.47490100
74.89999573	0.00000000	10.45768000	5.06274600
75.09999572	0.00000000	12.73991000	4.36146600
75.29999571	0.00000000	15.80955000	3.57406500
75.49999569	0.00000000	18.92839000	3.29109200
75.69999568	0.00000000	21.62278000	4.03543200
75.89999567	0.00000000	23.16068000	5.98548200
76.09999566	0.00000000	23.24680000	8.26771600
76.29999565	0.00000000	22.46555000	10.53765000
76.49999563	0.00000000	21.33981000	11.60802000
76.69999562	0.00000000	19.76501000	10.49459000
76.89999561	0.00000000	18.63927000	7.80019600
77.09999560	0.00000000	17.80881000	4.31840500
77.29999559	0.00000000	17.48277000	0.46751960
77.49999558	0.00000000	17.80881000	-2.60211600
77.69999556	0.00000000	18.50394000	-4.18307100
77.89999555	0.00000000	18.50394000	-4.14000900
78.09999554	0.00000000	17.76575000	-2.14074800
78.29999553	0.00000000	17.01525000	2.08538400
78.49999552	0.00000000	16.22785000	7.42495000
78.69999550	0.00000000	15.90182000	12.07554000
78.89999549	0.00000000	16.27707000	15.18824000
79.09999548	0.00000000	17.43356000	16.30167000
79.29999547	0.00000000	19.01451000	14.76993000
79.49999546	0.00000000	20.92766000	10.95595000
79.69999544	0.00000000	22.82849000	6.31151500
79.89999543	0.00000000	23.57899000	1.66707700
80.09999542	0.00000000	23.20374000	-2.18380900
80.29999541	0.00000000	21.62278000	-4.14000900
80.49999540	0.00000000	18.92839000	-4.18307100
80.69999539	0.00000000	15.90182000	-2.64517700
80.89999537	0.00000000	13.57652000	0.09227362
81.09999536	0.00000000	12.78297000	3.53100400
81.29999535	0.00000000	13.20128000	7.05585600
81.49999534	0.00000000	15.11442000	9.75639700
81.69999533	0.00000000	18.17790000	11.74951000
81.89999531	0.00000000	20.88459000	12.49385000
82.09999530	0.00000000	23.20374000	12.11860000
82.29999529	0.00000000	24.32333000	10.58686000
82.49999528	0.00000000	23.62205000	8.26771600
82.69999527	0.00000000	22.09030000	5.89320800
82.89999525	0.00000000	20.13410000	3.15575800
83.09999524	0.00000000	17.85802000	0.46751960
83.29999523	0.00000000	16.27707000	-1.48868100
83.49999522	0.00000000	15.47736000	-2.64517700
83.69999521	0.00000000	15.11442000	-2.60211600
83.89999520	0.00000000	15.90182000	-1.02116100
84.09999518	0.00000000	17.34744000	2.04232300
84.29999517	0.00000000	18.50394000	5.89320800
84.49999516	0.00000000	18.92839000	9.38115100
84.69999515	0.00000000	18.97145000	12.11860000
84.89999514	0.00000000	18.97145000	13.61343000
85.09999512	0.00000000	18.97145000	13.23819000
85.29999511	0.00000000	18.97145000	10.91289000
85.49999510	0.00000000	18.97145000	7.43110200
85.69999509	0.00000000	18.97145000	3.15575800
85.89999508	0.00000000	18.97145000	-1.07037400
86.09999506	0.00000000	18.97145000	-4.13385800
86.29999505	0.00000000	18.97145000	-5.29650500
86.49999504	0.00000000	18.92839000	-4.13385800
86.69999503	0.00000000	18.50394000	-1.02116100
86.89999502	0.00000000	17.39050000	3.57406500
87.09999501	0.00000000	16.27707000	8.58759800
87.29999499	0.00000000	15.90182000	12.45079000
87.49999498	0.00000000	16.27707000	14.76993000
87.69999497	0.00000000	17.43356000	14.72072000
87.89999496	0.00000000	18.92839000	12.03248000
88.09999495	0.00000000	20.13410000	7.42495000
88.29999493	0.00000000	20.88459000	2.04232300
88.49999492	0.00000000	21.29675000	-2.51599400
88.69999491	0.00000000	20.88459000	-4.87819900
88.89999490	0.00000000	20.13410000	-4.46604300
89.09999489	0.00000000	18.92839000	-1.80856300
89.29999487	0.00000000	17.43356000	2.82972400
89.49999486	0.00000000	16.27707000	7.80019600
89.69999485	0.00000000	15.90182000	12.07554000
89.89999484	0.00000000	16.22785000	14.72072000
90.09999483	0.00000000	17.01525000	14.72072000
90.29999482	0.00000000	17.76575000	12.03248000
90.49999480	0.00000000	18.59621000	7.42495000
90.69999479	0.00000000	19.34670000	2.04232300
90.89999478	0.00000000	20.08489000	-2.55905500
91.09999477	0.00000000	20.08489000	-5.24729300
91.29999476	0.00000000	19.38976000	-5.20423200
91.49999474	0.00000000	19.01451000	-2.18380900
91.69999473	0.00000000	18.97145000	2.82972400
91.89999472	0.00000000	18.97145000	8.17544300
92.09999471	0.00000000	18.97145000	12.81373000
92.29999470	0.00000000	18.97145000	15.09596000
92.49999468	0.00000000	18.92839000	14.72072000
92.69999467	0.00000000	18.55315000	11.65723000
92.89999466	0.00000000	17.76575000	6.68676100
93.09999465	0.00000000	17.01525000	1.71013800
93.29999464	0.00000000	16.18479000	-2.18380900
93.49999463	0.00000000	15.47736000	-4.09079700
93.69999461	0.00000000	15.11442000	-3.67249000
93.89999460	0.00000000	15.90182000	-0.64591530
94.09999459	0.00000000	17.43356000	3.94315900
94.29999458	0.00000000	19.38976000	8.17544300
94.49999457	0.00000000	21.71506000	11.65723000
94.69999455	0.00000000	23.57899000	13.14591000
94.89999454	0.00000000	24.36639000	12.03248000
95.09999453	0.00000000	23.57899000	8.96284400
95.29999452	0.00000000	21.62278000	4.77977300
95.49999451	0.00000000	18.50394000	0.92888770
95.69999449	0.00000000	14.73917000	-1.35334600
95.89999448	0.00000000	12.03863000	-1.80856300
96.09999447	0.00000000	11.20202000	-0.28297240
96.29999446	0.00000000	11.57726000	1.99311000
96.49999445	0.00000000	13.20128000	4.77977300
96.69999444	0.00000000	16.27707000	7.80019600
96.89999442	0.00000000	20.13410000	10.07628000
97.09999441	0.00000000	23.62205000	10.45152000
97.29999440	0.00000000	26.32259000	9.00590400
97.49999439	0.00000000	27.43602000	6.68676100
97.69999438	0.00000000	26.32259000	4.40452700
97.89999436	0.00000000	23.62205000	2.46063000
98.09999435	0.00000000	20.13410000	1.66707700
98.29999434	0.00000000	16.22785000	1.61786400
98.49999433	0.00000000	12.78297000	2.04232300
98.69999432	0.00000000	10.45768000	3.15575800
98.89999430	0.00000000	10.08243000	4.31840500
99.09999429	0.00000000	11.57726000	5.11195900
99.29999428	0.00000000	14.32087000	5.89320800
99.49999427	0.00000000	17.80881000	6.26845500
99.69999426	0.00000000	21.66585000	6.31151500
99.89999425	0.00000000	24.74163000	6.35457700
100.09999423	0.00000000	26.32259000	6.72982200
100.29999422	0.00000000	26.32259000	7.47416300
100.49999421	0.00000000	24.78469000	7.80019600
100.69999420	0.00000000	22.09030000	7.42495000
100.89999419	0.00000000	18.97145000	6.26845500
101.09999417	0.00000000	15.90182000	4.73671200
101.29999416	0.00000000	13.53346000	3.15575800
101.49999415	0.00000000	12.36466000	1.62401600
101.69999414	0.00000000	11.95251000	0.51058070
101.89999413	0.00000000	12.78297000	0.51058070
102.09999411	0.00000000	14.69611000	1.66707700
102.29999410	0.00000000	17.39050000	3.61712600
102.49999409	0.00000000	20.08489000	6.31151500
102.69999408	0.00000000	22.04109000	8.96284400
102.89999407	0.00000000	23.20374000	10.53765000
103.09999406	0.00000000	23.20374000	10.91289000
103.29999404	0.00000000	22.09030000	10.11934000
103.49999403	0.00000000	20.50935000	7.80019600
103.69999402	0.00000000	18.55315000	4.73671200
103.89999401	0.00000000	16.27707000	1.66707700
104.09999400	0.00000000	14.73917000	-0.64591530
104.29999398	0.00000000	14.32087000	-1.39640700
104.49999397	0.00000000	14.64690000	-0.64591530
104.69999396	0.00000000	15.47736000	1.66707700
104.89999395	0.00000000	16.64616000	4.68750000
105.09999394	0.00000000	18.55315000	7.43110200
105.29999392	0.00000000	20.04183000	9.33809000
105.49999391	0.00000000	20.50935000	10.11934000
105.69999390	0.00000000	20.50935000	9.38115100
105.89999389	0.00000000	20.08489000	7.84940900
106.09999388	0.00000000	18.97145000	5.85014700
106.29999387	0.00000000	17.80881000	3.19881900
106.49999385	0.00000000	17.01525000	0.92888770
106.69999384	0.00000000	16.22785000	0.17839570
106.89999383	0.00000000	15.90182000	0.87967510
107.09999382	0.00000000	16.27707000	2.78051200
107.29999381	0.00000000	17.43356000	4.68750000
107.49999379	0.00000000	18.92839000	6.26845500
107.69999378	0.00000000	20.08489000	7.42495000
107.89999377	0.00000000	20.46014000	7.80019600
108.09999376	0.00000000	20.08489000	7.38188900
108.29999375	0.00000000	18.97145000	5.85014700
108.49999374	0.00000000	17.80881000	3.61712600
108.69999372	0.00000000	17.01525000	2.08538400
108.89999371	0.00000000	16.22785000	1.61786400
109.09999370	0.00000000	15.90182000	1.61786400
109.29999369	0.00000000	16.27707000	2.08538400
109.49999368	0.00000000	17.43356000	3.61712600
109.69999366	0.00000000	18.92839000	5.85014700
109.89999365	0.00000000	20.08489000	7.38188900
110.09999364	0.00000000	20.50935000	7.84940900
110.29999363	0.00000000	20.50935000	7.84940900
110.49999362	0.00000000	20.08489000	7.42495000
110.69999360	0.00000000	18.97145000	6.26845500
110.89999359	0.00000000	17.80881000	4.73671200
111.09999358	0.00000000	17.01525000	3.19881900
111.29999357	0.00000000	16.22785000	2.04232300
111.49999356	0.00000000	15.90182000	1.61786400
111.69999355	0.00000000	16.22785000	1.61786400
111.89999353	0.00000000	16.97219000	2.04232300
112.09999352	0.00000000	17.39050000	3.19881900
112.29999351	0.00000000	17.80881000	4.68750000
112.49999350	0.00000000	18.55315000	5.85014700
112.69999349	0.00000000	18.92839000	6.26845500
112.89999347	0.00000000	18.97145000	6.31151500
113.09999346	0.00000000	18.97145000	6.26845500
113.29999345	0.00000000	18.97145000	5.89320800
113.49999344	0.00000000	18.92839000	5.15501900
113.69999343	0.00000000	18.55315000	4.77977300
113.89999341	0.00000000	17.80881000	4.69365100
114.09999340	0.00000000	17.43356000	4.31840500
114.29999339	0.00000000	17.39050000	3.57406500
114.49999338	0.00000000	17.39050000	3.19881900
114.69999337	0.00000000	17.39050000	3.15575800
114.89999336	0.00000000	17.39050000	3.15575800
115.09999334	0.00000000	17.43356000	3.15575800
115.29999333	0.00000000	17.80881000	3.15575800
115.49999332	0.00000000	18.55315000	3.19881900
115.69999331	0.00000000	18.92839000	3.62327700
115.89999330	0.00000000	18.92839000	4.73671200
116.09999328	0.00000000	18.55315000	5.89320800
116.29999327	0.00000000	17.80881000	6.64370100
116.49999326	0.00000000	17.43356000	7.05585600
116.69999325	0.00000000	17.39050000	6.68676100
116.89999324	0.00000000	17.39050000	6.31151500
117.09999322	0.00000000	17.39050000	5.85014700
117.29999321	0.00000000	17.43356000	4.73671200
117.49999320	0.00000000	17.80881000	3.57406500
117.69999319	0.00000000	18.55315000	2.78051200
117.89999318	0.00000000	18.92839000	2.04232300
118.09999317	0.00000000	18.97145000	2.04232300
118.29999315	0.00000000	18.97145000	2.78051200
118.49999314	0.00000000	18.92839000	3.53100400
118.69999313	0.00000000	18.50394000	4.36146600
118.89999312	0.00000000	17.39050000	5.11195900
119.09999311	0.00000000	16.22785000	5.89320800
119.29999309	0.00000000	15.47736000	6.26845500
119.49999308	0.00000000	15.06521000	6.31151500
119.69999307	0.00000000	15.47736000	6.26845500
119.89999306	0.00000000	16.22785000	5.89320800
120.09999305	0.00000000	17.43356000	5.11195900
120.29999303	0.00000000	18.92839000	4.36146600
120.49999302	0.00000000	20.08489000	3.57406500
120.69999301	0.00000000	20.50935000	3.19881900
120.89999300	0.00000000	20.50935000	3.15575800
121.09999299	0.00000000	20.08489000	3.15575800
121.29999298	0.00000000	18.92839000	3.19881900
121.49999296	0.00000000	17.43356000	3.57406500
121.69999295	0.00000000	16.22785000	4.31840500
121.89999294	0.00000000	15.43430000	4.69365100
122.09999293	0.00000000	14.69611000	4.77977300
122.29999292	0.00000000	14.69611000	5.15501900
122.49999290	0.00000000	15.43430000	5.89320800
122.69999289	0.00000000	16.22785000	6.26845500
122.89999288	0.00000000	17.43356000	6.31151500
123.09999287	0.00000000	18.92839000	6.26845500
123.29999286	0.00000000	20.08489000	5.89320800
123.49999284	0.00000000	20.50935000	5.15501900
123.69999283	0.00000000	20.50935000	4.73671200
123.89999282	0.00000000	20.13410000	4.31840500
124.09999281	0.00000000	19.34670000	3.57406500
124.29999280	0.00000000	18.55315000	3.19881900
124.49999279	0.00000000	17.39050000	3.15575800
124.69999277	0.00000000	16.27707000	3.19881900
124.89999276	0.00000000	15.85261000	3.57406500
125.09999275	0.00000000	15.80955000	4.31840500
125.29999274	0.00000000	15.80955000	4.69365100
125.49999273	0.00000000	15.85261000	4.77977300
125.69999271	0.00000000	16.27707000	5.15501900
125.89999270	0.00000000	17.43356000	5.89320800
126.09999269	0.00000000	18.92839000	6.21924200
126.29999268	0.00000000	20.08489000	5.89320800
126.49999267	0.00000000	20.46014000	5.15501900
126.69999265	0.00000000	20.13410000	4.73671200
126.89999264	0.00000000	19.34670000	4.31840500
127.09999263	0.00000000	18.55315000	3.57406500
127.29999262	0.00000000	17.39050000	3.19881900
127.49999261	0.00000000	16.22785000	3.15575800
127.69999260	0.00000000	15.47736000	3.19881900
127.89999258	0.00000000	15.06521000	3.57406500
128.09999257	0.00000000	15.47736000	4.31840500
128.29999256	0.00000000	16.22785000	4.69365100
128.49999255	0.00000000	17.39050000	4.73671200
128.69999254	0.00000000	18.55315000	4.73671200
128.89999252	0.00000000	19.34670000	4.73671200
129.09999251	0.00000000	20.08489000	4.73671200
129.29999250	0.00000000	20.08489000	4.69365100
129.49999249	0.00000000	19.34670000	4.31840500
129.69999248	0.00000000	18.55315000	3.57406500
129.89999246	0.00000000	17.39050000	3.19881900
130.09999245	0.00000000	16.27707000	3.19881900
130.29999244	0.00000000	15.85261000	3.57406500
130.49999243	0.00000000	15.85261000	4.31840500
130.69999242	0.00000000	16.22785000	4.69365100
130.89999241	0.00000000	17.01525000	4.73671200
131.09999239	0.00000000	17.76575000	4.73671200
131.29999238	0.00000000	18.55315000	4.73671200
131.49999237	0.00000000	18.92839000	4.73671200
131.69999236	0.00000000	18.97145000	4.69365100
131.89999235	0.00000000	18.92839000	4.31840500
132.09999233	0.00000000	18.55315000	3.57406500
132.29999232	0.00000000	17.80881000	3.19881900
132.49999231	0.00000000	17.43356000	3.15575800
132.69999230	0.00000000	17.39050000	3.19881900
132.89999229	0.00000000	17.39050000	3.57406500
133.09999227	0.00000000	17.39050000	4.36146600
133.29999226	0.00000000	17.39050000	5.11195900
133.49999225	0.00000000	17.39050000	5.89320800
133.69999224	0.00000000	17.39050000	6.26845500
133.89999223	0.00000000	17.39050000	6.26845500
134.09999222	0.00000000	17.39050000	5.89320800
134.29999220	0.00000000	17.39050000	5.11195900
134.49999219	0.00000000	17.39050000	4.36146600
134.69999218	0.00000000	17.43356000	3.57406500
134.89999217	0.00000000	17.80881000	3.19881900
135.09999216	0.00000000	18.55315000	3.15575800
135.29999214	0.00000000	18.87918000	3.19881900
135.49999213	0.00000000	18.55315000	3.57406500
135.69999212	0.00000000	17.80881000	4.31840500
135.89999211	0.00000000	17.39050000	4.73671200
136.09999210	0.00000000	16.97219000	5.15501900
136.29999208	0.00000000	16.27707000	5.89320800
136.49999207	0.00000000	16.22785000	6.26845500
136.69999206	0.00000000	16.59695000	6.26845500
136.89999205	0.00000000	16.60310000	5.89320800
137.09999204	0.00000000	17.05832000	5.11195900
137.29999203	0.00000000	17.76575000	4.36146600
137.49999201	0.00000000	18.55315000	3.57406500
137.69999200	0.00000000	18.92839000	3.19881900
137.89999199	0.00000000	18.97145000	3.15575800
138.09999198	0.00000000	18.92839000	3.15575800
138.29999197	0.00000000	18.55315000	3.15575800
138.49999195	0.00000000	17.76575000	3.19881900
138.69999194	0.00000000	17.01525000	3.57406500
138.89999193	0.00000000	16.22785000	4.31840500
139.09999192	0.00000000	15.90182000	4.73671200
139.29999191	0.00000000	16.22785000	5.15501900
139.49999189	0.00000000	16.97219000	5.89320800
139.69999188	0.00000000	17.39050000	6.21924200
139.89999187	0.00000000	17.80881000	5.89320800
140.09999186	0.00000000	18.55315000	5.15501900
140.29999185	0.00000000	18.92839000	4.73671200
140.49999184	0.00000000	18.92839000	4.31840500
140.69999182	0.00000000	18.55315000	3.57406500
140.89999181	0.00000000	17.76575000	3.19881900
141.09999180	0.00000000	17.05832000	3.15575800
141.29999179	0.00000000	16.60310000	3.19881900
141.49999178	0.00000000	16.64001000	3.57406500
141.69999176	0.00000000	16.60310000	4.36146600
141.89999175	0.00000000	17.01525000	5.11195900
142.09999174	0.00000000	17.34744000	5.89320800
142.29999173	0.00000000	17.39050000	6.26845500
142.49999172	0.00000000	17.39050000	6.26845500
142.69999170	0.00000000	17.39050000	5.89320800
142.89999169	0.00000000	17.39050000	5.11195900
143.09999168	0.00000000	17.39050000	4.36146600
143.29999167	0.00000000	17.39050000	3.57406500
143.49999166	0.00000000	17.39050000	3.19881900
143.69999165	0.00000000	17.39050000	3.15575800
143.89999163	0.00000000	17.39050000	3.15575800
144.09999162	0.00000000	17.39050000	3.19881900
144.29999161	0.00000000	17.43356000	3.57406500
144.49999160	0.00000000	17.76575000	4.36146600
144.69999159	0.00000000	18.13484000	5.11195900
144.89999157	0.00000000	17.76575000	5.89320800
145.09999156	0.00000000	17.43356000	6.26845500
145.29999155	0.00000000	17.34744000	6.26845500
145.49999154	0.00000000	16.97219000	5.89320800
145.69999153	0.00000000	16.27707000	5.11195900
145.89999151	0.00000000	16.27707000	4.36146600
146.09999150	0.00000000	16.97219000	3.57406500
146.29999149	0.00000000	17.34744000	3.19881900
146.49999148	0.00000000	17.39050000	3.15575800
146.69999147	0.00000000	17.39050000	3.19881900
146.89999146	0.00000000	17.43356000	3.57406500
147.09999144	0.00000000	17.76575000	4.31840500
147.29999143	0.00000000	18.13484000	4.73671200
147.49999142	0.00000000	17.76575000	5.11195900
147.69999141	0.00000000	17.43356000	5.47490100
147.89999140	0.00000000	17.39050000	5.11195900
148.09999138	0.00000000	17.34744000	4.77977300
148.29999137	0.00000000	17.01525000	4.69365100
148.49999136	0.00000000	16.64616000	4.31840500
148.69999135	0.00000000	17.01525000	3.57406500
148.89999134	0.00000000	17.34744000	3.19881900
149.09999132	0.00000000	17.39050000	3.15575800
149.29999131	0.00000000	17.39050000	3.15575800
149.49999130	0.00000000	17.43356000	3.19881900
149.69999129	0.00000000	17.80881000	3.57406500
149.89999128	0.00000000	18.55315000	4.31840500
150.09999127	0.00000000	18.87918000	4.69365100
150.29999125	0.00000000	18.55315000	4.73671200
150.49999124	0.00000000	17.80881000	4.73671200
150.69999123	0.00000000	17.43356000	4.73671200
150.89999122	0.00000000	17.39050000	4.73671200
151.09999121	0.00000000	17.34744000	4.73671200
151.29999119	0.00000000	17.01525000	4.73671200
151.49999118	0.00000000	16.64616000	4.73671200
151.69999117	0.00000000	17.01525000	4.69365100
151.89999116	0.00000000	17.34744000	4.31840500
152.09999115	0.00000000	17.39050000	3.62327700
152.29999113	0.00000000	17.39050000	3.57406500
152.49999112	0.00000000	17.39050000	3.94315900
152.69999111	0.00000000	17.43356000	3.94931100
152.89999110	0.00000000	17.76575000	4.36146600
153.09999109	0.00000000	18.13484000	4.69365100
153.29999108	0.00000000	17.76575000	4.73671200
153.49999106	0.00000000	17.43356000	4.73671200
153.69999105	0.00000000	17.34744000	4.73671200
153.89999104	0.00000000	16.97219000	4.73671200
154.09999103	0.00000000	16.22785000	4.73671200
154.29999102	0.00000000	15.85261000	4.73671200
154.49999100	0.00000000	15.85261000	4.73671200
154.69999099	0.00000000	16.22785000	4.69365100
154.89999098	0.00000000	16.97219000	4.31840500
155.09999097	0.00000000	17.34744000	3.57406500
155.29999096	0.00000000	17.43356000	3.19881900
155.49999094	0.00000000	17.80881000	3.15575800
155.69999093	0.00000000	18.55315000	3.19881900
155.89999092	0.00000000	18.87918000	3.57406500
156.09999091	0.00000000	18.55315000	4.31840500
156.29999090	0.00000000	17.80881000	4.69365100
156.49999089	0.00000000	17.39050000	4.73671200
156.69999087	0.00000000	16.97219000	4.73671200
156.89999086	0.00000000	16.22785000	4.73671200
157.09999085	0.00000000	15.85261000	4.73671200
157.29999084	0.00000000	15.85261000	4.73671200
157.49999083	0.00000000	16.22785000	4.73671200
157.69999081	0.00000000	16.97219000	4.69365100
157.89999080	0.00000000	17.34744000	4.31840500
158.09999079	0.00000000	17.39050000	3.57406500
158.29999078	0.00000000	17.39050000	3.19881900
158.49999077	0.00000000	17.39050000	3.15575800
158.69999075	0.00000000	17.39050000	3.19881900
158.89999074	0.00000000	17.39050000	3.57406500
159.09999073	0.00000000	17.39050000	4.31840500
159.29999072	0.00000000	17.39050000	4.69365100
159.49999071	0.00000000	17.39050000	4.73671200
159.69999070	0.00000000	17.39050000	4.73671200
159.89999068	0.00000000	17.34744000	4.73671200
160.09999067	0.00000000	16.97219000	4.73671200
160.29999066	0.00000000	16.22785000	4.73671200
160.49999065	0.00000000	15.90182000	4.69365100
160.69999064	0.00000000	16.22785000	4.31840500
160.89999062	0.00000000	16.97219000	3.57406500
161.09999061	0.00000000	17.34744000	3.19881900
161.29999060	0.00000000	17.39050000	3.15575800
161.49999059	0.00000000	17.39050000	3.15575800
161.69999058	0.00000000	17.39050000	3.19881900
161.89999056	0.00000000	17.39050000	3.57406500
162.09999055	0.00000000	17.39050000	4.31840500
162.29999054	0.00000000	17.39050000	4.69365100
162.49999053	0.00000000	17.39050000	4.73671200
162.69999052	0.00000000	17.39050000	4.73671200
162.89999051	0.00000000	17.34744000	4.73671200
163.09999049	0.00000000	16.97219000	4.73671200
163.29999048	0.00000000	16.22785000	4.73671200
163.49999047	0.00000000	15.85261000	4.73671200
163.69999046	0.00000000	15.80955000	4.73671200
163.89999045	0.00000000	15.85261000	4.69365100
164.09999043	0.00000000	16.22785000	4.31840500
164.29999042	0.00000000	16.97219000	3.57406500
164.49999041	0.00000000	17.34744000	3.19881900
164.69999040	0.00000000	17.43356000	3.19881900
164.89999039	0.00000000	17.76575000	3.53100400
165.09999037	0.00000000	18.13484000	3.94315900
165.29999036	0.00000000	17.76575000	3.94931100
165.49999035	0.00000000	17.43356000	4.36146600
165.69999034	0.00000000	17.34744000	4.69365100
165.89999033	0.00000000	16.97219000	4.73671200
166.09999032	0.00000000	16.22785000	4.73671200
166.29999030	0.00000000	15.85261000	4.73671200
166.49999029	0.00000000	15.80955000	4.73671200
166.69999028	0.00000000	15.85261000	4.73671200
166.89999027	0.00000000	16.22785000	4.73671200
167.09999026	0.00000000	16.97219000	4.73671200
167.29999024	0.00000000	17.34744000	4.73671200
167.49999023	0.00000000	17.39050000	4.73671200
167.69999022	0.00000000	17.39050000	4.73671200
167.89999021	0.00000000	17.39050000	4.73671200
168.09999020	0.00000000	17.39050000	4.73671200
168.29999018	0.00000000	17.39050000	4.73671200
168.49999017	0.00000000	17.34744000	4.69365100
168.69999016	0.00000000	17.01525000	4.36146600
168.89999015	0.00000000	16.64616000	3.94931100
169.09999014	0.00000000	16.97219000	3.94315900
169.29999013	0.00000000	16.97219000	3.53100400
169.49999011	0.00000000	16.64616000	3.19881900
169.69999010	0.00000000	17.01525000	3.15575800
169.89999009	0.00000000	17.34744000	3.19881900
170.09999008	0.00000000	17.39050000	3.57406500
170.29999007	0.00000000	17.39050000	4.26919300
170.49999005	0.00000000	17.39050000	4.26919300
170.69999004	0.00000000	17.39050000	3.62327700
170.89999003	0.00000000	17.39050000	3.57406500
171.09999002	0.00000000	17.39050000	3.90009800
171.29999001	0.00000000	17.39050000	3.53100400
171.49998999	0.00000000	17.39050000	3.19881900
171.69998998	0.00000000	17.39050000	3.15575800
171.89998997	0.00000000	17.39050000	3.15575800
172.09998996	0.00000000	17.39050000	3.19881900
172.29998995	0.00000000	17.34744000	3.53100400
172.49998994	0.00000000	16.97219000	3.94315900
172.69998992	0.00000000	16.27707000	3.90625000
172.89998991	0.00000000	16.22785000	3.94315900
173.09998990	0.00000000	16.59695000	3.57406500
173.29998989	0.00000000	16.60310000	3.62327700
173.49998988	0.00000000	17.01525000	4.31840500
173.69998986	0.00000000	17.34744000	4.69365100
173.89998985	0.00000000	17.39050000	4.69365100
174.09998984	0.00000000	17.39050000	4.36146600
174.29998983	0.00000000	17.39050000	3.94931100
174.49998982	0.00000000	17.39050000	3.98622000
174.69998980	0.00000000	17.39050000	3.94931100
174.89998979	0.00000000	17.39050000	4.36146600
175.09998978	0.00000000	17.39050000	4.69365100
175.29998977	0.00000000	17.39050000	4.73671200
175.49998976	0.00000000	17.39050000	4.73671200
175.69998975	0.00000000	17.39050000	4.73671200
175.89998973	0.00000000	17.39050000	4.69365100
176.09998972	0.00000000	17.39050000	4.36146600
176.29998971	0.00000000	17.39050000	3.99237200
176.49998970	0.00000000	17.39050000	4.36146600
176.69998969	0.00000000	17.39050000	4.64443900
176.89998967	0.00000000	17.34744000	4.31840500
177.09998966	0.00000000	17.01525000	3.62327700
177.29998965	0.00000000	16.64616000	3.62327700
177.49998964	0.00000000	16.97219000	4.31840500
177.69998963	0.00000000	16.92298000	4.69365100
177.89998961	0.00000000	16.27707000	4.73671200
178.09998960	0.00000000	16.27707000	4.69365100
178.29998959	0.00000000	16.92298000	4.36146600
178.49998958	0.00000000	16.97219000	3.99237200
178.69998957	0.00000000	16.64616000	4.36146600
178.89998956	0.00000000	17.01525000	4.64443900
179.09998954	0.00000000	17.34744000	4.36146600
179.29998953	0.00000000	17.39050000	3.99237200
179.49998952	0.00000000	17.39050000	4.36146600
179.69998951	0.00000000	17.39050000	4.69365100
179.89998950	0.00000000	17.39050000	4.69365100
180.09998948	0.00000000	17.39050000	4.31840500
180.29998947	0.00000000	17.39050000	3.57406500
180.49998946	0.00000000	17.34744000	3.24803100
180.69998945	0.00000000	16.97219000	3.57406500
180.89998944	0.00000000	16.22785000	4.26919300
181.09998942	0.00000000	15.85261000	4.31840500
181.29998941	0.00000000	15.80955000	3.99237200
181.49998940	0.00000000	15.85261000	4.36146600
181.69998939	0.00000000	16.22785000	4.69365100
181.89998938	0.00000000	16.97219000	4.73671200
182.09998937	0.00000000	17.34744000	4.73671200
182.29998935	0.00000000	17.39050000	4.69365100
182.49998934	0.00000000	17.39050000	4.31840500
182.69998933	0.00000000	17.39050000	3.57406500
182.89998932	0.00000000	17.39050000	3.19881900
183.09998931	0.00000000	17.39050000	3.15575800
183.29998929	0.00000000	17.39050000	3.15575800
183.49998928	0.00000000	17.34744000	3.15575800
183.69998927	0.00000000	17.01525000	3.19881900
183.89998926	0.00000000	16.60310000	3.57406500
184.09998925	0.00000000	16.64001000	4.31840500
184.29998923	0.00000000	16.60310000	4.69365100
184.49998922	0.00000000	16.97219000	4.73671200
184.69998921	0.00000000	16.97219000	4.73671200
184.89998920	0.00000000	16.60310000	4.73671200
185.09998919	0.00000000	16.64001000	4.73671200
185.29998918	0.00000000	16.60310000	4.69365100
185.49998916	0.00000000	17.01525000	4.31840500
185.69998915	0.00000000	17.34744000	3.57406500
185.89998914	0.00000000	17.39050000	3.19881900
186.09998913	0.00000000	17.34744000	3.15575800
186.29998912	0.00000000	16.97219000	3.15575800
186.49998910	0.00000000	16.22785000	3.15575800
186.69998909	0.00000000	15.85261000	3.19881900
186.89998908	0.00000000	15.80955000	3.57406500
187.09998907	0.00000000	15.80955000	4.31840500
187.29998906	0.00000000	15.80955000	4.69365100
187.49998904	0.00000000	15.80955000	4.73671200
187.69998903	0.00000000	15.85261000	4.73671200
187.89998902	0.00000000	16.18479000	4.73671200
188.09998901	0.00000000	16.59695000	4.73671200
188.29998900	0.00000000	16.60310000	4.69365100
188.49998899	0.00000000	17.01525000	4.31840500
188.69998897	0.00000000	17.34744000	3.57406500
188.89998896	0.00000000	17.34744000	3.19881900
189.09998895	0.00000000	16.97219000	3.19881900
189.29998894	0.00000000	16.22785000	3.53100400
189.49998893	0.00000000	15.85261000	3.90009800
189.69998891	0.00000000	15.80955000	3.57406500
189.89998890	0.00000000	15.80955000	3.62327700
190.09998889	0.00000000	15.80955000	4.31840500
190.29998888	0.00000000	15.85261000	4.69365100
190.49998887	0.00000000	16.18479000	4.73671200
190.69998885	0.00000000	16.55389000	4.73671200
190.89998884	0.00000000	16.22785000	4.73671200
191.09998883	0.00000000	16.27707000	4.73671200
191.29998882	0.00000000	16.97219000	4.73671200
191.49998881	0.00000000	17.34744000	4.73671200
191.69998880	0.00000000	17.39050000	4.69365100
191.89998878	0.00000000	17.34744000	4.31840500
192.09998877	0.00000000	17.01525000	3.57406500
192.29998876	0.00000000	16.64616000	3.19881900
192.49998875	0.00000000	16.97219000	3.15575800
192.69998874	0.00000000	16.92298000	3.15575800
192.89998872	0.00000000	16.22785000	3.15575800
193.09998871	0.00000000	15.85261000	3.19881900
193.29998870	0.00000000	15.80955000	3.57406500
193.49998869	0.00000000	15.80955000	4.31840500
193.69998868	0.00000000	15.85261000	4.69365100
193.89998866	0.00000000	16.22785000	4.73671200
194.09998865	0.00000000	16.92298000	4.73671200
194.29998864	0.00000000	16.97219000	4.73671200
194.49998863	0.00000000	16.64616000	4.73671200
194.69998862	0.00000000	16.97219000	4.69365100
194.89998861	0.00000000	16.92298000	4.31840500
195.09998859	0.00000000	16.22785000	3.57406500
195.29998858	0.00000000	15.85261000	3.19881900
195.49998857	0.00000000	15.80955000	3.15575800
195.69998856	0.00000000	15.80955000	3.15575800
195.89998855	0.00000000	15.80955000	3.15575800
196.09998853	0.00000000	15.80955000	3.15575800
