Time	Channel A	Channel B	Channel C
(us)	(V)	(mV)	(mV)

-4.53333289	0.00000000	12.64764000	7.89247000
-4.33333290	0.00000000	12.64764000	7.89247000
-4.13333291	0.00000000	12.64764000	7.89247000
-3.93333293	0.00000000	12.64764000	7.93553100
-3.73333294	0.00000000	12.64764000	8.26771600
-3.53333295	0.00000000	12.64764000	8.63681000
-3.33333296	0.00000000	12.64764000	8.26771600
-3.13333297	0.00000000	12.64764000	7.93553100
-2.93333299	0.00000000	12.64764000	7.89247000
-2.73333300	0.00000000	12.64764000	7.89247000
-2.53333301	0.00000000	12.64764000	7.89247000
-2.33333302	0.00000000	12.64764000	7.89247000
-2.13333303	0.00000000	12.64764000	7.89247000
-1.93333304	0.00000000	12.64764000	7.89247000
-1.73333306	0.00000000	12.64764000	7.93553100
-1.53333307	0.00000000	12.64764000	8.26771600
-1.33333308	0.00000000	12.64764000	8.63681000
-1.13333309	0.00000000	12.64764000	8.26771600
-0.93333310	0.00000000	12.60458000	7.93553100
-0.73333312	0.00000000	12.27239000	7.89247000
-0.53333313	0.00000000	11.90330000	7.89247000
-0.33333314	0.15871060	12.27239000	7.89247000
-0.13333315	0.47736220	12.60458000	7.89247000
0.06666684	0.95533960	12.64764000	7.89247000
0.26666682	0.95533960	12.64764000	7.89247000
0.46666681	0.95533960	12.64764000	7.89247000
0.66666680	0.47736220	12.64764000	7.89247000
0.86666679	-0.15871060	12.64764000	7.89247000
1.06666678	-1.27399100	12.64764000	7.89247000
1.26666677	-2.07062000	12.64764000	7.89247000
1.46666675	-2.70792300	12.64764000	7.93553100
1.66666674	-2.70792300	12.64764000	8.26771600
1.86666673	-1.75196900	12.64764000	8.67987200
2.06666672	0.00000000	12.64764000	8.68602300
2.26666671	2.07062000	12.64764000	9.05511800
2.46666669	3.98191400	12.64764000	9.00590400
2.66666668	5.09719500	12.64764000	8.31077700
2.86666667	5.25652100	12.64764000	7.93553100
3.06666666	3.66326300	12.60458000	7.89247000
3.26666665	0.95533960	12.27239000	7.89247000
3.46666663	-2.38927200	11.90330000	7.89247000
3.66666662	-5.57517200	12.27239000	7.89247000
3.86666661	-7.64579200	12.60458000	7.93553100
4.06666660	-7.80511800	12.64764000	8.31077700
4.26666659	-5.89382400	12.64764000	9.05511800
4.46666658	-2.54859700	12.64764000	9.43036400
4.66666656	1.91129400	12.64764000	9.47342500
4.86666655	6.05315000	12.64764000	9.43036400
5.06666654	8.76107300	12.64764000	9.05511800
5.26666653	9.39837600	12.64764000	8.31077700
5.46666652	7.64579200	12.60458000	7.93553100
5.66666650	3.98191400	12.22933000	7.89247000
5.86666649	-0.95533960	11.53420000	7.89247000
6.06666648	-5.41584600	11.53420000	7.89247000
6.26666647	-8.60174700	12.22933000	7.93553100
6.46666646	-9.55770200	12.60458000	8.31077700
6.66666644	-8.12377000	12.64764000	9.05511800
6.86666643	-4.77854300	12.64764000	9.43036400
7.06666642	-0.31803640	12.64764000	9.47342500
7.26666641	3.82258900	12.64764000	9.43036400
7.46666640	6.69045300	12.64764000	9.05511800
7.66666639	7.80511800	12.64764000	8.31077700
7.86666637	6.84916400	12.64764000	7.93553100
8.06666636	4.45989200	12.64764000	7.89247000
8.26666635	1.11466500	12.64764000	7.89247000
8.46666634	-1.91129400	12.64764000	7.89247000
8.66666633	-4.30056600	12.64764000	7.89247000
8.86666631	-5.09719500	12.64764000	7.89247000
9.06666630	-4.77854300	12.64764000	7.93553100
9.26666629	-3.34522600	12.64764000	8.31077700
9.46666628	-1.27399100	12.64764000	9.00590400
9.66666627	0.63668800	12.64764000	9.00590400
9.86666625	1.91129400	12.64764000	8.31077700
10.06666624	2.54859700	12.64764000	7.93553100
10.26666623	2.38927200	12.64764000	7.89247000
10.46666622	1.75196900	12.64764000	7.89247000
10.66666621	0.79601380	12.64764000	7.89247000
10.86666620	0.00000000	12.64764000	7.89247000
11.06666618	-0.63668800	12.64764000	7.89247000
11.26666617	-0.95533960	12.64764000	7.89247000
11.46666616	-0.95533960	12.64764000	7.89247000
11.66666615	-0.79601380	12.64764000	7.89247000
11.86666614	-0.47736220	12.64764000	7.89247000
12.06666612	-0.15871060	12.64764000	7.89247000
12.26666611	-0.15871060	12.64764000	7.89247000
12.46666610	-0.15871060	12.64764000	7.89247000
12.66666609	0.00000000	12.64764000	7.89247000
12.86666608	0.00000000	12.64764000	7.89247000
13.06666606	0.00000000	12.64764000	7.89247000
13.26666605	0.00000000	12.64764000	7.89247000
13.46666604	0.00000000	12.64764000	7.89247000
13.66666603	0.00000000	12.64764000	7.89247000
13.86666602	0.00000000	12.64764000	7.89247000
14.06666601	-0.15871060	12.64764000	7.93553100
14.26666599	-0.15871060	12.64764000	8.26771600
14.46666598	-0.15871060	12.64764000	8.63681000
14.66666597	0.00000000	12.64764000	8.26771600
14.86666596	0.00000000	12.64764000	7.93553100
15.06666595	0.00000000	12.64764000	7.89247000
15.26666593	0.00000000	12.64764000	7.89247000
15.46666592	0.00000000	12.60458000	7.89247000
15.66666591	0.00000000	12.27239000	7.89247000
15.86666590	0.00000000	11.86024000	7.89247000
16.06666589	0.00000000	11.89715000	7.89247000
16.26666587	0.00000000	11.86024000	7.89247000
16.46666586	-0.15871060	12.27239000	7.89247000
16.66666585	0.00000000	12.60458000	7.89247000
16.86666584	0.00000000	12.64764000	7.89247000
17.06666583	0.00000000	12.69070000	7.93553100
17.26666582	0.00000000	13.06594000	8.26771600
17.46666580	0.00000000	13.81028000	8.63681000
17.66666579	0.00000000	14.13632000	8.26771600
17.86666578	0.00000000	13.76107000	7.93553100
18.06666577	0.00000000	12.60458000	7.89247000
18.26666576	0.00000000	11.06668000	7.89247000
18.46666574	0.00000000	9.48572700	7.89247000
18.66666573	0.00000000	7.94783400	7.89247000
18.86666572	0.00000000	6.83439900	7.89247000
19.06666571	0.00000000	6.83439900	7.89247000
19.26666570	0.00000000	8.04010800	7.89247000
19.46666568	0.00000000	10.37155000	7.89247000
19.66666567	0.00000000	13.89641000	7.89247000
19.86666566	0.00000000	17.72268000	7.89247000
20.06666565	0.00000000	21.20448000	7.89247000
20.26666564	0.00000000	23.11762000	7.89247000
20.46666563	0.00000000	23.06841000	7.89247000
20.66666561	0.00000000	20.65084000	7.89247000
20.86666560	0.00000000	15.21284000	7.89247000
21.06666559	0.00000000	7.86171200	7.89247000
21.26666558	0.00000000	0.13533460	7.89247000
21.46666557	0.00000000	-6.32997000	7.89247000
21.66666555	0.00000000	-8.93823700	7.89247000
21.86666554	0.00000000	-6.24384800	7.89247000
22.06666553	0.00000000	1.15649600	7.89247000
22.26666552	0.00000000	12.03863000	7.89247000
22.46666551	0.00000000	24.78469000	7.89247000
22.66666549	0.00000000	36.33120000	7.93553100
22.86666548	0.00000000	43.59005000	8.31077700
23.06666547	0.00000000	44.28518000	9.05511800
23.26666546	0.00000000	37.26624000	9.43036400
23.46666545	0.00000000	23.72047000	9.51648500
23.66666544	0.00000000	6.28075700	9.89173200
23.86666542	0.00000000	-11.40502000	10.62992000
24.06666541	0.00000000	-24.88927000	10.95595000
24.26666540	0.00000000	-30.24729000	10.58686000
24.46666539	0.00000000	-26.33489000	9.42421200
24.66666538	0.00000000	-13.08440000	7.89247000
24.86666536	0.00000000	7.34498000	6.31151500
25.06666535	0.00000000	30.09350000	4.73671200
25.26666534	0.00000000	49.40330000	3.24803100
25.46666533	0.00000000	60.94365000	2.54675200
25.66666532	0.00000000	61.68799000	3.70939900
25.86666530	0.00000000	50.84891000	6.40378900
26.06666529	0.00000000	31.12082000	9.89173200
26.26666528	0.00000000	6.41609200	13.79183000
26.46666527	0.00000000	-17.49508000	17.23056000
26.66666526	0.00000000	-34.48573000	19.50664000
26.86666525	0.00000000	-41.04330000	19.46358000
27.06666523	0.00000000	-35.27313000	16.72613000
27.26666522	0.00000000	-18.71309000	11.65723000
27.46666521	0.00000000	4.09079700	4.69365100
27.66666520	0.00000000	28.46333000	-2.64517700
27.86666519	0.00000000	48.89272000	-8.78444900
28.06666517	0.00000000	60.52534000	-12.13091000
28.26666516	0.00000000	60.94365000	-10.54995000
28.46666515	0.00000000	50.56594000	-4.00467500
28.66666514	0.00000000	32.09276000	5.66560000
28.86666513	0.00000000	10.45768000	16.94759000
29.06666511	0.00000000	-9.31348400	27.68824000
29.26666510	0.00000000	-23.68356000	35.39616000
29.46666509	0.00000000	-29.87205000	37.62918000
29.66666508	0.00000000	-26.84547000	33.77214000
29.86666507	0.00000000	-15.63730000	24.02190000
30.06666506	0.00000000	0.92888770	10.12549000
30.26666504	0.00000000	19.06988000	-5.29650500
30.46666503	0.00000000	34.19045000	-18.39936000
30.66666502	0.00000000	43.59005000	-26.11343000
30.86666501	0.00000000	46.33366000	-26.85777000
31.06666500	0.00000000	42.09522000	-19.84498000
31.26666498	0.00000000	32.09276000	-6.36687900
31.46666497	0.00000000	18.92839000	10.62992000
31.66666496	0.00000000	5.38877900	27.26993000
31.86666495	0.00000000	-5.86860200	40.41584000
32.06666494	0.00000000	-12.47539000	47.29330000
32.26666492	0.00000000	-13.68110000	45.76156000
32.46666491	0.00000000	-9.40575800	36.14050000
32.66666490	0.00000000	-0.55979330	21.08760000
32.86666489	0.00000000	10.59916000	3.66633800
33.06666488	0.00000000	21.02608000	-12.59227000
33.26666487	0.00000000	28.42027000	-24.58169000
33.46666485	0.00000000	31.58218000	-29.92126000
33.66666484	0.00000000	30.46260000	-26.85777000
33.86666483	0.00000000	25.81201000	-16.12328000
34.06666482	0.00000000	18.46087000	-1.07037400
34.26666481	0.00000000	10.03937000	15.23130000
34.46666479	0.00000000	3.06348400	29.91511000
34.66666478	0.00000000	-0.79970470	39.95448000
34.86666477	0.00000000	-1.26107300	43.02411000
35.06666476	0.00000000	1.80856300	38.42273000
35.26666475	0.00000000	6.79133800	27.26993000
35.46666473	0.00000000	12.60458000	12.62918000
35.66666472	0.00000000	17.99951000	-2.04847400
35.86666471	0.00000000	21.44439000	-13.61343000
36.06666470	0.00000000	22.23179000	-19.42667000
36.26666469	0.00000000	19.90650000	-18.31324000
36.46666468	0.00000000	15.34203000	-11.01132000
36.66666466	0.00000000	9.99630800	0.51058070
36.86666465	0.00000000	5.76402500	13.19513000
37.06666464	0.00000000	3.80782500	23.60359000
37.26666463	0.00000000	4.18307100	29.36146000
37.46666462	0.00000000	6.83439900	29.02928000
37.66666460	0.00000000	10.69144000	22.90231000
37.86666459	0.00000000	14.60384000	13.37352000
38.06666458	0.00000000	18.46087000	2.97121000
38.26666457	0.00000000	21.11220000	-5.02583600
38.46666456	0.00000000	21.48745000	-8.55068800
38.66666454	0.00000000	19.58046000	-6.60679100
38.86666453	0.00000000	15.76649000	-0.14148620
39.06666452	0.00000000	11.53420000	9.09817800
39.26666451	0.00000000	7.94783400	18.21481000
39.46666450	0.00000000	4.87819900	24.38484000
39.66666449	0.00000000	2.97736200	25.51058000
39.86666447	0.00000000	3.34030500	21.69045000
40.06666446	0.00000000	5.29650500	13.61343000
40.26666445	0.00000000	8.79060000	3.66633800
40.46666444	0.00000000	13.39198000	-5.11811000
40.66666443	0.00000000	17.25517000	-10.12549000
40.86666441	0.00000000	20.04183000	-9.76254800
41.06666440	0.00000000	21.57972000	-4.78592500
41.26666439	0.00000000	21.57972000	3.70939900
41.46666438	0.00000000	19.99877000	13.65650000
41.66666437	0.00000000	16.87992000	22.10876000
41.86666435	0.00000000	12.64764000	26.71629000
42.06666434	0.00000000	8.41535400	26.38410000
42.26666433	0.00000000	5.29650500	21.41363000
42.46666432	0.00000000	3.71555100	13.74262000
42.66666431	0.00000000	3.71555100	5.24729300
42.86666430	0.00000000	5.25344500	-2.04847400
43.06666428	0.00000000	7.94783400	-6.32381900
43.26666427	0.00000000	11.02362000	-6.74212600
43.46666426	0.00000000	13.76107000	-3.72170300
43.66666425	0.00000000	15.71727000	1.71013800
43.86666424	0.00000000	16.87992000	8.21850300
44.06666422	0.00000000	16.87992000	14.39468000
44.26666421	0.00000000	15.80955000	18.21481000
44.46666420	0.00000000	14.69611000	19.08834000
44.66666419	0.00000000	14.27165000	17.23056000
44.86666418	0.00000000	14.22859000	14.16092000
45.06666416	0.00000000	14.22859000	10.62992000
45.26666415	0.00000000	14.18553000	6.77903500
45.46666414	0.00000000	13.71801000	3.75246000
45.66666413	0.00000000	12.13706000	2.50369100
45.86666412	0.00000000	9.44266700	2.87278500
46.06666411	0.00000000	6.36687900	4.03543200
46.26666409	0.00000000	3.71555100	6.36072800
46.46666408	0.00000000	2.60211600	9.00590400
46.66666407	0.00000000	3.80782500	11.00517000
46.86666406	0.00000000	7.29576700	12.53691000
47.06666405	0.00000000	12.73991000	13.28125000
47.26666403	0.00000000	18.87918000	12.49385000
47.46666402	0.00000000	24.27411000	10.62992000
47.66666401	0.00000000	27.34990000	8.26771600
47.86666400	0.00000000	27.30069000	5.98548200
48.06666399	0.00000000	23.81275000	4.03543200
48.26666397	0.00000000	17.25517000	3.29109200
48.46666396	0.00000000	9.48572700	3.62327700
48.66666395	0.00000000	1.75935000	4.87204700
48.86666394	0.00000000	-4.33070900	7.19734200
49.06666393	0.00000000	-6.19463500	10.62992000
49.26666392	0.00000000	-3.16806100	13.65650000
49.46666390	0.00000000	3.80782500	15.27436000
49.66666389	0.00000000	13.02288000	15.60654000
49.86666388	0.00000000	22.31791000	14.43775000
50.06666387	0.00000000	29.21383000	11.33120000
50.26666386	0.00000000	32.28346000	7.51722400
50.46666384	0.00000000	29.95817000	3.62327700
50.66666383	0.00000000	23.11762000	0.59670270
50.86666382	0.00000000	14.22859000	-0.55979330
51.06666381	0.00000000	5.33956700	0.55364170
51.26666380	0.00000000	-1.58710600	3.24803100
51.46666379	0.00000000	-4.66289300	6.77903500
51.66666377	0.00000000	-3.12500000	11.00517000
51.86666376	0.00000000	2.64517700	14.81299000
52.06666375	0.00000000	11.06668000	16.76919000
52.26666374	0.00000000	19.48819000	16.81225000
52.46666373	0.00000000	25.30143000	15.23130000
52.66666371	0.00000000	27.25763000	12.11860000
52.86666370	0.00000000	25.34449000	7.93553100
53.06666369	0.00000000	19.95571000	4.08464600
53.26666368	0.00000000	12.64764000	1.75319900
53.46666367	0.00000000	5.38877900	0.97194880
53.66666365	0.00000000	0.41215550	2.12844500
53.86666364	0.00000000	-0.38139760	4.77977300
54.06666363	0.00000000	2.60211600	7.84940900
54.26666362	0.00000000	8.04010800	10.58686000
54.46666361	0.00000000	14.56078000	12.45079000
54.66666360	0.00000000	20.69390000	12.86294000
54.86666358	0.00000000	24.13878000	11.38041000
55.06666357	0.00000000	24.18799000	9.51648500
55.26666356	0.00000000	21.11220000	7.93553100
55.46666355	0.00000000	15.71727000	6.82209600
55.66666354	0.00000000	9.62106200	6.82209600
55.86666352	0.00000000	4.60137700	7.93553100
56.06666351	0.00000000	2.26993100	9.47342500
56.26666350	0.00000000	2.60211600	11.00517000
56.46666349	0.00000000	5.33956700	12.07554000
56.66666348	0.00000000	9.90403500	11.65723000
56.86666346	0.00000000	14.92372000	9.38115100
57.06666345	0.00000000	18.79306000	6.36072800
57.26666344	0.00000000	21.11220000	3.61712600
57.46666343	0.00000000	21.11220000	1.75319900
57.66666342	0.00000000	18.83612000	1.39025600
57.86666341	0.00000000	15.39124000	3.33415300
58.06666339	0.00000000	11.53420000	6.77903500
58.26666338	0.00000000	8.45841400	11.04823000
58.46666337	0.00000000	6.87746000	15.27436000
58.66666336	0.00000000	6.87746000	18.30093000
58.86666335	0.00000000	8.37229300	19.04527000
59.06666333	0.00000000	10.69144000	16.72613000
59.26666332	0.00000000	12.97982000	12.11860000
59.46666331	0.00000000	14.92372000	6.31151500
59.66666330	0.00000000	15.71727000	0.55364170
59.86666329	0.00000000	15.76649000	-3.67249000
60.06666327	0.00000000	15.34203000	-5.20423200
60.26666326	0.00000000	14.22859000	-3.58021600
60.46666325	0.00000000	13.06594000	1.43946800
60.66666324	0.00000000	12.27239000	9.05511800
60.86666323	0.00000000	11.53420000	16.35089000
61.06666322	0.00000000	11.53420000	21.41363000
61.26666320	0.00000000	12.27239000	23.73892000
61.46666319	0.00000000	13.02288000	22.53322000
61.66666318	0.00000000	13.76107000	17.88263000
61.86666317	0.00000000	13.76107000	10.58686000
62.06666316	0.00000000	13.02288000	2.50369100
62.26666314	0.00000000	12.27239000	-4.00467500
62.46666313	0.00000000	11.48499000	-7.52952700
62.66666312	0.00000000	11.10974000	-7.11737200
62.86666311	0.00000000	11.06668000	-3.29724400
63.06666310	0.00000000	11.10974000	3.29109200
63.26666308	0.00000000	11.53420000	10.96211000
63.46666307	0.00000000	12.69070000	17.92569000
63.66666306	0.00000000	14.18553000	22.53322000
63.86666305	0.00000000	15.29897000	23.73892000
64.06666304	0.00000000	15.34203000	21.41363000
64.26666303	0.00000000	14.60384000	16.43701000
64.46666301	0.00000000	13.81028000	9.89173200
64.66666300	0.00000000	12.60458000	3.70939900
64.86666299	0.00000000	11.10974000	-0.97810030
65.06666298	0.00000000	9.99630800	-3.67249000
65.26666297	0.00000000	9.95324800	-3.71555100
65.46666295	0.00000000	10.69144000	-1.39640700
65.66666294	0.00000000	11.48499000	2.46063000
65.86666293	0.00000000	12.64764000	7.47416300
66.06666292	0.00000000	13.71801000	12.11860000
66.26666291	0.00000000	13.76107000	15.64960000
66.46666289	0.00000000	13.02288000	17.97490000
66.66666288	0.00000000	12.22933000	18.35015000
66.86666287	0.00000000	11.06668000	16.90453000
67.06666286	0.00000000	9.99630800	14.58538000
67.26666285	0.00000000	9.99630800	12.21087000
67.46666284	0.00000000	11.15896000	9.42421200
67.66666282	0.00000000	13.06594000	6.31151500
67.86666281	0.00000000	15.39124000	3.24803100
68.06666280	0.00000000	17.29823000	0.92888770
68.26666279	0.00000000	18.46087000	0.13533460
68.46666278	0.00000000	18.41781000	0.51058070
68.66666276	0.00000000	16.83686000	2.08538400
68.86666275	0.00000000	13.71801000	4.82283400
69.06666274	0.00000000	9.52879000	8.31077700
69.26666273	0.00000000	5.67175200	12.21087000
69.46666272	0.00000000	3.38951800	15.69882000
69.66666270	0.00000000	2.97736200	18.39321000
69.86666269	0.00000000	4.97047200	19.46358000
70.06666268	0.00000000	8.79060000	17.93184000
70.26666267	0.00000000	13.85334000	14.07480000
70.46666266	0.00000000	18.83612000	9.09817800
70.66666265	0.00000000	22.69316000	4.04158400
70.86666263	0.00000000	24.23105000	0.17839570
71.06666262	0.00000000	23.06841000	-2.14074800
71.26666261	0.00000000	19.58046000	-2.14074800
71.46666260	0.00000000	14.13632000	0.17839570
71.66666259	0.00000000	8.04010800	4.04158400
71.86666257	0.00000000	2.97736200	9.05511800
72.06666256	0.00000000	0.27066930	13.65650000
72.26666255	0.00000000	-0.14148620	16.76919000
72.46666254	0.00000000	2.22687000	17.92569000
72.66666253	0.00000000	6.83439900	16.81225000
72.86666251	0.00000000	12.64764000	14.11786000
73.06666250	0.00000000	18.41781000	10.67298000
73.26666249	0.00000000	22.65010000	7.19734200
73.46666248	0.00000000	24.23105000	4.91510800
73.66666247	0.00000000	23.11762000	4.08464600
73.86666246	0.00000000	19.99877000	4.82283400
74.06666244	0.00000000	15.34203000	6.31151500
74.26666243	0.00000000	9.99630800	7.84940900
74.46666242	0.00000000	5.76402500	9.00590400
74.66666241	0.00000000	3.75861200	9.38115100
74.86666240	0.00000000	3.71555100	9.00590400
75.06666238	0.00000000	5.29650500	7.89247000
75.26666237	0.00000000	8.37229300	6.77903500
75.46666236	0.00000000	12.18012000	6.44685000
75.66666235	0.00000000	15.25591000	7.19734200
75.86666234	0.00000000	16.87992000	9.18430000
76.06666232	0.00000000	17.29823000	11.79872000
76.26666231	0.00000000	16.87992000	14.48081000
76.46666230	0.00000000	15.39124000	15.60654000
76.66666229	0.00000000	13.48425000	15.23130000
76.86666228	0.00000000	12.31545000	13.23819000
77.06666227	0.00000000	11.53420000	9.43036400
77.26666225	0.00000000	11.53420000	5.19808000
77.46666224	0.00000000	12.22933000	1.71013800
77.66666223	0.00000000	12.55536000	-0.60285430
77.86666222	0.00000000	12.22933000	-0.93503930
78.06666221	0.00000000	11.44193000	0.97194880
78.26666219	0.00000000	10.69144000	4.82898600
78.46666218	0.00000000	9.90403500	9.47342500
78.66666217	0.00000000	9.57800100	14.11786000
78.86666216	0.00000000	9.95324800	17.93184000
79.06666215	0.00000000	11.10974000	19.46358000
79.26666213	0.00000000	12.69070000	18.35015000
79.46666212	0.00000000	14.64690000	15.27436000
79.66666211	0.00000000	16.87992000	11.00517000
79.86666210	0.00000000	17.99951000	6.35457700
80.06666209	0.00000000	17.25517000	2.12844500
80.26666208	0.00000000	15.34203000	-0.55979330
80.46666206	0.00000000	12.64764000	-0.97810030
80.66666205	0.00000000	9.95324800	0.51058070
80.86666204	0.00000000	7.99704600	3.24803100
81.06666203	0.00000000	6.83439900	6.68676100
81.26666202	0.00000000	6.87746000	10.21161000
81.46666200	0.00000000	8.41535400	12.91215000
81.66666199	0.00000000	11.06668000	14.90526000
81.86666198	0.00000000	13.76107000	15.69267000
82.06666197	0.00000000	15.71727000	15.69267000
82.26666196	0.00000000	16.92298000	14.85605000
82.46666194	0.00000000	17.25517000	12.53691000
82.66666193	0.00000000	16.50467000	9.51648500
82.86666192	0.00000000	14.56078000	6.72982200
83.06666191	0.00000000	12.31545000	4.40452700
83.26666190	0.00000000	10.37155000	2.41141700
83.46666189	0.00000000	9.57800100	1.29183100
83.66666187	0.00000000	9.52879000	0.92888770
83.86666186	0.00000000	9.95324800	2.17765700
84.06666185	0.00000000	11.06668000	5.19808000
84.26666184	0.00000000	12.18012000	9.05511800
84.46666183	0.00000000	12.60458000	12.53691000
84.66666181	0.00000000	12.64764000	15.27436000
84.86666180	0.00000000	12.64764000	16.81225000
85.06666179	0.00000000	12.69070000	16.81225000
85.26666178	0.00000000	13.06594000	15.23130000
85.46666177	0.00000000	13.81028000	12.11860000
85.66666175	0.00000000	14.18553000	7.89247000
85.86666174	0.00000000	14.22859000	3.66633800
86.06666173	0.00000000	14.18553000	0.55364170
86.26666172	0.00000000	13.81028000	-0.97810030
86.46666171	0.00000000	13.02288000	-0.55979330
86.66666170	0.00000000	12.22933000	2.12844500
86.86666168	0.00000000	11.06668000	6.35457700
87.06666167	0.00000000	9.95324800	11.00517000
87.26666166	0.00000000	9.57800100	15.23130000
87.46666165	0.00000000	9.95324800	17.88263000
87.66666164	0.00000000	11.10974000	17.92569000
87.86666162	0.00000000	12.64764000	15.60654000
88.06666161	0.00000000	14.18553000	11.74336000
88.26666160	0.00000000	15.34203000	6.72982200
88.46666159	0.00000000	15.71727000	2.17765700
88.66666158	0.00000000	15.34203000	-0.55979330
88.86666156	0.00000000	14.18553000	-0.93503930
89.06666155	0.00000000	12.69070000	1.02116100
89.26666154	0.00000000	11.48499000	5.24729300
89.46666153	0.00000000	10.69144000	10.58686000
89.66666152	0.00000000	9.95324800	15.18824000
89.86666151	0.00000000	9.95324800	17.92569000
90.06666149	0.00000000	10.69144000	18.30093000
90.26666148	0.00000000	11.48499000	16.35089000
90.46666147	0.00000000	12.64764000	12.11860000
90.66666146	0.00000000	13.76107000	6.77903500
90.86666145	0.00000000	14.18553000	2.12844500
91.06666143	0.00000000	14.18553000	-0.93503930
91.26666142	0.00000000	13.81028000	-1.63016700
91.46666141	0.00000000	13.06594000	1.01501000
91.66666140	0.00000000	12.73991000	5.93626900
91.86666139	0.00000000	13.06594000	10.95595000
92.06666137	0.00000000	13.81028000	15.23130000
92.26666136	0.00000000	14.18553000	17.92569000
92.46666135	0.00000000	14.18553000	18.25787000
92.66666134	0.00000000	13.76107000	15.97564000
92.86666133	0.00000000	12.64764000	11.38041000
93.06666132	0.00000000	11.48499000	6.40378900
93.26666130	0.00000000	10.69144000	2.12844500
93.46666129	0.00000000	9.90403500	-0.51673230
93.66666128	0.00000000	9.57800100	-0.51673230
93.86666127	0.00000000	9.95324800	2.12844500
94.06666126	0.00000000	11.15896000	6.35457700
94.26666124	0.00000000	13.06594000	10.95595000
94.46666123	0.00000000	15.39124000	14.76993000
94.66666122	0.00000000	17.29823000	16.34473000
94.86666121	0.00000000	18.41781000	15.60654000
95.06666120	0.00000000	18.04257000	13.28125000
95.26666118	0.00000000	16.09252000	9.43036400
95.46666117	0.00000000	13.39198000	5.29035400
95.66666116	0.00000000	9.90403500	2.54675200
95.86666115	0.00000000	6.87746000	1.75319900
96.06666114	0.00000000	5.29650500	2.50369100
96.26666113	0.00000000	5.29650500	4.87204700
96.46666111	0.00000000	6.87746000	8.26771600
96.66666110	0.00000000	9.95324800	11.74951000
96.86666109	0.00000000	13.81028000	14.03174000
97.06666108	0.00000000	17.29823000	14.81299000
97.26666107	0.00000000	20.04183000	13.65650000
97.46666105	0.00000000	21.57972000	11.04823000
97.66666104	0.00000000	21.53666000	8.35383800
97.86666103	0.00000000	19.58046000	6.40378900
98.06666102	0.00000000	15.76649000	5.24729300
98.26666101	0.00000000	11.48499000	5.19808000
98.46666099	0.00000000	7.62180000	5.93626900
98.66666098	0.00000000	4.55831700	6.68676100
98.86666097	0.00000000	3.80782500	7.51722400
99.06666096	0.00000000	5.25344500	8.26771600
99.26666095	0.00000000	7.94783400	9.05511800
99.46666094	0.00000000	11.10974000	9.43036400
99.66666092	0.00000000	14.60384000	9.51648500
99.86666091	0.00000000	18.04257000	9.89173200
100.06666090	0.00000000	19.95571000	10.62992000
100.26666089	0.00000000	20.04183000	11.00517000
100.46666088	0.00000000	18.87918000	11.04823000
100.66666086	0.00000000	16.92298000	10.95595000
100.86666085	0.00000000	14.18553000	10.21161000
101.06666084	0.00000000	11.10974000	8.68602300
101.26666083	0.00000000	8.41535400	7.47416300
101.46666082	0.00000000	6.83439900	5.89320800
101.66666080	0.00000000	6.41609200	4.08464600
101.86666079	0.00000000	6.83439900	3.70939900
102.06666078	0.00000000	8.41535400	4.82283400
102.26666077	0.00000000	11.06668000	6.77903500
102.46666076	0.00000000	13.76107000	9.47342500
102.66666075	0.00000000	15.71727000	12.16781000
102.86666073	0.00000000	16.92298000	14.07480000
103.06666072	0.00000000	17.29823000	14.85605000
103.26666071	0.00000000	16.92298000	14.03174000
103.46666070	0.00000000	15.71727000	11.79257000
103.66666069	0.00000000	13.81028000	8.68602300
103.86666067	0.00000000	11.48499000	5.98548200
104.06666066	0.00000000	9.57800100	3.61712600
104.26666065	0.00000000	8.41535400	2.12844500
104.46666064	0.00000000	8.37229300	2.12844500
104.66666063	0.00000000	9.15354300	3.66633800
104.86666061	0.00000000	10.32234000	6.36072800
105.06666060	0.00000000	12.27239000	9.42421200
105.26666059	0.00000000	14.13632000	12.11860000
105.46666058	0.00000000	15.34203000	13.65650000
105.66666057	0.00000000	15.71727000	13.69956000
105.86666056	0.00000000	15.34203000	12.53691000
106.06666054	0.00000000	14.18553000	10.58686000
106.26666053	0.00000000	12.69070000	7.93553100
106.46666052	0.00000000	11.53420000	5.61638700
106.66666051	0.00000000	11.10974000	4.49680100
106.86666050	0.00000000	11.10974000	4.45989200
107.06666048	0.00000000	11.53420000	6.02854300
107.26666047	0.00000000	12.64764000	8.21850300
107.46666046	0.00000000	13.76107000	10.21161000
107.66666045	0.00000000	14.22859000	11.38041000
107.86666044	0.00000000	14.60384000	12.16166000
108.06666042	0.00000000	14.92372000	12.07554000
108.26666041	0.00000000	14.13632000	10.58686000
108.46666040	0.00000000	12.64764000	8.31077700
108.66666039	0.00000000	11.15896000	6.40378900
108.86666038	0.00000000	10.37155000	5.24729300
109.06666037	0.00000000	10.69144000	5.24729300
109.26666035	0.00000000	11.06668000	6.36072800
109.46666034	0.00000000	11.53420000	7.89247000
109.66666033	0.00000000	12.64764000	9.47342500
109.86666032	0.00000000	13.76107000	11.00517000
110.06666031	0.00000000	14.18553000	12.16166000
110.26666029	0.00000000	14.22859000	12.53691000
110.46666028	0.00000000	14.18553000	12.11860000
110.66666027	0.00000000	13.76107000	10.58686000
110.86666026	0.00000000	12.64764000	8.35383800
111.06666025	0.00000000	11.53420000	6.77903500
111.26666023	0.00000000	11.10974000	5.93626900
111.46666022	0.00000000	11.06668000	5.19808000
111.66666021	0.00000000	11.10974000	5.24729300
111.86666020	0.00000000	11.48499000	6.31151500
112.06666019	0.00000000	12.22933000	7.47416300
112.26666018	0.00000000	12.64764000	8.31077700
112.46666016	0.00000000	13.06594000	9.47342500
112.66666015	0.00000000	13.81028000	10.58686000
112.86666014	0.00000000	14.13632000	10.95595000
113.06666013	0.00000000	13.81028000	10.62992000
113.26666012	0.00000000	13.06594000	9.84867000
113.46666010	0.00000000	12.69070000	9.09817800
113.66666009	0.00000000	12.64764000	8.31077700
113.86666008	0.00000000	12.64764000	7.93553100
114.06666007	0.00000000	12.60458000	7.89247000
114.26666006	0.00000000	12.27239000	7.89247000
114.46666004	0.00000000	11.90330000	7.89247000
114.66666003	0.00000000	12.27239000	7.84940900
114.86666002	0.00000000	12.60458000	7.51722400
115.06666001	0.00000000	12.64764000	7.14812900
115.26666000	0.00000000	12.64764000	7.51722400
115.46665999	0.00000000	12.64764000	7.84940900
115.66665997	0.00000000	12.64764000	7.93553100
115.86665996	0.00000000	12.64764000	8.35998900
116.06665995	0.00000000	12.64764000	9.47342500
116.26665994	0.00000000	12.64764000	10.58686000
116.46665993	0.00000000	12.60458000	11.00517000
116.66665991	0.00000000	12.27239000	11.04823000
116.86665990	0.00000000	11.90330000	10.95595000
117.06665989	0.00000000	12.27239000	10.21161000
117.26665988	0.00000000	12.60458000	8.68602300
117.46665987	0.00000000	12.69070000	7.56028500
117.66665985	0.00000000	13.06594000	6.72982200
117.86665984	0.00000000	13.81028000	6.35457700
118.06665983	0.00000000	14.18553000	6.31151500
118.26665982	0.00000000	14.22859000	6.35457700
118.46665981	0.00000000	14.18553000	6.77903500
118.66665980	0.00000000	13.76107000	7.89247000
118.86665978	0.00000000	12.64764000	9.05511800
119.06665977	0.00000000	11.48499000	9.84867000
119.26665976	0.00000000	10.69144000	10.58686000
119.46665975	0.00000000	9.95324800	10.62992000
119.66665974	0.00000000	9.99630800	10.26698000
119.86665972	0.00000000	11.10974000	10.25467000
120.06665971	0.00000000	12.64764000	9.79945900
120.26665970	0.00000000	14.18553000	9.09817800
120.46665969	0.00000000	15.34203000	8.31077700
120.66665968	0.00000000	15.76649000	7.89247000
120.86665966	0.00000000	15.76649000	7.47416300
121.06665965	0.00000000	15.34203000	6.77903500
121.26665964	0.00000000	14.18553000	6.77903500
121.46665963	0.00000000	12.69070000	7.47416300
121.66665962	0.00000000	11.48499000	7.84940900
121.86665961	0.00000000	10.69144000	7.93553100
122.06665959	0.00000000	9.90403500	8.31077700
122.26665958	0.00000000	9.57800100	9.05511800
122.46665957	0.00000000	9.95324800	9.43036400
122.66665956	0.00000000	11.10974000	9.47342500
122.86665955	0.00000000	12.60458000	9.47342500
123.06665953	0.00000000	13.81028000	9.47342500
123.26665952	0.00000000	14.60384000	9.47342500
123.46665951	0.00000000	15.39124000	9.43036400
123.66665950	0.00000000	15.71727000	9.05511800
123.86665949	0.00000000	15.39124000	8.31077700
124.06665947	0.00000000	14.60384000	7.93553100
124.26665946	0.00000000	13.85334000	7.89247000
124.46665945	0.00000000	13.02288000	7.89247000
124.66665944	0.00000000	12.27239000	7.89247000
124.86665943	0.00000000	11.48499000	7.93553100
125.06665942	0.00000000	11.10974000	8.31077700
125.26665940	0.00000000	11.06668000	9.05511800
125.46665939	0.00000000	11.10974000	9.43036400
125.66665938	0.00000000	11.53420000	9.47342500
125.86665937	0.00000000	12.64764000	9.47342500
126.06665936	0.00000000	13.81028000	9.47342500
126.26665934	0.00000000	14.60384000	9.47342500
126.46665933	0.00000000	15.34203000	9.43036400
126.66665932	0.00000000	15.34203000	9.05511800
126.86665931	0.00000000	14.60384000	8.31077700
127.06665930	0.00000000	13.81028000	7.93553100
127.26665928	0.00000000	12.64764000	7.89247000
127.46665927	0.00000000	11.48499000	7.89247000
127.66665926	0.00000000	10.69144000	7.89247000
127.86665925	0.00000000	9.95324800	7.93553100
128.06665924	0.00000000	9.99630800	8.31077700
128.26665923	0.00000000	11.06668000	9.05511800
128.46665921	0.00000000	12.22933000	9.43036400
128.66665920	0.00000000	13.02288000	9.47342500
128.86665919	0.00000000	13.81028000	9.47342500
129.06665918	0.00000000	14.18553000	9.43036400
129.26665917	0.00000000	14.22859000	9.05511800
129.46665915	0.00000000	14.18553000	8.31077700
129.66665914	0.00000000	13.76107000	7.93553100
129.86665913	0.00000000	12.64764000	7.89247000
130.06665912	0.00000000	11.53420000	7.89247000
130.26665911	0.00000000	11.10974000	7.93553100
130.46665909	0.00000000	11.06668000	8.31077700
130.66665908	0.00000000	11.10974000	9.05511800
130.86665907	0.00000000	11.53420000	9.43036400
131.06665906	0.00000000	12.64764000	9.47342500
131.26665905	0.00000000	13.76107000	9.47342500
131.46665904	0.00000000	14.18553000	9.43036400
131.66665902	0.00000000	14.22859000	9.05511800
131.86665901	0.00000000	14.18553000	8.31077700
132.06665900	0.00000000	13.81028000	7.93553100
132.26665899	0.00000000	13.06594000	7.89247000
132.46665898	0.00000000	12.69070000	7.89247000
132.66665896	0.00000000	12.64764000	7.93553100
132.86665895	0.00000000	12.64764000	8.31077700
133.06665894	0.00000000	12.64764000	9.05511800
133.26665893	0.00000000	12.69070000	9.47342500
133.46665892	0.00000000	13.02288000	9.89173200
133.66665890	0.00000000	13.39198000	10.58686000
133.86665889	0.00000000	13.02288000	10.58686000
134.06665888	0.00000000	12.69070000	9.84867000
134.26665887	0.00000000	12.64764000	9.09817800
134.46665886	0.00000000	12.64764000	8.26771600
134.66665885	0.00000000	12.64764000	7.51722400
134.86665883	0.00000000	12.69070000	6.72982200
135.06665882	0.00000000	13.06594000	6.40378900
135.26665881	0.00000000	13.81028000	6.72982200
135.46665880	0.00000000	14.13632000	7.47416300
135.66665879	0.00000000	13.81028000	7.89247000
135.86665877	0.00000000	13.06594000	8.31077700
136.06665876	0.00000000	12.64764000	9.05511800
136.26665875	0.00000000	12.22933000	9.43036400
136.46665874	0.00000000	11.48499000	9.47342500
136.66665873	0.00000000	11.15896000	9.47342500
136.86665871	0.00000000	11.48499000	9.47342500
137.06665870	0.00000000	12.27239000	9.43036400
137.26665869	0.00000000	13.02288000	9.05511800
137.46665868	0.00000000	13.81028000	8.31077700
137.66665867	0.00000000	14.18553000	7.93553100
137.86665866	0.00000000	14.22859000	7.89247000
138.06665864	0.00000000	14.18553000	7.89247000
138.26665863	0.00000000	13.81028000	7.89247000
138.46665862	0.00000000	13.06594000	7.89247000
138.66665861	0.00000000	12.64764000	7.93553100
138.86665860	0.00000000	12.22933000	8.31077700
139.06665858	0.00000000	11.53420000	9.05511800
139.26665857	0.00000000	11.53420000	9.43036400
139.46665856	0.00000000	12.22933000	9.47342500
139.66665855	0.00000000	12.64764000	9.47342500
139.86665854	0.00000000	13.06594000	9.47342500
140.06665852	0.00000000	13.81028000	9.43036400
140.26665851	0.00000000	14.18553000	9.05511800
140.46665850	0.00000000	14.18553000	8.31077700
140.66665849	0.00000000	13.81028000	7.89247000
140.86665848	0.00000000	13.11516000	7.51722400
141.06665847	0.00000000	13.06594000	7.14812900
141.26665845	0.00000000	13.39198000	7.56028500
141.46665844	0.00000000	13.02288000	8.26771600
141.66665843	0.00000000	12.69070000	9.09817800
141.86665842	0.00000000	12.69070000	9.84867000
142.06665841	0.00000000	13.02288000	10.62992000
142.26665839	0.00000000	13.39198000	10.95595000
142.46665838	0.00000000	13.02288000	10.62992000
142.66665837	0.00000000	12.69070000	9.84867000
142.86665836	0.00000000	12.64764000	9.09817800
143.06665835	0.00000000	12.64764000	8.31077700
143.26665834	0.00000000	12.64764000	7.89247000
143.46665832	0.00000000	12.64764000	7.47416300
143.66665831	0.00000000	12.64764000	6.72982200
143.86665830	0.00000000	12.64764000	6.40378900
144.06665829	0.00000000	12.64764000	6.72982200
144.26665828	0.00000000	12.69070000	7.51722400
144.46665826	0.00000000	13.02288000	8.26771600
144.66665825	0.00000000	13.43504000	9.05511800
144.86665824	0.00000000	13.39813000	9.47342500
145.06665823	0.00000000	13.43504000	9.84867000
145.26665822	0.00000000	13.02288000	10.21161000
145.46665820	0.00000000	12.69070000	9.79945900
145.66665819	0.00000000	12.64764000	9.09817800
145.86665818	0.00000000	12.64764000	8.31077700
146.06665817	0.00000000	12.64764000	7.93553100
146.26665816	0.00000000	12.64764000	7.89247000
146.46665815	0.00000000	12.69070000	7.89247000
146.66665813	0.00000000	13.06594000	7.89247000
146.86665812	0.00000000	13.81028000	7.93553100
147.06665811	0.00000000	14.13632000	8.31077700
147.26665810	0.00000000	13.85334000	9.05511800
147.46665809	0.00000000	13.44119000	9.43036400
147.66665807	0.00000000	13.43504000	9.47342500
147.86665806	0.00000000	13.02288000	9.47342500
148.06665805	0.00000000	12.69070000	9.47342500
148.26665804	0.00000000	12.64764000	9.47342500
148.46665803	0.00000000	12.64764000	9.43036400
148.66665801	0.00000000	12.64764000	9.05511800
148.86665800	0.00000000	12.64764000	8.31077700
149.06665799	0.00000000	12.64764000	7.93553100
149.26665798	0.00000000	12.64764000	7.89247000
149.46665797	0.00000000	12.69070000	7.89247000
149.66665796	0.00000000	13.06594000	7.93553100
149.86665794	0.00000000	13.81028000	8.31077700
150.06665793	0.00000000	14.13632000	9.05511800
150.26665792	0.00000000	13.81028000	9.43036400
150.46665791	0.00000000	13.06594000	9.47342500
150.66665790	0.00000000	12.69070000	9.47342500
150.86665788	0.00000000	12.64764000	9.43036400
151.06665787	0.00000000	12.64764000	9.09817800
151.26665786	0.00000000	12.64764000	8.68602300
151.46665785	0.00000000	12.64764000	8.67987200
151.66665784	0.00000000	12.64764000	8.26771600
151.86665782	0.00000000	12.64764000	7.93553100
152.06665781	0.00000000	12.64764000	7.89247000
152.26665780	0.00000000	12.69070000	7.89247000
152.46665779	0.00000000	13.06594000	7.89247000
152.66665778	0.00000000	13.81028000	7.93553100
152.86665777	0.00000000	14.18553000	8.31077700
153.06665775	0.00000000	14.18553000	9.05511800
153.26665774	0.00000000	13.81028000	9.43036400
153.46665773	0.00000000	13.06594000	9.47342500
153.66665772	0.00000000	12.64764000	9.47342500
153.86665771	0.00000000	12.27239000	9.47342500
154.06665769	0.00000000	11.86024000	9.47342500
154.26665768	0.00000000	11.89715000	9.47342500
154.46665767	0.00000000	11.86024000	9.43036400
154.66665766	0.00000000	12.27239000	9.05511800
154.86665765	0.00000000	12.60458000	8.31077700
155.06665763	0.00000000	12.69070000	7.93553100
155.26665762	0.00000000	13.06594000	7.89247000
155.46665761	0.00000000	13.81028000	7.89247000
155.66665760	0.00000000	14.18553000	7.89247000
155.86665759	0.00000000	14.22859000	7.93553100
156.06665758	0.00000000	14.18553000	8.31077700
156.26665756	0.00000000	13.81028000	9.05511800
156.46665755	0.00000000	13.06594000	9.47342500
156.66665754	0.00000000	12.64764000	9.84867000
156.86665753	0.00000000	12.22933000	10.21161000
157.06665752	0.00000000	11.53420000	9.84867000
157.26665750	0.00000000	11.53420000	9.51648500
157.46665749	0.00000000	12.22933000	9.47342500
157.66665748	0.00000000	12.60458000	9.43036400
157.86665747	0.00000000	12.64764000	9.05511800
158.06665746	0.00000000	12.69070000	8.31077700
158.26665744	0.00000000	13.06594000	7.93553100
158.46665743	0.00000000	13.81028000	7.89247000
158.66665742	0.00000000	14.18553000	7.89247000
158.86665741	0.00000000	14.18553000	7.93553100
159.06665740	0.00000000	13.81028000	8.31077700
159.26665739	0.00000000	13.06594000	9.05511800
159.46665737	0.00000000	12.69070000	9.43036400
159.66665736	0.00000000	12.64764000	9.47342500
159.86665735	0.00000000	12.64764000	9.47342500
160.06665734	0.00000000	12.64764000	9.47342500
160.26665733	0.00000000	12.64764000	9.47342500
160.46665731	0.00000000	12.64764000	9.43036400
160.66665730	0.00000000	12.64764000	9.05511800
160.86665729	0.00000000	12.64764000	8.31077700
161.06665728	0.00000000	12.64764000	7.93553100
161.26665727	0.00000000	12.69070000	7.89247000
161.46665725	0.00000000	13.02288000	7.89247000
161.66665724	0.00000000	13.39198000	7.89247000
161.86665723	0.00000000	13.06594000	7.93553100
162.06665722	0.00000000	13.11516000	8.31077700
162.26665721	0.00000000	13.76107000	9.05511800
162.46665720	0.00000000	13.76107000	9.43036400
162.66665718	0.00000000	13.06594000	9.47342500
162.86665717	0.00000000	12.69070000	9.47342500
163.06665716	0.00000000	12.64764000	9.47342500
163.26665715	0.00000000	12.64764000	9.47342500
163.46665714	0.00000000	12.64764000	9.43036400
163.66665712	0.00000000	12.64764000	9.05511800
163.86665711	0.00000000	12.64764000	8.35998900
164.06665710	0.00000000	12.69070000	8.31077700
164.26665709	0.00000000	13.02288000	8.63681000
164.46665708	0.00000000	13.43504000	8.31077700
164.66665706	0.00000000	13.44119000	8.31077700
164.86665705	0.00000000	13.85334000	8.63681000
165.06665704	0.00000000	14.18553000	8.26771600
165.26665703	0.00000000	14.22859000	7.93553100
165.46665702	0.00000000	14.18553000	7.89247000
165.66665701	0.00000000	13.81028000	7.93553100
165.86665699	0.00000000	13.06594000	8.31077700
166.06665698	0.00000000	12.69070000	9.05511800
166.26665697	0.00000000	12.64764000	9.43036400
166.46665696	0.00000000	12.64764000	9.43036400
166.66665695	0.00000000	12.64764000	9.05511800
166.86665693	0.00000000	12.64764000	8.31077700
167.06665692	0.00000000	12.64764000	7.93553100
167.26665691	0.00000000	12.64764000	7.89247000
167.46665690	0.00000000	12.69070000	7.89247000
167.66665689	0.00000000	13.02288000	7.89247000
167.86665687	0.00000000	13.43504000	7.93553100
168.06665686	0.00000000	13.39813000	8.26771600
168.26665685	0.00000000	13.43504000	8.63681000
168.46665684	0.00000000	13.02288000	8.26771600
168.66665683	0.00000000	12.69070000	7.98474400
168.86665682	0.00000000	12.64764000	8.26771600
169.06665680	0.00000000	12.64764000	8.67987200
169.26665679	0.00000000	12.64764000	8.68602300
169.46665678	0.00000000	12.64764000	9.09817800
169.66665677	0.00000000	12.64764000	9.38115100
169.86665676	0.00000000	12.64764000	9.09817800
170.06665674	0.00000000	12.64764000	8.72908400
170.26665673	0.00000000	12.64764000	9.05511800
170.46665672	0.00000000	12.64764000	9.05511800
170.66665671	0.00000000	12.64764000	8.68602300
170.86665670	0.00000000	12.64764000	8.67987200
171.06665668	0.00000000	12.64764000	8.26771600
171.26665667	0.00000000	12.64764000	7.93553100
171.46665666	0.00000000	12.64764000	7.93553100
171.66665665	0.00000000	12.64764000	8.26771600
171.86665664	0.00000000	12.64764000	8.63681000
172.06665663	0.00000000	12.64764000	8.26771600
172.26665661	0.00000000	12.64764000	7.93553100
172.46665660	0.00000000	12.64764000	7.89247000
172.66665659	0.00000000	12.64764000	7.93553100
172.86665658	0.00000000	12.64764000	8.31077700
173.06665657	0.00000000	12.64764000	9.05511800
173.26665655	0.00000000	12.64764000	9.43036400
173.46665654	0.00000000	12.64764000	9.47342500
173.66665653	0.00000000	12.64764000	9.43036400
173.86665652	0.00000000	12.64764000	9.05511800
174.06665651	0.00000000	12.64764000	8.31077700
174.26665649	0.00000000	12.64764000	7.93553100
174.46665648	0.00000000	12.64764000	7.89247000
174.66665647	0.00000000	12.64764000	7.89247000
174.86665646	0.00000000	12.64764000	7.93553100
175.06665645	0.00000000	12.64764000	8.31077700
175.26665644	0.00000000	12.64764000	9.00590400
175.46665642	0.00000000	12.64764000	9.00590400
175.66665641	0.00000000	12.69070000	8.35998900
175.86665640	0.00000000	13.02288000	8.35998900
176.06665639	0.00000000	13.39198000	9.05511800
176.26665638	0.00000000	13.02288000	9.43036400
176.46665636	0.00000000	12.69070000	9.43036400
176.66665635	0.00000000	12.64764000	9.05511800
176.86665634	0.00000000	12.64764000	8.31077700
177.06665633	0.00000000	12.64764000	7.98474400
177.26665632	0.00000000	12.64764000	8.26771600
177.46665630	0.00000000	12.64764000	8.63681000
177.66665629	0.00000000	12.64764000	8.26771600
177.86665628	0.00000000	12.64764000	7.93553100
178.06665627	0.00000000	12.64764000	7.93553100
178.26665626	0.00000000	12.64764000	8.31077700
178.46665625	0.00000000	12.64764000	9.05511800
178.66665623	0.00000000	12.64764000	9.43036400
178.86665622	0.00000000	12.64764000	9.47342500
179.06665621	0.00000000	12.64764000	9.47342500
179.26665620	0.00000000	12.64764000	9.43036400
179.46665619	0.00000000	12.64764000	9.05511800
179.66665617	0.00000000	12.64764000	8.31077700
179.86665616	0.00000000	12.64764000	7.93553100
180.06665615	0.00000000	12.64764000	7.89247000
180.26665614	0.00000000	12.64764000	7.89247000
180.46665613	0.00000000	12.64764000	7.89247000
180.66665611	0.00000000	12.64764000	7.93553100
180.86665610	0.00000000	12.64764000	8.31077700
181.06665609	0.00000000	12.64764000	9.05511800
181.26665608	0.00000000	12.64764000	9.43036400
181.46665607	0.00000000	12.64764000	9.47342500
181.66665606	0.00000000	12.64764000	9.47342500
181.86665604	0.00000000	12.64764000	9.47342500
182.06665603	0.00000000	12.64764000	9.47342500
182.26665602	0.00000000	12.69070000	9.43036400
182.46665601	0.00000000	13.02288000	9.05511800
182.66665600	0.00000000	13.39198000	8.31077700
182.86665598	0.00000000	13.02288000	7.93553100
183.06665597	0.00000000	12.69070000	7.89247000
183.26665596	0.00000000	12.64764000	7.93553100
183.46665595	0.00000000	12.64764000	8.26771600
183.66665594	0.00000000	12.64764000	8.67987200
183.86665592	0.00000000	12.64764000	8.68602300
184.06665591	0.00000000	12.64764000	9.09817800
184.26665590	0.00000000	12.64764000	9.43036400
184.46665589	0.00000000	12.64764000	9.47342500
184.66665588	0.00000000	12.64764000	9.47342500
184.86665587	0.00000000	12.64764000	9.47342500
185.06665585	0.00000000	12.64764000	9.47342500
185.26665584	0.00000000	12.69070000	9.47342500
185.46665583	0.00000000	13.02288000	9.43036400
185.66665582	0.00000000	13.39198000	9.05511800
185.86665581	0.00000000	13.02288000	8.31077700
186.06665579	0.00000000	12.73991000	7.93553100
186.26665578	0.00000000	13.02288000	7.89247000
186.46665577	0.00000000	13.39198000	7.89247000
186.66665576	0.00000000	13.02288000	7.89247000
186.86665575	0.00000000	12.69070000	7.93553100
187.06665573	0.00000000	12.64764000	8.31077700
187.26665572	0.00000000	12.64764000	9.05511800
187.46665571	0.00000000	12.64764000	9.43036400
187.66665570	0.00000000	12.64764000	9.47342500
187.86665569	0.00000000	12.64764000	9.47342500
188.06665568	0.00000000	12.64764000	9.47342500
188.26665566	0.00000000	12.69070000	9.43036400
188.46665565	0.00000000	13.02288000	9.05511800
188.66665564	0.00000000	13.39198000	8.31077700
188.86665563	0.00000000	13.02288000	7.93553100
189.06665562	0.00000000	12.69070000	7.89247000
189.26665560	0.00000000	12.64764000	7.89247000
189.46665559	0.00000000	12.64764000	7.89247000
189.66665558	0.00000000	12.64764000	7.93553100
189.86665557	0.00000000	12.64764000	8.31077700
190.06665556	0.00000000	12.64764000	9.05511800
190.26665554	0.00000000	12.64764000	9.43036400
190.46665553	0.00000000	12.64764000	9.47342500
190.66665552	0.00000000	12.64764000	9.47342500
190.86665551	0.00000000	12.64764000	9.47342500
191.06665550	0.00000000	12.64764000	9.47342500
191.26665549	0.00000000	12.69070000	9.47342500
191.46665547	0.00000000	13.02288000	9.47342500
191.66665546	0.00000000	13.39198000	9.43036400
191.86665545	0.00000000	13.06594000	9.09817800
192.06665544	0.00000000	13.06594000	8.68602300
192.26665543	0.00000000	13.39198000	8.67987200
192.46665541	0.00000000	13.02288000	8.26771600
192.66665540	0.00000000	12.69070000	7.98474400
192.86665539	0.00000000	12.64764000	8.26771600
193.06665538	0.00000000	12.64764000	8.63681000
193.26665537	0.00000000	12.64764000	8.31077700
193.46665535	0.00000000	12.64764000	8.35998900
193.66665534	0.00000000	12.64764000	9.00590400
193.86665533	0.00000000	12.64764000	9.05511800
194.06665532	0.00000000	12.69070000	8.72908400
194.26665531	0.00000000	13.02288000	9.09817800
194.46665530	0.00000000	13.39198000	9.38115100
194.66665528	0.00000000	13.06594000	9.09817800
194.86665527	0.00000000	13.06594000	8.68602300
195.06665526	0.00000000	13.39198000	8.67987200
195.26665525	0.00000000	13.02288000	8.26771600
195.46665524	0.00000000	12.69070000	7.93553100
195.66665522	0.00000000	12.64764000	7.89247000
195.86665521	0.00000000	12.64764000	7.89247000
196.06665520	0.00000000	12.64764000	7.89247000
