Time	Channel A	Channel B	Channel C
(us)	(V)	(mV)	(mV)

-4.49999956	0.00000000	-14.27165000	-9.47342500
-4.29999957	0.00000000	-14.64690000	-9.47342500
-4.09999958	0.00000000	-15.34203000	-9.47342500
-3.89999959	0.00000000	-15.34203000	-9.47342500
-3.69999960	0.00000000	-14.69611000	-9.47342500
-3.49999962	0.00000000	-14.64690000	-9.47342500
-3.29999963	0.00000000	-14.97293000	-9.47342500
-3.09999964	0.00000000	-14.60384000	-9.47342500
-2.89999965	0.00000000	-14.27165000	-9.47342500
-2.69999966	0.00000000	-14.22859000	-9.47342500
-2.49999968	0.00000000	-14.22859000	-9.47342500
-2.29999969	0.00000000	-14.22859000	-9.47342500
-2.09999970	0.00000000	-14.22859000	-9.47342500
-1.89999971	0.00000000	-14.27165000	-9.47342500
-1.69999972	0.00000000	-14.60384000	-9.47342500
-1.49999973	0.00000000	-15.01599000	-9.47342500
-1.29999975	0.00000000	-14.97908000	-9.47342500
-1.09999976	0.00000000	-15.01599000	-9.47342500
-0.89999977	0.00000000	-14.64690000	-9.47342500
-0.69999978	0.00000000	-14.64690000	-9.47342500
-0.49999979	0.00000000	-15.01599000	-9.47342500
-0.29999981	0.31803640	-14.97908000	-9.47342500
-0.09999982	0.63668800	-15.01599000	-9.47342500
0.10000017	0.95533960	-14.60384000	-9.47342500
0.30000016	0.95533960	-14.27165000	-9.47342500
0.50000015	0.79601380	-14.22859000	-9.47342500
0.70000013	0.31803640	-14.22859000	-9.47342500
0.90000012	-0.47736220	-14.27165000	-9.47342500
1.10000011	-1.43331700	-14.64690000	-9.47342500
1.30000010	-2.38927200	-15.34203000	-9.47342500
1.50000009	-2.70792300	-15.34203000	-9.47342500
1.70000008	-2.54859700	-14.64690000	-9.47342500
1.90000006	-1.43331700	-14.27165000	-9.47342500
2.10000005	0.47736220	-14.27165000	-9.47342500
2.30000004	2.54859700	-14.60384000	-9.47342500
2.50000003	4.45989200	-15.01599000	-9.47342500
2.70000002	5.25652100	-15.02214000	-9.47342500
2.90000000	4.93786900	-15.39124000	-9.51648500
3.09999999	3.02657500	-15.39124000	-9.84867000
3.29999998	0.00000000	-15.02214000	-10.21161000
3.49999997	-3.34522600	-15.05905000	-9.84867000
3.69999996	-6.21247500	-14.97908000	-9.47342500
3.89999994	-7.80511800	-15.01599000	-9.05511800
4.09999993	-7.48646600	-14.60384000	-8.31077700
4.29999992	-5.25652100	-14.27165000	-7.93553100
4.49999991	-1.27399100	-14.22859000	-7.93553100
4.69999990	3.02657500	-14.22859000	-8.31077700
4.89999989	7.00848900	-14.22859000	-9.05511800
5.09999987	9.23905000	-14.27165000	-9.43036400
5.29999986	9.23905000	-14.64690000	-9.51648500
5.49999985	6.84916400	-15.39124000	-9.89173200
5.69999984	2.70792300	-15.76649000	-10.58686000
5.89999983	-2.22994600	-15.80955000	-10.58686000
6.09999981	-6.37180100	-15.76649000	-9.89173200
6.29999980	-9.07972400	-15.39124000	-9.51648500
6.49999979	-9.39837600	-14.64690000	-9.43036400
6.69999978	-7.32714100	-14.32087000	-9.05511800
6.89999977	-3.66326300	-14.60384000	-8.31077700
7.09999975	0.79601380	-14.97293000	-7.98474400
7.29999974	4.61921700	-14.64690000	-8.31077700
7.49999973	7.16781500	-14.64690000	-9.05511800
7.69999972	7.80511800	-14.97293000	-9.43036400
7.89999971	6.37180100	-14.60384000	-9.47342500
8.09999970	3.50393700	-14.32087000	-9.51648500
8.29999968	0.31803640	-14.60384000	-9.84867000
8.49999967	-2.70792300	-14.97293000	-10.21161000
8.69999966	-4.61921700	-14.64690000	-9.84867000
8.89999965	-5.25652100	-14.64690000	-9.51648500
9.09999964	-4.45989200	-14.97293000	-9.47342500
9.29999962	-2.70792300	-14.60384000	-9.47342500
9.49999961	-0.79601380	-14.27165000	-9.47342500
9.69999960	0.95533960	-14.22859000	-9.47342500
9.89999959	2.07062000	-14.27165000	-9.47342500
10.09999958	2.54859700	-14.60384000	-9.47342500
10.29999956	2.22994600	-14.97293000	-9.47342500
10.49999955	1.43331700	-14.64690000	-9.47342500
10.69999954	0.63668800	-14.64690000	-9.47342500
10.89999953	-0.15871060	-15.01599000	-9.47342500
11.09999952	-0.79601380	-14.97908000	-9.47342500
11.29999951	-0.95533960	-15.01599000	-9.47342500
11.49999949	-0.95533960	-14.64690000	-9.47342500
11.69999948	-0.79601380	-14.69611000	-9.47342500
11.89999947	-0.47736220	-15.39124000	-9.47342500
12.09999946	-0.15871060	-15.71727000	-9.47342500
12.29999945	-0.15871060	-15.43430000	-9.51648500
12.49999943	0.00000000	-15.02214000	-9.84867000
12.69999942	0.00000000	-15.05905000	-10.21161000
12.89999941	0.00000000	-14.97908000	-9.84867000
13.09999940	0.00000000	-15.01599000	-9.51648500
13.29999939	0.00000000	-14.64690000	-9.47342500
13.49999937	0.00000000	-14.69611000	-9.47342500
13.69999936	0.00000000	-15.34203000	-9.47342500
13.89999935	0.00000000	-15.34203000	-9.47342500
14.09999934	-0.15871060	-14.69611000	-9.47342500
14.29999933	-0.15871060	-14.64690000	-9.47342500
14.49999932	-0.15871060	-14.97293000	-9.47342500
14.69999930	0.00000000	-14.64690000	-9.47342500
14.89999929	0.00000000	-14.69611000	-9.47342500
15.09999928	0.00000000	-15.39124000	-9.47342500
15.29999927	0.00000000	-15.76649000	-9.47342500
15.49999926	0.00000000	-15.80955000	-9.47342500
15.69999924	0.00000000	-15.80955000	-9.47342500
15.89999923	0.00000000	-15.80955000	-9.47342500
16.09999922	0.00000000	-15.80955000	-9.47342500
16.29999921	0.00000000	-15.76649000	-9.47342500
16.49999920	-0.15871060	-15.39124000	-9.47342500
16.69999919	-0.15871060	-14.64690000	-9.47342500
16.89999917	-0.15871060	-14.22859000	-9.47342500
17.09999916	0.00000000	-13.81028000	-9.47342500
17.29999915	0.00000000	-13.06594000	-9.47342500
17.49999914	0.00000000	-12.73991000	-9.51648500
17.69999913	0.00000000	-13.06594000	-9.84867000
17.89999911	0.00000000	-13.85334000	-10.21161000
18.09999910	0.00000000	-14.64690000	-9.84867000
18.29999909	0.00000000	-15.90182000	-9.51648500
18.49999908	0.00000000	-17.76575000	-9.47342500
18.69999907	0.00000000	-19.66658000	-9.47342500
18.89999905	0.00000000	-20.41708000	-9.47342500
19.09999904	0.00000000	-20.04183000	-9.47342500
19.29999903	0.00000000	-18.46087000	-9.47342500
19.49999902	0.00000000	-15.71727000	-9.47342500
19.69999901	0.00000000	-12.22933000	-9.47342500
19.89999900	0.00000000	-8.37229300	-9.47342500
20.09999898	0.00000000	-5.29650500	-9.47342500
20.29999897	0.00000000	-3.80782500	-9.47342500
20.49999896	0.00000000	-4.64443900	-9.47342500
20.69999895	0.00000000	-8.55068800	-9.47342500
20.89999894	0.00000000	-14.73917000	-9.47342500
21.09999892	0.00000000	-22.13336000	-9.47342500
21.29999891	0.00000000	-29.44143000	-9.47342500
21.49999890	0.00000000	-34.75024000	-9.47342500
21.69999889	0.00000000	-35.86368000	-9.47342500
21.89999888	0.00000000	-31.95743000	-9.47342500
22.09999886	0.00000000	-23.76968000	-9.47342500
22.29999885	0.00000000	-12.13706000	-9.51648500
22.49999884	0.00000000	0.55979330	-9.84867000
22.69999883	0.00000000	10.98671000	-10.21161000
22.89999882	0.00000000	16.70768000	-9.84867000
23.09999881	0.00000000	15.82185000	-9.47342500
23.29999879	0.00000000	7.22194800	-9.05511800
23.49999878	0.00000000	-7.80634800	-8.31077700
23.69999877	0.00000000	-25.99655000	-7.93553100
23.89999876	0.00000000	-42.93799000	-7.89247000
24.09999875	0.00000000	-54.84129000	-7.93553100
24.29999873	0.00000000	-57.87401000	-8.35998900
24.49999872	0.00000000	-50.89813000	-9.51648500
24.69999871	0.00000000	-35.40231000	-11.04823000
24.89999870	0.00000000	-14.09326000	-12.62918000
25.09999869	0.00000000	8.24311000	-14.16092000
25.29999867	0.00000000	26.33489000	-15.27436000
25.49999866	0.00000000	35.18085000	-15.23130000
25.69999865	0.00000000	32.48646000	-13.69956000
25.89999864	0.00000000	18.94070000	-10.96211000
26.09999863	0.00000000	-2.73745100	-7.43110200
26.29999862	0.00000000	-27.81742000	-3.20497000
26.49999860	0.00000000	-50.56594000	0.55979330
26.69999859	0.00000000	-65.22514000	2.09153500
26.89999858	0.00000000	-68.34399000	0.93503930
27.09999857	0.00000000	-59.45497000	-2.59596400
27.29999856	0.00000000	-40.56348000	-8.44611200
27.49999854	0.00000000	-16.22785000	-15.74188000
27.69999853	0.00000000	7.68946800	-22.71161000
27.89999852	0.00000000	25.87352000	-27.68824000
28.09999851	0.00000000	34.06742000	-29.58907000
28.29999850	0.00000000	31.41609000	-27.13459000
28.49999848	0.00000000	19.03297000	-20.20177000
28.69999847	0.00000000	-0.64591530	-9.71333600
28.89999846	0.00000000	-22.60704000	1.86392700
29.09999845	0.00000000	-41.59080000	12.63533000
29.29999844	0.00000000	-53.68479000	19.46973000
29.49999843	0.00000000	-57.17273000	19.84498000
29.69999841	0.00000000	-51.81471000	13.66265000
29.89999840	0.00000000	-38.70571000	2.04847400
30.09999839	0.00000000	-21.71506000	-12.62918000
30.29999838	0.00000000	-4.26919300	-27.31299000
30.49999837	0.00000000	10.00861000	-38.92716000
30.69999835	0.00000000	17.82726000	-45.01722000
30.89999834	0.00000000	18.28863000	-43.84842000
31.09999833	0.00000000	12.14321000	-34.93479000
31.29999832	0.00000000	0.93503930	-20.62008000
31.49999831	0.00000000	-12.60458000	-3.20497000
31.69999829	0.00000000	-25.76895000	13.70571000
31.89999828	0.00000000	-35.86368000	25.65207000
32.09999827	0.00000000	-40.89567000	29.92126000
32.29999826	0.00000000	-40.18824000	25.73819000
32.49999825	0.00000000	-34.04897000	14.54232000
32.69999824	0.00000000	-24.78469000	-0.97194880
32.89999822	0.00000000	-14.27165000	-18.39321000
33.09999821	0.00000000	-4.26919300	-34.19045000
33.29999820	0.00000000	2.65748000	-44.64198000
33.49999819	0.00000000	4.66289300	-47.76082000
33.69999818	0.00000000	2.05462600	-43.11023000
33.89999816	0.00000000	-3.75861200	-31.49606000
34.09999815	0.00000000	-11.48499000	-15.32357000
34.29999814	0.00000000	-19.58046000	1.67322800
34.49999813	0.00000000	-25.71973000	15.56963000
34.69999812	0.00000000	-28.50640000	23.73892000
34.89999810	0.00000000	-27.76821000	24.48942000
35.09999809	0.00000000	-24.32333000	17.98105000
35.29999808	0.00000000	-18.87918000	5.62253900
35.49999807	0.00000000	-12.78297000	-9.38730200
35.69999806	0.00000000	-7.76328700	-23.68971000
35.89999805	0.00000000	-5.43184000	-34.09818000
36.09999803	0.00000000	-5.80708600	-38.33046000
36.29999802	0.00000000	-8.87672100	-35.30389000
36.49999801	0.00000000	-13.85334000	-26.10728000
36.69999800	0.00000000	-18.83612000	-13.83489000
36.89999799	0.00000000	-22.69316000	-1.48253000
37.09999797	0.00000000	-24.23105000	7.76943800
37.29999796	0.00000000	-23.11762000	12.03863000
37.49999795	0.00000000	-20.04183000	10.45768000
37.69999794	0.00000000	-15.76649000	3.21112200
37.89999793	0.00000000	-11.15896000	-7.47416300
38.09999791	0.00000000	-7.29576700	-17.79035000
38.29999790	0.00000000	-5.38877900	-24.76009000
38.49999789	0.00000000	-5.71481200	-26.66708000
38.69999788	0.00000000	-8.08316900	-23.22835000
38.89999787	0.00000000	-11.90330000	-15.23130000
39.09999786	0.00000000	-16.55389000	-5.66560000
39.29999784	0.00000000	-20.41708000	2.38065900
39.49999783	0.00000000	-23.16068000	7.01894700
39.69999782	0.00000000	-24.32333000	6.56373000
39.89999781	0.00000000	-23.53592000	1.25492100
40.09999780	0.00000000	-21.20448000	-7.60949800
40.29999778	0.00000000	-17.34744000	-17.14444000
40.49999777	0.00000000	-13.11516000	-24.85236000
40.69999776	0.00000000	-9.57800100	-28.29109000
40.89999775	0.00000000	-6.83439900	-26.75935000
41.09999774	0.00000000	-5.33956700	-20.57702000
41.29999772	0.00000000	-5.71481200	-11.00517000
41.49999771	0.00000000	-8.04010800	-1.06422200
41.69999770	0.00000000	-11.53420000	6.27460600
41.89999769	0.00000000	-15.80955000	9.38730200
42.09999768	0.00000000	-19.99877000	7.85556000
42.29999767	0.00000000	-22.74237000	2.09768700
42.49999765	0.00000000	-23.53592000	-6.31151500
42.69999764	0.00000000	-22.82849000	-14.76993000
42.89999763	0.00000000	-20.83538000	-20.99532000
43.09999762	0.00000000	-18.17790000	-24.10802000
43.29999761	0.00000000	-15.06521000	-23.73892000
43.49999759	0.00000000	-12.78297000	-19.88189000
43.69999758	0.00000000	-11.53420000	-13.79183000
43.89999757	0.00000000	-11.15896000	-7.24040300
44.09999756	0.00000000	-11.48499000	-2.22071800
44.29999755	0.00000000	-12.22933000	0.55979330
44.49999753	0.00000000	-12.60458000	0.93503930
44.69999752	0.00000000	-12.69070000	-0.97194880
44.89999751	0.00000000	-13.02288000	-4.77977300
45.09999750	0.00000000	-13.43504000	-9.00590400
45.29999749	0.00000000	-13.48425000	-12.53691000
45.49999748	0.00000000	-14.36393000	-15.23130000
45.69999746	0.00000000	-16.27707000	-16.34473000
45.89999745	0.00000000	-19.01451000	-15.27436000
46.09999744	0.00000000	-22.04109000	-13.00443000
46.29999743	0.00000000	-24.32333000	-10.67298000
46.49999742	0.00000000	-24.69857000	-8.31077700
46.69999740	0.00000000	-23.06841000	-6.40378900
46.89999739	0.00000000	-19.15600000	-5.24729300
47.09999738	0.00000000	-13.02288000	-5.24729300
47.29999737	0.00000000	-6.87746000	-6.36072800
47.49999736	0.00000000	-2.22687000	-7.93553100
47.69999734	0.00000000	0.04921259	-9.89173200
47.89999733	0.00000000	-1.10728300	-12.21087000
48.09999732	0.00000000	-5.38877900	-14.07480000
48.29999731	0.00000000	-12.03863000	-14.85605000
48.49999730	0.00000000	-20.50935000	-14.07480000
48.69999729	0.00000000	-28.55561000	-12.16781000
48.89999727	0.00000000	-33.49532000	-9.42421200
49.09999726	0.00000000	-33.90748000	-6.36072800
49.29999725	0.00000000	-29.26304000	-3.66633800
49.49999724	0.00000000	-21.20448000	-2.17150600
49.69999723	0.00000000	-11.53420000	-2.54675200
49.89999721	0.00000000	-2.68823800	-4.82283400
50.09999720	0.00000000	3.12500000	-7.93553100
50.29999719	0.00000000	4.61368100	-11.42347000
50.49999718	0.00000000	1.16879900	-14.90526000
50.69999717	0.00000000	-6.55142700	-17.18750000
50.89999715	0.00000000	-16.14173000	-17.97490000
51.09999714	0.00000000	-25.39370000	-16.76919000
51.29999713	0.00000000	-31.48991000	-13.69956000
51.49999712	0.00000000	-32.74483000	-9.47342500
51.69999711	0.00000000	-29.30610000	-5.24729300
51.89999710	0.00000000	-22.74237000	-2.12844500
52.09999708	0.00000000	-14.27165000	-0.59670270
52.29999707	0.00000000	-6.22539300	-0.97194880
52.49999706	0.00000000	-1.24261800	-3.29109200
52.69999705	0.00000000	-0.41215550	-6.72982200
52.89999704	0.00000000	-3.89394600	-10.62992000
53.09999702	0.00000000	-10.37155000	-14.07480000
53.29999701	0.00000000	-18.08563000	-16.39395000
53.49999700	0.00000000	-24.56324000	-16.76919000
53.69999699	0.00000000	-28.08809000	-15.27436000
53.89999698	0.00000000	-27.72515000	-12.58612000
54.09999696	0.00000000	-24.27411000	-9.47342500
54.29999695	0.00000000	-18.46087000	-6.44685000
54.49999694	0.00000000	-11.57726000	-4.54601300
54.69999693	0.00000000	-5.85014700	-4.87204700
54.89999692	0.00000000	-3.15575800	-6.36072800
55.09999691	0.00000000	-4.26919300	-8.26771600
55.29999689	0.00000000	-8.45841400	-10.16855000
55.49999688	0.00000000	-14.22859000	-10.91289000
55.69999687	0.00000000	-19.99877000	-10.58686000
55.89999686	0.00000000	-24.27411000	-9.42421200
56.09999685	0.00000000	-26.18725000	-7.93553100
56.29999683	0.00000000	-25.39370000	-6.77903500
56.49999682	0.00000000	-21.57972000	-6.40378900
56.69999681	0.00000000	-16.22785000	-6.82209600
56.89999680	0.00000000	-11.20202000	-8.40305000
57.09999679	0.00000000	-7.34498000	-11.04823000
57.29999677	0.00000000	-5.80708600	-13.74262000
57.49999676	0.00000000	-6.92052100	-15.60654000
57.69999675	0.00000000	-9.95324800	-15.97564000
57.89999674	0.00000000	-13.81028000	-14.03174000
58.09999673	0.00000000	-17.29823000	-10.58686000
58.29999672	0.00000000	-19.99877000	-6.31151500
58.49999670	0.00000000	-21.16142000	-2.12844500
58.69999669	0.00000000	-20.41708000	0.55979330
58.89999668	0.00000000	-18.55315000	0.88582670
59.09999667	0.00000000	-16.22785000	-1.48253000
59.29999666	0.00000000	-14.27165000	-6.82209600
59.49999664	0.00000000	-12.69070000	-13.32431000
59.69999663	0.00000000	-11.57726000	-18.71924000
59.89999662	0.00000000	-11.57726000	-22.20103000
60.09999661	0.00000000	-12.69070000	-22.53322000
60.29999660	0.00000000	-14.18553000	-19.46358000
60.49999658	0.00000000	-15.34203000	-13.69956000
60.69999657	0.00000000	-15.76649000	-6.73597400
60.89999656	0.00000000	-15.80955000	-0.22760820
61.09999655	0.00000000	-15.76649000	4.41067900
61.29999654	0.00000000	-15.39124000	5.53641700
61.49999653	0.00000000	-14.64690000	3.25418300
61.69999651	0.00000000	-14.32087000	-2.17765700
61.89999650	0.00000000	-14.64690000	-9.47342500
62.09999649	0.00000000	-15.39124000	-16.81225000
62.29999648	0.00000000	-15.80955000	-22.57628000
62.49999647	0.00000000	-16.22785000	-25.27067000
62.69999645	0.00000000	-16.97219000	-24.15723000
62.89999644	0.00000000	-17.29823000	-19.88189000
63.09999643	0.00000000	-16.92298000	-13.28125000
63.29999642	0.00000000	-15.76649000	-5.24729300
63.49999641	0.00000000	-14.27165000	1.63016700
63.69999639	0.00000000	-13.11516000	5.16117100
63.89999638	0.00000000	-12.69070000	5.20423200
64.09999637	0.00000000	-12.69070000	2.14074800
64.29999636	0.00000000	-13.11516000	-3.24803100
64.49999635	0.00000000	-14.27165000	-9.47342500
64.69999634	0.00000000	-15.76649000	-15.64960000
64.89999632	0.00000000	-16.92298000	-20.62008000
65.09999631	0.00000000	-17.29823000	-22.57628000
65.29999630	0.00000000	-16.97219000	-21.50590000
65.49999629	0.00000000	-16.18479000	-18.43627000
65.69999628	0.00000000	-15.43430000	-14.16708000
65.89999626	0.00000000	-14.60384000	-9.51648500
66.09999625	0.00000000	-13.94562000	-5.24729300
66.29999624	0.00000000	-13.90871000	-2.12844500
66.49999623	0.00000000	-15.05905000	-0.55364170
66.69999622	0.00000000	-16.18479000	-0.51058070
66.89999620	0.00000000	-17.34744000	-1.66707700
67.09999619	0.00000000	-18.08563000	-3.61712600
67.29999618	0.00000000	-17.67347000	-6.40378900
67.49999617	0.00000000	-16.50467000	-9.84867000
67.69999616	0.00000000	-14.18553000	-13.32431000
67.89999615	0.00000000	-11.53420000	-15.69882000
68.09999613	0.00000000	-9.62106200	-17.32283000
68.29999612	0.00000000	-8.87672100	-18.39321000
68.49999611	0.00000000	-10.03937000	-17.97490000
68.69999610	0.00000000	-12.73991000	-15.64960000
68.89999609	0.00000000	-16.22785000	-12.16166000
69.09999607	0.00000000	-20.08489000	-7.93553100
69.29999606	0.00000000	-23.16068000	-3.99237200
69.49999605	0.00000000	-24.69857000	-0.91658460
69.69999604	0.00000000	-24.27411000	1.39025600
69.89999603	0.00000000	-21.57972000	1.31028500
70.09999601	0.00000000	-17.29823000	-0.92888770
70.29999600	0.00000000	-12.27239000	-4.87204700
70.49999599	0.00000000	-7.25270600	-9.84867000
70.69999598	0.00000000	-3.85088600	-14.90526000
70.89999597	0.00000000	-3.06348400	-18.71924000
71.09999596	0.00000000	-5.38877900	-20.66929000
71.29999594	0.00000000	-9.95324800	-19.88189000
71.49999593	0.00000000	-15.43430000	-16.85531000
71.69999592	0.00000000	-20.83538000	-12.58612000
71.89999591	0.00000000	-25.47982000	-7.93553100
72.09999590	0.00000000	-27.76821000	-3.70939900
72.29999588	0.00000000	-27.39296000	-1.01501000
72.49999587	0.00000000	-24.27411000	-0.59670270
72.69999586	0.00000000	-18.92839000	-2.08538400
72.89999585	0.00000000	-13.11516000	-4.77977300
73.09999584	0.00000000	-8.08316900	-7.89247000
73.29999582	0.00000000	-4.60137700	-10.96211000
73.49999581	0.00000000	-3.85088600	-13.28125000
73.69999580	0.00000000	-5.71481200	-14.07480000
73.89999579	0.00000000	-9.57800100	-13.69956000
74.09999578	0.00000000	-14.22859000	-12.21087000
74.29999577	0.00000000	-18.87918000	-10.31004000
74.49999575	0.00000000	-22.69316000	-9.19045200
74.69999574	0.00000000	-24.27411000	-8.77829600
74.89999573	0.00000000	-23.57899000	-9.55954600
75.09999572	0.00000000	-21.62278000	-10.96211000
75.29999571	0.00000000	-18.50394000	-11.74336000
75.49999569	0.00000000	-14.69611000	-11.33120000
75.69999568	0.00000000	-11.62032000	-10.21161000
75.89999567	0.00000000	-10.03937000	-8.21850300
76.09999566	0.00000000	-9.95324800	-5.98548200
76.29999565	0.00000000	-10.69144000	-4.03543200
76.49999563	0.00000000	-11.53420000	-3.29109200
76.69999562	0.00000000	-13.11516000	-3.70939900
76.89999561	0.00000000	-15.29897000	-5.70866100
77.09999560	0.00000000	-16.46161000	-9.51648500
77.29999559	0.00000000	-16.18479000	-13.74262000
77.49999558	0.00000000	-15.85261000	-17.18750000
77.69999556	0.00000000	-15.80955000	-19.13140000
77.89999555	0.00000000	-15.80955000	-18.67618000
78.09999554	0.00000000	-15.85261000	-16.01870000
78.29999553	0.00000000	-16.22785000	-11.38041000
78.49999552	0.00000000	-16.97219000	-6.40378900
78.69999550	0.00000000	-17.29823000	-2.12844500
78.89999549	0.00000000	-16.92298000	0.60285430
79.09999548	0.00000000	-15.71727000	1.35334600
79.29999547	0.00000000	-13.81028000	0.18454720
79.49999546	0.00000000	-11.53420000	-3.29109200
79.69999544	0.00000000	-10.03937000	-7.89247000
79.89999543	0.00000000	-9.99630800	-12.53691000
80.09999542	0.00000000	-11.15896000	-16.39395000
80.29999541	0.00000000	-13.11516000	-18.35015000
80.49999540	0.00000000	-15.80955000	-18.39321000
80.69999539	0.00000000	-18.50394000	-16.85531000
80.89999537	0.00000000	-20.41708000	-14.11786000
81.09999536	0.00000000	-21.20448000	-10.62992000
81.29999535	0.00000000	-20.41708000	-6.77903500
81.49999534	0.00000000	-18.50394000	-3.70939900
81.69999533	0.00000000	-15.80955000	-2.08538400
81.89999531	0.00000000	-13.11516000	-1.66707700
82.09999530	0.00000000	-11.15896000	-2.08538400
82.29999529	0.00000000	-9.99630800	-3.66633800
82.49999528	0.00000000	-10.03937000	-6.36072800
82.69999527	0.00000000	-11.53420000	-9.42421200
82.89999525	0.00000000	-13.81028000	-12.16781000
83.09999524	0.00000000	-15.76649000	-14.16092000
83.29999523	0.00000000	-17.34744000	-15.74188000
83.49999522	0.00000000	-18.46087000	-16.85531000
83.69999521	0.00000000	-18.46087000	-16.81225000
83.89999520	0.00000000	-17.39050000	-15.23130000
84.09999518	0.00000000	-16.22785000	-12.16166000
84.29999517	0.00000000	-15.43430000	-8.31077700
84.49999516	0.00000000	-14.64690000	-4.82283400
84.69999515	0.00000000	-14.27165000	-2.08538400
84.89999514	0.00000000	-14.22859000	-0.59670270
85.09999512	0.00000000	-14.22859000	-0.97194880
85.29999511	0.00000000	-14.22859000	-3.29109200
85.49999510	0.00000000	-14.18553000	-6.77903500
85.69999509	0.00000000	-13.85334000	-11.04823000
85.89999508	0.00000000	-13.48425000	-15.27436000
86.09999506	0.00000000	-13.85334000	-18.35015000
86.29999505	0.00000000	-14.22859000	-19.50664000
86.49999504	0.00000000	-14.69611000	-18.35015000
86.69999503	0.00000000	-15.80955000	-15.23130000
86.89999502	0.00000000	-16.97219000	-10.62992000
87.09999501	0.00000000	-17.72268000	-5.61638700
87.29999499	0.00000000	-18.08563000	-1.80241100
87.49999498	0.00000000	-17.29823000	0.14148620
87.69999497	0.00000000	-15.80955000	-0.64591530
87.89999496	0.00000000	-14.27165000	-3.66633800
88.09999495	0.00000000	-13.06594000	-7.93553100
88.29999493	0.00000000	-12.31545000	-12.58612000
88.49999492	0.00000000	-11.95251000	-16.76919000
88.69999491	0.00000000	-12.69070000	-19.08834000
88.89999490	0.00000000	-13.85334000	-18.67618000
89.09999489	0.00000000	-15.02214000	-16.01870000
89.29999487	0.00000000	-16.55389000	-11.38041000
89.49999486	0.00000000	-17.29823000	-6.40378900
89.69999485	0.00000000	-17.34744000	-2.12844500
89.89999484	0.00000000	-16.97219000	0.51673230
90.09999483	0.00000000	-16.18479000	0.51673230
90.29999482	0.00000000	-15.43430000	-2.17765700
90.49999480	0.00000000	-14.64690000	-6.77903500
90.69999479	0.00000000	-14.27165000	-12.16166000
90.89999478	0.00000000	-14.22859000	-16.76919000
91.09999477	0.00000000	-14.22859000	-19.46358000
91.29999476	0.00000000	-14.22859000	-19.42052000
91.49999474	0.00000000	-14.22859000	-16.35089000
91.69999473	0.00000000	-14.22859000	-11.00517000
91.89999472	0.00000000	-14.22859000	-5.29035400
92.09999471	0.00000000	-14.22859000	-1.06422200
92.29999470	0.00000000	-14.22859000	0.51673230
92.49999468	0.00000000	-14.27165000	-0.59670270
92.69999467	0.00000000	-14.69611000	-3.70939900
92.89999466	0.00000000	-15.80955000	-8.40305000
93.09999465	0.00000000	-16.97219000	-14.07480000
93.29999464	0.00000000	-17.76575000	-18.58391000
93.49999463	0.00000000	-18.55315000	-19.46358000
93.69999461	0.00000000	-18.83612000	-17.64887000
93.89999460	0.00000000	-18.08563000	-14.85605000
94.09999459	0.00000000	-16.14173000	-10.58686000
94.29999458	0.00000000	-13.85334000	-5.66560000
94.49999457	0.00000000	-11.53420000	-2.22071800
94.69999455	0.00000000	-9.99630800	-1.01501000
94.89999454	0.00000000	-9.62106200	-2.17765700
95.09999453	0.00000000	-10.41462000	-5.24729300
95.29999452	0.00000000	-12.73991000	-9.47342500
95.49999451	0.00000000	-15.80955000	-13.65650000
95.69999449	0.00000000	-18.92839000	-16.35089000
95.89999448	0.00000000	-21.62278000	-16.76919000
96.09999447	0.00000000	-23.11762000	-15.27436000
96.29999446	0.00000000	-22.74237000	-12.53691000
96.49999445	0.00000000	-20.41708000	-9.09817800
96.69999444	0.00000000	-16.97219000	-5.66560000
96.89999442	0.00000000	-13.06594000	-3.75246000
97.09999441	0.00000000	-9.62106200	-3.70939900
97.29999440	0.00000000	-7.25270600	-5.19808000
97.49999439	0.00000000	-6.50221400	-7.51722400
97.69999438	0.00000000	-7.29576700	-9.79945900
97.89999436	0.00000000	-10.03937000	-11.74951000
98.09999435	0.00000000	-14.22859000	-12.53691000
98.29999434	0.00000000	-18.46087000	-12.58612000
98.49999433	0.00000000	-21.57972000	-12.16166000
98.69999432	0.00000000	-23.20374000	-11.04823000
98.89999430	0.00000000	-23.57899000	-9.89173200
99.09999429	0.00000000	-22.74237000	-9.09817800
99.29999428	0.00000000	-20.04183000	-8.31077700
99.49999427	0.00000000	-16.22785000	-7.93553100
99.69999426	0.00000000	-12.69070000	-7.89247000
99.89999425	0.00000000	-9.57800100	-7.84940900
100.09999423	0.00000000	-7.34498000	-7.47416300
100.29999422	0.00000000	-7.29576700	-6.72982200
100.49999421	0.00000000	-9.15354300	-6.40378900
100.69999420	0.00000000	-11.53420000	-6.77903500
100.89999419	0.00000000	-14.64690000	-7.93553100
101.09999417	0.00000000	-18.08563000	-9.47342500
101.29999416	0.00000000	-20.41708000	-11.04823000
101.49999415	0.00000000	-21.62278000	-12.58612000
101.69999414	0.00000000	-21.62278000	-13.69956000
101.89999413	0.00000000	-20.46014000	-13.69956000
102.09999411	0.00000000	-18.50394000	-12.53691000
102.29999410	0.00000000	-15.80955000	-10.58686000
102.49999409	0.00000000	-13.11516000	-7.89247000
102.69999408	0.00000000	-11.15896000	-5.24729300
102.89999407	0.00000000	-9.99630800	-3.66633800
103.09999406	0.00000000	-9.99630800	-3.29109200
103.29999404	0.00000000	-11.15896000	-4.08464600
103.49999403	0.00000000	-13.02288000	-6.40378900
103.69999402	0.00000000	-15.01599000	-9.47342500
103.89999401	0.00000000	-16.56004000	-12.53691000
104.09999400	0.00000000	-18.13484000	-14.85605000
104.29999398	0.00000000	-18.87918000	-15.64960000
104.49999397	0.00000000	-18.87918000	-15.23130000
104.69999396	0.00000000	-18.08563000	-13.28125000
104.89999395	0.00000000	-16.18479000	-9.89173200
105.09999394	0.00000000	-14.32087000	-6.82209600
105.29999392	0.00000000	-13.11516000	-4.82283400
105.49999391	0.00000000	-12.69070000	-3.70939900
105.69999390	0.00000000	-12.69070000	-4.12770700
105.89999389	0.00000000	-13.11516000	-6.36072800
106.09999388	0.00000000	-14.27165000	-9.05511800
106.29999387	0.00000000	-15.76649000	-11.38041000
106.49999385	0.00000000	-16.92298000	-13.32431000
106.69999384	0.00000000	-17.34744000	-14.07480000
106.89999383	0.00000000	-17.34744000	-13.69956000
107.09999382	0.00000000	-16.92298000	-12.16781000
107.29999381	0.00000000	-15.80955000	-9.89173200
107.49999379	0.00000000	-14.64690000	-7.98474400
107.69999378	0.00000000	-13.85334000	-6.77903500
107.89999377	0.00000000	-13.11516000	-6.40378900
108.09999376	0.00000000	-13.15822000	-6.82209600
108.29999375	0.00000000	-14.22859000	-8.35383800
108.49999374	0.00000000	-15.34203000	-10.58686000
108.69999372	0.00000000	-15.80955000	-12.16166000
108.89999371	0.00000000	-16.22785000	-12.96137000
109.09999370	0.00000000	-16.92298000	-13.28125000
109.29999369	0.00000000	-16.87992000	-12.11860000
109.49999368	0.00000000	-15.80955000	-9.89173200
109.69999366	0.00000000	-14.64690000	-7.98474400
109.89999365	0.00000000	-13.85334000	-6.77903500
110.09999364	0.00000000	-13.06594000	-6.35457700
110.29999363	0.00000000	-12.73991000	-6.35457700
110.49999362	0.00000000	-13.11516000	-6.77903500
110.69999360	0.00000000	-14.22859000	-7.93553100
110.89999359	0.00000000	-15.39124000	-9.47342500
111.09999358	0.00000000	-16.18479000	-11.00517000
111.29999357	0.00000000	-16.97219000	-12.16166000
111.49999356	0.00000000	-17.29823000	-12.53691000
111.69999355	0.00000000	-16.97219000	-12.21087000
111.89999353	0.00000000	-16.18479000	-11.42347000
112.09999352	0.00000000	-15.43430000	-10.62992000
112.29999351	0.00000000	-14.64690000	-9.47342500
112.49999350	0.00000000	-14.27165000	-8.35998900
112.69999349	0.00000000	-14.22859000	-7.93553100
112.89999347	0.00000000	-14.22859000	-7.89247000
113.09999346	0.00000000	-14.27165000	-7.93553100
113.29999345	0.00000000	-14.64690000	-8.31077700
113.49999344	0.00000000	-15.39124000	-9.05511800
113.69999343	0.00000000	-15.76649000	-9.47342500
113.89999341	0.00000000	-15.80955000	-9.89173200
114.09999340	0.00000000	-15.80955000	-10.62992000
114.29999339	0.00000000	-15.80955000	-11.00517000
114.49999338	0.00000000	-15.80955000	-11.04823000
114.69999337	0.00000000	-15.80955000	-11.04823000
114.89999336	0.00000000	-15.80955000	-11.04823000
115.09999334	0.00000000	-15.80955000	-11.04823000
115.29999333	0.00000000	-15.76649000	-11.00517000
115.49999332	0.00000000	-15.39124000	-10.62992000
115.69999331	0.00000000	-14.64690000	-9.84867000
115.89999330	0.00000000	-14.32087000	-9.09817800
116.09999328	0.00000000	-14.64690000	-8.31077700
116.29999327	0.00000000	-15.39124000	-7.89247000
116.49999326	0.00000000	-15.76649000	-7.51722400
116.69999325	0.00000000	-15.80955000	-7.19734200
116.89999324	0.00000000	-15.80955000	-7.93553100
117.09999322	0.00000000	-15.80955000	-9.05511800
117.29999321	0.00000000	-15.76649000	-9.84867000
117.49999320	0.00000000	-15.34203000	-10.67298000
117.69999319	0.00000000	-14.27165000	-11.42347000
117.89999318	0.00000000	-13.48425000	-12.16166000
118.09999317	0.00000000	-13.47810000	-12.16166000
118.29999315	0.00000000	-13.48425000	-11.42347000
118.49999314	0.00000000	-14.27165000	-10.67298000
118.69999313	0.00000000	-15.39124000	-9.84867000
118.89999312	0.00000000	-16.18479000	-9.09817800
119.09999311	0.00000000	-16.97219000	-8.26771600
119.29999309	0.00000000	-17.34744000	-7.56028500
119.49999308	0.00000000	-17.39050000	-7.14812900
119.69999307	0.00000000	-17.34744000	-7.56028500
119.89999306	0.00000000	-16.92298000	-8.26771600
120.09999305	0.00000000	-15.76649000	-9.05511800
120.29999303	0.00000000	-14.27165000	-9.47342500
120.49999302	0.00000000	-13.06594000	-9.89173200
120.69999301	0.00000000	-12.31545000	-10.62992000
120.89999300	0.00000000	-11.95251000	-11.00517000
121.09999299	0.00000000	-12.73991000	-11.04823000
121.29999298	0.00000000	-14.18553000	-11.00517000
121.49999296	0.00000000	-15.39124000	-10.62992000
121.69999295	0.00000000	-16.22785000	-9.89173200
121.89999294	0.00000000	-17.39050000	-9.47342500
122.09999293	0.00000000	-18.46087000	-9.05511800
122.29999292	0.00000000	-18.46087000	-8.31077700
122.49999290	0.00000000	-17.39050000	-7.98474400
122.69999289	0.00000000	-16.22785000	-8.26771600
122.89999288	0.00000000	-15.39124000	-8.63681000
123.09999287	0.00000000	-14.22859000	-8.31077700
123.29999286	0.00000000	-13.11516000	-8.35998900
123.49999284	0.00000000	-12.69070000	-9.05511800
123.69999283	0.00000000	-12.69070000	-9.47342500
123.89999282	0.00000000	-13.06594000	-9.89173200
124.09999281	0.00000000	-13.85334000	-10.62992000
124.29999280	0.00000000	-14.60384000	-11.00517000
124.49999279	0.00000000	-15.43430000	-11.00517000
124.69999277	0.00000000	-16.18479000	-10.62992000
124.89999276	0.00000000	-16.97219000	-9.89173200
125.09999275	0.00000000	-17.34744000	-9.51648500
125.29999274	0.00000000	-17.39050000	-9.43036400
125.49999273	0.00000000	-17.34744000	-9.05511800
125.69999271	0.00000000	-16.92298000	-8.31077700
125.89999270	0.00000000	-15.80955000	-7.98474400
126.09999269	0.00000000	-14.64690000	-8.31077700
126.29999268	0.00000000	-13.85334000	-9.05511800
126.49999267	0.00000000	-13.11516000	-9.43036400
126.69999265	0.00000000	-13.11516000	-9.47342500
126.89999264	0.00000000	-13.85334000	-9.51648500
127.09999263	0.00000000	-14.64690000	-9.89173200
127.29999262	0.00000000	-15.80955000	-10.62992000
127.49999261	0.00000000	-16.92298000	-10.95595000
127.69999260	0.00000000	-17.34744000	-10.62992000
127.89999258	0.00000000	-17.39050000	-9.89173200
128.09999257	0.00000000	-17.34744000	-9.51648500
128.29999256	0.00000000	-16.92298000	-9.43036400
128.49999255	0.00000000	-15.76649000	-9.09817800
128.69999254	0.00000000	-14.27165000	-8.68602300
128.89999252	0.00000000	-13.11516000	-8.72293300
129.09999251	0.00000000	-12.73991000	-8.68602300
129.29999250	0.00000000	-13.06594000	-9.09817800
129.49999249	0.00000000	-13.85334000	-9.47342500
129.69999248	0.00000000	-14.64690000	-9.84867000
129.89999246	0.00000000	-15.80955000	-10.21161000
130.09999245	0.00000000	-16.92298000	-9.84867000
130.29999244	0.00000000	-17.34744000	-9.51648500
130.49999243	0.00000000	-17.34744000	-9.47342500
130.69999242	0.00000000	-16.97219000	-9.47342500
130.89999241	0.00000000	-16.18479000	-9.43036400
131.09999239	0.00000000	-15.43430000	-9.09817800
131.29999238	0.00000000	-14.64690000	-8.72908400
131.49999237	0.00000000	-14.27165000	-9.09817800
131.69999236	0.00000000	-14.22859000	-9.47342500
131.89999235	0.00000000	-14.27165000	-9.89173200
132.09999233	0.00000000	-14.64690000	-10.62992000
132.29999232	0.00000000	-15.39124000	-11.00517000
132.49999231	0.00000000	-15.76649000	-11.00517000
132.69999230	0.00000000	-15.80955000	-10.62992000
132.89999229	0.00000000	-15.80955000	-9.89173200
133.09999227	0.00000000	-15.80955000	-9.47342500
133.29999226	0.00000000	-15.80955000	-9.05511800
133.49999225	0.00000000	-15.80955000	-8.31077700
133.69999224	0.00000000	-15.80955000	-7.93553100
133.89999223	0.00000000	-15.80955000	-7.93553100
134.09999222	0.00000000	-15.80955000	-8.31077700
134.29999220	0.00000000	-15.80955000	-9.09817800
134.49999219	0.00000000	-15.76649000	-9.84867000
134.69999218	0.00000000	-15.39124000	-10.62992000
134.89999217	0.00000000	-14.64690000	-11.00517000
135.09999216	0.00000000	-14.27165000	-11.04823000
135.29999214	0.00000000	-14.22859000	-11.00517000
135.49999213	0.00000000	-14.27165000	-10.62992000
135.69999212	0.00000000	-14.64690000	-9.84867000
135.89999211	0.00000000	-15.39124000	-9.09817800
136.09999210	0.00000000	-15.80955000	-8.31077700
136.29999208	0.00000000	-16.22785000	-7.93553100
136.49999207	0.00000000	-16.92298000	-7.89247000
136.69999206	0.00000000	-16.92298000	-7.93553100
136.89999205	0.00000000	-16.22785000	-8.31077700
137.09999204	0.00000000	-15.80955000	-9.05511800
137.29999203	0.00000000	-15.39124000	-9.47342500
137.49999201	0.00000000	-14.64690000	-9.89173200
137.69999200	0.00000000	-14.27165000	-10.62992000
137.89999199	0.00000000	-14.22859000	-11.00517000
138.09999198	0.00000000	-14.27165000	-11.04823000
138.29999197	0.00000000	-14.64690000	-11.00517000
138.49999195	0.00000000	-15.39124000	-10.62992000
138.69999194	0.00000000	-15.80955000	-9.89173200
138.89999193	0.00000000	-16.22785000	-9.51648500
139.09999192	0.00000000	-16.92298000	-9.43036400
139.29999191	0.00000000	-16.92298000	-9.05511800
139.49999189	0.00000000	-16.22785000	-8.31077700
139.69999188	0.00000000	-15.80955000	-7.98474400
139.89999187	0.00000000	-15.39124000	-8.31077700
140.09999186	0.00000000	-14.64690000	-9.05511800
140.29999185	0.00000000	-14.27165000	-9.47342500
140.49999184	0.00000000	-14.22859000	-9.89173200
140.69999182	0.00000000	-14.32087000	-10.62992000
140.89999181	0.00000000	-15.02214000	-11.00517000
141.09999180	0.00000000	-16.12943000	-11.04823000
141.29999179	0.00000000	-16.14173000	-11.00517000
141.49999178	0.00000000	-15.85261000	-10.62992000
141.69999176	0.00000000	-15.80955000	-9.84867000
141.89999175	0.00000000	-15.80955000	-9.09817800
142.09999174	0.00000000	-15.76649000	-8.31077700
142.29999173	0.00000000	-15.39124000	-7.93553100
142.49999172	0.00000000	-14.69611000	-7.93553100
142.69999170	0.00000000	-14.64690000	-8.31077700
142.89999169	0.00000000	-15.01599000	-9.09817800
143.09999168	0.00000000	-15.02214000	-9.84867000
143.29999167	0.00000000	-15.43430000	-10.62992000
143.49999166	0.00000000	-15.76649000	-11.00517000
143.69999165	0.00000000	-15.80955000	-11.04823000
143.89999163	0.00000000	-15.80955000	-11.00517000
144.09999162	0.00000000	-15.80955000	-10.62992000
144.29999161	0.00000000	-15.76649000	-9.84867000
144.49999160	0.00000000	-15.39124000	-9.09817800
144.69999159	0.00000000	-14.64690000	-8.31077700
144.89999157	0.00000000	-14.27165000	-7.93553100
145.09999156	0.00000000	-14.27165000	-7.93553100
145.29999155	0.00000000	-14.64690000	-8.31077700
145.49999154	0.00000000	-15.39124000	-9.05511800
145.69999153	0.00000000	-15.76649000	-9.47342500
145.89999151	0.00000000	-15.80955000	-9.89173200
146.09999150	0.00000000	-15.80955000	-10.62992000
146.29999149	0.00000000	-15.80955000	-11.00517000
146.49999148	0.00000000	-15.76649000	-11.04823000
146.69999147	0.00000000	-15.43430000	-11.00517000
146.89999146	0.00000000	-15.02214000	-10.62992000
147.09999144	0.00000000	-15.01599000	-9.89173200
147.29999143	0.00000000	-14.60384000	-9.47342500
147.49999142	0.00000000	-14.32087000	-9.05511800
147.69999141	0.00000000	-14.64690000	-8.35998900
147.89999140	0.00000000	-15.39124000	-8.35998900
148.09999138	0.00000000	-15.76649000	-9.05511800
148.29999137	0.00000000	-15.80955000	-9.43036400
148.49999136	0.00000000	-15.80955000	-9.51648500
148.69999135	0.00000000	-15.80955000	-9.89173200
148.89999134	0.00000000	-15.80955000	-10.62992000
149.09999132	0.00000000	-15.80955000	-11.00517000
149.29999131	0.00000000	-15.80955000	-11.00517000
149.49999130	0.00000000	-15.76649000	-10.62992000
149.69999129	0.00000000	-15.43430000	-9.89173200
149.89999128	0.00000000	-15.02214000	-9.51648500
150.09999127	0.00000000	-15.01599000	-9.47342500
150.29999125	0.00000000	-14.64690000	-9.47342500
150.49999124	0.00000000	-14.69611000	-9.47342500
150.69999123	0.00000000	-15.39124000	-9.47342500
150.89999122	0.00000000	-15.76649000	-9.47342500
151.09999121	0.00000000	-15.80955000	-9.47342500
151.29999119	0.00000000	-15.80955000	-9.47342500
151.49999118	0.00000000	-15.80955000	-9.47342500
151.69999117	0.00000000	-15.80955000	-9.51648500
151.89999116	0.00000000	-15.80955000	-9.84867000
152.09999115	0.00000000	-15.76649000	-10.25467000
152.29999113	0.00000000	-15.39124000	-10.21776000
152.49999112	0.00000000	-14.64690000	-10.25467000
152.69999111	0.00000000	-14.27165000	-9.84867000
152.89999110	0.00000000	-14.22859000	-9.51648500
153.09999109	0.00000000	-14.27165000	-9.47342500
153.29999108	0.00000000	-14.64690000	-9.47342500
153.49999106	0.00000000	-15.39124000	-9.47342500
153.69999105	0.00000000	-15.76649000	-9.47342500
153.89999104	0.00000000	-15.85261000	-9.47342500
154.09999103	0.00000000	-16.18479000	-9.47342500
154.29999102	0.00000000	-16.55389000	-9.47342500
154.49999100	0.00000000	-16.18479000	-9.47342500
154.69999099	0.00000000	-15.85261000	-9.47342500
154.89999098	0.00000000	-15.76649000	-9.47342500
155.09999097	0.00000000	-15.39124000	-9.47342500
155.29999096	0.00000000	-14.64690000	-9.47342500
155.49999094	0.00000000	-14.27165000	-9.51648500
155.69999093	0.00000000	-14.27165000	-9.84867000
155.89999092	0.00000000	-14.64690000	-10.21161000
156.09999091	0.00000000	-15.39124000	-9.84867000
156.29999090	0.00000000	-15.76649000	-9.51648500
156.49999089	0.00000000	-15.85261000	-9.47342500
156.69999087	0.00000000	-16.18479000	-9.43036400
156.89999086	0.00000000	-16.59695000	-9.09817800
157.09999085	0.00000000	-16.60310000	-8.72908400
157.29999084	0.00000000	-16.97219000	-9.09817800
157.49999083	0.00000000	-16.92298000	-9.47342500
157.69999081	0.00000000	-16.22785000	-9.89173200
157.89999080	0.00000000	-15.85261000	-10.62992000
158.09999079	0.00000000	-15.76649000	-11.00517000
158.29999078	0.00000000	-15.43430000	-11.04823000
158.49999077	0.00000000	-15.02214000	-11.00517000
158.69999075	0.00000000	-15.05905000	-10.62992000
158.89999074	0.00000000	-15.02214000	-9.89173200
159.09999073	0.00000000	-15.43430000	-9.51648500
159.29999072	0.00000000	-15.76649000	-9.47342500
159.49999071	0.00000000	-15.80955000	-9.43036400
159.69999070	0.00000000	-15.85261000	-9.09817800
159.89999068	0.00000000	-16.18479000	-8.72908400
160.09999067	0.00000000	-16.55389000	-9.09817800
160.29999066	0.00000000	-16.22785000	-9.43036400
160.49999065	0.00000000	-16.22785000	-9.51648500
160.69999064	0.00000000	-16.55389000	-9.89173200
160.89999062	0.00000000	-16.18479000	-10.62992000
161.09999061	0.00000000	-15.85261000	-11.00517000
161.29999060	0.00000000	-15.80955000	-11.04823000
161.49999059	0.00000000	-15.80955000	-11.04823000
161.69999058	0.00000000	-15.76649000	-11.00517000
161.89999056	0.00000000	-15.43430000	-10.62992000
162.09999055	0.00000000	-15.02214000	-9.89173200
162.29999054	0.00000000	-15.05905000	-9.51648500
162.49999053	0.00000000	-15.02214000	-9.47342500
162.69999052	0.00000000	-15.43430000	-9.47342500
162.89999051	0.00000000	-15.80955000	-9.47342500
163.09999049	0.00000000	-16.22785000	-9.47342500
163.29999048	0.00000000	-16.97219000	-9.47342500
163.49999047	0.00000000	-17.34744000	-9.51648500
163.69999046	0.00000000	-17.34744000	-9.89173200
163.89999045	0.00000000	-16.97219000	-10.62992000
164.09999043	0.00000000	-16.22785000	-11.00517000
164.29999042	0.00000000	-15.85261000	-11.00517000
164.49999041	0.00000000	-15.76649000	-10.67298000
164.69999040	0.00000000	-15.39124000	-10.31004000
164.89999039	0.00000000	-14.64690000	-10.62992000
165.09999037	0.00000000	-14.32087000	-10.58686000
165.29999036	0.00000000	-14.64690000	-9.93479300
165.49999035	0.00000000	-15.39124000	-9.93479300
165.69999034	0.00000000	-15.80955000	-10.58686000
165.89999033	0.00000000	-16.18479000	-10.58686000
166.09999032	0.00000000	-16.59695000	-9.89173200
166.29999030	0.00000000	-16.60310000	-9.56569900
166.49999029	0.00000000	-16.97219000	-9.84867000
166.69999028	0.00000000	-16.92298000	-10.21161000
166.89999027	0.00000000	-16.22785000	-9.89173200
167.09999026	0.00000000	-15.85261000	-9.93479300
167.29999024	0.00000000	-15.80955000	-10.62992000
167.49999023	0.00000000	-15.80955000	-11.00517000
167.69999022	0.00000000	-15.80955000	-11.04823000
167.89999021	0.00000000	-15.80955000	-11.04823000
168.09999020	0.00000000	-15.80955000	-11.00517000
168.29999018	0.00000000	-15.80955000	-10.62992000
168.49999017	0.00000000	-15.80955000	-9.89173200
168.69999016	0.00000000	-15.80955000	-9.51648500
168.89999015	0.00000000	-15.80955000	-9.51648500
169.09999014	0.00000000	-15.80955000	-9.89173200
169.29999013	0.00000000	-15.80955000	-10.58686000
169.49999011	0.00000000	-15.80955000	-10.62992000
169.69999010	0.00000000	-15.80955000	-10.31004000
169.89999009	0.00000000	-15.85261000	-10.67298000
170.09999008	0.00000000	-16.18479000	-11.00517000
170.29999007	0.00000000	-16.55389000	-11.00517000
170.49999005	0.00000000	-16.18479000	-10.67298000
170.69999004	0.00000000	-15.85261000	-10.26698000
170.89999003	0.00000000	-15.80955000	-10.30389000
171.09999002	0.00000000	-15.80955000	-10.26698000
171.29999001	0.00000000	-15.80955000	-10.67298000
171.49998999	0.00000000	-15.80955000	-11.00517000
171.69998998	0.00000000	-15.80955000	-11.04823000
171.89998997	0.00000000	-15.80955000	-11.04823000
172.09998996	0.00000000	-15.80955000	-11.04823000
172.29998995	0.00000000	-15.80955000	-11.04823000
172.49998994	0.00000000	-15.80955000	-11.04823000
172.69998992	0.00000000	-15.85261000	-11.04823000
172.89998991	0.00000000	-16.18479000	-11.04823000
173.09998990	0.00000000	-16.59695000	-11.04823000
173.29998989	0.00000000	-16.56004000	-11.04823000
173.49998988	0.00000000	-16.59695000	-11.04823000
173.69998986	0.00000000	-16.18479000	-11.04823000
173.89998985	0.00000000	-15.85261000	-11.04823000
174.09998984	0.00000000	-15.80955000	-11.04823000
174.29998983	0.00000000	-15.80955000	-11.04823000
174.49998982	0.00000000	-15.85261000	-11.04823000
174.69998980	0.00000000	-16.18479000	-11.04823000
174.89998979	0.00000000	-16.55389000	-11.04823000
175.09998978	0.00000000	-16.22785000	-11.04823000
175.29998977	0.00000000	-16.22785000	-11.04823000
175.49998976	0.00000000	-16.55389000	-11.04823000
175.69998975	0.00000000	-16.18479000	-11.04823000
175.89998973	0.00000000	-15.90182000	-11.04823000
176.09998972	0.00000000	-16.18479000	-11.04823000
176.29998971	0.00000000	-16.55389000	-11.04823000
176.49998970	0.00000000	-16.18479000	-11.04823000
176.69998969	0.00000000	-15.85261000	-11.04823000
176.89998967	0.00000000	-15.80955000	-11.04823000
177.09998966	0.00000000	-15.80955000	-11.04823000
177.29998965	0.00000000	-15.80955000	-11.04823000
177.49998964	0.00000000	-15.80955000	-11.04823000
177.69998963	0.00000000	-15.85261000	-11.04823000
177.89998961	0.00000000	-16.22785000	-11.04823000
178.09998960	0.00000000	-16.97219000	-11.04823000
178.29998959	0.00000000	-17.34744000	-11.04823000
178.49998958	0.00000000	-17.39050000	-11.04823000
178.69998957	0.00000000	-17.39050000	-11.04823000
178.89998956	0.00000000	-17.34744000	-11.04823000
179.09998954	0.00000000	-16.97219000	-11.04823000
179.29998953	0.00000000	-16.22785000	-11.04823000
179.49998952	0.00000000	-15.85261000	-11.04823000
179.69998951	0.00000000	-15.80955000	-11.04823000
179.89998950	0.00000000	-15.80955000	-11.04823000
180.09998948	0.00000000	-15.80955000	-11.04823000
180.29998947	0.00000000	-15.85261000	-11.04823000
180.49998946	0.00000000	-16.18479000	-11.04823000
180.69998945	0.00000000	-16.59695000	-11.04823000
180.89998944	0.00000000	-16.60310000	-11.04823000
181.09998942	0.00000000	-17.01525000	-11.00517000
181.29998941	0.00000000	-17.34744000	-10.62992000
181.49998940	0.00000000	-17.34744000	-9.89173200
181.69998939	0.00000000	-17.01525000	-9.51648500
181.89998938	0.00000000	-16.60310000	-9.51648500
182.09998937	0.00000000	-16.59695000	-9.89173200
182.29998935	0.00000000	-16.18479000	-10.62992000
182.49998934	0.00000000	-15.85261000	-11.00517000
182.69998933	0.00000000	-15.80955000	-11.04823000
182.89998932	0.00000000	-15.80955000	-11.04823000
183.09998931	0.00000000	-15.85261000	-11.04823000
183.29998929	0.00000000	-16.18479000	-11.04823000
183.49998928	0.00000000	-16.59695000	-11.04823000
183.69998927	0.00000000	-16.60310000	-11.04823000
183.89998926	0.00000000	-17.01525000	-11.04823000
184.09998925	0.00000000	-17.34744000	-11.04823000
184.29998923	0.00000000	-17.34744000	-11.00517000
184.49998922	0.00000000	-17.01525000	-10.62992000
184.69998921	0.00000000	-16.64616000	-9.93479300
184.89998920	0.00000000	-17.01525000	-9.89173200
185.09998919	0.00000000	-17.29823000	-10.25467000
185.29998918	0.00000000	-16.97219000	-10.26698000
185.49998916	0.00000000	-16.27707000	-10.67298000
185.69998915	0.00000000	-16.22785000	-11.00517000
185.89998914	0.00000000	-16.55389000	-11.04823000
186.09998913	0.00000000	-16.22785000	-11.09129000
186.29998912	0.00000000	-16.27707000	-11.42347000
186.49998910	0.00000000	-16.97219000	-11.79257000
186.69998909	0.00000000	-17.34744000	-11.42347000
186.89998908	0.00000000	-17.39050000	-11.09129000
187.09998907	0.00000000	-17.39050000	-11.04823000
187.29998906	0.00000000	-17.39050000	-11.04823000
187.49998904	0.00000000	-17.39050000	-11.04823000
187.69998903	0.00000000	-17.39050000	-11.04823000
187.89998902	0.00000000	-17.39050000	-11.04823000
188.09998901	0.00000000	-17.39050000	-11.04823000
188.29998900	0.00000000	-17.39050000	-11.04823000
188.49998899	0.00000000	-17.39050000	-11.04823000
188.69998897	0.00000000	-17.39050000	-11.09129000
188.89998896	0.00000000	-17.39050000	-11.46653000
189.09998895	0.00000000	-17.39050000	-12.21087000
189.29998894	0.00000000	-17.39050000	-12.58612000
189.49998893	0.00000000	-17.39050000	-12.58612000
189.69998891	0.00000000	-17.39050000	-12.21087000
189.89998890	0.00000000	-17.39050000	-11.46653000
190.09998889	0.00000000	-17.39050000	-11.04823000
190.29998888	0.00000000	-17.39050000	-10.67298000
190.49998887	0.00000000	-17.39050000	-10.31004000
190.69998885	0.00000000	-17.39050000	-10.67298000
190.89998884	0.00000000	-17.39050000	-11.00517000
191.09998883	0.00000000	-17.39050000	-11.04823000
191.29998882	0.00000000	-17.39050000	-11.04823000
191.49998881	0.00000000	-17.39050000	-11.04823000
191.69998880	0.00000000	-17.39050000	-11.04823000
191.89998878	0.00000000	-17.39050000	-11.04823000
192.09998877	0.00000000	-17.39050000	-11.04823000
192.29998876	0.00000000	-17.39050000	-11.04823000
192.49998875	0.00000000	-17.39050000	-11.04823000
192.69998874	0.00000000	-17.39050000	-11.04823000
192.89998872	0.00000000	-17.39050000	-11.04823000
193.09998871	0.00000000	-17.39050000	-11.04823000
193.29998870	0.00000000	-17.39050000	-11.04823000
193.49998869	0.00000000	-17.39050000	-11.04823000
193.69998868	0.00000000	-17.39050000	-11.04823000
193.89998866	0.00000000	-17.39050000	-11.04823000
194.09998865	0.00000000	-17.39050000	-11.04823000
194.29998864	0.00000000	-17.39050000	-11.04823000
194.49998863	0.00000000	-17.39050000	-11.04823000
194.69998862	0.00000000	-17.39050000	-11.04823000
194.89998861	0.00000000	-17.39050000	-11.04823000
195.09998859	0.00000000	-17.39050000	-11.04823000
195.29998858	0.00000000	-17.39050000	-11.04823000
195.49998857	0.00000000	-17.39050000	-11.04823000
195.69998856	0.00000000	-17.39050000	-11.04823000
195.89998855	0.00000000	-17.39050000	-11.04823000
196.09998853	0.00000000	-17.39050000	-11.04823000
