Time	Channel A	Channel B	Channel C
(us)	(V)	(mV)	(mV)

-4.49999956	0.00000000	9.48572700	-3.15575800
-4.29999957	0.00000000	9.48572700	-3.15575800
-4.09999958	0.00000000	9.48572700	-3.15575800
-3.89999959	0.00000000	9.48572700	-3.19881900
-3.69999960	0.00000000	9.48572700	-3.57406500
-3.49999962	0.00000000	9.48572700	-4.31840500
-3.29999963	0.00000000	9.48572700	-4.64443900
-3.09999964	0.00000000	9.48572700	-4.36146600
-2.89999965	0.00000000	9.48572700	-3.94931100
-2.69999966	0.00000000	9.48572700	-3.94315900
-2.49999968	0.00000000	9.48572700	-3.53100400
-2.29999969	0.00000000	9.48572700	-3.19881900
-2.09999970	0.00000000	9.44266700	-3.15575800
-1.89999971	0.00000000	9.11048200	-3.15575800
-1.69999972	0.00000000	8.74138700	-3.15575800
-1.49999973	0.00000000	9.11048200	-3.15575800
-1.29999975	0.00000000	9.44266700	-3.15575800
-1.09999976	0.00000000	9.48572700	-3.15575800
-0.89999977	0.00000000	9.48572700	-3.15575800
-0.69999978	0.00000000	9.48572700	-3.15575800
-0.49999979	0.00000000	9.48572700	-3.15575800
-0.29999981	0.15871060	9.48572700	-3.15575800
-0.09999982	0.63668800	9.48572700	-3.15575800
0.10000017	0.95533960	9.44266700	-3.19881900
0.30000016	0.95533960	9.11048200	-3.57406500
0.50000015	0.95533960	8.74138700	-4.31840500
0.70000013	0.47736220	9.11048200	-4.64443900
0.90000012	-0.31803640	9.44266700	-4.31840500
1.10000011	-1.27399100	9.48572700	-3.57406500
1.30000010	-2.22994600	9.48572700	-3.19881900
1.50000009	-2.70792300	9.48572700	-3.15575800
1.70000008	-2.54859700	9.48572700	-3.15575800
1.90000006	-1.59264300	9.48572700	-3.15575800
2.10000005	0.00000000	9.48572700	-3.15575800
2.30000004	2.07062000	9.48572700	-3.15575800
2.50000003	4.14124000	9.48572700	-3.15575800
2.70000002	5.25652100	9.48572700	-3.19881900
2.90000000	5.09719500	9.48572700	-3.53100400
3.09999999	3.50393700	9.44266700	-3.94315900
3.29999998	0.79601380	9.11048200	-3.94931100
3.49999997	-2.70792300	8.74138700	-4.31840500
3.69999996	-5.73449800	9.11048200	-4.26919300
3.89999994	-7.64579200	9.44266700	-3.57406500
4.09999993	-7.80511800	9.48572700	-3.19881900
4.29999992	-5.73449800	9.48572700	-3.15575800
4.49999991	-2.22994600	9.48572700	-3.15575800
4.69999990	2.22994600	9.48572700	-3.15575800
4.89999989	6.37180100	9.48572700	-3.15575800
5.09999987	8.92039900	9.48572700	-3.19881900
5.29999986	9.39837600	9.48572700	-3.57406500
5.49999985	7.48646600	9.48572700	-4.31840500
5.69999984	3.66326300	9.44266700	-4.69365100
5.89999983	-1.27399100	9.11048200	-4.69365100
6.09999981	-5.73449800	8.74138700	-4.31840500
6.29999980	-8.60174700	9.11048200	-3.57406500
6.49999979	-9.39837600	9.44266700	-3.19881900
6.69999978	-7.96444400	9.48572700	-3.15575800
6.89999977	-4.45989200	9.44266700	-3.15575800
7.09999975	0.00000000	9.11048200	-3.15575800
7.29999974	3.98191400	8.74138700	-3.15575800
7.49999973	6.84916400	9.11048200	-3.15575800
7.69999972	7.80511800	9.44266700	-3.19881900
7.89999971	6.69045300	9.48572700	-3.57406500
8.09999970	4.14124000	9.48572700	-4.26919300
8.29999968	0.95533960	9.48572700	-4.31840500
8.49999967	-2.07062000	9.48572700	-3.94931100
8.69999966	-4.30056600	9.48572700	-3.94315900
8.89999965	-5.25652100	9.48572700	-3.53100400
9.09999964	-4.61921700	9.48572700	-3.19881900
9.29999962	-3.18590100	9.48572700	-3.15575800
9.49999961	-1.27399100	9.48572700	-3.15575800
9.69999960	0.63668800	9.48572700	-3.15575800
9.89999959	1.91129400	9.48572700	-3.15575800
10.09999958	2.54859700	9.44266700	-3.15575800
10.29999956	2.38927200	9.06742000	-3.15575800
10.49999955	1.75196900	8.37229300	-3.15575800
10.69999954	0.79601380	8.37229300	-3.15575800
10.89999953	0.00000000	9.06742000	-3.15575800
11.09999952	-0.63668800	9.44266700	-3.15575800
11.29999951	-0.95533960	9.48572700	-3.15575800
11.49999949	-0.95533960	9.48572700	-3.15575800
11.69999948	-0.79601380	9.48572700	-3.15575800
11.89999947	-0.47736220	9.48572700	-3.15575800
12.09999946	-0.15871060	9.48572700	-3.15575800
12.29999945	-0.15871060	9.48572700	-3.15575800
12.49999943	0.00000000	9.48572700	-3.15575800
12.69999942	0.00000000	9.48572700	-3.15575800
12.89999941	0.00000000	9.48572700	-3.15575800
13.09999940	0.00000000	9.48572700	-3.15575800
13.29999939	0.00000000	9.48572700	-3.15575800
13.49999937	0.00000000	9.48572700	-3.19881900
13.69999936	0.00000000	9.48572700	-3.53100400
13.89999935	0.00000000	9.48572700	-3.90009800
14.09999934	0.00000000	9.48572700	-3.53100400
14.29999933	-0.15871060	9.48572700	-3.19881900
14.49999932	-0.15871060	9.44266700	-3.15575800
14.69999930	-0.15871060	9.11048200	-3.15575800
14.89999929	0.00000000	8.74138700	-3.15575800
15.09999928	0.00000000	9.11048200	-3.15575800
15.29999927	0.00000000	9.39345400	-3.19881900
15.49999926	0.00000000	9.06742000	-3.53100400
15.69999924	0.00000000	8.32308000	-3.90009800
15.89999923	0.00000000	7.99704600	-3.53100400
16.09999922	0.00000000	8.32308000	-3.19881900
16.29999921	-0.15871060	9.06742000	-3.15575800
16.49999920	-0.15871060	9.44266700	-3.15575800
16.69999919	-0.15871060	9.48572700	-3.15575800
16.89999917	0.00000000	9.52879000	-3.15575800
17.09999916	0.00000000	9.90403500	-3.15575800
17.29999915	0.00000000	10.64838000	-3.15575800
17.49999914	0.00000000	11.02362000	-3.19881900
17.69999913	0.00000000	11.02362000	-3.53100400
17.89999911	0.00000000	10.59916000	-3.90009800
18.09999910	0.00000000	9.44266700	-3.57406500
18.29999909	0.00000000	7.90477300	-3.57406500
18.49999908	0.00000000	6.32381900	-3.94315900
18.69999907	0.00000000	4.78592500	-3.90625000
18.89999905	0.00000000	3.67249000	-3.94315900
19.09999904	0.00000000	3.67249000	-3.53100400
19.29999903	0.00000000	4.83513700	-3.19881900
19.49999902	0.00000000	6.83439900	-3.15575800
19.69999901	0.00000000	9.95324800	-3.15575800
19.89999900	0.00000000	13.81028000	-3.15575800
20.09999898	0.00000000	17.25517000	-3.15575800
20.29999897	0.00000000	19.58046000	-3.19881900
20.49999896	0.00000000	19.86343000	-3.53100400
20.69999895	0.00000000	17.48893000	-3.90009800
20.89999894	0.00000000	12.05093000	-3.53100400
21.09999892	0.00000000	4.74286400	-3.19881900
21.29999891	0.00000000	-2.60826800	-3.15575800
21.49999890	0.00000000	-8.42150500	-3.15575800
21.69999889	0.00000000	-11.40502000	-3.19881900
21.89999888	0.00000000	-10.14395000	-3.57406500
22.09999886	0.00000000	-3.54330700	-4.31840500
22.29999885	0.00000000	6.87746000	-4.69365100
22.49999884	0.00000000	18.92839000	-4.73671200
22.69999883	0.00000000	30.46875000	-4.69365100
22.89999882	0.00000000	38.51501000	-4.31840500
23.09999881	0.00000000	40.33587000	-3.57406500
23.29999879	0.00000000	34.89173000	-3.15575800
23.49999878	0.00000000	22.42864000	-2.73745100
23.69999877	0.00000000	5.48720400	-1.99311000
23.89999876	0.00000000	-12.27854000	-1.61786400
24.09999875	0.00000000	-26.15034000	-1.61786400
24.29999873	0.00000000	-33.04010000	-2.04232300
24.49999872	0.00000000	-30.61639000	-3.15575800
24.69999871	0.00000000	-18.24557000	-4.36146600
24.89999870	0.00000000	1.06422200	-5.57332700
25.09999869	0.00000000	23.11762000	-7.47416300
25.29999867	0.00000000	43.17175000	-8.96284400
25.49999866	0.00000000	56.24384000	-9.33809000
25.69999865	0.00000000	58.89518000	-8.54453700
25.89999864	0.00000000	49.96309000	-6.22539300
26.09999863	0.00000000	31.07160000	-3.11269700
26.29999862	0.00000000	6.79133800	0.41830710
26.49999860	0.00000000	-16.79995000	4.26919300
26.69999859	0.00000000	-34.62106000	7.25270600
26.89999858	0.00000000	-43.08563000	8.03395600
27.09999857	0.00000000	-39.96678000	6.04084600
27.29999856	0.00000000	-25.68897000	1.76550200
27.49999854	0.00000000	-3.72170300	-4.87204700
27.69999853	0.00000000	20.65084000	-12.54306000
27.89999852	0.00000000	41.87376000	-19.50664000
28.09999851	0.00000000	55.45029000	-24.02190000
28.29999850	0.00000000	58.15699000	-24.34178000
28.49999848	0.00000000	50.09842000	-19.32825000
28.69999847	0.00000000	33.12008000	-10.40846000
28.89999846	0.00000000	11.53420000	0.83661410
29.09999845	0.00000000	-9.35654400	12.77067000
29.29999844	0.00000000	-25.26452000	21.97957000
29.49999843	0.00000000	-33.08317000	26.20571000
29.69999841	0.00000000	-31.96973000	24.20645000
29.89999840	0.00000000	-22.74852000	15.66191000
30.09999839	0.00000000	-7.63410400	2.14074800
30.29999838	0.00000000	9.72563900	-13.69956000
30.49999837	0.00000000	26.04577000	-28.34030000
30.69999835	0.00000000	37.64148000	-38.37352000
30.89999834	0.00000000	42.75344000	-41.40009000
31.09999833	0.00000000	40.47121000	-36.33120000
31.29999832	0.00000000	32.00049000	-23.60359000
31.49999831	0.00000000	19.62352000	-6.22539300
31.69999829	0.00000000	5.67175200	11.94021000
31.89999828	0.00000000	-6.70521600	27.36835000
32.09999827	0.00000000	-15.26206000	36.23893000
32.29999826	0.00000000	-18.38090000	36.65723000
32.49999825	0.00000000	-15.68036000	28.90010000
32.69999824	0.00000000	-8.00319800	14.21629000
32.89999822	0.00000000	2.82972400	-4.31840500
33.09999821	0.00000000	14.00098000	-22.44094000
33.29999820	0.00000000	23.30216000	-36.42347000
33.49999819	0.00000000	28.37721000	-43.35015000
33.69999818	0.00000000	28.83858000	-42.23056000
33.89999816	0.00000000	25.30143000	-32.94168000
34.09999815	0.00000000	17.99951000	-17.93184000
34.29999814	0.00000000	8.79060000	-0.51058070
34.49999813	0.00000000	0.68897630	15.70497000
34.69999812	0.00000000	-4.74901600	27.31914000
34.89999810	0.00000000	-6.28690900	31.96973000
35.09999809	0.00000000	-3.67864200	28.90010000
35.29999808	0.00000000	1.67322800	18.86688000
35.49999807	0.00000000	7.86171200	4.22613100
35.69999806	0.00000000	13.67495000	-11.56496000
35.89999805	0.00000000	17.90723000	-24.66781000
36.09999803	0.00000000	19.44513000	-32.05585000
36.29999802	0.00000000	17.90723000	-32.47416000
36.49999801	0.00000000	13.71801000	-26.34104000
36.69999800	0.00000000	8.37229300	-15.18824000
36.89999799	0.00000000	3.71555100	-2.12844500
37.09999797	0.00000000	0.64591530	9.43651600
37.29999796	0.00000000	-0.09842519	16.77534000
37.49999795	0.00000000	2.17765700	18.31324000
37.69999794	0.00000000	6.36687900	13.70571000
37.89999793	0.00000000	10.97441000	4.18307100
38.09999791	0.00000000	14.88066000	-6.87746000
38.29999790	0.00000000	17.21210000	-15.74803000
38.49999789	0.00000000	17.95029000	-20.39862000
38.69999788	0.00000000	16.41855000	-19.97416000
38.89999787	0.00000000	13.02288000	-14.25935000
39.09999786	0.00000000	9.48572700	-5.11195900
39.29999784	0.00000000	5.94857300	4.09079700
39.49999783	0.00000000	2.50984200	11.01132000
39.69999782	0.00000000	0.59670270	13.61343000
39.89999781	0.00000000	0.55364170	10.54995000
40.09999780	0.00000000	2.09153500	2.51599400
40.29999778	0.00000000	4.78592500	-7.80634800
40.49999777	0.00000000	7.90477300	-17.37820000
40.69999776	0.00000000	11.06668000	-23.13607000
40.89999775	0.00000000	14.13632000	-23.56053000
41.09999774	0.00000000	16.46161000	-18.90994000
41.29999772	0.00000000	17.21210000	-10.07628000
41.49999771	0.00000000	16.46161000	0.64591530
41.69999770	0.00000000	14.13632000	9.84867000
41.89999769	0.00000000	11.06668000	15.28666000
42.09999768	0.00000000	7.94783400	15.66191000
42.29999767	0.00000000	5.21038300	11.10359000
42.49999765	0.00000000	3.25418300	3.02042300
42.69999764	0.00000000	2.09153500	-6.17618100
42.89999763	0.00000000	2.09153500	-14.30241000
43.09999762	0.00000000	3.20497000	-19.32825000
43.29999761	0.00000000	4.78592500	-20.53395000
43.49999759	0.00000000	6.74212600	-17.83957000
43.69999758	0.00000000	9.01820900	-12.07554000
43.89999757	0.00000000	10.59916000	-4.77977300
44.09999756	0.00000000	11.44193000	2.14074800
44.29999755	0.00000000	12.22933000	6.78518600
44.49999753	0.00000000	12.60458000	8.36614100
44.69999752	0.00000000	12.64764000	6.87746000
44.89999751	0.00000000	12.64764000	3.06963600
45.09999750	0.00000000	12.60458000	-1.53174200
45.29999749	0.00000000	12.18012000	-5.80093500
45.49999748	0.00000000	10.97441000	-8.91978400
45.69999746	0.00000000	8.97514600	-10.49459000
45.89999745	0.00000000	5.85629900	-10.49459000
46.09999744	0.00000000	2.09153500	-9.00590400
46.29999743	0.00000000	-0.60900590	-6.68676100
46.49999742	0.00000000	-1.40255900	-4.36146600
46.69999740	0.00000000	-0.60900590	-1.99311000
46.89999739	0.00000000	2.17765700	-0.09227362
47.09999738	0.00000000	6.87746000	1.06422200
47.29999737	0.00000000	13.06594000	1.06422200
47.49999736	0.00000000	19.58046000	-0.09227362
47.69999734	0.00000000	24.13878000	-1.99311000
47.89999733	0.00000000	25.30143000	-4.31840500
48.09999732	0.00000000	22.60704000	-6.26845500
48.29999731	0.00000000	16.79380000	-7.84940900
48.49999730	0.00000000	9.01820900	-8.96284400
48.69999729	0.00000000	0.51058070	-8.91978400
48.89999727	0.00000000	-6.74827700	-7.38188900
49.09999726	0.00000000	-10.56225000	-4.68750000
49.29999725	0.00000000	-9.44881800	-1.62401600
49.49999724	0.00000000	-4.05388800	1.11343500
49.69999723	0.00000000	4.09079700	2.97736200
49.89999721	0.00000000	13.71801000	3.34030500
50.09999720	0.00000000	22.18258000	1.39640700
50.29999719	0.00000000	27.21457000	-1.99311000
50.49999718	0.00000000	27.95275000	-5.89320800
50.69999717	0.00000000	23.72047000	-9.38115100
50.89999715	0.00000000	15.67421000	-12.03248000
51.09999714	0.00000000	6.45915300	-12.77067000
51.29999713	0.00000000	-1.67938000	-10.86983000
51.49999712	0.00000000	-6.70521600	-7.43110200
51.69999711	0.00000000	-7.86786400	-3.15575800
51.89999710	0.00000000	-4.79207600	1.07037400
52.09999708	0.00000000	1.71628900	4.13385800
52.29999707	0.00000000	9.39345400	5.29650500
52.49999706	0.00000000	16.36934000	4.13385800
52.69999705	0.00000000	20.97687000	1.07037400
52.89999704	0.00000000	22.09646000	-3.15575800
53.09999702	0.00000000	19.06988000	-7.33882900
53.29999701	0.00000000	12.97982000	-10.07628000
53.49999700	0.00000000	6.45915300	-10.86983000
53.69999699	0.00000000	1.02116100	-10.11934000
53.89999698	0.00000000	-2.05462600	-7.80019600
54.09999696	0.00000000	-2.05462600	-4.77977300
54.29999695	0.00000000	1.02116100	-2.04232300
54.49999694	0.00000000	6.36687900	-0.17839570
54.69999693	0.00000000	12.09400000	0.23375980
54.89999692	0.00000000	16.32628000	-1.29183100
55.09999691	0.00000000	17.90723000	-3.48179100
55.29999689	0.00000000	16.79380000	-5.43184000
55.49999688	0.00000000	13.67495000	-6.17618100
55.69999687	0.00000000	9.06742000	-5.85014700
55.89999686	0.00000000	4.13385800	-4.64443900
56.09999685	0.00000000	1.02116100	-2.73745100
56.29999683	0.00000000	0.22760820	-0.46751960
56.49999682	0.00000000	1.39640700	1.02116100
56.69999681	0.00000000	4.83513700	0.97810030
56.89999680	0.00000000	9.01820900	-0.97194880
57.09999679	0.00000000	12.51230000	-4.77977300
57.29999677	0.00000000	14.88066000	-8.96284400
57.49999676	0.00000000	15.63115000	-12.07554000
57.69999675	0.00000000	14.88066000	-13.56422000
57.89999674	0.00000000	12.55536000	-12.72761000
58.09999673	0.00000000	9.52879000	-8.87672100
58.29999672	0.00000000	6.79133800	-3.15575800
58.49999670	0.00000000	4.87819900	2.64517700
58.69999669	0.00000000	4.09079700	7.24655500
58.89999668	0.00000000	4.83513700	9.52263600
59.09999667	0.00000000	6.32381900	8.31692900
59.29999666	0.00000000	7.90477300	3.72170300
59.49999664	0.00000000	9.44266700	-3.19881900
59.69999663	0.00000000	10.55610000	-10.49459000
59.89999662	0.00000000	10.59916000	-16.30167000
60.09999661	0.00000000	9.86097400	-19.37131000
60.29999660	0.00000000	9.06742000	-18.95300000
60.49999658	0.00000000	7.90477300	-14.67766000
60.69999657	0.00000000	6.83439900	-7.38188900
60.89999656	0.00000000	6.83439900	1.07037400
61.09999655	0.00000000	7.94783400	8.36614100
61.29999654	0.00000000	9.48572700	12.59227000
61.49999653	0.00000000	10.97441000	12.59227000
61.69999651	0.00000000	11.76181000	8.40920300
61.89999650	0.00000000	11.39887000	1.44562000
62.09999649	0.00000000	10.59916000	-6.68676100
62.29999648	0.00000000	9.01820900	-14.76993000
62.49999647	0.00000000	6.74212600	-20.44168000
62.69999645	0.00000000	4.83513700	-21.64739000
62.89999644	0.00000000	3.67249000	-18.25787000
63.09999643	0.00000000	3.71555100	-12.07554000
63.29999642	0.00000000	5.25344500	-4.36146600
63.49999641	0.00000000	7.90477300	3.34645700
63.69999639	0.00000000	10.59916000	8.78444900
63.89999638	0.00000000	12.55536000	11.52190000
64.09999637	0.00000000	13.76107000	11.06053000
64.29999636	0.00000000	14.09326000	6.87746000
64.49999635	0.00000000	13.29970000	0.37524600
64.69999634	0.00000000	10.97441000	-6.17618100
64.89999632	0.00000000	7.90477300	-11.65723000
65.09999631	0.00000000	4.87819900	-15.14518000
65.29999630	0.00000000	2.92814900	-16.34473000
65.49999629	0.00000000	2.92199800	-15.18824000
65.69999628	0.00000000	4.04773600	-12.11860000
65.89999626	0.00000000	6.41609200	-7.84940900
66.09999625	0.00000000	9.39345400	-3.20497000
66.29999624	0.00000000	11.71875000	1.07037400
66.49999623	0.00000000	12.51230000	4.13385800
66.69999622	0.00000000	12.13706000	5.38262700
66.89999620	0.00000000	10.59916000	5.01968500
67.09999619	0.00000000	8.32308000	3.85088600
67.29999618	0.00000000	6.41609200	1.48868100
67.49999617	0.00000000	5.25344500	-1.58095500
67.69999616	0.00000000	5.29650500	-4.73671200
67.89999615	0.00000000	6.79133800	-7.89247000
68.09999613	0.00000000	9.11048200	-10.96211000
68.29999612	0.00000000	11.39887000	-13.28125000
68.49999611	0.00000000	13.29970000	-14.03174000
68.69999610	0.00000000	13.63189000	-13.28125000
68.89999609	0.00000000	12.13706000	-10.86983000
69.09999607	0.00000000	9.39345400	-7.00664300
69.29999606	0.00000000	5.90551100	-1.99311000
69.49999605	0.00000000	2.09153500	2.60211600
69.69999604	0.00000000	-0.51673230	5.75787400
69.89999603	0.00000000	-0.55979330	7.29576700
70.09999601	0.00000000	1.75935000	6.87746000
70.29999600	0.00000000	5.62869100	4.14000900
70.49999599	0.00000000	10.69144000	-0.46136810
70.69999598	0.00000000	15.63115000	-5.89320800
70.89999597	0.00000000	19.15600000	-10.86983000
71.09999596	0.00000000	20.28174000	-14.34547000
71.29999594	0.00000000	19.06988000	-15.14518000
71.49999593	0.00000000	14.78838000	-13.60728000
71.69999592	0.00000000	8.32308000	-10.11934000
71.89999591	0.00000000	2.13459600	-5.15501900
72.09999590	0.00000000	-2.51599400	-0.55364170
72.29999588	0.00000000	-4.84128900	2.55905500
72.49999587	0.00000000	-4.05388800	3.76476400
72.69999586	0.00000000	-0.60900590	3.02042300
72.89999585	0.00000000	4.83513700	1.11343500
73.09999584	0.00000000	10.97441000	-1.58095500
73.29999582	0.00000000	16.36934000	-4.26919300
73.49999581	0.00000000	19.48819000	-6.17618100
73.69999580	0.00000000	19.95571000	-6.96358300
73.89999579	0.00000000	18.37475000	-6.22539300
74.09999578	0.00000000	14.88066000	-4.77977300
74.29999577	0.00000000	9.86097400	-3.62327700
74.49999575	0.00000000	4.87819900	-3.24803100
74.69999574	0.00000000	0.97194880	-3.62327700
74.89999573	0.00000000	-0.93503930	-4.77977300
75.09999572	0.00000000	-0.60900590	-6.31151500
75.29999571	0.00000000	1.71628900	-7.80019600
75.49999569	0.00000000	5.16117100	-8.50147600
75.69999568	0.00000000	9.01820900	-7.33882900
75.89999567	0.00000000	12.09400000	-4.68750000
76.09999566	0.00000000	13.67495000	-1.58095500
76.29999565	0.00000000	13.71801000	1.53174200
76.49999563	0.00000000	12.60458000	4.18307100
76.69999562	0.00000000	11.06668000	5.25344500
76.89999561	0.00000000	9.52879000	3.71555100
77.09999560	0.00000000	8.37229300	-0.13533460
77.29999559	0.00000000	7.94783400	-5.15501900
77.49999558	0.00000000	7.90477300	-10.53765000
77.69999556	0.00000000	7.90477300	-14.72072000
77.89999555	0.00000000	7.90477300	-16.30167000
78.09999554	0.00000000	7.86171200	-15.14518000
78.29999553	0.00000000	7.43725300	-11.65723000
78.49999552	0.00000000	6.32381900	-6.26845500
78.69999550	0.00000000	5.21038300	-0.46136810
78.89999549	0.00000000	4.87819900	4.60137700
79.09999548	0.00000000	5.62869100	8.40920300
79.29999547	0.00000000	7.57258800	9.52263600
79.49999546	0.00000000	9.86097400	7.24655500
79.69999544	0.00000000	12.18012000	2.64517700
79.89999543	0.00000000	13.67495000	-3.15575800
80.09999542	0.00000000	13.71801000	-8.91978400
80.29999541	0.00000000	12.55536000	-13.18898000
80.49999540	0.00000000	10.59916000	-15.18824000
80.69999539	0.00000000	7.90477300	-15.18824000
80.89999537	0.00000000	5.21038300	-13.23819000
81.09999536	0.00000000	3.29724400	-9.43036400
81.29999535	0.00000000	2.50984200	-5.19808000
81.49999534	0.00000000	3.29724400	-1.62401600
81.69999533	0.00000000	5.21038300	1.53174200
81.89999531	0.00000000	7.90477300	4.18307100
82.09999530	0.00000000	10.59916000	5.33956700
82.29999529	0.00000000	12.51230000	4.60137700
82.49999528	0.00000000	13.29970000	2.69439000
82.69999527	0.00000000	12.55536000	-0.09227362
82.89999525	0.00000000	11.06668000	-3.57406500
83.09999524	0.00000000	9.48572700	-7.42495000
83.29999523	0.00000000	7.90477300	-10.53765000
83.49999522	0.00000000	6.36687900	-12.49385000
83.69999521	0.00000000	5.25344500	-13.28125000
83.89999520	0.00000000	5.21038300	-12.45079000
84.09999518	0.00000000	5.94857300	-10.11934000
84.29999517	0.00000000	6.69906400	-6.26845500
84.49999516	0.00000000	7.52952700	-2.04232300
84.69999515	0.00000000	8.23695900	1.48868100
84.89999514	0.00000000	8.64911400	4.22613100
85.09999512	0.00000000	8.32308000	5.71481200
85.29999511	0.00000000	8.32308000	5.29650500
85.49999510	0.00000000	8.69217500	2.60211600
85.69999509	0.00000000	8.69832600	-1.62401600
85.89999508	0.00000000	9.11048200	-6.26845500
86.09999506	0.00000000	9.44266700	-10.53765000
86.29999505	0.00000000	9.48572700	-13.60728000
86.49999504	0.00000000	9.44266700	-14.76993000
86.69999503	0.00000000	9.01820900	-13.60728000
86.89999502	0.00000000	7.86171200	-10.49459000
87.09999501	0.00000000	6.36687900	-5.89320800
87.29999499	0.00000000	5.21038300	-0.87967510
87.49999498	0.00000000	4.83513700	2.97736200
87.69999497	0.00000000	5.21038300	5.29650500
87.89999496	0.00000000	6.36687900	5.24729300
88.09999495	0.00000000	7.90477300	2.60211600
88.29999493	0.00000000	9.48572700	-1.62401600
88.49999492	0.00000000	11.02362000	-6.26845500
88.69999491	0.00000000	12.13706000	-10.45152000
88.89999490	0.00000000	12.13706000	-12.77067000
89.09999489	0.00000000	10.97441000	-12.40157000
89.29999487	0.00000000	9.06742000	-10.11934000
89.49999486	0.00000000	6.79133800	-6.21924200
89.69999485	0.00000000	5.25344500	-1.66707700
89.89999484	0.00000000	4.83513700	2.18380900
90.09999483	0.00000000	5.16117100	4.09079700
90.29999482	0.00000000	5.94857300	3.76476400
90.49999480	0.00000000	6.74212600	1.44562000
90.69999479	0.00000000	7.90477300	-2.04232300
90.89999478	0.00000000	9.01820900	-6.26845500
91.09999477	0.00000000	9.48572700	-10.03322000
91.29999476	0.00000000	9.86097400	-11.60802000
91.49999474	0.00000000	10.23007000	-10.86983000
91.69999473	0.00000000	9.81791200	-8.54453700
91.89999472	0.00000000	9.11048200	-4.69365100
92.09999471	0.00000000	8.32308000	-0.51058070
92.29999470	0.00000000	7.94783400	2.55905500
92.49999468	0.00000000	7.90477300	3.71555100
92.69999467	0.00000000	7.90477300	2.55905500
92.89999466	0.00000000	7.86171200	-0.51058070
93.09999465	0.00000000	7.48646600	-4.73671200
93.29999464	0.00000000	6.69906400	-8.91978400
93.49999463	0.00000000	5.99163300	-11.61417000
93.69999461	0.00000000	5.57947800	-12.03248000
93.89999460	0.00000000	5.99163300	-10.49459000
94.09999459	0.00000000	6.79133800	-7.38188900
94.29999458	0.00000000	8.37229300	-3.15575800
94.49999457	0.00000000	10.59916000	1.02116100
94.69999455	0.00000000	12.18012000	3.71555100
94.89999454	0.00000000	12.97982000	4.09079700
95.09999453	0.00000000	13.29970000	2.18380900
95.29999452	0.00000000	12.13706000	-1.62401600
95.49999451	0.00000000	9.81791200	-5.85014700
95.69999449	0.00000000	7.11122000	-9.29502900
95.89999448	0.00000000	3.99852300	-11.23893000
96.09999447	0.00000000	1.75935000	-10.82677000
96.29999446	0.00000000	0.92888770	-8.58759800
96.49999445	0.00000000	1.71628900	-5.11195900
96.69999444	0.00000000	3.67249000	-1.66707700
96.89999442	0.00000000	6.79133800	1.02116100
97.09999441	0.00000000	10.64838000	2.18380900
97.29999440	0.00000000	14.09326000	1.43946800
97.49999439	0.00000000	16.41855000	-0.46751960
97.69999438	0.00000000	16.79380000	-3.15575800
97.89999436	0.00000000	15.29897000	-5.85014700
98.09999435	0.00000000	12.55536000	-7.75713500
98.29999434	0.00000000	9.01820900	-8.54453700
98.49999433	0.00000000	4.78592500	-7.80019600
98.69999432	0.00000000	1.02116100	-6.31151500
98.89999430	0.00000000	-0.60900590	-4.73671200
99.09999429	0.00000000	-0.23991140	-3.19881900
99.29999428	0.00000000	1.30413400	-2.08538400
99.49999427	0.00000000	4.45989200	-2.04232300
99.69999426	0.00000000	8.23695900	-2.73745100
99.89999425	0.00000000	11.76181000	-3.11269700
100.09999423	0.00000000	14.09326000	-3.15575800
100.29999422	0.00000000	15.29897000	-3.11269700
100.49999421	0.00000000	15.25591000	-2.73745100
100.69999420	0.00000000	13.71801000	-1.99311000
100.89999419	0.00000000	11.02362000	-1.66707700
101.09999417	0.00000000	7.90477300	-2.04232300
101.29999416	0.00000000	4.83513700	-3.19881900
101.49999415	0.00000000	2.50984200	-4.73671200
101.69999414	0.00000000	1.71628900	-6.26845500
101.89999413	0.00000000	2.04847400	-7.42495000
102.09999411	0.00000000	3.25418300	-7.80019600
102.29999410	0.00000000	5.16117100	-7.38188900
102.49999409	0.00000000	7.52952700	-5.80093500
102.69999408	0.00000000	9.81791200	-3.15575800
102.89999407	0.00000000	11.76181000	-0.51058070
103.09999406	0.00000000	12.55536000	1.06422200
103.29999404	0.00000000	12.60458000	1.48253000
103.49999403	0.00000000	12.13706000	1.06422200
103.69999402	0.00000000	10.59916000	-0.51058070
103.89999401	0.00000000	8.32308000	-3.19881900
104.09999400	0.00000000	6.36687900	-6.26845500
104.29999398	0.00000000	4.83513700	-8.91978400
104.49999397	0.00000000	4.04773600	-10.07628000
104.69999396	0.00000000	4.41067900	-9.33809000
104.89999395	0.00000000	5.16117100	-7.47416300
105.09999394	0.00000000	6.36687900	-5.06274600
105.29999392	0.00000000	7.90477300	-2.41141700
105.49999391	0.00000000	9.44266700	0.27682080
105.69999390	0.00000000	10.55610000	1.39640700
105.89999389	0.00000000	10.55610000	1.06422200
106.09999388	0.00000000	9.48572700	-0.46751960
106.29999387	0.00000000	8.32308000	-2.73745100
106.49999385	0.00000000	7.52952700	-4.68750000
106.69999384	0.00000000	6.74212600	-6.22539300
106.89999383	0.00000000	6.41609200	-6.96358300
107.09999382	0.00000000	6.79133800	-6.22539300
107.29999381	0.00000000	7.90477300	-4.73671200
107.49999379	0.00000000	9.01820900	-3.19881900
107.69999378	0.00000000	9.44266700	-2.04232300
107.89999377	0.00000000	9.48572700	-1.66707700
108.09999376	0.00000000	9.44266700	-2.04232300
108.29999375	0.00000000	9.01820900	-3.15575800
108.49999374	0.00000000	7.86171200	-4.31840500
108.69999372	0.00000000	6.36687900	-5.15501900
108.89999371	0.00000000	5.21038300	-6.26845500
109.09999370	0.00000000	4.83513700	-6.96358300
109.29999369	0.00000000	5.21038300	-6.22539300
109.49999368	0.00000000	6.36687900	-4.73671200
109.69999366	0.00000000	7.90477300	-3.15575800
109.89999365	0.00000000	9.44266700	-1.62401600
110.09999364	0.00000000	10.59916000	-0.51058070
110.29999363	0.00000000	10.97441000	-0.51058070
110.49999362	0.00000000	10.59916000	-1.62401600
110.69999360	0.00000000	9.44266700	-3.15575800
110.89999359	0.00000000	7.90477300	-4.73671200
111.09999358	0.00000000	6.36687900	-6.26845500
111.29999357	0.00000000	5.21038300	-7.38188900
111.49999356	0.00000000	4.83513700	-7.42495000
111.69999355	0.00000000	5.21038300	-6.68676100
111.89999353	0.00000000	6.36687900	-5.89320800
112.09999352	0.00000000	7.86171200	-4.73671200
112.29999351	0.00000000	9.01820900	-3.57406500
112.49999350	0.00000000	9.44266700	-2.78051200
112.69999349	0.00000000	9.48572700	-2.04232300
112.89999347	0.00000000	9.44266700	-2.04232300
113.09999346	0.00000000	9.06742000	-2.73745100
113.29999345	0.00000000	8.28001900	-3.15575800
113.49999344	0.00000000	7.52952700	-3.57406500
113.69999343	0.00000000	6.74212600	-4.31840500
113.89999341	0.00000000	6.36687900	-4.69365100
114.09999340	0.00000000	6.32381900	-4.73671200
114.29999339	0.00000000	6.36687900	-4.73671200
114.49999338	0.00000000	6.74212600	-4.73671200
114.69999337	0.00000000	7.52952700	-4.73671200
114.89999336	0.00000000	8.28001900	-4.73671200
115.09999334	0.00000000	9.06742000	-4.73671200
115.29999333	0.00000000	9.44266700	-4.73671200
115.49999332	0.00000000	9.44266700	-4.73671200
115.69999331	0.00000000	9.06742000	-4.73671200
115.89999330	0.00000000	8.32308000	-4.69365100
116.09999328	0.00000000	7.90477300	-4.31840500
116.29999327	0.00000000	7.48646600	-3.53100400
116.49999326	0.00000000	6.74212600	-2.78051200
116.69999325	0.00000000	6.36687900	-2.04232300
116.89999324	0.00000000	6.36687900	-2.04232300
117.09999322	0.00000000	6.74212600	-2.78051200
117.29999321	0.00000000	7.52952700	-3.53100400
117.49999320	0.00000000	8.28001900	-4.36146600
117.69999319	0.00000000	9.11048200	-5.11195900
117.89999318	0.00000000	9.86097400	-5.89320800
118.09999317	0.00000000	10.59916000	-6.26845500
118.29999315	0.00000000	10.55610000	-6.26845500
118.49999314	0.00000000	9.48572700	-5.89320800
118.69999313	0.00000000	8.32308000	-5.11195900
118.89999312	0.00000000	7.48646600	-4.36146600
119.09999311	0.00000000	6.32381900	-3.57406500
119.29999309	0.00000000	5.21038300	-3.19881900
119.49999308	0.00000000	4.83513700	-3.11269700
119.69999307	0.00000000	5.16117100	-2.78051200
119.89999306	0.00000000	5.99163300	-2.41141700
120.09999305	0.00000000	7.16043300	-2.78051200
120.29999303	0.00000000	9.06742000	-3.15575800
120.49999302	0.00000000	10.55610000	-3.57406500
120.69999301	0.00000000	11.02362000	-4.31840500
120.89999300	0.00000000	11.02362000	-4.69365100
121.09999299	0.00000000	10.59916000	-4.73671200
121.29999298	0.00000000	9.44266700	-4.77977300
121.49999296	0.00000000	7.90477300	-5.15501900
121.69999295	0.00000000	6.36687900	-5.85014700
121.89999294	0.00000000	5.21038300	-5.85014700
122.09999293	0.00000000	4.78592500	-5.11195900
122.29999292	0.00000000	4.78592500	-4.36146600
122.49999290	0.00000000	5.21038300	-3.57406500
122.69999289	0.00000000	6.32381900	-3.15575800
122.89999288	0.00000000	7.48646600	-2.73745100
123.09999287	0.00000000	8.28001900	-2.04232300
123.29999286	0.00000000	9.06742000	-2.04232300
123.49999284	0.00000000	9.44266700	-2.78051200
123.69999283	0.00000000	9.48572700	-3.53100400
123.89999282	0.00000000	9.48572700	-4.36146600
124.09999281	0.00000000	9.48572700	-5.11195900
124.29999280	0.00000000	9.44266700	-5.85014700
124.49999279	0.00000000	9.01820900	-5.89320800
124.69999277	0.00000000	7.90477300	-5.53026500
124.89999276	0.00000000	6.79133800	-5.51796200
125.09999275	0.00000000	6.36687900	-5.06274600
125.29999274	0.00000000	6.32381900	-4.36146600
125.49999273	0.00000000	6.32381900	-3.57406500
125.69999271	0.00000000	6.36687900	-3.19881900
125.89999270	0.00000000	6.74212600	-3.11269700
126.09999269	0.00000000	7.52952700	-2.78051200
126.29999268	0.00000000	8.28001900	-2.41141700
126.49999267	0.00000000	9.11048200	-2.78051200
126.69999265	0.00000000	9.81791200	-3.15575800
126.89999264	0.00000000	10.18086000	-3.57406500
127.09999263	0.00000000	9.44266700	-4.31840500
127.29999262	0.00000000	8.32308000	-4.69365100
127.49999261	0.00000000	7.52952700	-4.73671200
127.69999260	0.00000000	6.69906400	-4.73671200
127.89999258	0.00000000	5.99163300	-4.73671200
128.09999257	0.00000000	5.57947800	-4.69365100
128.29999256	0.00000000	5.99163300	-4.31840500
128.49999255	0.00000000	6.74212600	-3.57406500
128.69999254	0.00000000	7.90477300	-3.24803100
128.89999252	0.00000000	9.01820900	-3.53100400
129.09999251	0.00000000	9.44266700	-3.94315900
129.29999250	0.00000000	9.48572700	-3.94931100
129.49999249	0.00000000	9.44266700	-4.36146600
129.69999248	0.00000000	9.01820900	-4.69365100
129.89999246	0.00000000	7.90477300	-4.73671200
130.09999245	0.00000000	6.79133800	-4.73671200
130.29999244	0.00000000	6.36687900	-4.69365100
130.49999243	0.00000000	6.32381900	-4.31840500
130.69999242	0.00000000	6.36687900	-3.57406500
130.89999241	0.00000000	6.74212600	-3.19881900
131.09999239	0.00000000	7.52952700	-3.15575800
131.29999238	0.00000000	8.28001900	-3.15575800
131.49999237	0.00000000	9.06742000	-3.19881900
131.69999236	0.00000000	9.44266700	-3.57406500
131.89999235	0.00000000	9.44266700	-4.36146600
132.09999233	0.00000000	9.01820900	-5.06274600
132.29999232	0.00000000	7.90477300	-5.51796200
132.49999231	0.00000000	6.79133800	-5.48105300
132.69999230	0.00000000	6.36687900	-5.51796200
132.89999229	0.00000000	6.32381900	-5.06274600
133.09999227	0.00000000	6.36687900	-4.36146600
133.29999226	0.00000000	6.74212600	-3.53100400
133.49999225	0.00000000	7.48646600	-2.78051200
133.69999224	0.00000000	7.86171200	-1.99311000
133.89999223	0.00000000	7.90477300	-1.66707700
134.09999222	0.00000000	7.90477300	-2.04232300
134.29999220	0.00000000	7.90477300	-3.15575800
134.49999219	0.00000000	7.90477300	-4.31840500
134.69999218	0.00000000	7.90477300	-5.11195900
134.89999217	0.00000000	7.90477300	-5.93626900
135.09999216	0.00000000	7.90477300	-6.64370100
135.29999214	0.00000000	7.94783400	-7.00664300
135.49999213	0.00000000	8.28001900	-6.26845500
135.69999212	0.00000000	8.64911400	-5.15501900
135.89999211	0.00000000	8.28001900	-4.36146600
136.09999210	0.00000000	7.90477300	-3.57406500
136.29999208	0.00000000	7.48646600	-3.19881900
136.49999207	0.00000000	6.74212600	-3.15575800
136.69999206	0.00000000	6.36687900	-3.15575800
136.89999205	0.00000000	6.32381900	-3.15575800
137.09999204	0.00000000	6.36687900	-3.19881900
137.29999203	0.00000000	6.74212600	-3.57406500
137.49999201	0.00000000	7.52952700	-4.36146600
137.69999200	0.00000000	8.28001900	-5.11195900
137.89999199	0.00000000	9.06742000	-5.85014700
138.09999198	0.00000000	9.44266700	-5.89320800
138.29999197	0.00000000	9.44266700	-5.53026500
138.49999195	0.00000000	9.06742000	-5.51796200
138.69999194	0.00000000	8.28001900	-5.11195900
138.89999193	0.00000000	7.52952700	-4.73671200
139.09999192	0.00000000	6.74212600	-4.31840500
139.29999191	0.00000000	6.36687900	-3.57406500
139.49999189	0.00000000	6.32381900	-3.19881900
139.69999188	0.00000000	6.36687900	-3.15575800
139.89999187	0.00000000	6.74212600	-3.15575800
140.09999186	0.00000000	7.52952700	-3.15575800
140.29999185	0.00000000	8.28001900	-3.19881900
140.49999184	0.00000000	9.06742000	-3.57406500
140.69999182	0.00000000	9.39345400	-4.36146600
140.89999181	0.00000000	9.06742000	-5.11195900
141.09999180	0.00000000	8.32308000	-5.89320800
141.29999179	0.00000000	7.90477300	-6.26845500
141.49999178	0.00000000	7.48646600	-6.26845500
141.69999176	0.00000000	6.79133800	-5.85014700
141.89999175	0.00000000	6.79133800	-4.73671200
142.09999174	0.00000000	7.48646600	-3.57406500
142.29999173	0.00000000	7.86171200	-2.78051200
142.49999172	0.00000000	7.90477300	-1.99311000
142.69999170	0.00000000	7.90477300	-1.66707700
142.89999169	0.00000000	7.90477300	-2.04232300
143.09999168	0.00000000	7.90477300	-3.15575800
143.29999167	0.00000000	7.90477300	-4.26919300
143.49999166	0.00000000	7.86171200	-4.73671200
143.69999165	0.00000000	7.52952700	-5.15501900
143.89999163	0.00000000	7.16043300	-5.89320800
144.09999162	0.00000000	7.52952700	-6.21924200
144.29999161	0.00000000	7.86171200	-5.85014700
144.49999160	0.00000000	7.90477300	-4.73671200
144.69999159	0.00000000	7.90477300	-3.62327700
144.89999157	0.00000000	7.90477300	-3.19881900
145.09999156	0.00000000	7.90477300	-3.15575800
145.29999155	0.00000000	7.90477300	-3.15575800
145.49999154	0.00000000	7.90477300	-3.15575800
145.69999153	0.00000000	7.86171200	-3.19881900
145.89999151	0.00000000	7.48646600	-3.57406500
146.09999150	0.00000000	6.74212600	-4.31840500
146.29999149	0.00000000	6.41609200	-4.69365100
146.49999148	0.00000000	6.74212600	-4.73671200
146.69999147	0.00000000	7.48646600	-4.73671200
146.89999146	0.00000000	7.86171200	-4.73671200
147.09999144	0.00000000	7.90477300	-4.73671200
147.29999143	0.00000000	7.90477300	-4.69365100
147.49999142	0.00000000	7.90477300	-4.31840500
147.69999141	0.00000000	7.90477300	-3.57406500
147.89999140	0.00000000	7.86171200	-3.19881900
148.09999138	0.00000000	7.48646600	-3.15575800
148.29999137	0.00000000	6.74212600	-3.15575800
148.49999136	0.00000000	6.36687900	-3.15575800
148.69999135	0.00000000	6.32381900	-3.19881900
148.89999134	0.00000000	6.36687900	-3.57406500
149.09999132	0.00000000	6.74212600	-4.31840500
149.29999131	0.00000000	7.48646600	-4.69365100
149.49999130	0.00000000	7.86171200	-4.73671200
149.69999129	0.00000000	7.90477300	-4.73671200
149.89999128	0.00000000	7.90477300	-4.73671200
150.09999127	0.00000000	7.90477300	-4.73671200
150.29999125	0.00000000	7.90477300	-4.69365100
150.49999124	0.00000000	7.86171200	-4.31840500
150.69999123	0.00000000	7.48646600	-3.57406500
150.89999122	0.00000000	6.74212600	-3.19881900
151.09999121	0.00000000	6.36687900	-3.15575800
151.29999119	0.00000000	6.32381900	-3.15575800
151.49999118	0.00000000	6.36687900	-3.15575800
151.69999117	0.00000000	6.74212600	-3.19881900
151.89999116	0.00000000	7.43725300	-3.57406500
152.09999115	0.00000000	7.48646600	-4.31840500
152.29999113	0.00000000	7.16043300	-4.69365100
152.49999112	0.00000000	7.52952700	-4.73671200
152.69999111	0.00000000	7.86171200	-4.73671200
152.89999110	0.00000000	7.90477300	-4.73671200
153.09999109	0.00000000	7.90477300	-4.73671200
153.29999108	0.00000000	7.90477300	-4.73671200
153.49999106	0.00000000	7.90477300	-4.73671200
153.69999105	0.00000000	7.86171200	-4.69365100
153.89999104	0.00000000	7.48646600	-4.31840500
154.09999103	0.00000000	6.74212600	-3.57406500
154.29999102	0.00000000	6.41609200	-3.19881900
154.49999100	0.00000000	6.74212600	-3.15575800
154.69999099	0.00000000	7.48646600	-3.15575800
154.89999098	0.00000000	7.86171200	-3.15575800
155.09999097	0.00000000	7.90477300	-3.19881900
155.29999096	0.00000000	7.90477300	-3.57406500
155.49999094	0.00000000	7.90477300	-4.31840500
155.69999093	0.00000000	7.90477300	-4.69365100
155.89999092	0.00000000	7.90477300	-4.73671200
156.09999091	0.00000000	7.90477300	-4.73671200
156.29999090	0.00000000	7.90477300	-4.73671200
156.49999089	0.00000000	7.86171200	-4.69365100
156.69999087	0.00000000	7.48646600	-4.31840500
156.89999086	0.00000000	6.74212600	-3.57406500
157.09999085	0.00000000	6.36687900	-3.19881900
157.29999084	0.00000000	6.32381900	-3.15575800
157.49999083	0.00000000	6.32381900	-3.15575800
157.69999081	0.00000000	6.36687900	-3.15575800
157.89999080	0.00000000	6.74212600	-3.19881900
158.09999079	0.00000000	7.48646600	-3.57406500
158.29999078	0.00000000	7.86171200	-4.31840500
158.49999077	0.00000000	7.90477300	-4.69365100
158.69999075	0.00000000	7.90477300	-4.73671200
158.89999074	0.00000000	7.90477300	-4.73671200
159.09999073	0.00000000	7.90477300	-4.73671200
159.29999072	0.00000000	7.90477300	-4.69365100
159.49999071	0.00000000	7.90477300	-4.31840500
159.69999070	0.00000000	7.86171200	-3.57406500
159.89999068	0.00000000	7.52952700	-3.19881900
160.09999067	0.00000000	7.11737200	-3.15575800
160.29999066	0.00000000	7.11122000	-3.15575800
160.49999065	0.00000000	6.74212600	-3.15575800
160.69999064	0.00000000	6.74212600	-3.19881900
160.89999062	0.00000000	7.06815900	-3.57406500
161.09999061	0.00000000	6.74212600	-4.31840500
161.29999060	0.00000000	6.79133800	-4.69365100
161.49999059	0.00000000	7.48646600	-4.73671200
161.69999058	0.00000000	7.86171200	-4.73671200
161.89999056	0.00000000	7.90477300	-4.73671200
162.09999055	0.00000000	7.90477300	-4.73671200
162.29999054	0.00000000	7.90477300	-4.69365100
162.49999053	0.00000000	7.90477300	-4.31840500
162.69999052	0.00000000	7.90477300	-3.57406500
162.89999051	0.00000000	7.90477300	-3.19881900
163.09999049	0.00000000	7.86171200	-3.19881900
163.29999048	0.00000000	7.48646600	-3.53100400
163.49999047	0.00000000	6.74212600	-3.90009800
163.69999046	0.00000000	6.36687900	-3.57406500
163.89999045	0.00000000	6.32381900	-3.62327700
164.09999043	0.00000000	6.32381900	-4.31840500
164.29999042	0.00000000	6.36687900	-4.69365100
164.49999041	0.00000000	6.74212600	-4.73671200
164.69999040	0.00000000	7.48646600	-4.73671200
164.89999039	0.00000000	7.86171200	-4.73671200
165.09999037	0.00000000	7.90477300	-4.73671200
165.29999036	0.00000000	7.90477300	-4.73671200
165.49999035	0.00000000	7.90477300	-4.73671200
165.69999034	0.00000000	7.90477300	-4.69365100
165.89999033	0.00000000	7.86171200	-4.36146600
166.09999032	0.00000000	7.52952700	-3.94931100
166.29999030	0.00000000	7.11737200	-3.94315900
166.49999029	0.00000000	7.11122000	-3.57406500
166.69999028	0.00000000	6.69906400	-3.57406500
166.89999027	0.00000000	6.36687900	-3.94315900
167.09999026	0.00000000	6.36687900	-3.90625000
167.29999024	0.00000000	6.69906400	-3.98622000
167.49999023	0.00000000	7.11122000	-3.94931100
167.69999022	0.00000000	7.11737200	-4.36146600
167.89999021	0.00000000	7.52952700	-4.69365100
168.09999020	0.00000000	7.86171200	-4.73671200
168.29999018	0.00000000	7.90477300	-4.73671200
168.49999017	0.00000000	7.90477300	-4.73671200
168.69999016	0.00000000	7.90477300	-4.69365100
168.89999015	0.00000000	7.90477300	-4.36146600
169.09999014	0.00000000	7.86171200	-3.99237200
169.29999013	0.00000000	7.48646600	-4.36146600
169.49999011	0.00000000	6.74212600	-4.69365100
169.69999010	0.00000000	6.36687900	-4.73671200
169.89999009	0.00000000	6.32381900	-4.73671200
170.09999008	0.00000000	6.32381900	-4.73671200
170.29999007	0.00000000	6.36687900	-4.73671200
170.49999005	0.00000000	6.74212600	-4.73671200
170.69999004	0.00000000	7.48646600	-4.73671200
170.89999003	0.00000000	7.86171200	-4.73671200
171.09999002	0.00000000	7.90477300	-4.73671200
171.29999001	0.00000000	7.90477300	-4.73671200
171.49998999	0.00000000	7.90477300	-4.73671200
171.69998998	0.00000000	7.90477300	-4.73671200
171.89998997	0.00000000	7.90477300	-4.73671200
172.09998996	0.00000000	7.90477300	-4.73671200
172.29998995	0.00000000	7.86171200	-4.73671200
172.49998994	0.00000000	7.48646600	-4.73671200
172.69998992	0.00000000	6.74212600	-4.73671200
172.89998991	0.00000000	6.41609200	-4.69365100
173.09998990	0.00000000	6.69906400	-4.31840500
173.29998989	0.00000000	7.11122000	-3.62327700
173.49998988	0.00000000	7.11737200	-3.62327700
173.69998986	0.00000000	7.52952700	-4.31840500
173.89998985	0.00000000	7.86171200	-4.69365100
174.09998984	0.00000000	7.90477300	-4.73671200
174.29998983	0.00000000	7.90477300	-4.73671200
174.49998982	0.00000000	7.90477300	-4.73671200
174.69998980	0.00000000	7.90477300	-4.73671200
174.89998979	0.00000000	7.86171200	-4.73671200
175.09998978	0.00000000	7.52952700	-4.73671200
175.29998977	0.00000000	7.11737200	-4.73671200
175.49998976	0.00000000	7.11122000	-4.73671200
175.69998975	0.00000000	6.69906400	-4.73671200
175.89998973	0.00000000	6.41609200	-4.69365100
176.09998972	0.00000000	6.74212600	-4.36146600
176.29998971	0.00000000	7.48646600	-3.99237200
176.49998970	0.00000000	7.81250000	-4.36146600
176.69998969	0.00000000	7.52952700	-4.64443900
176.89998967	0.00000000	7.16043300	-4.36146600
177.09998966	0.00000000	7.52952700	-3.99237200
177.29998965	0.00000000	7.86171200	-4.36146600
177.49998964	0.00000000	7.90477300	-4.69365100
177.69998963	0.00000000	7.86171200	-4.73671200
177.89998961	0.00000000	7.48646600	-4.73671200
178.09998960	0.00000000	6.74212600	-4.73671200
178.29998959	0.00000000	6.36687900	-4.73671200
178.49998958	0.00000000	6.36687900	-4.73671200
178.69998957	0.00000000	6.74212600	-4.69365100
178.89998956	0.00000000	7.48646600	-4.31840500
179.09998954	0.00000000	7.86171200	-3.57406500
179.29998953	0.00000000	7.90477300	-3.24803100
179.49998952	0.00000000	7.90477300	-3.53100400
179.69998951	0.00000000	7.90477300	-3.94315900
179.89998950	0.00000000	7.90477300	-3.94931100
180.09998948	0.00000000	7.90477300	-4.36146600
180.29998947	0.00000000	7.90477300	-4.69365100
180.49998946	0.00000000	7.86171200	-4.73671200
180.69998945	0.00000000	7.52952700	-4.73671200
180.89998944	0.00000000	7.11737200	-4.73671200
181.09998942	0.00000000	7.11122000	-4.73671200
181.29998941	0.00000000	6.69906400	-4.73671200
181.49998940	0.00000000	6.41609200	-4.69365100
181.69998939	0.00000000	6.74212600	-4.31840500
181.89998938	0.00000000	7.48646600	-3.57406500
182.09998937	0.00000000	7.86171200	-3.19881900
182.29998935	0.00000000	7.90477300	-3.19881900
182.49998934	0.00000000	7.90477300	-3.57406500
182.69998933	0.00000000	7.90477300	-4.31840500
182.89998932	0.00000000	7.90477300	-4.69365100
183.09998931	0.00000000	7.86171200	-4.73671200
183.29998929	0.00000000	7.52952700	-4.73671200
183.49998928	0.00000000	7.11737200	-4.73671200
183.69998927	0.00000000	7.15428100	-4.73671200
183.89998926	0.00000000	7.07431000	-4.73671200
184.09998925	0.00000000	7.11122000	-4.73671200
184.29998923	0.00000000	6.69906400	-4.69365100
184.49998922	0.00000000	6.41609200	-4.31840500
184.69998921	0.00000000	6.69906400	-3.57406500
184.89998920	0.00000000	7.11122000	-3.19881900
185.09998919	0.00000000	7.11737200	-3.15575800
185.29998918	0.00000000	7.52952700	-3.15575800
185.49998916	0.00000000	7.86171200	-3.19881900
185.69998915	0.00000000	7.90477300	-3.57406500
185.89998914	0.00000000	7.90477300	-4.31840500
186.09998913	0.00000000	7.90477300	-4.69365100
186.29998912	0.00000000	7.90477300	-4.73671200
186.49998910	0.00000000	7.90477300	-4.73671200
186.69998909	0.00000000	7.90477300	-4.73671200
186.89998908	0.00000000	7.86171200	-4.73671200
187.09998907	0.00000000	7.48646600	-4.73671200
187.29998906	0.00000000	6.74212600	-4.69365100
187.49998904	0.00000000	6.36687900	-4.31840500
187.69998903	0.00000000	6.36687900	-3.57406500
187.89998902	0.00000000	6.69906400	-3.19881900
188.09998901	0.00000000	7.11122000	-3.15575800
188.29998900	0.00000000	7.11737200	-3.19881900
188.49998899	0.00000000	7.52952700	-3.57406500
188.69998897	0.00000000	7.86171200	-4.31840500
188.89998896	0.00000000	7.90477300	-4.69365100
189.09998895	0.00000000	7.90477300	-4.73671200
189.29998894	0.00000000	7.90477300	-4.73671200
189.49998893	0.00000000	7.86171200	-4.73671200
189.69998891	0.00000000	7.48646600	-4.73671200
189.89998890	0.00000000	6.79133800	-4.73671200
190.09998889	0.00000000	6.74212600	-4.73671200
190.29998888	0.00000000	7.06815900	-4.73671200
190.49998887	0.00000000	6.69906400	-4.69365100
190.69998885	0.00000000	6.36687900	-4.36146600
190.89998884	0.00000000	6.32381900	-3.94931100
191.09998883	0.00000000	6.36687900	-3.94315900
191.29998882	0.00000000	6.74212600	-3.57406500
191.49998881	0.00000000	7.48646600	-3.62327700
191.69998880	0.00000000	7.86171200	-4.31840500
191.89998878	0.00000000	7.90477300	-4.69365100
192.09998877	0.00000000	7.90477300	-4.73671200
192.29998876	0.00000000	7.90477300	-4.73671200
192.49998875	0.00000000	7.90477300	-4.73671200
192.69998874	0.00000000	7.90477300	-4.73671200
192.89998872	0.00000000	7.86171200	-4.77977300
193.09998871	0.00000000	7.48646600	-5.11195900
193.29998870	0.00000000	6.74212600	-5.47490100
193.49998869	0.00000000	6.36687900	-5.11195900
193.69998868	0.00000000	6.32381900	-4.77977300
193.89998866	0.00000000	6.32381900	-4.73671200
194.09998865	0.00000000	6.32381900	-4.69365100
194.29998864	0.00000000	6.36687900	-4.31840500
194.49998863	0.00000000	6.74212600	-3.57406500
194.69998862	0.00000000	7.48646600	-3.19881900
194.89998861	0.00000000	7.86171200	-3.19881900
195.09998859	0.00000000	7.90477300	-3.57406500
195.29998858	0.00000000	7.90477300	-4.31840500
195.49998857	0.00000000	7.86171200	-4.69365100
195.69998856	0.00000000	7.48646600	-4.73671200
195.89998855	0.00000000	6.74212600	-4.73671200
196.09998853	0.00000000	6.36687900	-4.73671200
