Time	Channel A	Channel B	Channel C
(us)	(V)	(mV)	(mV)

-4.59999956	0.00000000	41.01870000	7.89247000
-4.39999957	0.00000000	40.69267000	7.89247000
-4.19999958	0.00000000	39.94832000	7.89247000
-3.99999959	0.00000000	39.57308000	7.89247000
-3.79999960	0.00000000	39.53002000	7.89247000
-3.59999962	0.00000000	39.53002000	7.89247000
-3.39999963	0.00000000	39.57308000	7.89247000
-3.19999964	0.00000000	39.94832000	7.89247000
-2.99999965	0.00000000	40.64345000	7.89247000
-2.79999966	0.00000000	40.69267000	7.89247000
-2.59999968	0.00000000	40.32357000	7.89247000
-2.39999969	0.00000000	40.36048000	7.89247000
-2.19999970	0.00000000	40.28051000	7.89247000
-1.99999971	0.00000000	40.31742000	7.89247000
-1.79999972	0.00000000	39.94832000	7.89247000
-1.59999973	0.00000000	39.94832000	7.89247000
-1.39999975	0.00000000	40.31742000	7.89247000
-1.19999976	0.00000000	40.28051000	7.89247000
-0.99999977	0.00000000	40.36048000	7.89247000
-0.79999978	0.00000000	40.28051000	7.89247000
-0.59999979	0.00000000	40.31742000	7.89247000
-0.39999981	0.15871060	39.90526000	7.89247000
-0.19999982	0.47736220	39.62229000	7.89247000
0.00000017	0.79601380	39.90526000	7.89247000
0.20000016	0.95533960	40.27436000	7.89247000
0.40000015	0.95533960	39.90526000	7.89247000
0.60000013	0.63668800	39.57308000	7.89247000
0.80000012	-0.15871060	39.53002000	7.89247000
1.00000011	-1.11466500	39.53002000	7.89247000
1.20000010	-2.07062000	39.53002000	7.89247000
1.40000009	-2.70792300	39.53002000	7.89247000
1.60000008	-2.70792300	39.53002000	7.89247000
1.80000006	-1.75196900	39.57308000	7.93553100
2.00000005	-0.15871060	39.90526000	8.26771600
2.20000004	1.91129400	40.27436000	8.63681000
2.40000003	3.82258900	39.90526000	8.26771600
2.60000002	5.09719500	39.57308000	7.89247000
2.80000000	5.25652100	39.53002000	7.47416300
2.99999999	3.82258900	39.53002000	6.72982200
3.19999998	1.11466500	39.53002000	6.35457700
3.39999997	-2.22994600	39.53002000	6.35457700
3.59999996	-5.41584600	39.53002000	6.72982200
3.79999994	-7.48646600	39.57308000	7.51722400
3.99999993	-7.80511800	39.94832000	8.26771600
4.19999992	-6.05315000	40.69267000	9.00590400
4.39999991	-2.70792300	41.01870000	9.00590400
4.59999990	1.59264300	40.69267000	8.31077700
4.79999989	5.89382400	39.94832000	7.93553100
4.99999987	8.76107300	39.57308000	7.84940900
5.19999986	9.39837600	39.53002000	7.47416300
5.39999985	7.80511800	39.53002000	6.72982200
5.59999984	4.14124000	39.53002000	6.35457700
5.79999983	-0.47736220	39.53002000	6.35457700
5.99999981	-5.25652100	39.53002000	6.72982200
6.19999980	-8.28309500	39.53002000	7.47416300
6.39999979	-9.55770200	39.53002000	7.84940900
6.59999978	-8.28309500	39.57308000	7.89247000
6.79999977	-4.93786900	39.94832000	7.84940900
6.99999975	-0.63668800	40.64345000	7.51722400
7.19999974	3.50393700	40.69267000	7.14812900
7.39999973	6.53112700	40.32357000	7.47416300
7.59999972	7.80511800	40.31742000	7.42495000
7.79999971	7.00848900	39.90526000	6.72982200
7.99999970	4.61921700	39.57308000	6.35457700
8.19999968	1.43331700	39.53002000	6.31151500
8.39999967	-1.75196900	39.53002000	6.35457700
8.59999966	-4.14124000	39.53002000	6.72982200
8.79999965	-5.09719500	39.53002000	7.47416300
8.99999964	-4.77854300	39.53002000	7.84940900
9.19999962	-3.34522600	39.53002000	7.89247000
9.39999961	-1.43331700	39.53002000	7.89247000
9.59999960	0.47736220	39.53002000	7.84940900
9.79999959	1.91129400	39.53002000	7.51722400
9.99999958	2.54859700	39.53002000	7.14812900
10.19999956	2.38927200	39.53002000	7.51722400
10.39999955	1.75196900	39.53002000	7.84940900
10.59999954	0.95533960	39.53002000	7.89247000
10.79999953	0.00000000	39.53002000	7.89247000
10.99999952	-0.63668800	39.57308000	7.89247000
11.19999951	-0.95533960	39.90526000	7.89247000
11.39999949	-0.95533960	40.27436000	7.89247000
11.59999948	-0.79601380	39.94832000	7.89247000
11.79999947	-0.47736220	39.94832000	7.84940900
11.99999946	-0.31803640	40.27436000	7.51722400
12.19999945	-0.15871060	39.90526000	7.14812900
12.39999943	-0.15871060	39.57308000	7.51722400
12.59999942	0.00000000	39.53002000	7.84940900
12.79999941	0.00000000	39.53002000	7.89247000
12.99999940	0.00000000	39.53002000	7.89247000
13.19999939	0.00000000	39.53002000	7.89247000
13.39999937	0.15871060	39.53002000	7.89247000
13.59999936	0.00000000	39.53002000	7.89247000
13.79999935	0.00000000	39.53002000	7.89247000
13.99999934	-0.15871060	39.53002000	7.89247000
14.19999933	-0.15871060	39.53002000	7.89247000
14.39999932	-0.15871060	39.53002000	7.89247000
14.59999930	-0.15871060	39.53002000	7.89247000
14.79999929	0.00000000	39.53002000	7.89247000
14.99999928	0.00000000	39.53002000	7.84940900
15.19999927	0.00000000	39.53002000	7.51722400
15.39999926	0.00000000	39.53002000	7.14812900
15.59999924	0.00000000	39.53002000	7.51722400
15.79999923	0.00000000	39.53002000	7.80019600
15.99999922	0.00000000	39.53002000	7.51722400
16.19999921	0.00000000	39.53002000	7.14812900
16.39999920	0.00000000	39.53002000	7.51722400
16.59999919	-0.15871060	39.57308000	7.84940900
16.79999917	-0.15871060	39.94832000	7.84940900
16.99999916	0.00000000	40.69267000	7.51722400
17.19999915	0.00000000	41.06791000	7.14812900
17.39999914	0.00000000	41.11097000	7.51722400
17.59999913	0.00000000	41.11097000	7.84940900
17.79999911	0.00000000	41.06791000	7.89247000
17.99999910	0.00000000	40.64345000	7.89247000
18.19999909	0.00000000	39.48696000	7.89247000
18.39999908	0.00000000	37.94907000	7.84940900
18.59999907	0.00000000	36.36811000	7.51722400
18.79999905	0.00000000	34.87328000	7.14812900
18.99999904	0.00000000	34.13509000	7.51722400
19.19999903	0.00000000	34.92249000	7.80019600
19.39999902	0.00000000	36.87869000	7.51722400
19.59999901	0.00000000	39.99754000	7.10506800
19.79999900	0.00000000	43.89763000	7.14197800
19.99999898	0.00000000	47.71776000	7.10506800
20.19999897	0.00000000	50.78125000	7.51722400
20.39999896	0.00000000	51.44561000	7.84940900
20.59999895	0.00000000	49.11417000	7.89247000
20.79999894	0.00000000	43.67618000	7.89247000
20.99999892	0.00000000	36.36811000	7.84940900
21.19999891	0.00000000	28.96776000	7.47416300
21.39999890	0.00000000	22.77928000	6.77903500
21.59999889	0.00000000	19.00837000	6.77903500
21.79999888	0.00000000	19.51895000	7.47416300
21.99999886	0.00000000	25.33218000	7.80019600
22.19999885	0.00000000	35.42692000	7.47416300
22.39999884	0.00000000	47.81004000	6.72982200
22.59999883	0.00000000	60.13779000	6.40378900
22.79999882	0.00000000	68.93454000	6.72982200
22.99999881	0.00000000	71.59202000	7.47416300
23.19999879	0.00000000	66.89222000	7.84940900
23.39999878	0.00000000	55.21038000	7.93553100
23.59999877	0.00000000	38.60113000	8.31077700
23.79999876	0.00000000	20.45399000	9.05511800
23.99999875	0.00000000	5.46875000	9.43036400
24.19999873	0.00000000	-2.62057100	9.43036400
24.39999872	0.00000000	-1.37180100	9.00590400
24.59999871	0.00000000	9.51648500	7.80019600
24.79999870	0.00000000	28.45103000	5.89320800
24.99999869	0.00000000	51.20571000	3.61712600
25.19999867	0.00000000	72.05339000	2.08538400
25.39999866	0.00000000	86.28813000	1.66707700
25.59999865	0.00000000	90.10211000	2.12844500
25.79999864	0.00000000	82.01279000	4.08464600
25.99999863	0.00000000	64.27780000	7.56028500
26.19999862	0.00000000	41.01870000	11.42347000
26.39999860	0.00000000	17.05217000	15.32357000
26.59999859	0.00000000	-2.57751000	18.35015000
26.79999858	0.00000000	-12.57997000	19.46358000
26.99999857	0.00000000	-10.34695000	17.83957000
27.19999856	0.00000000	2.77436000	13.18898000
27.39999854	0.00000000	23.66511000	6.22539300
27.59999853	0.00000000	47.99458000	-1.48868100
27.79999852	0.00000000	70.00491000	-8.45226300
27.99999851	0.00000000	84.70718000	-13.01058000
28.19999850	0.00000000	88.98868000	-13.70571000
28.39999848	0.00000000	82.09891000	-9.43036400
28.59999847	0.00000000	66.28321000	-0.88582670
28.79999846	0.00000000	45.43553000	10.35925000
28.99999845	0.00000000	24.12647000	22.66855000
29.19999844	0.00000000	7.14197800	32.60949000
29.39999843	0.00000000	-2.24532500	37.26009000
29.59999841	0.00000000	-2.30068900	35.67913000
29.79999840	0.00000000	5.80093500	27.87278000
29.99999839	0.00000000	20.50320000	14.72687000
30.19999838	0.00000000	38.60113000	-1.07037400
30.39999837	0.00000000	55.25959000	-15.74803000
30.59999835	0.00000000	67.35358000	-26.15649000
30.79999834	0.00000000	73.21604000	-29.97047000
30.99999833	0.00000000	72.05339000	-25.69513000
31.19999832	0.00000000	64.37008000	-14.12401000
31.39999831	0.00000000	51.99926000	2.13459600
31.59999829	0.00000000	38.08440000	19.92495000
31.79999828	0.00000000	25.28912000	35.72219000
31.99999827	0.00000000	16.35704000	45.76156000
32.19999826	0.00000000	12.81988000	47.66855000
32.39999825	0.00000000	14.73302000	41.11097000
32.59999824	0.00000000	21.70891000	27.17766000
32.79999822	0.00000000	32.08661000	9.05511800
32.99999821	0.00000000	43.29478000	-9.47957600
33.19999820	0.00000000	52.60211000	-24.16338000
33.39999819	0.00000000	58.46457000	-31.92052000
33.59999818	0.00000000	60.00246000	-31.55143000
33.79999816	0.00000000	56.92667000	-23.04995000
33.99999815	0.00000000	50.00000000	-8.40920300
34.19999814	0.00000000	41.15403000	8.96284400
34.39999813	0.00000000	32.64025000	25.22145000
34.59999812	0.00000000	26.49483000	37.21087000
34.79999810	0.00000000	24.12647000	42.64886000
34.99999809	0.00000000	26.02731000	40.32357000
35.19999808	0.00000000	30.96703000	31.07775000
35.39999807	0.00000000	37.53075000	16.81225000
35.59999806	0.00000000	43.67618000	1.01501000
35.79999805	0.00000000	47.95152000	-12.45694000
35.99999803	0.00000000	49.53248000	-20.63238000
36.19999802	0.00000000	48.36983000	-21.79503000
36.39999801	0.00000000	44.88189000	-16.44316000
36.59999800	0.00000000	39.53002000	-5.67175200
36.79999799	0.00000000	34.17815000	7.33882900
36.99999797	0.00000000	30.68405000	18.95300000
37.19999796	0.00000000	29.52141000	26.66708000
37.39999795	0.00000000	31.05930000	28.98622000
37.59999794	0.00000000	34.87328000	25.13533000
37.79999793	0.00000000	39.48696000	16.39395000
37.99999791	0.00000000	43.76230000	5.66560000
38.19999790	0.00000000	46.83809000	-3.53715500
38.39999789	0.00000000	47.99458000	-8.92593500
38.59999788	0.00000000	46.83809000	-8.92593500
38.79999787	0.00000000	43.80536000	-3.58021600
38.99999786	0.00000000	39.90526000	5.19808000
39.19999784	0.00000000	36.07898000	14.76993000
39.39999783	0.00000000	32.92323000	22.02264000
39.59999782	0.00000000	31.37918000	24.71703000
39.79999781	0.00000000	30.96703000	22.02264000
39.99999780	0.00000000	32.17273000	14.72687000
40.19999778	0.00000000	34.83022000	4.77977300
40.39999777	0.00000000	37.94907000	-4.78592500
40.59999776	0.00000000	41.06791000	-10.96826000
40.79999775	0.00000000	43.80536000	-12.50000000
40.99999774	0.00000000	45.76156000	-8.96899500
41.19999772	0.00000000	46.88115000	-0.55979330
41.39999771	0.00000000	46.50590000	10.16855000
41.59999770	0.00000000	44.55585000	19.74655000
41.79999769	0.00000000	41.89838000	25.96580000
41.99999768	0.00000000	38.74261000	27.09153000
42.19999767	0.00000000	36.03592000	23.31447000
42.39999765	0.00000000	33.66756000	15.60654000
42.59999764	0.00000000	32.17273000	6.40378900
42.79999763	0.00000000	32.12967000	-2.09768700
42.99999762	0.00000000	33.24926000	-7.89862200
43.19999761	0.00000000	34.87328000	-9.80561000
43.39999759	0.00000000	37.16166000	-7.52337600
43.59999758	0.00000000	39.84990000	-1.44562000
43.79999757	0.00000000	41.39394000	5.80708600
43.99999756	0.00000000	42.27362000	12.07554000
44.19999755	0.00000000	42.64886000	16.72613000
44.39999753	0.00000000	42.69193000	19.04527000
44.59999752	0.00000000	42.69193000	18.25787000
44.79999751	0.00000000	42.69193000	14.90526000
44.99999750	0.00000000	42.64886000	10.26698000
45.19999749	0.00000000	42.22441000	6.02854300
45.39999748	0.00000000	41.01870000	2.50369100
45.59999746	0.00000000	39.06250000	0.59670270
45.79999745	0.00000000	36.27584000	0.51058070
45.99999744	0.00000000	32.82480000	1.66707700
46.19999743	0.00000000	29.38607000	3.57406500
46.39999742	0.00000000	27.52214000	5.93626900
46.59999740	0.00000000	27.94045000	8.26771600
46.79999739	0.00000000	31.05930000	10.58686000
46.99999738	0.00000000	36.45423000	12.07554000
47.19999737	0.00000000	42.69193000	12.11860000
47.39999736	0.00000000	48.88041000	10.96211000
47.59999734	0.00000000	53.85703000	9.05511800
47.79999733	0.00000000	55.72096000	6.68676100
47.99999732	0.00000000	53.80782000	4.40452700
48.19999731	0.00000000	48.36983000	2.46063000
48.39999730	0.00000000	40.60039000	1.71013800
48.59999729	0.00000000	31.71137000	2.08538400
48.79999727	0.00000000	23.70817000	3.66633800
48.99999726	0.00000000	19.47589000	6.36072800
49.19999725	0.00000000	20.17101000	9.42421200
49.39999724	0.00000000	24.82160000	12.11860000
49.59999723	0.00000000	32.59719000	13.69956000
49.79999721	0.00000000	42.22441000	14.03174000
49.99999720	0.00000000	51.07037000	12.81988000
50.19999719	0.00000000	56.84055000	9.38115100
50.39999718	0.00000000	57.99704000	5.19808000
50.59999717	0.00000000	54.14001000	1.71013800
50.79999715	0.00000000	46.50590000	-0.60285430
50.99999714	0.00000000	37.24778000	-0.97810030
51.19999713	0.00000000	29.14616000	0.51058070
51.39999712	0.00000000	23.70817000	3.29109200
51.59999711	0.00000000	22.17027000	7.14812900
51.79999710	0.00000000	24.82160000	11.70029000
51.99999708	0.00000000	30.64099000	14.76993000
52.19999707	0.00000000	38.32431000	15.60654000
52.39999706	0.00000000	45.99532000	14.81299000
52.59999705	0.00000000	50.97810000	12.11860000
52.79999704	0.00000000	52.18381000	8.26771600
52.99999702	0.00000000	49.53248000	4.45374000
53.19999701	0.00000000	44.13755000	1.34719500
53.39999700	0.00000000	37.61687000	0.22145670
53.59999699	0.00000000	31.47761000	0.92888770
53.79999698	0.00000000	28.03272000	3.24803100
53.99999696	0.00000000	27.94045000	6.26845500
54.19999695	0.00000000	30.64099000	8.96284400
54.39999694	0.00000000	35.24852000	10.49459000
54.59999693	0.00000000	40.64345000	10.53765000
54.79999692	0.00000000	45.20792000	9.38115100
54.99999691	0.00000000	47.57627000	7.51722400
55.19999689	0.00000000	47.16412000	5.57332700
55.39999688	0.00000000	44.50664000	4.45374000
55.59999687	0.00000000	39.90526000	4.08464600
55.79999686	0.00000000	35.34079000	5.29035400
55.99999685	0.00000000	32.17273000	7.89247000
56.19999683	0.00000000	30.63484000	10.53765000
56.39999682	0.00000000	31.05930000	12.07554000
56.59999681	0.00000000	33.75369000	12.07554000
56.79999680	0.00000000	37.94907000	10.49459000
56.99999679	0.00000000	42.13828000	7.38188900
57.19999677	0.00000000	44.83267000	3.20497000
57.39999676	0.00000000	45.30019000	-0.60285430
57.59999675	0.00000000	44.18061000	-2.50984200
57.79999674	0.00000000	42.22441000	-2.09153500
57.99999673	0.00000000	39.53002000	1.01501000
58.19999672	0.00000000	36.83563000	6.40378900
58.39999670	0.00000000	34.92249000	12.53691000
58.59999669	0.00000000	34.13509000	17.88263000
58.79999668	0.00000000	34.87328000	20.53395000
58.99999667	0.00000000	36.36811000	19.42052000
59.19999666	0.00000000	37.94907000	15.18824000
59.39999664	0.00000000	39.48696000	8.96284400
59.59999663	0.00000000	40.60039000	1.66707700
59.79999662	0.00000000	40.64345000	-4.83513700
59.99999661	0.00000000	39.90526000	-8.27386800
60.19999660	0.00000000	39.11171000	-7.89862200
60.39999658	0.00000000	37.94907000	-3.67249000
60.59999657	0.00000000	36.87869000	3.24803100
60.79999656	0.00000000	36.87869000	11.00517000
60.99999655	0.00000000	37.99213000	18.30093000
61.19999654	0.00000000	39.48696000	23.27141000
61.39999653	0.00000000	40.64345000	24.02190000
61.59999651	0.00000000	41.06791000	20.57702000
61.79999650	0.00000000	41.01870000	13.65650000
61.99999649	0.00000000	40.22515000	5.20423200
62.19999648	0.00000000	38.32431000	-2.51599400
62.39999647	0.00000000	36.41117000	-7.94783400
62.59999645	0.00000000	34.83022000	-9.85482200
62.79999644	0.00000000	33.71063000	-7.94783400
62.99999643	0.00000000	33.71063000	-2.51599400
63.19999642	0.00000000	34.87328000	5.15501900
63.39999641	0.00000000	36.83563000	13.23819000
63.59999639	0.00000000	39.53002000	19.42052000
63.79999638	0.00000000	42.22441000	22.53322000
63.99999637	0.00000000	44.13755000	22.15797000
64.19999636	0.00000000	44.88189000	18.30093000
64.39999635	0.00000000	43.71924000	12.16781000
64.59999634	0.00000000	41.06791000	5.24729300
64.79999632	0.00000000	37.99213000	-0.55979330
64.99999631	0.00000000	35.24852000	-4.13385800
65.19999630	0.00000000	33.33538000	-5.67175200
65.39999629	0.00000000	32.59104000	-4.87204700
65.59999628	0.00000000	33.75369000	-1.43946800
65.79999626	0.00000000	36.36811000	3.11269700
65.99999625	0.00000000	39.06250000	7.43110200
66.19999624	0.00000000	41.01870000	10.96211000
66.39999623	0.00000000	42.18134000	13.69956000
66.59999622	0.00000000	42.13828000	15.27436000
66.79999620	0.00000000	40.64345000	15.64960000
66.99999619	0.00000000	38.36737000	14.85605000
67.19999618	0.00000000	36.46038000	12.53691000
67.39999617	0.00000000	35.25467000	9.47342500
67.59999616	0.00000000	34.92249000	6.31151500
67.79999615	0.00000000	35.71604000	3.19881900
67.99999613	0.00000000	37.99213000	0.46751960
68.19999612	0.00000000	40.64345000	-1.48868100
68.39999611	0.00000000	42.55659000	-2.60211600
68.59999610	0.00000000	43.34399000	-2.18380900
68.79999609	0.00000000	42.51353000	0.13533460
68.99999607	0.00000000	40.18209000	3.62327700
69.19999606	0.00000000	36.31890000	7.93553100
69.39999605	0.00000000	32.17273000	12.53691000
69.59999604	0.00000000	29.47835000	16.39395000
69.79999603	0.00000000	29.05389000	18.30093000
69.99999601	0.00000000	30.63484000	17.92569000
70.19999600	0.00000000	34.17815000	15.18824000
70.39999599	0.00000000	39.53002000	10.58686000
70.59999598	0.00000000	44.92495000	5.15501900
70.79999597	0.00000000	48.78814000	0.17839570
70.99999596	0.00000000	50.69513000	-3.29724400
71.19999594	0.00000000	49.48942000	-4.09079700
71.39999593	0.00000000	45.30019000	-2.60211600
71.59999592	0.00000000	39.48080000	0.51058070
71.79999591	0.00000000	33.29232000	4.73671200
71.99999590	0.00000000	27.89739000	9.00590400
72.19999588	0.00000000	24.82160000	12.49385000
72.39999587	0.00000000	24.82160000	14.81299000
72.59999586	0.00000000	27.89739000	15.14518000
72.79999585	0.00000000	33.29232000	13.28125000
72.99999584	0.00000000	39.48080000	9.89173200
73.19999582	0.00000000	45.25713000	6.82209600
73.39999581	0.00000000	49.11417000	4.82283400
73.59999580	0.00000000	49.90772000	3.66633800
73.79999579	0.00000000	48.04380000	3.66633800
73.99999578	0.00000000	44.18061000	4.77977300
74.19999577	0.00000000	39.53002000	6.26845500
74.39999575	0.00000000	34.87328000	7.38188900
74.59999574	0.00000000	31.01624000	7.38188900
74.79999573	0.00000000	29.10310000	6.26845500
74.99999572	0.00000000	29.42913000	4.73671200
75.19999571	0.00000000	31.75443000	3.24803100
75.39999569	0.00000000	35.16240000	2.50369100
75.59999568	0.00000000	38.64419000	3.29109200
75.79999567	0.00000000	41.01870000	5.24729300
75.99999566	0.00000000	42.59965000	8.35998900
76.19999565	0.00000000	43.34399000	12.16166000
76.39999563	0.00000000	42.59965000	15.18824000
76.59999562	0.00000000	41.11097000	16.34473000
76.79999561	0.00000000	39.57308000	15.14518000
76.99999560	0.00000000	38.41658000	11.70029000
77.19999559	0.00000000	37.94907000	6.64370100
77.39999558	0.00000000	37.57381000	1.29183100
77.59999556	0.00000000	37.20472000	-3.34645700
77.79999555	0.00000000	37.53075000	-5.62253900
77.99999554	0.00000000	37.48154000	-5.24729300
78.19999553	0.00000000	36.74335000	-2.14074800
78.39999552	0.00000000	35.99286000	3.24803100
78.59999550	0.00000000	35.25467000	9.38115100
78.79999549	0.00000000	35.25467000	14.81299000
78.99999548	0.00000000	36.03592000	18.30093000
79.19999547	0.00000000	37.20472000	19.46358000
79.39999546	0.00000000	39.15477000	17.88263000
79.59999544	0.00000000	41.01870000	13.69956000
79.79999543	0.00000000	42.22441000	8.26771600
79.99999542	0.00000000	42.59965000	2.87278500
80.19999541	0.00000000	42.18134000	-1.76550200
80.39999540	0.00000000	40.60039000	-4.09079700
80.59999539	0.00000000	37.94907000	-4.18307100
80.79999537	0.00000000	35.24852000	-2.60211600
80.99999536	0.00000000	33.29232000	0.51058070
81.19999535	0.00000000	32.17273000	4.73671200
81.39999534	0.00000000	32.54798000	9.00590400
81.59999533	0.00000000	34.45497000	12.49385000
81.79999531	0.00000000	36.78642000	14.85605000
81.99999530	0.00000000	39.48696000	15.64960000
82.19999529	0.00000000	41.76304000	15.27436000
82.39999528	0.00000000	42.55659000	13.69956000
82.59999527	0.00000000	42.22441000	11.00517000
82.79999525	0.00000000	41.06791000	7.84940900
82.99999524	0.00000000	39.53002000	4.36146600
83.19999523	0.00000000	37.94907000	0.88582670
83.39999522	0.00000000	36.41117000	-1.43946800
83.59999521	0.00000000	35.29773000	-2.60211600
83.79999520	0.00000000	35.25467000	-2.18380900
83.99999518	0.00000000	35.99286000	0.13533460
84.19999517	0.00000000	36.74335000	3.57406500
84.39999516	0.00000000	37.53075000	7.51722400
84.59999515	0.00000000	37.90600000	11.38041000
84.79999514	0.00000000	37.94907000	14.85605000
84.99999512	0.00000000	37.94907000	16.71998000
85.19999511	0.00000000	37.94907000	16.35089000
85.39999510	0.00000000	37.94907000	13.65650000
85.59999509	0.00000000	37.99213000	9.43036400
85.79999508	0.00000000	38.36737000	4.77977300
85.99999506	0.00000000	39.11171000	0.51058070
86.19999505	0.00000000	39.48696000	-2.55905500
86.39999504	0.00000000	39.48696000	-3.71555100
86.59999503	0.00000000	39.06250000	-2.55905500
86.79999502	0.00000000	37.90600000	0.51058070
86.99999501	0.00000000	36.36811000	4.77977300
87.19999499	0.00000000	34.87328000	9.43036400
87.39999498	0.00000000	34.08588000	13.65650000
87.59999497	0.00000000	34.45497000	16.30167000
87.79999496	0.00000000	35.25467000	16.30167000
87.99999495	0.00000000	36.83563000	13.65650000
88.19999493	0.00000000	39.06250000	9.43036400
88.39999492	0.00000000	40.60039000	4.82898600
88.59999491	0.00000000	41.06791000	0.97194880
88.79999490	0.00000000	41.06791000	-1.02116100
88.99999489	0.00000000	40.60039000	-1.39640700
89.19999487	0.00000000	39.06250000	-0.18454720
89.39999486	0.00000000	36.83563000	3.29109200
89.59999485	0.00000000	35.29773000	7.84940900
89.79999484	0.00000000	34.83022000	12.07554000
89.99999483	0.00000000	34.83022000	14.72072000
90.19999482	0.00000000	35.25467000	14.76993000
90.39999480	0.00000000	36.41117000	12.49385000
90.59999479	0.00000000	37.90600000	9.00590400
90.79999478	0.00000000	39.06250000	4.77977300
90.99999477	0.00000000	39.48696000	0.97194880
91.19999476	0.00000000	39.53002000	-0.93503930
91.39999474	0.00000000	39.48696000	-0.60285430
91.59999473	0.00000000	39.11171000	1.71013800
91.79999472	0.00000000	38.36737000	5.19808000
91.99999471	0.00000000	37.99213000	9.43036400
92.19999470	0.00000000	37.94907000	13.18898000
92.39999468	0.00000000	37.90600000	14.72687000
92.59999467	0.00000000	37.57381000	13.60728000
92.79999466	0.00000000	37.16166000	10.53765000
92.99999465	0.00000000	37.11245000	6.31151500
93.19999464	0.00000000	36.32505000	2.08538400
93.39999463	0.00000000	35.25467000	-0.97810030
93.59999461	0.00000000	34.87943000	-2.09153500
93.79999460	0.00000000	35.25467000	-0.60285430
93.99999459	0.00000000	36.41117000	2.87278500
94.19999458	0.00000000	37.94907000	7.10506800
94.39999457	0.00000000	39.53002000	11.70029000
94.59999455	0.00000000	41.06791000	14.72072000
94.79999454	0.00000000	42.22441000	15.14518000
94.99999453	0.00000000	42.55659000	13.23819000
95.19999452	0.00000000	41.76304000	9.38115100
95.39999451	0.00000000	39.43774000	4.82898600
95.59999449	0.00000000	36.41117000	0.97194880
95.79999448	0.00000000	33.66756000	-0.97810030
95.99999447	0.00000000	31.71137000	-0.97810030
96.19999446	0.00000000	30.54872000	0.92888770
96.39999445	0.00000000	30.63484000	4.36146600
96.59999444	0.00000000	32.54798000	7.80019600
96.79999442	0.00000000	35.99286000	10.53765000
96.99999441	0.00000000	39.48696000	12.07554000
97.19999440	0.00000000	42.64886000	12.07554000
97.39999439	0.00000000	45.30019000	10.53765000
97.59999438	0.00000000	46.41363000	7.89247000
97.79999436	0.00000000	45.25713000	5.19808000
97.99999435	0.00000000	42.22441000	3.24803100
98.19999434	0.00000000	38.32431000	2.08538400
98.39999433	0.00000000	34.45497000	2.12844500
98.59999432	0.00000000	30.96703000	3.61712600
98.79999430	0.00000000	29.05389000	5.85014700
98.99999429	0.00000000	29.01082000	7.38188900
99.19999428	0.00000000	30.59178000	7.84940900
99.39999427	0.00000000	33.66756000	7.89247000
99.59999426	0.00000000	37.53075000	7.84940900
99.79999425	0.00000000	41.01870000	7.47416300
99.99999423	0.00000000	43.76230000	6.77903500
100.19999422	0.00000000	45.30019000	6.77903500
100.39999421	0.00000000	45.30019000	7.47416300
100.59999420	0.00000000	43.76230000	7.89247000
100.79999419	0.00000000	41.06791000	8.26771600
100.99999417	0.00000000	37.94907000	8.58759800
101.19999416	0.00000000	34.87328000	7.80019600
101.39999415	0.00000000	32.50492000	6.31151500
101.59999414	0.00000000	31.33612000	4.73671200
101.79999413	0.00000000	30.96703000	3.24803100
101.99999411	0.00000000	32.12967000	2.50369100
102.19999410	0.00000000	34.41191000	3.24803100
102.39999409	0.00000000	36.74335000	4.77977300
102.59999408	0.00000000	39.11171000	6.72982200
102.79999407	0.00000000	41.01870000	9.05511800
102.99999406	0.00000000	42.18134000	10.96211000
103.19999404	0.00000000	42.18134000	12.07554000
103.39999403	0.00000000	41.06791000	11.65723000
103.59999402	0.00000000	39.53002000	9.38115100
103.79999401	0.00000000	37.90600000	6.36072800
103.99999400	0.00000000	35.99286000	3.61712600
104.19999398	0.00000000	34.08588000	1.66707700
104.39999397	0.00000000	33.33538000	0.51058070
104.59999396	0.00000000	33.66756000	0.55364170
104.79999395	0.00000000	34.83022000	2.08538400
104.99999394	0.00000000	36.36811000	4.77977300
105.19999392	0.00000000	37.90600000	7.84940900
105.39999391	0.00000000	39.06250000	10.49459000
105.59999390	0.00000000	39.43774000	11.65723000
105.79999389	0.00000000	39.11171000	10.96211000
105.99999388	0.00000000	38.32431000	9.42421200
106.19999387	0.00000000	37.57381000	7.47416300
106.39999385	0.00000000	36.74335000	5.19808000
106.59999384	0.00000000	36.03592000	3.66633800
106.79999383	0.00000000	35.62377000	3.24803100
106.99999382	0.00000000	36.03592000	3.62327700
107.19999381	0.00000000	36.74335000	4.77977300
107.39999379	0.00000000	37.57381000	6.31151500
107.59999378	0.00000000	38.32431000	7.84940900
107.79999377	0.00000000	39.06250000	8.96284400
107.99999376	0.00000000	39.01944000	8.96284400
108.19999375	0.00000000	37.94907000	7.84940900
108.39999374	0.00000000	36.78642000	6.31151500
108.59999372	0.00000000	35.94980000	4.77977300
108.79999371	0.00000000	34.83022000	3.62327700
108.99999370	0.00000000	34.13509000	3.24803100
109.19999369	0.00000000	34.87328000	3.62327700
109.39999368	0.00000000	36.36811000	4.77977300
109.59999366	0.00000000	37.94907000	6.31151500
109.79999365	0.00000000	39.48696000	7.84940900
109.99999364	0.00000000	40.60039000	9.00590400
110.19999363	0.00000000	40.64345000	9.38115100
110.39999362	0.00000000	39.90526000	9.00590400
110.59999360	0.00000000	39.06250000	7.84940900
110.79999359	0.00000000	37.53075000	6.31151500
110.99999358	0.00000000	35.62377000	4.73671200
111.19999357	0.00000000	34.49803000	3.24803100
111.39999356	0.00000000	34.04282000	2.50369100
111.59999355	0.00000000	34.45497000	3.19881900
111.79999353	0.00000000	35.20546000	4.31840500
111.99999352	0.00000000	36.41117000	5.15501900
112.19999351	0.00000000	37.90600000	6.31151500
112.39999350	0.00000000	39.06250000	7.42495000
112.59999349	0.00000000	39.43774000	7.84940900
112.79999347	0.00000000	39.11171000	7.89247000
112.99999346	0.00000000	38.36737000	7.84940900
113.19999345	0.00000000	37.94907000	7.47416300
113.39999344	0.00000000	37.53075000	6.72982200
113.59999343	0.00000000	36.78642000	6.35457700
113.79999341	0.00000000	36.41117000	6.31151500
113.99999340	0.00000000	36.36811000	6.31151500
114.19999339	0.00000000	36.36811000	6.31151500
114.39999338	0.00000000	36.41117000	6.26845500
114.59999337	0.00000000	36.78642000	5.89320800
114.79999336	0.00000000	37.53075000	5.15501900
114.99999334	0.00000000	37.90600000	4.77977300
115.19999333	0.00000000	37.94907000	4.73671200
115.39999332	0.00000000	37.94907000	4.77977300
115.59999331	0.00000000	37.94907000	5.15501900
115.79999330	0.00000000	37.90600000	5.89320800
115.99999328	0.00000000	37.48154000	6.31151500
116.19999327	0.00000000	36.36811000	6.72982200
116.39999326	0.00000000	35.25467000	7.47416300
116.59999325	0.00000000	34.83022000	7.84940900
116.79999324	0.00000000	34.83022000	7.89247000
116.99999322	0.00000000	35.25467000	7.84940900
117.19999321	0.00000000	36.36811000	7.42495000
117.39999320	0.00000000	37.53075000	6.31151500
117.59999319	0.00000000	38.32431000	5.19808000
117.79999318	0.00000000	39.11171000	4.77977300
117.99999317	0.00000000	39.48696000	4.73671200
118.19999315	0.00000000	39.48696000	4.73671200
118.39999314	0.00000000	39.06250000	4.77977300
118.59999313	0.00000000	37.90600000	5.15501900
118.79999312	0.00000000	36.41117000	5.93626900
118.99999311	0.00000000	35.20546000	6.68676100
119.19999309	0.00000000	34.41191000	7.47416300
119.39999308	0.00000000	33.66756000	7.84940900
119.59999307	0.00000000	33.71063000	7.89247000
119.79999306	0.00000000	34.83022000	7.89247000
119.99999305	0.00000000	36.36811000	7.84940900
120.19999303	0.00000000	37.90600000	7.47416300
120.39999302	0.00000000	39.11171000	6.72982200
120.59999301	0.00000000	39.86220000	6.35457700
120.79999300	0.00000000	40.27436000	6.26845500
120.99999299	0.00000000	39.86220000	5.89320800
121.19999298	0.00000000	39.11171000	5.15501900
121.39999296	0.00000000	37.90600000	4.77977300
121.59999295	0.00000000	36.36811000	4.73671200
121.79999294	0.00000000	34.83022000	4.77977300
121.99999293	0.00000000	33.71063000	5.15501900
122.19999292	0.00000000	33.66756000	5.93626900
122.39999290	0.00000000	34.41191000	6.68676100
122.59999289	0.00000000	35.20546000	7.47416300
122.79999288	0.00000000	36.36811000	7.84940900
122.99999287	0.00000000	37.48154000	7.89247000
123.19999286	0.00000000	37.94907000	7.84940900
123.39999284	0.00000000	38.36737000	7.47416300
123.59999283	0.00000000	39.06250000	6.68676100
123.79999282	0.00000000	39.06250000	5.93626900
123.99999281	0.00000000	38.36737000	5.15501900
124.19999280	0.00000000	37.94907000	4.77977300
124.39999279	0.00000000	37.53075000	4.73671200
124.59999277	0.00000000	36.74335000	4.73671200
124.79999276	0.00000000	35.99286000	4.77977300
124.99999275	0.00000000	35.20546000	5.15501900
125.19999274	0.00000000	34.83022000	5.93626900
125.39999273	0.00000000	34.83022000	6.68676100
125.59999271	0.00000000	35.20546000	7.47416300
125.79999270	0.00000000	35.94980000	7.84940900
125.99999269	0.00000000	36.36811000	7.89247000
126.19999268	0.00000000	36.83563000	7.84940900
126.39999267	0.00000000	37.94907000	7.47416300
126.59999265	0.00000000	39.01944000	6.68676100
126.79999264	0.00000000	39.06250000	5.98548200
126.99999263	0.00000000	38.32431000	5.53026500
127.19999262	0.00000000	37.53075000	5.51796200
127.39999261	0.00000000	36.36811000	5.11195900
127.59999260	0.00000000	35.25467000	4.82898600
127.79999258	0.00000000	34.83022000	5.15501900
127.99999257	0.00000000	34.78716000	5.89320800
128.19999256	0.00000000	34.83022000	6.26845500
128.39999255	0.00000000	35.25467000	6.31151500
128.59999254	0.00000000	36.36811000	6.31151500
128.79999252	0.00000000	37.48154000	6.31151500
128.99999251	0.00000000	37.90600000	6.31151500
129.19999250	0.00000000	37.94907000	6.31151500
129.39999249	0.00000000	37.90600000	6.31151500
129.59999248	0.00000000	37.53075000	6.26845500
129.79999246	0.00000000	36.74335000	5.93626900
129.99999245	0.00000000	35.99286000	5.57332700
130.19999244	0.00000000	35.20546000	5.93626900
130.39999243	0.00000000	34.83022000	6.26845500
130.59999242	0.00000000	34.83022000	6.31151500
130.79999241	0.00000000	35.25467000	6.35457700
130.99999239	0.00000000	36.36811000	6.68676100
131.19999238	0.00000000	37.48154000	7.05585600
131.39999237	0.00000000	37.94907000	6.68676100
131.59999236	0.00000000	38.32431000	6.31151500
131.79999235	0.00000000	38.69341000	5.89320800
131.99999233	0.00000000	38.28125000	5.15501900
132.19999232	0.00000000	37.53075000	4.77977300
132.39999231	0.00000000	36.36811000	4.73671200
132.59999230	0.00000000	35.25467000	4.77977300
132.79999229	0.00000000	34.87943000	5.15501900
132.99999227	0.00000000	35.20546000	5.93626900
133.19999226	0.00000000	35.94980000	6.68676100
133.39999225	0.00000000	36.32505000	7.47416300
133.59999224	0.00000000	36.36811000	7.84940900
133.79999223	0.00000000	36.36811000	7.84940900
133.99999222	0.00000000	36.36811000	7.47416300
134.19999220	0.00000000	36.36811000	6.68676100
134.39999219	0.00000000	36.36811000	5.93626900
134.59999218	0.00000000	36.36811000	5.11195900
134.79999217	0.00000000	36.36811000	4.36146600
134.99999216	0.00000000	36.36811000	3.62327700
135.19999214	0.00000000	36.41117000	3.62327700
135.39999213	0.00000000	36.78642000	4.36146600
135.59999212	0.00000000	37.48154000	5.11195900
135.79999211	0.00000000	37.48154000	5.93626900
135.99999210	0.00000000	36.78642000	6.68676100
136.19999208	0.00000000	36.36811000	7.47416300
136.39999207	0.00000000	35.94980000	7.84940900
136.59999206	0.00000000	35.20546000	7.89247000
136.79999205	0.00000000	34.83022000	7.84940900
136.99999204	0.00000000	34.83022000	7.47416300
137.19999203	0.00000000	35.20546000	6.68676100
137.39999201	0.00000000	35.99286000	5.93626900
137.59999200	0.00000000	36.74335000	5.15501900
137.79999199	0.00000000	37.53075000	4.77977300
137.99999198	0.00000000	37.90600000	4.73671200
138.19999197	0.00000000	37.90600000	4.73671200
138.39999195	0.00000000	37.53075000	4.73671200
138.59999194	0.00000000	36.78642000	4.77977300
138.79999193	0.00000000	36.36811000	5.15501900
138.99999192	0.00000000	35.94980000	5.89320800
139.19999191	0.00000000	35.20546000	6.31151500
139.39999189	0.00000000	34.87943000	6.72982200
139.59999188	0.00000000	35.20546000	7.47416300
139.79999187	0.00000000	35.94980000	7.84940900
139.99999186	0.00000000	36.36811000	7.84940900
140.19999185	0.00000000	36.78642000	7.47416300
140.39999184	0.00000000	37.53075000	6.68676100
140.59999182	0.00000000	37.85679000	5.93626900
140.79999181	0.00000000	37.53075000	5.11195900
140.99999180	0.00000000	36.78642000	4.36146600
141.19999179	0.00000000	36.36811000	3.62327700
141.39999178	0.00000000	35.94980000	3.62327700
141.59999176	0.00000000	35.25467000	4.36146600
141.79999175	0.00000000	35.25467000	5.15501900
141.99999174	0.00000000	35.94980000	6.31151500
142.19999173	0.00000000	36.32505000	7.42495000
142.39999172	0.00000000	36.41117000	7.84940900
142.59999170	0.00000000	36.74335000	7.89247000
142.79999169	0.00000000	37.11245000	7.84940900
142.99999168	0.00000000	36.74335000	7.42495000
143.19999167	0.00000000	36.36811000	6.31151500
143.39999166	0.00000000	35.99286000	5.19808000
143.59999165	0.00000000	35.62377000	4.77977300
143.79999163	0.00000000	35.99286000	4.73671200
143.99999162	0.00000000	36.32505000	4.73671200
144.19999161	0.00000000	36.36811000	4.77977300
144.39999160	0.00000000	36.36811000	5.15501900
144.59999159	0.00000000	36.41117000	5.93626900
144.79999157	0.00000000	36.74335000	6.68676100
144.99999156	0.00000000	37.11245000	7.47416300
145.19999155	0.00000000	36.74335000	7.80019600
145.39999154	0.00000000	36.41117000	7.47416300
145.59999153	0.00000000	36.36811000	6.72982200
145.79999151	0.00000000	36.32505000	6.31151500
145.99999150	0.00000000	35.99286000	5.89320800
146.19999149	0.00000000	35.62377000	5.15501900
146.39999148	0.00000000	35.99286000	4.77977300
146.59999147	0.00000000	36.32505000	4.73671200
146.79999146	0.00000000	36.41117000	4.77977300
146.99999144	0.00000000	36.78642000	5.15501900
147.19999143	0.00000000	37.48154000	5.89320800
147.39999142	0.00000000	37.48154000	6.26845500
147.59999141	0.00000000	36.78642000	6.31151500
147.79999140	0.00000000	36.41117000	6.31151500
147.99999138	0.00000000	36.32505000	6.31151500
148.19999137	0.00000000	35.99286000	6.31151500
148.39999136	0.00000000	35.58071000	6.31151500
148.59999135	0.00000000	35.61762000	6.31151500
148.79999134	0.00000000	35.58071000	6.31151500
148.99999132	0.00000000	35.99286000	6.31151500
149.19999131	0.00000000	36.32505000	6.26845500
149.39999130	0.00000000	36.36811000	5.89320800
149.59999129	0.00000000	36.41117000	5.15501900
149.79999128	0.00000000	36.78642000	4.77977300
149.99999127	0.00000000	37.48154000	4.77977300
150.19999125	0.00000000	37.48154000	5.15501900
150.39999124	0.00000000	36.78642000	5.89320800
150.59999123	0.00000000	36.36811000	6.26845500
150.79999122	0.00000000	35.94980000	6.31151500
150.99999121	0.00000000	35.20546000	6.31151500
151.19999119	0.00000000	34.87943000	6.31151500
151.39999118	0.00000000	35.16240000	6.31151500
151.59999117	0.00000000	35.57455000	6.31151500
151.79999116	0.00000000	35.58071000	6.31151500
151.99999115	0.00000000	35.99286000	6.26845500
152.19999113	0.00000000	36.32505000	5.89320800
152.39999112	0.00000000	36.36811000	5.19808000
152.59999111	0.00000000	36.36811000	5.19808000
152.79999110	0.00000000	36.36811000	5.89320800
152.99999109	0.00000000	36.36811000	6.26845500
153.19999108	0.00000000	36.36811000	6.31151500
153.39999106	0.00000000	36.36811000	6.31151500
153.59999105	0.00000000	36.32505000	6.31151500
153.79999104	0.00000000	35.94980000	6.31151500
153.99999103	0.00000000	35.20546000	6.31151500
154.19999102	0.00000000	34.83022000	6.31151500
154.39999100	0.00000000	34.78716000	6.31151500
154.59999099	0.00000000	34.78716000	6.31151500
154.79999098	0.00000000	34.83022000	6.31151500
154.99999097	0.00000000	35.20546000	6.31151500
155.19999096	0.00000000	35.94980000	6.31151500
155.39999094	0.00000000	36.32505000	6.26845500
155.59999093	0.00000000	36.36811000	5.89320800
155.79999092	0.00000000	36.36811000	5.15501900
155.99999091	0.00000000	36.36811000	4.82898600
156.19999090	0.00000000	36.36811000	5.15501900
156.39999089	0.00000000	36.36811000	5.89320800
156.59999087	0.00000000	36.32505000	6.26845500
156.79999086	0.00000000	35.94980000	6.31151500
156.99999085	0.00000000	35.20546000	6.31151500
157.19999084	0.00000000	34.83022000	6.31151500
157.39999083	0.00000000	34.78716000	6.31151500
157.59999081	0.00000000	34.83022000	6.31151500
157.79999080	0.00000000	35.20546000	6.31151500
157.99999079	0.00000000	35.94980000	6.26845500
158.19999078	0.00000000	36.32505000	5.89320800
158.39999077	0.00000000	36.36811000	5.15501900
158.59999075	0.00000000	36.36811000	4.77977300
158.79999074	0.00000000	36.36811000	4.73671200
158.99999073	0.00000000	36.36811000	4.77977300
159.19999072	0.00000000	36.36811000	5.15501900
159.39999071	0.00000000	36.36811000	5.89320800
159.59999070	0.00000000	36.36811000	6.26845500
159.79999068	0.00000000	36.36811000	6.31151500
159.99999067	0.00000000	36.32505000	6.31151500
160.19999066	0.00000000	35.94980000	6.31151500
160.39999065	0.00000000	35.20546000	6.31151500
160.59999064	0.00000000	34.83022000	6.31151500
160.79999062	0.00000000	34.78716000	6.31151500
160.99999061	0.00000000	34.83022000	6.26845500
161.19999060	0.00000000	35.20546000	5.89320800
161.39999059	0.00000000	35.94980000	5.15501900
161.59999058	0.00000000	36.32505000	4.77977300
161.79999056	0.00000000	36.36811000	4.73671200
161.99999055	0.00000000	36.36811000	4.77977300
162.19999054	0.00000000	36.36811000	5.15501900
162.39999053	0.00000000	36.36811000	5.89320800
162.59999052	0.00000000	36.36811000	6.26845500
162.79999051	0.00000000	36.36811000	6.31151500
162.99999049	0.00000000	36.32505000	6.31151500
163.19999048	0.00000000	35.99286000	6.31151500
163.39999047	0.00000000	35.58071000	6.31151500
163.59999046	0.00000000	35.57455000	6.31151500
163.79999045	0.00000000	35.16240000	6.31151500
163.99999043	0.00000000	34.83022000	6.26845500
164.19999042	0.00000000	34.78716000	5.89320800
164.39999041	0.00000000	34.83022000	5.15501900
164.59999040	0.00000000	35.20546000	4.82898600
164.79999039	0.00000000	35.94980000	5.11195900
164.99999037	0.00000000	36.32505000	5.47490100
165.19999036	0.00000000	36.36811000	5.15501900
165.39999035	0.00000000	36.36811000	5.19808000
165.59999034	0.00000000	36.36811000	5.89320800
165.79999033	0.00000000	36.36811000	6.26845500
165.99999032	0.00000000	36.32505000	6.31151500
166.19999030	0.00000000	35.94980000	6.31151500
166.39999029	0.00000000	35.20546000	6.31151500
166.59999028	0.00000000	34.83022000	6.31151500
166.79999027	0.00000000	34.78716000	6.31151500
166.99999026	0.00000000	34.78716000	6.31151500
167.19999024	0.00000000	34.83022000	6.26845500
167.39999023	0.00000000	35.20546000	5.89320800
167.59999022	0.00000000	35.94980000	5.19808000
167.79999021	0.00000000	36.32505000	5.15501900
167.99999020	0.00000000	36.36811000	5.51796200
168.19999018	0.00000000	36.36811000	5.53026500
168.39999017	0.00000000	36.36811000	5.93626900
168.59999016	0.00000000	36.36811000	6.21924200
168.79999015	0.00000000	36.36811000	5.93626900
168.99999014	0.00000000	36.32505000	5.57332700
169.19999013	0.00000000	35.99286000	5.93626900
169.39999011	0.00000000	35.58071000	6.26845500
169.59999010	0.00000000	35.57455000	6.31151500
169.79999009	0.00000000	35.16240000	6.31151500
169.99999008	0.00000000	34.83022000	6.31151500
170.19999007	0.00000000	34.78716000	6.31151500
170.39999005	0.00000000	34.83022000	6.31151500
170.59999004	0.00000000	35.20546000	6.31151500
170.79999003	0.00000000	35.94980000	6.31151500
170.99999002	0.00000000	36.32505000	6.31151500
171.19999001	0.00000000	36.32505000	6.26845500
171.39998999	0.00000000	35.99286000	5.89320800
171.59998998	0.00000000	35.62377000	5.15501900
171.79998997	0.00000000	35.94980000	4.77977300
171.99998996	0.00000000	35.90059000	4.73671200
172.19998995	0.00000000	35.20546000	4.73671200
172.39998994	0.00000000	34.83022000	4.77977300
172.59998992	0.00000000	34.83022000	5.11195900
172.79998991	0.00000000	35.16240000	5.51796200
172.99998990	0.00000000	35.53149000	5.53026500
173.19998989	0.00000000	35.20546000	5.93626900
173.39998988	0.00000000	35.25467000	6.26845500
173.59998986	0.00000000	35.94980000	6.31151500
173.79998985	0.00000000	36.32505000	6.31151500
173.99998984	0.00000000	36.36811000	6.26845500
174.19998983	0.00000000	36.36811000	5.89320800
174.39998982	0.00000000	36.36811000	5.15501900
174.59998980	0.00000000	36.36811000	4.77977300
174.79998979	0.00000000	36.36811000	4.77977300
174.99998978	0.00000000	36.36811000	5.11195900
175.19998977	0.00000000	36.32505000	5.47490100
175.39998976	0.00000000	35.94980000	5.15501900
175.59998975	0.00000000	35.20546000	5.19808000
175.79998973	0.00000000	34.83022000	5.89320800
175.99998972	0.00000000	34.83022000	6.26845500
176.19998971	0.00000000	35.16240000	6.31151500
176.39998970	0.00000000	35.57455000	6.31151500
176.59998969	0.00000000	35.58071000	6.31151500
176.79998967	0.00000000	35.99286000	6.26845500
176.99998966	0.00000000	36.27584000	5.93626900
177.19998965	0.00000000	35.94980000	5.53026500
177.39998964	0.00000000	35.20546000	5.51796200
177.59998963	0.00000000	34.83022000	5.11195900
177.79998961	0.00000000	34.78716000	4.77977300
177.99998960	0.00000000	34.78716000	4.73671200
178.19998959	0.00000000	34.83022000	4.77977300
178.39998958	0.00000000	35.16240000	5.15501900
178.59998957	0.00000000	35.53149000	5.89320800
178.79998956	0.00000000	35.16240000	6.26845500
178.99998954	0.00000000	34.87943000	6.31151500
179.19998953	0.00000000	35.20546000	6.31151500
179.39998952	0.00000000	35.90059000	6.31151500
179.59998951	0.00000000	35.90059000	6.31151500
179.79998950	0.00000000	35.20546000	6.26845500
179.99998948	0.00000000	34.83022000	5.89320800
180.19998947	0.00000000	34.83022000	5.15501900
180.39998946	0.00000000	35.16240000	4.77977300
180.59998945	0.00000000	35.53149000	4.73671200
180.79998944	0.00000000	35.16240000	4.73671200
180.99998942	0.00000000	34.83022000	4.73671200
181.19998941	0.00000000	34.78716000	4.77977300
181.39998940	0.00000000	34.83022000	5.15501900
181.59998939	0.00000000	35.16240000	5.89320800
181.79998938	0.00000000	35.53149000	6.26845500
181.99998937	0.00000000	35.16240000	6.31151500
182.19998935	0.00000000	34.87943000	6.31151500
182.39998934	0.00000000	35.20546000	6.31151500
182.59998933	0.00000000	35.94980000	6.26845500
182.79998932	0.00000000	36.32505000	5.93626900
182.99998931	0.00000000	36.36811000	5.53026500
183.19998929	0.00000000	36.32505000	5.51796200
183.39998928	0.00000000	35.94980000	5.11195900
183.59998927	0.00000000	35.20546000	4.77977300
183.79998926	0.00000000	34.83022000	4.77977300
183.99998925	0.00000000	34.78716000	5.11195900
184.19998923	0.00000000	34.78716000	5.51796200
184.39998922	0.00000000	34.78716000	5.53026500
184.59998921	0.00000000	34.78716000	5.93626900
184.79998920	0.00000000	34.78716000	6.26845500
184.99998919	0.00000000	34.78716000	6.31151500
185.19998918	0.00000000	34.83022000	6.31151500
185.39998916	0.00000000	35.16240000	6.26845500
185.59998915	0.00000000	35.53149000	5.89320800
185.79998914	0.00000000	35.16240000	5.15501900
185.99998913	0.00000000	34.83022000	4.77977300
186.19998912	0.00000000	34.83022000	4.73671200
186.39998910	0.00000000	35.16240000	4.73671200
186.59998909	0.00000000	35.53149000	4.73671200
186.79998908	0.00000000	35.16240000	4.73671200
186.99998907	0.00000000	34.83022000	4.77977300
187.19998906	0.00000000	34.78716000	5.15501900
187.39998904	0.00000000	34.78716000	5.89320800
187.59998903	0.00000000	34.78716000	6.26845500
187.79998902	0.00000000	34.78716000	6.31151500
187.99998901	0.00000000	34.78716000	6.31151500
188.19998900	0.00000000	34.83022000	6.31151500
188.39998899	0.00000000	35.16240000	6.26845500
188.59998897	0.00000000	35.57455000	5.89320800
188.79998896	0.00000000	35.58071000	5.15501900
188.99998895	0.00000000	35.94980000	4.77977300
189.19998894	0.00000000	35.90059000	4.73671200
189.39998893	0.00000000	35.20546000	4.73671200
189.59998891	0.00000000	34.83022000	4.73671200
189.79998890	0.00000000	34.78716000	4.73671200
189.99998889	0.00000000	34.78716000	4.73671200
190.19998888	0.00000000	34.78716000	4.77977300
190.39998887	0.00000000	34.78716000	5.15501900
190.59998885	0.00000000	34.78716000	5.89320800
190.79998884	0.00000000	34.78716000	6.26845500
190.99998883	0.00000000	34.78716000	6.31151500
191.19998882	0.00000000	34.78716000	6.31151500
191.39998881	0.00000000	34.78716000	6.31151500
191.59998880	0.00000000	34.83022000	6.26845500
191.79998878	0.00000000	35.16240000	5.89320800
191.99998877	0.00000000	35.53149000	5.15501900
192.19998876	0.00000000	35.16240000	4.77977300
192.39998875	0.00000000	34.83022000	4.73671200
192.59998874	0.00000000	34.78716000	4.73671200
192.79998872	0.00000000	34.78716000	4.73671200
192.99998871	0.00000000	34.78716000	4.73671200
193.19998870	0.00000000	34.78716000	4.73671200
193.39998869	0.00000000	34.78716000	4.77977300
193.59998868	0.00000000	34.78716000	5.15501900
193.79998866	0.00000000	34.78716000	5.89320800
193.99998865	0.00000000	34.78716000	6.26845500
194.19998864	0.00000000	34.78716000	6.31151500
194.39998863	0.00000000	34.78716000	6.31151500
194.59998862	0.00000000	34.78716000	6.31151500
194.79998861	0.00000000	34.83022000	6.31151500
194.99998859	0.00000000	35.16240000	6.26845500
195.19998858	0.00000000	35.53149000	5.89320800
195.39998857	0.00000000	35.16240000	5.15501900
195.59998856	0.00000000	34.83022000	4.77977300
195.79998855	0.00000000	34.78716000	4.73671200
195.99998853	0.00000000	34.78716000	4.73671200
