Time	Channel A	Channel B	Channel C
(us)	(V)	(mV)	(mV)

-4.49999956	0.00000000	34.04282000	4.77977300
-4.29999957	0.00000000	34.36884000	4.73671200
-4.09999958	0.00000000	34.36884000	4.73671200
-3.89999959	0.00000000	34.04282000	4.73671200
-3.69999960	0.00000000	34.41191000	4.73671200
-3.49999962	0.00000000	34.69488000	4.73671200
-3.29999963	0.00000000	34.41191000	4.73671200
-3.09999964	0.00000000	33.99975000	4.73671200
-2.89999965	0.00000000	34.03666000	4.73671200
-2.69999966	0.00000000	33.99975000	4.73671200
-2.49999968	0.00000000	34.41191000	4.77977300
-2.29999969	0.00000000	34.74409000	5.11195900
-2.09999970	0.00000000	34.78716000	5.47490100
-1.89999971	0.00000000	34.74409000	5.11195900
-1.69999972	0.00000000	34.36884000	4.77977300
-1.49999973	0.00000000	33.66756000	4.73671200
-1.29999975	0.00000000	33.66756000	4.77977300
-1.09999976	0.00000000	34.36884000	5.11195900
-0.89999977	0.00000000	34.74409000	5.47490100
-0.69999978	0.00000000	34.78716000	5.11195900
-0.49999979	0.00000000	34.78716000	4.77977300
-0.29999981	0.31803640	34.74409000	4.73671200
-0.09999982	0.63668800	34.36884000	4.73671200
0.10000017	0.95533960	33.66756000	4.73671200
0.30000016	1.11466500	33.61835000	4.73671200
0.50000015	0.95533960	33.94439000	4.73671200
0.70000013	0.47736220	33.61835000	4.73671200
0.90000012	-0.31803640	33.61835000	4.73671200
1.10000011	-1.43331700	33.98745000	4.73671200
1.30000010	-2.22994600	33.99975000	4.77977300
1.50000009	-2.70792300	34.41191000	5.15501900
1.70000008	-2.54859700	34.74409000	5.89320800
1.90000006	-1.43331700	34.78716000	6.26845500
2.10000005	0.31803640	34.78716000	6.31151500
2.30000004	2.38927200	34.78716000	6.26845500
2.50000003	4.30056600	34.74409000	5.89320800
2.70000002	5.25652100	34.36884000	5.15501900
2.90000000	4.93786900	33.61835000	4.77977300
3.09999999	3.18590100	33.24311000	4.73671200
3.29999998	0.31803640	33.24311000	4.73671200
3.49999997	-3.02657500	33.57529000	4.73671200
3.69999996	-6.05315000	33.94439000	4.77977300
3.89999994	-7.80511800	33.61835000	5.15501900
4.09999993	-7.64579200	33.66756000	5.89320800
4.29999992	-5.41584600	34.36884000	6.26845500
4.49999991	-1.59264300	34.74409000	6.31151500
4.69999990	2.70792300	34.78716000	6.31151500
4.89999989	6.84916400	34.74409000	6.26845500
5.09999987	9.07972400	34.36884000	5.89320800
5.29999986	9.23905000	33.61835000	5.15501900
5.49999985	7.00848900	33.24311000	4.77977300
5.69999984	3.02657500	33.20005000	4.73671200
5.89999983	-1.91129400	33.24311000	4.73671200
6.09999981	-6.21247500	33.61835000	4.73671200
6.29999980	-8.92039900	34.31963000	4.77977300
6.49999979	-9.39837600	34.36884000	5.15501900
6.69999978	-7.48646600	34.04282000	5.89320800
6.89999977	-3.82258900	34.41191000	6.26845500
7.09999975	0.47736220	34.69488000	6.26845500
7.29999974	4.45989200	34.36884000	5.89320800
7.49999973	7.00848900	33.61835000	5.15501900
7.69999972	7.80511800	33.24311000	4.77977300
7.89999971	6.53112700	33.24311000	4.73671200
8.09999970	3.82258900	33.61835000	4.73671200
8.29999968	0.47736220	34.36884000	4.73671200
8.49999967	-2.54859700	34.69488000	4.73671200
8.69999966	-4.61921700	34.36884000	4.73671200
8.89999965	-5.25652100	33.61835000	4.73671200
9.09999964	-4.45989200	33.24311000	4.73671200
9.29999962	-2.86724900	33.24311000	4.73671200
9.49999961	-0.95533960	33.57529000	4.73671200
9.69999960	0.95533960	33.94439000	4.73671200
9.89999959	2.07062000	33.57529000	4.73671200
10.09999958	2.54859700	33.24311000	4.73671200
10.29999956	2.22994600	33.20005000	4.73671200
10.49999955	1.59264300	33.20005000	4.73671200
10.69999954	0.63668800	33.20005000	4.73671200
10.89999953	-0.15871060	33.20005000	4.73671200
11.09999952	-0.63668800	33.20005000	4.73671200
11.29999951	-0.95533960	33.20005000	4.73671200
11.49999949	-0.95533960	33.20005000	4.73671200
11.69999948	-0.79601380	33.20005000	4.73671200
11.89999947	-0.47736220	33.20005000	4.73671200
12.09999946	-0.15871060	33.20005000	4.73671200
12.29999945	-0.15871060	33.20005000	4.73671200
12.49999943	-0.15871060	33.20005000	4.73671200
12.69999942	0.00000000	33.24311000	4.73671200
12.89999941	0.00000000	33.57529000	4.73671200
13.09999940	0.15871060	33.94439000	4.73671200
13.29999939	0.15871060	33.57529000	4.73671200
13.49999937	0.00000000	33.24311000	4.73671200
13.69999936	0.00000000	33.20005000	4.73671200
13.89999935	0.00000000	33.20005000	4.73671200
14.09999934	-0.15871060	33.20005000	4.73671200
14.29999933	-0.15871060	33.20005000	4.73671200
14.49999932	-0.15871060	33.20005000	4.73671200
14.69999930	-0.15871060	33.20005000	4.73671200
14.89999929	0.00000000	33.20005000	4.73671200
15.09999928	0.00000000	33.20005000	4.73671200
15.29999927	0.00000000	33.20005000	4.73671200
15.49999926	0.00000000	33.20005000	4.73671200
15.69999924	0.00000000	33.20005000	4.73671200
15.89999923	0.00000000	33.20005000	4.73671200
16.09999922	0.00000000	33.20005000	4.73671200
16.29999921	0.00000000	33.20005000	4.73671200
16.49999920	0.00000000	33.24311000	4.73671200
16.69999919	-0.15871060	33.61835000	4.73671200
16.89999917	0.00000000	34.36884000	4.73671200
17.09999916	0.00000000	34.74409000	4.73671200
17.29999915	0.00000000	34.83022000	4.73671200
17.49999914	0.00000000	35.16240000	4.73671200
17.69999913	0.00000000	35.53149000	4.73671200
17.89999911	0.00000000	35.11934000	4.73671200
18.09999910	0.00000000	34.36884000	4.73671200
18.29999909	0.00000000	33.15699000	4.73671200
18.49999908	0.00000000	31.61909000	4.73671200
18.69999907	0.00000000	30.08120000	4.73671200
18.89999905	0.00000000	28.92470000	4.73671200
19.09999904	0.00000000	28.59252000	4.73671200
19.29999903	0.00000000	29.38607000	4.73671200
19.49999902	0.00000000	31.75443000	4.73671200
19.69999901	0.00000000	35.20546000	4.73671200
19.89999900	0.00000000	39.11171000	4.73671200
20.09999898	0.00000000	42.55659000	4.73671200
20.29999897	0.00000000	44.83267000	4.73671200
20.49999896	0.00000000	44.74655000	4.73671200
20.69999895	0.00000000	41.62770000	4.73671200
20.89999894	0.00000000	35.81446000	4.73671200
21.09999892	0.00000000	28.45718000	4.73671200
21.29999891	0.00000000	21.10605000	4.73671200
21.49999890	0.00000000	15.33587000	4.73671200
21.69999889	0.00000000	12.72761000	4.73671200
21.89999888	0.00000000	14.73302000	4.73671200
22.09999886	0.00000000	21.75197000	4.73671200
22.29999885	0.00000000	32.59719000	4.73671200
22.49999884	0.00000000	45.34325000	4.73671200
22.69999883	0.00000000	56.88361000	4.73671200
22.89999882	0.00000000	64.14247000	4.77977300
23.09999881	0.00000000	64.88680000	5.15501900
23.29999879	0.00000000	58.19389000	5.89320800
23.49999878	0.00000000	45.01722000	6.26845500
23.69999877	0.00000000	27.25147000	6.31151500
23.89999876	0.00000000	9.56569900	6.31151500
24.09999875	0.00000000	-3.59867100	6.31151500
24.29999873	0.00000000	-9.27657400	6.26845500
24.49999872	0.00000000	-5.36417300	5.85014700
24.69999871	0.00000000	8.21235200	4.68750000
24.89999870	0.00000000	28.27264000	3.15575800
25.09999869	0.00000000	50.69513000	1.57480300
25.29999867	0.00000000	69.96185000	0.09227362
25.49999866	0.00000000	81.54527000	-0.65206690
25.69999865	0.00000000	82.66486000	0.17839570
25.89999864	0.00000000	72.57013000	2.46063000
26.09999863	0.00000000	53.25418000	5.98548200
26.29999862	0.00000000	28.88164000	9.84867000
26.49999860	0.00000000	5.05044300	13.69956000
26.69999859	0.00000000	-12.38312000	16.35089000
26.89999858	0.00000000	-18.95300000	16.71998000
27.09999857	0.00000000	-14.33932000	14.72072000
27.29999856	0.00000000	1.14419300	10.03322000
27.49999854	0.00000000	23.84965000	3.06348400
27.69999853	0.00000000	47.85925000	-4.64443900
27.89999852	0.00000000	68.38091000	-11.56496000
28.09999851	0.00000000	81.08390000	-15.70497000
28.29999850	0.00000000	82.66486000	-15.28666000
28.49999848	0.00000000	73.08070000	-9.84867000
28.69999847	0.00000000	55.34571000	-0.55979330
28.89999846	0.00000000	33.71063000	11.05438000
29.09999845	0.00000000	13.19513000	22.61934000
29.29999844	0.00000000	-1.92544300	31.45300000
29.49999843	0.00000000	-8.94438800	35.21776000
29.69999841	0.00000000	-6.66830600	32.10507000
29.89999840	0.00000000	3.70939900	22.44094000
30.09999839	0.00000000	19.57431000	8.50147600
30.29999838	0.00000000	37.34621000	-7.33882900
30.49999837	0.00000000	53.21112000	-21.60433000
30.69999835	0.00000000	63.72416000	-30.80709000
30.89999834	0.00000000	67.31053000	-32.70792000
31.09999833	0.00000000	64.23473000	-26.11343000
31.29999832	0.00000000	55.30265000	-12.63533000
31.49999831	0.00000000	42.18134000	4.77977300
31.69999829	0.00000000	27.89739000	22.57628000
31.89999828	0.00000000	15.88952000	37.26009000
32.09999827	0.00000000	8.45226300	45.66929000
32.29999826	0.00000000	6.49606300	45.29404000
32.49999825	0.00000000	9.94094400	36.05438000
32.69999824	0.00000000	18.07948000	20.62008000
32.89999822	0.00000000	28.87549000	2.04232300
33.09999821	0.00000000	40.08981000	-15.70497000
33.29999820	0.00000000	48.97884000	-28.85088000
33.49999819	0.00000000	53.67864000	-34.70718000
33.69999818	0.00000000	53.67864000	-32.38804000
33.89999816	0.00000000	49.06496000	-22.71777000
34.09999815	0.00000000	41.01870000	-7.25270600
34.29999814	0.00000000	32.12967000	10.45152000
34.49999813	0.00000000	24.36024000	26.29183000
34.69999812	0.00000000	19.00837000	36.79257000
34.89999810	0.00000000	17.80266000	40.28051000
35.09999809	0.00000000	20.82308000	36.41732000
35.29999808	0.00000000	26.22416000	25.59670000
35.49999807	0.00000000	33.15699000	10.62992000
35.69999806	0.00000000	39.62844000	-4.83513700
35.89999805	0.00000000	43.16560000	-17.19365000
36.09999803	0.00000000	43.62696000	-24.11417000
36.29999802	0.00000000	41.67076000	-23.73892000
36.49999801	0.00000000	37.43848000	-16.12328000
36.69999800	0.00000000	32.08661000	-4.22613100
36.89999799	0.00000000	27.47293000	8.87672100
37.09999797	0.00000000	24.73548000	20.02337000
37.29999796	0.00000000	24.36024000	26.20571000
37.49999795	0.00000000	26.26722000	26.24877000
37.69999794	0.00000000	30.13041000	20.53395000
37.89999793	0.00000000	34.69488000	10.96211000
38.09999791	0.00000000	38.60113000	0.59670270
38.29999790	0.00000000	40.93258000	-7.85556000
38.49999789	0.00000000	41.71998000	-12.03863000
38.69999788	0.00000000	40.51427000	-10.54995000
38.89999787	0.00000000	37.43848000	-4.04773600
39.09999786	0.00000000	33.20005000	5.11195900
39.29999784	0.00000000	28.96776000	14.30241000
39.49999783	0.00000000	25.84892000	20.44168000
39.69999782	0.00000000	24.31102000	21.97957000
39.89999781	0.00000000	24.64321000	18.49163000
40.09999780	0.00000000	26.59326000	10.40846000
40.29999778	0.00000000	29.29380000	0.13533460
40.49999777	0.00000000	32.82480000	-9.06126900
40.69999776	0.00000000	36.27584000	-14.08095000
40.89999775	0.00000000	39.01944000	-14.08095000
41.09999774	0.00000000	40.60039000	-9.06126900
41.29999772	0.00000000	41.01870000	0.17839570
41.49999771	0.00000000	40.55733000	10.86983000
41.69999770	0.00000000	38.60113000	20.10950000
41.89999769	0.00000000	35.20546000	25.13533000
42.09999768	0.00000000	32.08661000	25.17839000
42.29999767	0.00000000	29.70595000	20.52780000
42.49999765	0.00000000	27.76206000	12.11860000
42.69999764	0.00000000	27.01156000	2.50369100
42.89999763	0.00000000	27.34375000	-5.62869100
43.09999762	0.00000000	28.50024000	-11.01132000
43.29999761	0.00000000	30.03814000	-12.17397000
43.49999759	0.00000000	31.61909000	-8.78444900
43.69999758	0.00000000	33.20005000	-2.69439000
43.89999757	0.00000000	34.73794000	4.26919300
44.09999756	0.00000000	35.90059000	10.45152000
44.29999755	0.00000000	36.32505000	14.72072000
44.49999753	0.00000000	36.36811000	16.30167000
44.69999752	0.00000000	36.36811000	15.14518000
44.89999751	0.00000000	36.36811000	11.70029000
45.09999750	0.00000000	36.32505000	6.77903500
45.29999749	0.00000000	35.90059000	2.50369100
45.49999748	0.00000000	34.69488000	-0.28297240
45.69999746	0.00000000	32.68946000	-2.18380900
45.89999745	0.00000000	29.61983000	-2.18380900
46.09999744	0.00000000	26.13189000	-0.33218500
46.29999743	0.00000000	23.47441000	1.99311000
46.49999742	0.00000000	21.94882000	4.73671200
46.69999740	0.00000000	22.82234000	7.38188900
46.89999739	0.00000000	26.26722000	8.96284400
47.09999738	0.00000000	31.75443000	9.43036400
47.29999737	0.00000000	38.27509000	9.38115100
47.49999736	0.00000000	44.45743000	8.58759800
47.69999734	0.00000000	48.28371000	6.64370100
47.89999733	0.00000000	49.06496000	4.36146600
48.09999732	0.00000000	46.27829000	2.04232300
48.29999731	0.00000000	40.08981000	0.51058070
48.49999730	0.00000000	31.57603000	0.09227362
48.69999729	0.00000000	22.77928000	0.51058070
48.89999727	0.00000000	16.22170000	2.08538400
49.09999726	0.00000000	13.84719000	4.77977300
49.29999725	0.00000000	15.38509000	7.84940900
49.49999724	0.00000000	20.50320000	10.53765000
49.69999723	0.00000000	29.01082000	12.03248000
49.89999721	0.00000000	38.97638000	11.65723000
50.09999720	0.00000000	47.44094000	9.33809000
50.29999719	0.00000000	52.04847000	5.89320800
50.49999718	0.00000000	51.72244000	1.99311000
50.69999717	0.00000000	46.70275000	-1.44562000
50.89999715	0.00000000	38.64419000	-3.76476400
51.09999714	0.00000000	29.34301000	-4.09079700
51.29999713	0.00000000	21.28445000	-2.18380900
51.49999712	0.00000000	16.26476000	1.66707700
51.69999711	0.00000000	15.88952000	6.26845500
51.89999710	0.00000000	20.07874000	10.49459000
52.09999708	0.00000000	27.34375000	13.18898000
52.29999707	0.00000000	35.43922000	13.61343000
52.49999706	0.00000000	42.00295000	12.07554000
52.69999705	0.00000000	45.90305000	8.96284400
52.89999704	0.00000000	46.23523000	4.77977300
53.09999702	0.00000000	42.79035000	0.92888770
53.29999701	0.00000000	36.31890000	-1.39640700
53.49999700	0.00000000	29.43528000	-2.18380900
53.69999699	0.00000000	24.36024000	-1.02116100
53.89999698	0.00000000	21.65969000	1.62401600
54.09999696	0.00000000	22.08415000	4.68750000
54.29999695	0.00000000	25.89198000	7.38188900
54.49999694	0.00000000	31.57603000	8.91978400
54.69999693	0.00000000	36.97096000	8.91978400
54.89999692	0.00000000	40.46506000	7.43110200
55.09999691	0.00000000	41.67076000	5.15501900
55.29999689	0.00000000	40.51427000	3.24803100
55.49999688	0.00000000	37.39542000	2.08538400
55.69999687	0.00000000	32.78174000	2.12844500
55.89999686	0.00000000	27.84818000	3.66633800
56.09999685	0.00000000	24.77854000	6.31151500
56.29999683	0.00000000	24.31102000	8.91978400
56.49999682	0.00000000	25.84892000	10.07628000
56.69999681	0.00000000	28.96776000	9.29502900
56.89999680	0.00000000	33.15699000	7.01279500
57.09999679	0.00000000	36.97096000	3.48794300
57.29999677	0.00000000	38.97638000	-0.33218500
57.49999676	0.00000000	39.35162000	-3.76476400
57.69999675	0.00000000	38.22588000	-5.20423200
57.89999674	0.00000000	35.53765000	-3.67249000
58.09999673	0.00000000	32.87401000	0.55364170
58.29999672	0.00000000	30.50566000	6.31151500
58.49999670	0.00000000	28.96776000	12.07554000
58.69999669	0.00000000	28.59252000	16.30167000
58.89999668	0.00000000	29.34301000	17.83957000
59.09999667	0.00000000	31.24384000	16.25861000
59.29999666	0.00000000	33.11393000	11.61417000
59.49999664	0.00000000	34.31963000	4.69365100
59.69999663	0.00000000	34.69488000	-2.60211600
59.89999662	0.00000000	34.36884000	-8.36614100
60.09999661	0.00000000	33.57529000	-11.05438000
60.29999660	0.00000000	32.78174000	-9.84867000
60.49999658	0.00000000	31.61909000	-4.82898600
60.69999657	0.00000000	30.54872000	3.20497000
60.89999656	0.00000000	30.54872000	11.65723000
61.09999655	0.00000000	31.66215000	18.21481000
61.29999654	0.00000000	33.20005000	21.69045000
61.49999653	0.00000000	34.73794000	20.90305000
61.69999651	0.00000000	35.85752000	16.30167000
61.89999650	0.00000000	35.81446000	8.96284400
62.09999649	0.00000000	34.31963000	0.51058070
62.29999648	0.00000000	32.03740000	-6.82824800
62.49999647	0.00000000	30.08120000	-11.47884000
62.69999645	0.00000000	28.50024000	-12.59227000
62.89999644	0.00000000	27.38681000	-9.52263600
63.09999643	0.00000000	27.42987000	-2.97736200
63.29999642	0.00000000	28.96776000	5.06889700
63.49999641	0.00000000	31.66830000	12.81988000
63.69999639	0.00000000	34.73794000	18.21481000
63.89999638	0.00000000	37.43848000	20.57702000
64.09999637	0.00000000	38.93332000	19.37131000
64.29999636	0.00000000	38.60113000	14.81299000
64.49999635	0.00000000	36.65108000	8.26771600
64.69999634	0.00000000	33.99360000	1.71013800
64.89999632	0.00000000	30.88090000	-3.76476400
65.09999631	0.00000000	28.59252000	-7.20349400
65.29999630	0.00000000	27.38681000	-8.03395600
65.49999629	0.00000000	27.42987000	-6.13312000
65.69999628	0.00000000	28.96776000	-2.69439000
65.89999626	0.00000000	31.61909000	1.62401600
66.09999625	0.00000000	34.31963000	6.21924200
66.29999624	0.00000000	36.23277000	10.11934000
66.49999623	0.00000000	37.02018000	12.49385000
66.69999622	0.00000000	36.23277000	13.69956000
66.89999620	0.00000000	34.36884000	13.69956000
67.09999619	0.00000000	32.03740000	12.53691000
67.29999618	0.00000000	30.13041000	10.53765000
67.49999617	0.00000000	29.01082000	7.42495000
67.69999616	0.00000000	29.38607000	3.57406500
67.89999615	0.00000000	31.28691000	0.09227362
68.09999613	0.00000000	33.57529000	-2.69439000
68.29999612	0.00000000	35.94980000	-4.60137700
68.49999611	0.00000000	37.77067000	-5.33956700
68.69999610	0.00000000	38.13361000	-4.18307100
68.89999609	0.00000000	36.18971000	-1.44562000
69.09999607	0.00000000	32.78174000	2.41756900
69.29999606	0.00000000	28.87549000	7.09891700
69.49999605	0.00000000	25.43061000	11.33120000
69.69999604	0.00000000	23.15453000	14.85605000
69.89999603	0.00000000	23.19759000	16.67692000
70.09999601	0.00000000	25.89198000	15.92642000
70.29999600	0.00000000	30.50566000	12.45079000
70.49999599	0.00000000	35.90059000	7.47416300
70.69999598	0.00000000	40.55733000	2.04232300
70.89999597	0.00000000	43.62696000	-2.60211600
71.09999596	0.00000000	44.37131000	-5.67175200
71.29999594	0.00000000	42.04601000	-6.45300100
71.49999593	0.00000000	37.43848000	-4.50910400
71.69999592	0.00000000	31.61909000	-0.69512790
71.89999591	0.00000000	25.80585000	4.31840500
72.09999590	0.00000000	21.19833000	8.91978400
72.29999588	0.00000000	18.92224000	12.03248000
72.49999587	0.00000000	20.03568000	13.18898000
72.69999586	0.00000000	23.89271000	12.07554000
72.89999585	0.00000000	29.29995000	9.42421200
73.09999584	0.00000000	35.48228000	6.36072800
73.29999582	0.00000000	40.51427000	3.66633800
73.49999581	0.00000000	43.62696000	2.08538400
73.69999580	0.00000000	44.37131000	1.66707700
73.89999579	0.00000000	42.09522000	2.04232300
74.09999578	0.00000000	37.85679000	3.19881900
74.29999577	0.00000000	32.82480000	4.64443900
74.49999575	0.00000000	27.80512000	5.43184000
74.69999574	0.00000000	24.36024000	5.01968500
74.89999573	0.00000000	23.10531000	3.90009800
75.09999572	0.00000000	23.89271000	1.99311000
75.29999571	0.00000000	26.18110000	0.55364170
75.49999569	0.00000000	29.66289000	0.51058070
75.69999568	0.00000000	33.11393000	1.71013800
75.89999567	0.00000000	35.85752000	4.03543200
76.09999566	0.00000000	37.39542000	7.51722400
76.29999565	0.00000000	37.43848000	10.91289000
76.49999563	0.00000000	36.32505000	13.23819000
76.69999562	0.00000000	34.78716000	13.56422000
76.89999561	0.00000000	33.24926000	11.65723000
77.09999560	0.00000000	32.08661000	7.75713500
77.29999559	0.00000000	31.66215000	2.73745100
77.49999558	0.00000000	31.61909000	-2.64517700
77.69999556	0.00000000	31.61909000	-6.82824800
77.89999555	0.00000000	31.57603000	-8.36614100
78.09999554	0.00000000	31.20078000	-6.82824800
78.29999553	0.00000000	30.45644000	-2.60211600
78.49999552	0.00000000	30.03814000	3.15575800
78.69999550	0.00000000	29.66289000	8.96284400
78.89999549	0.00000000	29.34301000	13.65650000
79.09999548	0.00000000	30.17347000	16.72613000
79.29999547	0.00000000	32.03740000	17.46432000
79.49999546	0.00000000	34.36884000	15.14518000
79.69999544	0.00000000	36.27584000	10.53765000
79.89999543	0.00000000	37.43848000	4.77977300
80.09999542	0.00000000	37.43848000	-0.60285430
80.29999541	0.00000000	36.27584000	-4.13385800
80.49999540	0.00000000	34.31963000	-5.75787400
80.69999539	0.00000000	31.61909000	-5.71481200
80.89999537	0.00000000	28.92470000	-3.80782500
81.09999536	0.00000000	27.01156000	-0.33218500
81.29999535	0.00000000	26.22416000	3.53100400
81.49999534	0.00000000	27.01156000	7.42495000
81.69999533	0.00000000	28.92470000	10.53765000
81.89999531	0.00000000	31.61909000	12.53691000
82.09999530	0.00000000	34.31963000	13.65650000
82.29999529	0.00000000	36.23277000	13.23819000
82.49999528	0.00000000	37.02018000	10.96211000
82.69999527	0.00000000	36.27584000	7.89247000
82.89999525	0.00000000	34.78716000	4.73671200
83.09999524	0.00000000	33.20005000	1.58095500
83.29999523	0.00000000	31.61909000	-1.48868100
83.49999522	0.00000000	30.13041000	-3.76476400
83.69999521	0.00000000	29.34301000	-4.18307100
83.89999520	0.00000000	29.70595000	-3.06348400
84.09999518	0.00000000	30.41338000	-1.07037400
84.29999517	0.00000000	31.20078000	2.08538400
84.49999516	0.00000000	31.61909000	6.31151500
84.69999515	0.00000000	32.03740000	10.53765000
84.89999514	0.00000000	32.73252000	13.65650000
85.09999512	0.00000000	32.73252000	15.14518000
85.29999511	0.00000000	32.08661000	14.34547000
85.49999510	0.00000000	32.08661000	10.91289000
85.69999509	0.00000000	32.78174000	6.31151500
85.89999508	0.00000000	33.20005000	1.62401600
86.09999506	0.00000000	33.61835000	-2.60211600
86.29999505	0.00000000	34.31963000	-5.29650500
86.49999504	0.00000000	34.27657000	-5.71481200
86.69999503	0.00000000	33.15699000	-4.13385800
86.89999502	0.00000000	31.61909000	-0.69512790
87.09999501	0.00000000	30.08120000	3.94315900
87.29999499	0.00000000	28.92470000	8.17544300
87.49999498	0.00000000	28.54946000	11.70029000
87.69999497	0.00000000	28.92470000	13.56422000
87.89999496	0.00000000	30.08120000	13.18898000
88.09999495	0.00000000	31.61909000	10.49459000
88.29999493	0.00000000	33.20005000	6.31151500
88.49999492	0.00000000	34.73794000	2.04232300
88.69999491	0.00000000	35.85752000	-1.44562000
88.89999490	0.00000000	35.85752000	-3.71555100
89.09999489	0.00000000	34.73794000	-3.71555100
89.29999487	0.00000000	33.15699000	-1.39640700
89.49999486	0.00000000	31.24384000	2.41756900
89.69999485	0.00000000	29.34301000	7.05585600
89.89999484	0.00000000	28.59252000	10.82677000
90.09999483	0.00000000	28.87549000	12.77067000
90.29999482	0.00000000	29.66289000	12.03248000
90.49999480	0.00000000	30.45644000	9.33809000
90.69999479	0.00000000	31.66215000	5.47490100
90.89999478	0.00000000	33.15699000	0.92888770
91.09999477	0.00000000	34.27657000	-2.14074800
91.29999476	0.00000000	34.31963000	-2.97736200
91.49999474	0.00000000	33.57529000	-2.18380900
91.69999473	0.00000000	32.86786000	0.55364170
91.89999472	0.00000000	32.45571000	4.73671200
92.09999471	0.00000000	32.78174000	8.96284400
92.29999470	0.00000000	32.73252000	12.03248000
92.49999468	0.00000000	32.03740000	13.14591000
92.69999467	0.00000000	31.66215000	11.61417000
92.89999466	0.00000000	31.57603000	7.80019600
93.09999465	0.00000000	31.20078000	3.20497000
93.29999464	0.00000000	30.41338000	-1.02116100
93.49999463	0.00000000	29.70595000	-3.71555100
93.69999461	0.00000000	29.29380000	-4.09079700
93.89999460	0.00000000	29.70595000	-2.18380900
94.09999459	0.00000000	30.50566000	1.66707700
94.29999458	0.00000000	32.08661000	6.21924200
94.49999457	0.00000000	34.31963000	10.07628000
94.69999455	0.00000000	35.85752000	11.98327000
94.89999454	0.00000000	36.32505000	11.65723000
95.09999453	0.00000000	36.27584000	9.33809000
95.29999452	0.00000000	35.43922000	5.89320800
95.49999451	0.00000000	33.11393000	2.04232300
95.69999449	0.00000000	30.08120000	-1.02116100
95.89999448	0.00000000	27.34375000	-2.55905500
96.09999447	0.00000000	25.43061000	-2.18380900
96.29999446	0.00000000	24.64321000	0.13533460
96.49999445	0.00000000	25.47367000	3.57406500
96.69999444	0.00000000	27.76206000	7.38188900
96.89999442	0.00000000	31.24384000	10.03322000
97.09999441	0.00000000	34.73794000	10.49459000
97.29999440	0.00000000	37.85679000	9.38115100
97.49999439	0.00000000	40.13902000	7.43110200
97.69999438	0.00000000	40.51427000	4.73671200
97.89999436	0.00000000	38.97638000	2.08538400
98.09999435	0.00000000	35.85752000	0.51058070
98.29999434	0.00000000	31.61909000	0.09227362
98.49999433	0.00000000	27.38681000	0.51058070
98.69999432	0.00000000	24.26796000	1.99311000
98.89999430	0.00000000	22.73007000	3.90009800
99.09999429	0.00000000	23.10531000	5.06274600
99.29999428	0.00000000	25.38755000	5.85014700
99.49999427	0.00000000	28.50024000	5.85014700
99.69999426	0.00000000	32.03740000	5.15501900
99.89999425	0.00000000	35.85752000	4.77977300
100.09999423	0.00000000	38.55807000	4.77977300
100.29999422	0.00000000	39.39468000	5.15501900
100.49999421	0.00000000	39.01944000	5.89320800
100.69999420	0.00000000	37.43848000	6.26845500
100.89999419	0.00000000	34.73794000	6.26845500
101.09999417	0.00000000	31.61909000	5.85014700
101.29999416	0.00000000	28.54946000	4.68750000
101.49999415	0.00000000	26.22416000	3.15575800
101.69999414	0.00000000	25.43061000	1.62401600
101.89999413	0.00000000	25.76279000	0.51058070
102.09999411	0.00000000	26.96850000	0.51058070
102.29999410	0.00000000	28.92470000	1.66707700
102.49999409	0.00000000	31.61909000	3.57406500
102.69999408	0.00000000	34.27657000	5.93626900
102.89999407	0.00000000	35.85752000	8.21850300
103.09999406	0.00000000	36.32505000	10.11934000
103.29999404	0.00000000	36.27584000	10.49459000
103.49999403	0.00000000	35.48228000	9.38115100
103.69999402	0.00000000	33.53223000	7.43110200
103.89999401	0.00000000	31.28691000	4.68750000
104.09999400	0.00000000	29.29380000	1.66707700
104.29999398	0.00000000	28.17421000	-0.64591530
104.49999397	0.00000000	27.71284000	-1.43946800
104.69999396	0.00000000	28.12500000	-1.06422200
104.89999395	0.00000000	28.92470000	0.51058070
105.09999394	0.00000000	30.45644000	3.19881900
105.29999392	0.00000000	32.36343000	6.22539300
105.49999391	0.00000000	33.53223000	8.54453700
105.69999390	0.00000000	34.31963000	9.33809000
105.89999389	0.00000000	34.27657000	8.96284400
106.09999388	0.00000000	33.15699000	7.38188900
106.29999387	0.00000000	31.66215000	4.77977300
106.49999385	0.00000000	30.50566000	2.50369100
106.69999384	0.00000000	30.08120000	1.66707700
106.89999383	0.00000000	30.08120000	1.61786400
107.09999382	0.00000000	30.50566000	2.04232300
107.29999381	0.00000000	31.61909000	3.19881900
107.49999379	0.00000000	32.73252000	4.73671200
107.69999378	0.00000000	33.15699000	6.22539300
107.89999377	0.00000000	33.15699000	7.00664300
108.09999376	0.00000000	32.78174000	6.64370100
108.29999375	0.00000000	31.99434000	5.89320800
108.49999374	0.00000000	31.20078000	4.68750000
108.69999372	0.00000000	30.03814000	3.19881900
108.89999371	0.00000000	28.92470000	2.04232300
109.09999370	0.00000000	28.54946000	1.66707700
109.29999369	0.00000000	28.92470000	2.04232300
109.49999368	0.00000000	30.08120000	3.19881900
109.69999366	0.00000000	31.61909000	4.73671200
109.89999365	0.00000000	33.15699000	6.26845500
110.09999364	0.00000000	34.31963000	7.42495000
110.29999363	0.00000000	34.69488000	7.80019600
110.49999362	0.00000000	34.31963000	7.42495000
110.69999360	0.00000000	33.15699000	6.22539300
110.89999359	0.00000000	31.61909000	4.36146600
111.09999358	0.00000000	30.08120000	2.46063000
111.29999357	0.00000000	28.92470000	1.66707700
111.49999356	0.00000000	28.54946000	1.61786400
111.69999355	0.00000000	28.92470000	1.99311000
111.89999353	0.00000000	30.03814000	2.78051200
112.09999352	0.00000000	31.20078000	3.57406500
112.29999351	0.00000000	31.99434000	4.73671200
112.49999350	0.00000000	32.82480000	5.85014700
112.69999349	0.00000000	33.53223000	6.26845500
112.89999347	0.00000000	33.90133000	6.26845500
113.09999346	0.00000000	33.11393000	5.89320800
113.29999345	0.00000000	31.66215000	5.15501900
113.49999344	0.00000000	30.50566000	4.73671200
113.69999343	0.00000000	30.08120000	4.31840500
113.89999341	0.00000000	30.03814000	3.62327700
114.09999340	0.00000000	30.03814000	3.57406500
114.29999339	0.00000000	30.08120000	3.90009800
114.49999338	0.00000000	30.45644000	3.53100400
114.69999337	0.00000000	31.20078000	3.19881900
114.89999336	0.00000000	31.61909000	3.15575800
115.09999334	0.00000000	31.99434000	3.15575800
115.29999333	0.00000000	32.40649000	3.15575800
115.49999332	0.00000000	32.41265000	3.19881900
115.69999331	0.00000000	32.78174000	3.57406500
115.89999330	0.00000000	32.68946000	4.31840500
116.09999328	0.00000000	31.61909000	4.73671200
116.29999327	0.00000000	30.50566000	5.11195900
116.49999326	0.00000000	30.08120000	5.51796200
116.69999325	0.00000000	30.03814000	5.53026500
116.89999324	0.00000000	30.03814000	5.89320800
117.09999322	0.00000000	30.08120000	5.85014700
117.29999321	0.00000000	30.50566000	5.11195900
117.49999320	0.00000000	31.61909000	4.36146600
117.69999319	0.00000000	32.73252000	3.57406500
117.89999318	0.00000000	33.20005000	3.19881900
118.09999317	0.00000000	33.57529000	3.15575800
118.29999315	0.00000000	33.94439000	3.15575800
118.49999314	0.00000000	33.48917000	3.15575800
118.69999313	0.00000000	32.40649000	3.19881900
118.89999312	0.00000000	30.83169000	3.57406500
119.09999311	0.00000000	29.70595000	4.36146600
119.29999309	0.00000000	28.87549000	5.11195900
119.49999308	0.00000000	28.54946000	5.89320800
119.69999307	0.00000000	28.87549000	6.26845500
119.89999306	0.00000000	29.70595000	6.31151500
120.09999305	0.00000000	30.83169000	6.26845500
120.29999303	0.00000000	32.40649000	5.89320800
120.49999302	0.00000000	33.53223000	5.15501900
120.69999301	0.00000000	34.36884000	4.73671200
120.89999300	0.00000000	34.69488000	4.31840500
121.09999299	0.00000000	34.31963000	3.57406500
121.29999298	0.00000000	33.15699000	3.19881900
121.49999296	0.00000000	31.61909000	3.15575800
121.69999295	0.00000000	30.08120000	3.15575800
121.89999294	0.00000000	28.92470000	3.19881900
122.09999293	0.00000000	28.50024000	3.57406500
122.29999292	0.00000000	28.50024000	4.31840500
122.49999290	0.00000000	28.87549000	4.73671200
122.69999289	0.00000000	29.66289000	5.15501900
122.89999288	0.00000000	30.45644000	5.89320800
123.09999287	0.00000000	31.61909000	6.26845500
123.29999286	0.00000000	32.73252000	6.26845500
123.49999284	0.00000000	33.15699000	5.89320800
123.69999283	0.00000000	33.20005000	5.11195900
123.89999282	0.00000000	33.15699000	4.36146600
124.09999281	0.00000000	32.78174000	3.57406500
124.29999280	0.00000000	31.99434000	3.19881900
124.49999279	0.00000000	31.24384000	3.15575800
124.69999277	0.00000000	30.45644000	3.19881900
124.89999276	0.00000000	30.03814000	3.57406500
125.09999275	0.00000000	29.61983000	4.31840500
125.29999274	0.00000000	28.92470000	4.69365100
125.49999273	0.00000000	28.92470000	4.77977300
125.69999271	0.00000000	29.66289000	5.15501900
125.89999270	0.00000000	30.41338000	5.85014700
126.09999269	0.00000000	31.24384000	5.85014700
126.29999268	0.00000000	31.99434000	5.15501900
126.49999267	0.00000000	32.78174000	4.77977300
126.69999265	0.00000000	33.15699000	4.69365100
126.89999264	0.00000000	33.15699000	4.31840500
127.09999263	0.00000000	32.73252000	3.57406500
127.29999262	0.00000000	31.61909000	3.19881900
127.49999261	0.00000000	30.45644000	3.15575800
127.69999260	0.00000000	29.66289000	3.15575800
127.89999258	0.00000000	28.92470000	3.19881900
128.09999257	0.00000000	28.92470000	3.57406500
128.29999256	0.00000000	29.66289000	4.31840500
128.49999255	0.00000000	30.41338000	4.69365100
128.69999254	0.00000000	31.24384000	4.73671200
128.89999252	0.00000000	31.99434000	4.73671200
129.09999251	0.00000000	32.78174000	4.73671200
129.29999250	0.00000000	33.10777000	4.69365100
129.49999249	0.00000000	32.78174000	4.31840500
129.69999248	0.00000000	31.99434000	3.57406500
129.89999246	0.00000000	31.20078000	3.19881900
130.09999245	0.00000000	30.03814000	3.19881900
130.29999244	0.00000000	28.92470000	3.57406500
130.49999243	0.00000000	28.54946000	4.31840500
130.69999242	0.00000000	28.92470000	4.69365100
130.89999241	0.00000000	30.03814000	4.73671200
131.09999239	0.00000000	31.20078000	4.73671200
131.29999238	0.00000000	31.99434000	4.73671200
131.49999237	0.00000000	32.78174000	4.69365100
131.69999236	0.00000000	33.15699000	4.31840500
131.89999235	0.00000000	33.10777000	3.57406500
132.09999233	0.00000000	32.36343000	3.19881900
132.29999232	0.00000000	30.87475000	3.15575800
132.49999231	0.00000000	30.08120000	3.15575800
132.69999230	0.00000000	29.66289000	3.19881900
132.89999229	0.00000000	29.34301000	3.57406500
133.09999227	0.00000000	30.03814000	4.31840500
133.29999226	0.00000000	30.78248000	4.73671200
133.49999225	0.00000000	30.83169000	5.15501900
133.69999224	0.00000000	31.24384000	5.89320800
133.89999223	0.00000000	31.57603000	6.21924200
134.09999222	0.00000000	31.61909000	5.89320800
134.29999220	0.00000000	31.61909000	5.11195900
134.49999219	0.00000000	31.57603000	4.36146600
134.69999218	0.00000000	31.20078000	3.53100400
134.89999217	0.00000000	30.50566000	2.78051200
135.09999216	0.00000000	30.50566000	2.04232300
135.29999214	0.00000000	31.20078000	2.04232300
135.49999213	0.00000000	31.57603000	2.78051200
135.69999212	0.00000000	31.61909000	3.53100400
135.89999211	0.00000000	31.61909000	4.36146600
136.09999210	0.00000000	31.57603000	5.11195900
136.29999208	0.00000000	31.20078000	5.89320800
136.49999207	0.00000000	30.45644000	6.21924200
136.69999206	0.00000000	30.08120000	5.89320800
136.89999205	0.00000000	30.03814000	5.15501900
137.09999204	0.00000000	30.03814000	4.73671200
137.29999203	0.00000000	30.08120000	4.31840500
137.49999201	0.00000000	30.45644000	3.57406500
137.69999200	0.00000000	31.24384000	3.19881900
137.89999199	0.00000000	31.99434000	3.15575800
138.09999198	0.00000000	32.73252000	3.15575800
138.29999197	0.00000000	32.73252000	3.15575800
138.49999195	0.00000000	31.99434000	3.15575800
138.69999194	0.00000000	31.24384000	3.19881900
138.89999193	0.00000000	30.45644000	3.57406500
139.09999192	0.00000000	30.08120000	4.31840500
139.29999191	0.00000000	30.03814000	4.73671200
139.49999189	0.00000000	30.03814000	5.15501900
139.69999188	0.00000000	30.08120000	5.89320800
139.89999187	0.00000000	30.45644000	6.21924200
140.09999186	0.00000000	31.20078000	5.89320800
140.29999185	0.00000000	31.57603000	5.11195900
140.49999184	0.00000000	31.61909000	4.36146600
140.69999182	0.00000000	31.61909000	3.53100400
140.89999181	0.00000000	31.57603000	2.78051200
141.09999180	0.00000000	31.20078000	1.99311000
141.29999179	0.00000000	30.45644000	1.66707700
141.49999178	0.00000000	30.08120000	1.99311000
141.69999176	0.00000000	30.03814000	2.78051200
141.89999175	0.00000000	30.03814000	3.57406500
142.09999174	0.00000000	30.08120000	4.73671200
142.29999173	0.00000000	30.45644000	5.85014700
142.49999172	0.00000000	31.20078000	6.26845500
142.69999170	0.00000000	31.57603000	6.31151500
142.89999169	0.00000000	31.57603000	6.21924200
143.09999168	0.00000000	31.20078000	5.47490100
143.29999167	0.00000000	30.45644000	3.99237200
143.49999166	0.00000000	30.08120000	3.19881900
143.69999165	0.00000000	30.03814000	2.73745100
143.89999163	0.00000000	30.03814000	2.04232300
144.09999162	0.00000000	30.08120000	2.04232300
144.29999161	0.00000000	30.45644000	2.78051200
144.49999160	0.00000000	31.20078000	3.53100400
144.69999159	0.00000000	31.57603000	4.36146600
144.89999157	0.00000000	31.61909000	5.11195900
145.09999156	0.00000000	31.61909000	5.85014700
145.29999155	0.00000000	31.57603000	5.85014700
145.49999154	0.00000000	31.20078000	5.15501900
145.69999153	0.00000000	30.45644000	4.73671200
145.89999151	0.00000000	30.08120000	4.31840500
146.09999150	0.00000000	30.03814000	3.57406500
146.29999149	0.00000000	30.03814000	3.19881900
146.49999148	0.00000000	30.08120000	3.15575800
146.69999147	0.00000000	30.45644000	3.15575800
146.89999146	0.00000000	31.20078000	3.15575800
147.09999144	0.00000000	31.57603000	3.19881900
147.29999143	0.00000000	31.61909000	3.57406500
147.49999142	0.00000000	31.61909000	4.31840500
147.69999141	0.00000000	31.57603000	4.69365100
147.89999140	0.00000000	31.20078000	4.73671200
148.09999138	0.00000000	30.45644000	4.73671200
148.29999137	0.00000000	30.08120000	4.73671200
148.49999136	0.00000000	30.03814000	4.73671200
148.69999135	0.00000000	30.03814000	4.69365100
148.89999134	0.00000000	30.03814000	4.36146600
149.09999132	0.00000000	30.08120000	3.94931100
149.29999131	0.00000000	30.45644000	3.94315900
149.49999130	0.00000000	31.24384000	3.53100400
149.69999129	0.00000000	31.95128000	3.19881900
149.89999128	0.00000000	32.36343000	3.15575800
150.09999127	0.00000000	31.99434000	3.19881900
150.29999125	0.00000000	31.61909000	3.57406500
150.49999124	0.00000000	31.20078000	4.31840500
150.69999123	0.00000000	30.45644000	4.69365100
150.89999122	0.00000000	30.08120000	4.73671200
151.09999121	0.00000000	30.03814000	4.73671200
151.29999119	0.00000000	30.03814000	4.73671200
151.49999118	0.00000000	30.03814000	4.69365100
151.69999117	0.00000000	30.03814000	4.36146600
151.89999116	0.00000000	30.08120000	3.94931100
152.09999115	0.00000000	30.45644000	3.94315900
152.29999113	0.00000000	31.20078000	3.53100400
152.49999112	0.00000000	31.57603000	3.19881900
152.69999111	0.00000000	31.61909000	3.15575800
152.89999110	0.00000000	31.61909000	3.19881900
153.09999109	0.00000000	31.57603000	3.57406500
153.29999108	0.00000000	31.20078000	4.31840500
153.49999106	0.00000000	30.45644000	4.69365100
153.69999105	0.00000000	30.08120000	4.73671200
153.89999104	0.00000000	30.03814000	4.73671200
154.09999103	0.00000000	30.03814000	4.73671200
154.29999102	0.00000000	30.03814000	4.73671200
154.49999100	0.00000000	30.03814000	4.73671200
154.69999099	0.00000000	30.03814000	4.73671200
154.89999098	0.00000000	30.03814000	4.69365100
155.09999097	0.00000000	30.08120000	4.31840500
155.29999096	0.00000000	30.45644000	3.57406500
155.49999094	0.00000000	31.20078000	3.19881900
155.69999093	0.00000000	31.57603000	3.15575800
155.89999092	0.00000000	31.57603000	3.15575800
156.09999091	0.00000000	31.20078000	3.15575800
156.29999090	0.00000000	30.45644000	3.15575800
156.49999089	0.00000000	30.08120000	3.19881900
156.69999087	0.00000000	30.03814000	3.57406500
156.89999086	0.00000000	30.03814000	4.31840500
157.09999085	0.00000000	30.03814000	4.69365100
157.29999084	0.00000000	30.03814000	4.73671200
157.49999083	0.00000000	30.03814000	4.73671200
157.69999081	0.00000000	30.03814000	4.73671200
157.89999080	0.00000000	30.03814000	4.69365100
158.09999079	0.00000000	30.03814000	4.31840500
158.29999078	0.00000000	30.08120000	3.57406500
158.49999077	0.00000000	30.45644000	3.19881900
158.69999075	0.00000000	31.20078000	3.15575800
158.89999074	0.00000000	31.52682000	3.15575800
159.09999073	0.00000000	31.20078000	3.15575800
159.29999072	0.00000000	30.45644000	3.19881900
159.49999071	0.00000000	30.08120000	3.57406500
159.69999070	0.00000000	30.03814000	4.31840500
159.89999068	0.00000000	30.03814000	4.69365100
160.09999067	0.00000000	30.03814000	4.73671200
160.29999066	0.00000000	30.03814000	4.73671200
160.49999065	0.00000000	30.03814000	4.73671200
160.69999064	0.00000000	30.03814000	4.69365100
160.89999062	0.00000000	30.03814000	4.31840500
161.09999061	0.00000000	30.03814000	3.57406500
161.29999060	0.00000000	30.03814000	3.19881900
161.49999059	0.00000000	30.03814000	3.15575800
161.69999058	0.00000000	30.08120000	3.15575800
161.89999056	0.00000000	30.45644000	3.15575800
162.09999055	0.00000000	31.20078000	3.15575800
162.29999054	0.00000000	31.52682000	3.19881900
162.49999053	0.00000000	31.20078000	3.57406500
162.69999052	0.00000000	30.45644000	4.31840500
162.89999051	0.00000000	30.08120000	4.69365100
163.09999049	0.00000000	30.03814000	4.73671200
163.29999048	0.00000000	30.03814000	4.73671200
163.49999047	0.00000000	30.03814000	4.69365100
163.69999046	0.00000000	30.03814000	4.36146600
163.89999045	0.00000000	29.99508000	3.94931100
164.09999043	0.00000000	29.66289000	3.94315900
164.29999042	0.00000000	29.29380000	3.53100400
164.49999041	0.00000000	29.66289000	3.19881900
164.69999040	0.00000000	30.03814000	3.15575800
164.89999039	0.00000000	30.45644000	3.15575800
165.09999037	0.00000000	31.20078000	3.15575800
165.29999036	0.00000000	31.57603000	3.15575800
165.49999035	0.00000000	31.57603000	3.15575800
165.69999034	0.00000000	31.20078000	3.19881900
165.89999033	0.00000000	30.45644000	3.57406500
166.09999032	0.00000000	30.13041000	4.31840500
166.29999030	0.00000000	30.41338000	4.64443900
166.49999029	0.00000000	30.78248000	4.36146600
166.69999028	0.00000000	30.41338000	3.99237200
166.89999027	0.00000000	30.08120000	4.36146600
167.09999026	0.00000000	30.03814000	4.64443900
167.29999024	0.00000000	30.03814000	4.31840500
167.49999023	0.00000000	30.08120000	3.57406500
167.69999022	0.00000000	30.41338000	3.19881900
167.89999021	0.00000000	30.82554000	3.15575800
168.09999020	0.00000000	30.83169000	3.15575800
168.29999018	0.00000000	31.24384000	3.19881900
168.49999017	0.00000000	31.57603000	3.57406500
168.69999016	0.00000000	31.57603000	4.31840500
168.89999015	0.00000000	31.20078000	4.64443900
169.09999014	0.00000000	30.45644000	4.31840500
169.29999013	0.00000000	30.08120000	3.57406500
169.49999011	0.00000000	30.03814000	3.19881900
169.69999010	0.00000000	30.03814000	3.15575800
169.89999009	0.00000000	30.03814000	3.19881900
170.09999008	0.00000000	30.03814000	3.53100400
170.29999007	0.00000000	30.03814000	3.90009800
170.49999005	0.00000000	30.03814000	3.57406500
170.69999004	0.00000000	30.03814000	3.62327700
170.89999003	0.00000000	30.03814000	4.26919300
171.09999002	0.00000000	30.08120000	4.26919300
171.29999001	0.00000000	30.45644000	3.57406500
171.49998999	0.00000000	31.15157000	3.19881900
171.69998998	0.00000000	31.15157000	3.15575800
171.89998997	0.00000000	30.45644000	3.15575800
172.09998996	0.00000000	30.08120000	3.15575800
172.29998995	0.00000000	30.03814000	3.15575800
172.49998994	0.00000000	30.03814000	3.15575800
172.69998992	0.00000000	30.03814000	3.19881900
172.89998991	0.00000000	30.03814000	3.57406500
173.09998990	0.00000000	30.03814000	4.31840500
173.29998989	0.00000000	30.03814000	4.69365100
173.49998988	0.00000000	30.03814000	4.73671200
173.69998986	0.00000000	30.03814000	4.69365100
173.89998985	0.00000000	30.03814000	4.31840500
174.09998984	0.00000000	30.03814000	3.57406500
174.29998983	0.00000000	30.03814000	3.19881900
174.49998982	0.00000000	30.03814000	3.15575800
174.69998980	0.00000000	30.03814000	3.15575800
174.89998979	0.00000000	30.03814000	3.15575800
175.09998978	0.00000000	30.03814000	3.15575800
175.29998977	0.00000000	30.03814000	3.15575800
175.49998976	0.00000000	30.03814000	3.19881900
175.69998975	0.00000000	30.03814000	3.57406500
175.89998973	0.00000000	30.03814000	4.31840500
176.09998972	0.00000000	30.03814000	4.64443900
176.29998971	0.00000000	30.03814000	4.36146600
176.49998970	0.00000000	30.03814000	3.99237200
176.69998969	0.00000000	30.03814000	4.31840500
176.89998967	0.00000000	30.03814000	4.26919300
177.09998966	0.00000000	30.03814000	3.62327700
177.29998965	0.00000000	30.03814000	3.57406500
177.49998964	0.00000000	30.03814000	3.90009800
177.69998963	0.00000000	30.03814000	3.53100400
177.89998961	0.00000000	30.03814000	3.19881900
178.09998960	0.00000000	30.03814000	3.15575800
178.29998959	0.00000000	30.03814000	3.15575800
178.49998958	0.00000000	30.03814000	3.19881900
178.69998957	0.00000000	30.03814000	3.57406500
178.89998956	0.00000000	30.03814000	4.31840500
179.09998954	0.00000000	30.03814000	4.69365100
179.29998953	0.00000000	30.03814000	4.73671200
179.49998952	0.00000000	30.03814000	4.73671200
179.69998951	0.00000000	30.03814000	4.69365100
179.89998950	0.00000000	30.03814000	4.31840500
180.09998948	0.00000000	30.03814000	3.57406500
180.29998947	0.00000000	30.03814000	3.19881900
180.49998946	0.00000000	30.03814000	3.15575800
180.69998945	0.00000000	30.03814000	3.15575800
180.89998944	0.00000000	30.03814000	3.15575800
181.09998942	0.00000000	30.03814000	3.15575800
181.29998941	0.00000000	30.03814000	3.19881900
181.49998940	0.00000000	30.03814000	3.57406500
181.69998939	0.00000000	30.03814000	4.31840500
181.89998938	0.00000000	30.03814000	4.69365100
182.09998937	0.00000000	30.03814000	4.73671200
182.29998935	0.00000000	30.03814000	4.73671200
182.49998934	0.00000000	30.03814000	4.69365100
182.69998933	0.00000000	30.08120000	4.31840500
182.89998932	0.00000000	30.41338000	3.53100400
183.09998931	0.00000000	30.78248000	2.82357300
183.29998929	0.00000000	30.41338000	2.41141700
183.49998928	0.00000000	30.08120000	2.78051200
183.69998927	0.00000000	30.03814000	3.11269700
183.89998926	0.00000000	30.03814000	3.15575800
184.09998925	0.00000000	30.03814000	3.19881900
184.29998923	0.00000000	30.03814000	3.57406500
184.49998922	0.00000000	30.03814000	4.31840500
184.69998921	0.00000000	30.03814000	4.69365100
184.89998920	0.00000000	30.03814000	4.73671200
185.09998919	0.00000000	30.03814000	4.73671200
185.29998918	0.00000000	30.03814000	4.73671200
185.49998916	0.00000000	30.03814000	4.69365100
185.69998915	0.00000000	30.03814000	4.31840500
185.89998914	0.00000000	30.03814000	3.57406500
186.09998913	0.00000000	30.03814000	3.19881900
186.29998912	0.00000000	30.03814000	3.15575800
186.49998910	0.00000000	30.03814000	3.15575800
186.69998909	0.00000000	30.03814000	3.15575800
186.89998908	0.00000000	29.99508000	3.15575800
187.09998907	0.00000000	29.66289000	3.19881900
187.29998906	0.00000000	29.29380000	3.57406500
187.49998904	0.00000000	29.66289000	4.31840500
187.69998903	0.00000000	29.94586000	4.69365100
187.89998902	0.00000000	29.66289000	4.73671200
188.09998901	0.00000000	29.29380000	4.73671200
188.29998900	0.00000000	29.66289000	4.73671200
188.49998899	0.00000000	29.99508000	4.69365100
188.69998897	0.00000000	30.03814000	4.31840500
188.89998896	0.00000000	30.03814000	3.57406500
189.09998895	0.00000000	30.03814000	3.19881900
189.29998894	0.00000000	30.03814000	3.15575800
189.49998893	0.00000000	30.03814000	3.15575800
189.69998891	0.00000000	30.03814000	3.15575800
189.89998890	0.00000000	30.03814000	3.15575800
190.09998889	0.00000000	30.03814000	3.15575800
190.29998888	0.00000000	30.03814000	3.19881900
190.49998887	0.00000000	30.03814000	3.57406500
190.69998885	0.00000000	30.03814000	4.31840500
190.89998884	0.00000000	30.03814000	4.69365100
191.09998883	0.00000000	30.03814000	4.69365100
191.29998882	0.00000000	30.03814000	4.31840500
191.49998881	0.00000000	30.03814000	3.57406500
191.69998880	0.00000000	30.03814000	3.19881900
191.89998878	0.00000000	30.03814000	3.15575800
192.09998877	0.00000000	30.03814000	3.15575800
192.29998876	0.00000000	30.03814000	3.15575800
192.49998875	0.00000000	30.03814000	3.15575800
192.69998874	0.00000000	30.03814000	3.15575800
192.89998872	0.00000000	30.03814000	3.15575800
193.09998871	0.00000000	29.99508000	3.15575800
193.29998870	0.00000000	29.61983000	3.15575800
193.49998869	0.00000000	28.87549000	3.15575800
193.69998868	0.00000000	28.54946000	3.15575800
193.89998866	0.00000000	28.87549000	3.15575800
194.09998865	0.00000000	29.61983000	3.15575800
194.29998864	0.00000000	29.99508000	3.19881900
194.49998863	0.00000000	30.03814000	3.57406500
194.69998862	0.00000000	30.03814000	4.31840500
194.89998861	0.00000000	30.03814000	4.64443900
195.09998859	0.00000000	30.03814000	4.31840500
195.29998858	0.00000000	30.03814000	3.57406500
195.49998857	0.00000000	30.03814000	3.19881900
195.69998856	0.00000000	29.99508000	3.15575800
195.89998855	0.00000000	29.66289000	3.15575800
196.09998853	0.00000000	29.25074000	3.15575800
