Time	Channel A	Channel B
(us)	(V)	(mV)

-4.49999956	0.00000000	-24.24335000
-4.29999957	0.00000000	-24.24335000
-4.09999958	0.00000000	-24.24335000
-3.89999959	0.00000000	-24.24335000
-3.69999960	0.00000000	-24.24335000
-3.49999962	0.00000000	-24.24335000
-3.29999963	0.00000000	-24.24335000
-3.09999964	0.00000000	-24.24335000
-2.89999965	0.00000000	-24.24335000
-2.69999966	0.00000000	-24.24335000
-2.49999968	0.00000000	-24.24335000
-2.29999969	0.00000000	-24.24335000
-2.09999970	0.00000000	-24.24335000
-1.89999971	0.00000000	-24.24335000
-1.69999972	0.00000000	-24.24335000
-1.49999973	0.00000000	-24.24335000
-1.29999975	0.00000000	-24.24335000
-1.09999976	0.00000000	-24.24335000
-0.89999977	0.00000000	-24.24335000
-0.69999978	0.00000000	-24.24335000
-0.49999979	0.00000000	-24.24335000
-0.29999981	0.35125490	-24.24335000
-0.09999982	0.70250980	-24.24335000
0.10000017	1.05376500	-24.24335000
0.30000016	1.05376500	-24.24335000
0.50000015	0.70250980	-24.24335000
0.70000013	0.00000000	-24.24335000
0.90000012	-0.87844490	-24.24335000
1.10000011	-1.93282500	-24.24335000
1.30000010	-2.63533500	-24.24335000
1.50000009	-2.81127000	-24.24335000
1.70000008	-2.10814500	-24.24335000
1.90000006	-0.70250980	-24.24335000
2.10000005	1.22970000	-24.24335000
2.30000004	3.33846000	-24.24335000
2.50000003	4.91941500	-24.29257000
2.70000002	5.27128500	-24.70472000
2.90000000	4.39283900	-25.46137000
3.09999999	1.93282500	-25.46137000
3.29999998	-1.22970000	-24.70472000
3.49999997	-4.56816000	-24.29257000
3.69999996	-7.20410900	-24.24335000
3.89999994	-8.08255400	-24.24335000
4.09999993	-6.85223900	-24.24335000
4.29999992	-3.68971500	-24.24335000
4.49999991	0.52657480	-24.24335000
4.69999990	4.74409400	-24.29257000
4.89999989	8.08255400	-24.70472000
5.09999987	9.48818900	-25.51058000
5.29999986	8.43380900	-25.92274000
5.49999985	5.27128500	-25.97195000
5.69999984	0.70250980	-25.92274000
5.89999983	-4.04096900	-25.51058000
6.09999981	-7.73129900	-24.70472000
6.29999980	-9.48818900	-24.24335000
6.49999979	-8.78567900	-23.83120000
6.69999978	-5.97379400	-23.43135000
6.89999977	-1.75689000	-23.83120000
7.09999975	2.63533500	-24.19414000
7.29999974	5.97379400	-24.29257000
7.49999973	7.55536400	-24.70472000
7.69999972	7.37942900	-25.51058000
7.89999971	5.27128500	-25.92274000
8.09999970	2.10814500	-25.92274000
8.29999968	-1.22970000	-25.51058000
8.49999967	-3.68971500	-24.70472000
8.69999966	-5.09534900	-24.29257000
8.89999965	-4.91941500	-24.24335000
9.09999964	-3.68971500	-24.24335000
9.29999962	-1.75689000	-24.24335000
9.49999961	0.17531990	-24.24335000
9.69999960	1.58095500	-24.24335000
9.89999959	2.45940000	-24.24335000
10.09999958	2.45940000	-24.24335000
10.29999956	1.75689000	-24.24335000
10.49999955	0.87844490	-24.24335000
10.69999954	0.00000000	-24.24335000
10.89999953	-0.70250980	-24.24335000
11.09999952	-0.87844490	-24.24335000
11.29999951	-0.87844490	-24.24335000
11.49999949	-0.70250980	-24.29257000
11.69999948	-0.35125490	-24.65551000
11.89999947	-0.17531990	-25.10458000
12.09999946	0.00000000	-25.11073000
12.29999945	0.00000000	-25.55979000
12.49999943	0.00000000	-25.92274000
12.69999942	-0.17531990	-25.92274000
12.89999941	-0.17531990	-25.51058000
13.09999940	-0.17531990	-24.75394000
13.29999939	-0.17531990	-24.70472000
13.49999937	0.00000000	-25.05536000
13.69999936	0.00000000	-24.60630000
13.89999935	0.00000000	-23.88041000
14.09999934	0.00000000	-23.43135000
14.29999933	0.00000000	-23.83120000
14.49999932	0.00000000	-24.24335000
14.69999930	0.00000000	-24.65551000
14.89999929	0.00000000	-25.05536000
15.09999928	0.00000000	-24.65551000
15.29999927	0.00000000	-24.29257000
15.49999926	0.00000000	-24.24335000
15.69999924	0.00000000	-24.24335000
15.89999923	0.00000000	-24.24335000
16.09999922	0.00000000	-24.24335000
16.29999921	0.00000000	-24.24335000
16.49999920	0.00000000	-24.24335000
16.69999919	0.00000000	-24.24335000
16.89999917	0.00000000	-24.24335000
17.09999916	0.00000000	-24.24335000
17.29999915	0.00000000	-24.24335000
17.49999914	0.00000000	-24.24335000
17.69999913	0.00000000	-24.24335000
17.89999911	0.00000000	-24.24335000
18.09999910	0.00000000	-24.24335000
18.29999909	0.00000000	-24.24335000
18.49999908	0.00000000	-24.24335000
18.69999907	0.00000000	-24.24335000
18.89999905	0.00000000	-24.24335000
19.09999904	0.00000000	-24.24335000
19.29999903	0.00000000	-24.29257000
19.49999902	0.00000000	-24.70472000
19.69999901	0.00000000	-25.51058000
19.89999900	0.00000000	-25.92274000
20.09999898	0.00000000	-25.97195000
20.29999897	0.00000000	-25.97195000
20.49999896	0.00000000	-25.92274000
20.69999895	0.00000000	-25.55979000
20.89999894	0.00000000	-25.11073000
21.09999892	0.00000000	-25.10458000
21.29999891	0.00000000	-24.70472000
21.49999890	0.00000000	-24.75394000
21.69999889	0.00000000	-25.51058000
21.89999888	0.00000000	-25.92274000
22.09999886	0.00000000	-25.97195000
22.29999885	0.00000000	-25.97195000
22.49999884	0.00000000	-25.97195000
22.69999883	0.00000000	-25.97195000
22.89999882	0.00000000	-25.97195000
23.09999881	0.00000000	-25.97195000
23.29999879	0.00000000	-26.02116000
23.49999878	0.00000000	-26.43332000
23.69999877	0.00000000	-27.19611000
23.89999876	0.00000000	-27.19611000
24.09999875	0.00000000	-26.38410000
24.29999873	0.00000000	-25.55979000
24.49999872	0.00000000	-24.65551000
24.69999871	0.00000000	-23.78199000
24.89999870	0.00000000	-22.50861000
25.09999869	0.00000000	-21.33981000
25.29999867	0.00000000	-21.33981000
25.49999866	0.00000000	-22.60704000
25.69999865	0.00000000	-24.75394000
25.89999864	0.00000000	-27.70669000
26.09999863	0.00000000	-30.65945000
26.29999862	0.00000000	-32.80019000
26.49999860	0.00000000	-34.02436000
26.69999859	0.00000000	-33.51993000
26.89999858	0.00000000	-30.51181000
27.09999857	0.00000000	-25.41215000
27.29999856	0.00000000	-19.04527000
27.49999854	0.00000000	-12.77682000
27.69999853	0.00000000	-8.59990100
27.89999852	0.00000000	-8.18774500
28.09999851	0.00000000	-11.60187000
28.29999850	0.00000000	-18.52854000
28.49999848	0.00000000	-28.67249000
28.69999847	0.00000000	-40.03444000
28.89999846	0.00000000	-48.85580000
29.09999845	0.00000000	-53.08193000
29.29999844	0.00000000	-51.25492000
29.49999843	0.00000000	-42.74114000
29.69999841	0.00000000	-28.72785000
29.89999840	0.00000000	-12.26624000
30.09999839	0.00000000	2.90969500
30.29999838	0.00000000	12.59227000
30.49999837	0.00000000	14.22859000
30.69999835	0.00000000	6.94512700
30.89999834	0.00000000	-8.74753900
31.09999833	0.00000000	-29.48450000
31.29999832	0.00000000	-50.63976000
31.49999831	0.00000000	-67.50738000
31.69999829	0.00000000	-75.46136000
31.89999828	0.00000000	-72.04723000
32.09999827	0.00000000	-57.62180000
32.29999826	0.00000000	-35.19931000
32.49999825	0.00000000	-9.77485200
32.69999824	0.00000000	13.05364000
32.89999822	0.00000000	28.23573000
33.09999821	0.00000000	31.55143000
33.29999820	0.00000000	21.81964000
33.49999819	0.00000000	1.08267700
33.69999818	0.00000000	-25.97195000
33.89999816	0.00000000	-53.08193000
34.09999815	0.00000000	-74.23720000
34.29999814	0.00000000	-84.78100000
34.49999813	0.00000000	-81.82824000
34.69999812	0.00000000	-66.18479000
34.89999810	0.00000000	-41.61540000
35.09999809	0.00000000	-13.28740000
35.29999808	0.00000000	12.03863000
35.49999807	0.00000000	28.18651000
35.69999806	0.00000000	32.01279000
35.89999805	0.00000000	23.14222000
36.09999803	0.00000000	3.22342500
36.29999802	0.00000000	-22.92076000
36.49999801	0.00000000	-49.15723000
36.69999800	0.00000000	-69.03912000
36.89999799	0.00000000	-78.36491000
37.09999797	0.00000000	-75.04921000
37.29999796	0.00000000	-60.32234000
37.49999795	0.00000000	-38.81028000
37.69999794	0.00000000	-15.52657000
37.89999793	0.00000000	3.93700800
38.09999791	0.00000000	15.40354000
38.29999790	0.00000000	16.67692000
38.49999789	0.00000000	7.44955700
38.69999788	0.00000000	-9.36269600
38.89999787	0.00000000	-28.72785000
39.09999786	0.00000000	-45.64468000
39.29999784	0.00000000	-55.83784000
39.49999783	0.00000000	-57.62180000
39.69999782	0.00000000	-51.40255000
39.89999781	0.00000000	-39.63459000
40.09999780	0.00000000	-26.11959000
40.29999778	0.00000000	-13.84104000
40.49999777	0.00000000	-5.84399600
40.69999776	0.00000000	-4.06003900
40.89999775	0.00000000	-8.18774500
41.09999774	0.00000000	-16.14173000
41.29999772	0.00000000	-25.36294000
41.49999771	0.00000000	-32.96014000
41.69999770	0.00000000	-36.87869000
41.89999769	0.00000000	-37.34006000
42.09999768	0.00000000	-34.83636000
42.29999767	0.00000000	-29.79823000
42.49999765	0.00000000	-24.39099000
42.69999764	0.00000000	-20.16486000
42.89999763	0.00000000	-18.47933000
43.09999762	0.00000000	-19.65428000
43.29999761	0.00000000	-22.45940000
43.49999759	0.00000000	-25.00615000
43.69999758	0.00000000	-26.33489000
43.89999757	0.00000000	-27.19611000
44.09999756	0.00000000	-27.14690000
44.29999755	0.00000000	-25.97195000
44.49999753	0.00000000	-24.80315000
44.69999752	0.00000000	-24.80315000
44.89999751	0.00000000	-26.02116000
45.09999750	0.00000000	-27.65748000
45.29999749	0.00000000	-28.92470000
45.49999748	0.00000000	-29.33686000
45.69999746	0.00000000	-28.87549000
45.89999745	0.00000000	-27.14690000
46.09999744	0.00000000	-24.19414000
46.29999743	0.00000000	-20.87844000
46.49999742	0.00000000	-18.38090000
46.69999740	0.00000000	-17.97490000
46.89999739	0.00000000	-19.60507000
47.09999738	0.00000000	-22.60704000
47.29999737	0.00000000	-26.43332000
47.49999736	0.00000000	-30.65945000
47.69999734	0.00000000	-33.97514000
47.89999733	0.00000000	-35.24852000
48.09999732	0.00000000	-34.02436000
48.29999731	0.00000000	-31.07160000
48.49999730	0.00000000	-27.24532000
48.69999729	0.00000000	-23.01919000
48.89999727	0.00000000	-19.65428000
49.09999726	0.00000000	-17.92569000
49.29999725	0.00000000	-17.92569000
49.49999724	0.00000000	-19.60507000
49.69999723	0.00000000	-22.50861000
49.89999721	0.00000000	-25.51058000
50.09999720	0.00000000	-28.06963000
50.29999719	0.00000000	-30.20423000
50.49999718	0.00000000	-31.07160000
50.69999717	0.00000000	-31.12082000
50.89999715	0.00000000	-30.65945000
51.09999714	0.00000000	-29.38607000
51.29999713	0.00000000	-27.65748000
51.49999712	0.00000000	-25.55979000
51.69999711	0.00000000	-23.42520000
51.89999710	0.00000000	-22.14567000
52.09999708	0.00000000	-21.24139000
52.29999707	0.00000000	-20.87844000
52.49999706	0.00000000	-21.33981000
52.69999705	0.00000000	-23.01919000
52.89999704	0.00000000	-25.55979000
53.09999702	0.00000000	-28.11885000
53.29999701	0.00000000	-30.65945000
53.49999700	0.00000000	-32.28962000
53.69999699	0.00000000	-32.33883000
53.89999698	0.00000000	-31.07160000
54.09999696	0.00000000	-28.92470000
54.29999695	0.00000000	-25.97195000
54.49999694	0.00000000	-23.01919000
54.69999693	0.00000000	-20.92766000
54.89999692	0.00000000	-20.06643000
55.09999691	0.00000000	-20.92766000
55.29999689	0.00000000	-23.01919000
55.49999688	0.00000000	-25.97195000
55.69999687	0.00000000	-28.92470000
55.89999686	0.00000000	-31.07160000
56.09999685	0.00000000	-32.28962000
56.29999683	0.00000000	-31.83440000
56.49999682	0.00000000	-29.33686000
56.69999681	0.00000000	-25.97195000
56.89999680	0.00000000	-22.55782000
57.09999679	0.00000000	-19.70349000
57.29999677	0.00000000	-18.84227000
57.49999676	0.00000000	-20.46629000
57.69999675	0.00000000	-22.96998000
57.89999674	0.00000000	-26.02116000
58.09999673	0.00000000	-29.38607000
58.29999672	0.00000000	-32.28962000
58.49999670	0.00000000	-33.56299000
58.69999669	0.00000000	-32.70177000
58.89999668	0.00000000	-30.19808000
59.09999667	0.00000000	-26.38410000
59.29999666	0.00000000	-22.60704000
59.49999664	0.00000000	-19.65428000
59.69999663	0.00000000	-18.43012000
59.89999662	0.00000000	-19.65428000
60.09999661	0.00000000	-22.55782000
60.29999660	0.00000000	-25.97195000
60.49999658	0.00000000	-29.38607000
60.69999657	0.00000000	-32.33883000
60.89999656	0.00000000	-33.97514000
61.09999655	0.00000000	-33.56914000
61.29999654	0.00000000	-31.07160000
61.49999653	0.00000000	-27.70669000
61.69999651	0.00000000	-24.29257000
61.89999650	0.00000000	-21.33981000
62.09999649	0.00000000	-19.65428000
62.29999648	0.00000000	-19.60507000
62.49999647	0.00000000	-20.87844000
62.69999645	0.00000000	-22.96998000
62.89999644	0.00000000	-25.51058000
63.09999643	0.00000000	-27.65748000
63.29999642	0.00000000	-29.38607000
63.49999641	0.00000000	-30.65945000
63.69999639	0.00000000	-31.07160000
63.89999638	0.00000000	-30.65945000
64.09999637	0.00000000	-29.38607000
64.29999636	0.00000000	-27.70669000
64.49999635	0.00000000	-25.97195000
64.69999634	0.00000000	-24.24335000
64.89999632	0.00000000	-22.50861000
65.09999631	0.00000000	-20.82923000
65.29999630	0.00000000	-19.60507000
65.49999629	0.00000000	-19.65428000
65.69999628	0.00000000	-21.33981000
65.89999626	0.00000000	-24.29257000
66.09999625	0.00000000	-27.70669000
66.29999624	0.00000000	-31.12082000
66.49999623	0.00000000	-34.07357000
66.69999622	0.00000000	-35.75295000
66.89999620	0.00000000	-35.70374000
67.09999619	0.00000000	-33.51378000
67.29999618	0.00000000	-28.92470000
67.49999617	0.00000000	-23.47441000
67.69999616	0.00000000	-19.19291000
67.89999615	0.00000000	-16.19094000
68.09999613	0.00000000	-15.01599000
68.29999612	0.00000000	-16.70152000
68.49999611	0.00000000	-20.92766000
68.69999610	0.00000000	-26.43332000
68.89999609	0.00000000	-32.33883000
69.09999607	0.00000000	-36.98326000
69.29999606	0.00000000	-39.12401000
69.49999605	0.00000000	-38.71186000
69.69999604	0.00000000	-35.70989000
69.89999603	0.00000000	-30.65945000
70.09999601	0.00000000	-24.70472000
70.29999600	0.00000000	-19.24212000
70.49999599	0.00000000	-15.42815000
70.69999598	0.00000000	-14.56078000
70.89999597	0.00000000	-16.24016000
71.09999596	0.00000000	-20.01107000
71.29999594	0.00000000	-25.10458000
71.49999593	0.00000000	-29.79823000
71.69999592	0.00000000	-34.07357000
71.89999591	0.00000000	-36.93405000
72.09999590	0.00000000	-37.03248000
72.29999588	0.00000000	-34.89788000
72.49999587	0.00000000	-31.47145000
72.69999586	0.00000000	-26.43332000
72.89999585	0.00000000	-21.84424000
73.09999584	0.00000000	-19.19291000
73.29999582	0.00000000	-17.92569000
73.49999581	0.00000000	-18.38090000
73.69999580	0.00000000	-20.87844000
73.89999579	0.00000000	-24.24335000
74.09999578	0.00000000	-27.70669000
74.29999577	0.00000000	-31.07160000
74.49999575	0.00000000	-33.56914000
74.69999574	0.00000000	-33.97514000
74.89999573	0.00000000	-32.33883000
75.09999572	0.00000000	-29.38607000
75.29999571	0.00000000	-25.97195000
75.49999569	0.00000000	-22.55782000
75.69999568	0.00000000	-19.65428000
75.89999567	0.00000000	-18.43012000
76.09999566	0.00000000	-19.65428000
76.29999565	0.00000000	-22.60704000
76.49999563	0.00000000	-26.43332000
76.69999562	0.00000000	-30.65945000
76.89999561	0.00000000	-33.97514000
77.09999560	0.00000000	-35.29773000
77.29999559	0.00000000	-34.43652000
77.49999558	0.00000000	-31.88361000
77.69999556	0.00000000	-27.60827000
77.89999555	0.00000000	-22.55782000
78.09999554	0.00000000	-17.92569000
78.29999553	0.00000000	-15.01599000
78.49999552	0.00000000	-15.01599000
78.69999550	0.00000000	-17.97490000
78.89999549	0.00000000	-23.06841000
79.09999548	0.00000000	-29.38607000
79.29999547	0.00000000	-35.29773000
79.49999546	0.00000000	-39.07480000
79.69999544	0.00000000	-39.93602000
79.89999543	0.00000000	-37.38927000
80.09999542	0.00000000	-32.33883000
80.29999541	0.00000000	-25.97195000
80.49999540	0.00000000	-19.60507000
80.69999539	0.00000000	-14.56078000
80.89999537	0.00000000	-12.01402000
81.09999536	0.00000000	-12.87525000
81.29999535	0.00000000	-16.64616000
81.49999534	0.00000000	-22.65625000
81.69999533	0.00000000	-29.79823000
81.89999531	0.00000000	-36.57111000
82.09999530	0.00000000	-40.80339000
82.29999529	0.00000000	-42.17519000
82.49999528	0.00000000	-40.85260000
82.69999527	0.00000000	-36.98326000
82.89999525	0.00000000	-30.65945000
83.09999524	0.00000000	-23.48056000
83.29999523	0.00000000	-17.51353000
83.49999522	0.00000000	-13.23819000
83.69999521	0.00000000	-11.60187000
83.89999520	0.00000000	-13.28740000
84.09999518	0.00000000	-17.92569000
84.29999517	0.00000000	-24.29257000
84.49999516	0.00000000	-31.07160000
84.69999515	0.00000000	-37.03248000
84.89999514	0.00000000	-40.85260000
85.09999512	0.00000000	-42.17519000
85.29999511	0.00000000	-40.85260000
85.49999510	0.00000000	-36.98326000
85.69999509	0.00000000	-30.65945000
85.89999508	0.00000000	-23.48056000
86.09999506	0.00000000	-17.51353000
86.29999505	0.00000000	-13.23819000
86.49999504	0.00000000	-11.55266000
86.69999503	0.00000000	-12.87525000
86.89999502	0.00000000	-17.10753000
87.09999501	0.00000000	-23.88041000
87.29999499	0.00000000	-31.07160000
87.49999498	0.00000000	-37.43848000
87.69999497	0.00000000	-41.67076000
87.89999496	0.00000000	-42.53814000
88.09999495	0.00000000	-40.44660000
88.29999493	0.00000000	-35.75295000
88.49999492	0.00000000	-29.43528000
88.69999491	0.00000000	-23.01919000
88.89999490	0.00000000	-17.51353000
89.09999489	0.00000000	-13.69340000
89.29999487	0.00000000	-12.87525000
89.49999486	0.00000000	-14.91757000
89.69999485	0.00000000	-19.19291000
89.89999484	0.00000000	-24.70472000
90.09999483	0.00000000	-30.65945000
90.29999482	0.00000000	-35.70989000
90.49999480	0.00000000	-38.66264000
90.69999479	0.00000000	-38.71186000
90.89999478	0.00000000	-36.26353000
91.09999477	0.00000000	-32.80019000
91.29999476	0.00000000	-28.51870000
91.49999474	0.00000000	-23.47441000
91.69999473	0.00000000	-19.70349000
91.89999472	0.00000000	-17.97490000
92.09999471	0.00000000	-18.38090000
92.29999470	0.00000000	-20.87844000
92.49999468	0.00000000	-24.24335000
92.69999467	0.00000000	-27.65748000
92.89999466	0.00000000	-30.65945000
93.09999465	0.00000000	-32.75098000
93.29999464	0.00000000	-33.61220000
93.49999463	0.00000000	-32.80019000
93.69999461	0.00000000	-31.12082000
93.89999460	0.00000000	-28.97392000
94.09999459	0.00000000	-26.43332000
94.29999458	0.00000000	-24.34178000
94.49999457	0.00000000	-23.01919000
94.69999455	0.00000000	-22.60704000
94.89999454	0.00000000	-23.01919000
95.09999453	0.00000000	-24.29257000
95.29999452	0.00000000	-25.92274000
95.49999451	0.00000000	-27.24532000
95.69999449	0.00000000	-28.11885000
95.89999448	0.00000000	-28.97392000
96.09999447	0.00000000	-29.33686000
96.29999446	0.00000000	-28.97392000
96.49999445	0.00000000	-28.16806000
96.69999444	0.00000000	-27.75590000
96.89999442	0.00000000	-27.65748000
97.09999441	0.00000000	-27.24532000
97.29999440	0.00000000	-26.43332000
97.49999439	0.00000000	-26.02116000
97.69999438	0.00000000	-25.97195000
97.89999436	0.00000000	-25.97195000
98.09999435	0.00000000	-25.97195000
98.29999434	0.00000000	-26.02116000
98.49999433	0.00000000	-26.43332000
98.69999432	0.00000000	-27.24532000
98.89999430	0.00000000	-27.70669000
99.09999429	0.00000000	-28.21727000
99.29999428	0.00000000	-29.43528000
99.49999427	0.00000000	-30.56102000
99.69999426	0.00000000	-30.15502000
99.89999425	0.00000000	-28.21727000
100.09999423	0.00000000	-26.94390000
100.29999422	0.00000000	-26.83317000
100.49999421	0.00000000	-26.38410000
100.69999420	0.00000000	-26.02116000
100.89999419	0.00000000	-25.97195000
101.09999417	0.00000000	-26.02116000
101.29999416	0.00000000	-26.43332000
101.49999415	0.00000000	-27.29453000
101.69999414	0.00000000	-28.11885000
101.89999413	0.00000000	-28.97392000
102.09999411	0.00000000	-29.38607000
102.29999410	0.00000000	-29.43528000
102.49999409	0.00000000	-29.38607000
102.69999408	0.00000000	-28.92470000
102.89999407	0.00000000	-27.70669000
103.09999406	0.00000000	-26.43332000
103.29999404	0.00000000	-25.60900000
103.49999403	0.00000000	-25.15994000
103.69999402	0.00000000	-25.55979000
103.89999401	0.00000000	-25.97195000
104.09999400	0.00000000	-26.48253000
104.29999398	0.00000000	-27.70669000
104.49999397	0.00000000	-28.92470000
104.69999396	0.00000000	-29.38607000
104.89999395	0.00000000	-29.43528000
105.09999394	0.00000000	-29.38607000
105.29999392	0.00000000	-28.92470000
105.49999391	0.00000000	-27.70669000
105.69999390	0.00000000	-26.43332000
105.89999389	0.00000000	-25.55979000
106.09999388	0.00000000	-24.75394000
106.29999387	0.00000000	-24.75394000
106.49999385	0.00000000	-25.55979000
106.69999384	0.00000000	-26.43332000
106.89999383	0.00000000	-27.70669000
107.09999382	0.00000000	-28.97392000
107.29999381	0.00000000	-29.79823000
107.49999379	0.00000000	-30.24729000
107.69999378	0.00000000	-29.79823000
107.89999377	0.00000000	-28.97392000
108.09999376	0.00000000	-27.65748000
108.29999375	0.00000000	-26.02116000
108.49999374	0.00000000	-24.75394000
108.69999372	0.00000000	-24.29257000
108.89999371	0.00000000	-24.29257000
109.09999370	0.00000000	-24.75394000
109.29999369	0.00000000	-26.02116000
109.49999368	0.00000000	-27.70669000
109.69999366	0.00000000	-29.38607000
109.89999365	0.00000000	-30.65945000
110.09999364	0.00000000	-31.07160000
110.29999363	0.00000000	-30.65945000
110.49999362	0.00000000	-29.38607000
110.69999360	0.00000000	-27.70669000
110.89999359	0.00000000	-25.97195000
111.09999358	0.00000000	-24.29257000
111.29999357	0.00000000	-23.06841000
111.49999356	0.00000000	-23.06841000
111.69999355	0.00000000	-24.34178000
111.89999353	0.00000000	-26.43332000
112.09999352	0.00000000	-28.97392000
112.29999351	0.00000000	-31.07160000
112.49999350	0.00000000	-32.38804000
112.69999349	0.00000000	-32.80019000
112.89999347	0.00000000	-32.33883000
113.09999346	0.00000000	-30.65945000
113.29999345	0.00000000	-28.16806000
113.49999344	0.00000000	-26.02116000
113.69999343	0.00000000	-24.29257000
113.89999341	0.00000000	-23.06841000
114.09999340	0.00000000	-23.06841000
114.29999339	0.00000000	-24.34178000
114.49999338	0.00000000	-26.43332000
114.69999337	0.00000000	-28.97392000
114.89999336	0.00000000	-31.07160000
115.09999334	0.00000000	-32.38804000
115.29999333	0.00000000	-32.75098000
115.49999332	0.00000000	-31.93282000
115.69999331	0.00000000	-29.84744000
115.89999330	0.00000000	-27.75590000
116.09999328	0.00000000	-25.97195000
116.29999327	0.00000000	-24.34178000
116.49999326	0.00000000	-23.52977000
116.69999325	0.00000000	-24.34178000
116.89999324	0.00000000	-25.97195000
117.09999322	0.00000000	-27.70669000
117.29999321	0.00000000	-29.38607000
117.49999320	0.00000000	-30.65945000
117.69999319	0.00000000	-31.07160000
117.89999318	0.00000000	-30.65945000
118.09999317	0.00000000	-29.38607000
118.29999315	0.00000000	-27.75590000
118.49999314	0.00000000	-26.43332000
118.69999313	0.00000000	-25.60900000
118.89999312	0.00000000	-25.15994000
119.09999311	0.00000000	-25.55979000
119.29999309	0.00000000	-26.02116000
119.49999308	0.00000000	-26.88853000
119.69999307	0.00000000	-28.56791000
119.89999306	0.00000000	-29.74901000
120.09999305	0.00000000	-30.19808000
120.29999303	0.00000000	-29.38607000
120.49999302	0.00000000	-28.21727000
120.69999301	0.00000000	-27.70669000
120.89999300	0.00000000	-27.24532000
121.09999299	0.00000000	-26.43332000
121.29999298	0.00000000	-26.02116000
121.49999296	0.00000000	-26.02116000
121.69999295	0.00000000	-26.43332000
121.89999294	0.00000000	-27.24532000
122.09999293	0.00000000	-27.70669000
122.29999292	0.00000000	-28.16806000
122.49999290	0.00000000	-28.92470000
122.69999289	0.00000000	-28.92470000
122.89999288	0.00000000	-28.16806000
123.09999287	0.00000000	-27.70669000
123.29999286	0.00000000	-27.24532000
123.49999284	0.00000000	-26.43332000
123.69999283	0.00000000	-26.07037000
123.89999282	0.00000000	-26.43332000
124.09999281	0.00000000	-27.24532000
124.29999280	0.00000000	-27.70669000
124.49999279	0.00000000	-28.16806000
124.69999277	0.00000000	-28.97392000
124.89999276	0.00000000	-29.38607000
125.09999275	0.00000000	-29.43528000
125.29999274	0.00000000	-29.38607000
125.49999273	0.00000000	-28.92470000
125.69999271	0.00000000	-27.70669000
125.89999270	0.00000000	-26.48253000
126.09999269	0.00000000	-26.02116000
126.29999268	0.00000000	-26.02116000
126.49999267	0.00000000	-26.43332000
126.69999265	0.00000000	-27.29453000
126.89999264	0.00000000	-28.16806000
127.09999263	0.00000000	-29.43528000
127.29999262	0.00000000	-30.65945000
127.49999261	0.00000000	-31.07160000
127.69999260	0.00000000	-30.70866000
127.89999258	0.00000000	-29.84744000
128.09999257	0.00000000	-28.97392000
128.29999256	0.00000000	-27.70669000
128.49999255	0.00000000	-26.48253000
128.69999254	0.00000000	-26.02116000
128.89999252	0.00000000	-26.02116000
129.09999251	0.00000000	-26.48253000
129.29999250	0.00000000	-27.70669000
129.49999249	0.00000000	-28.97392000
129.69999248	0.00000000	-29.84744000
129.89999246	0.00000000	-30.70866000
130.09999245	0.00000000	-31.07160000
130.29999244	0.00000000	-30.65945000
130.49999243	0.00000000	-29.43528000
130.69999242	0.00000000	-28.21727000
130.89999241	0.00000000	-27.70669000
131.09999239	0.00000000	-27.29453000
131.29999238	0.00000000	-26.89468000
131.49999237	0.00000000	-27.29453000
131.69999236	0.00000000	-27.70669000
131.89999235	0.00000000	-28.16806000
132.09999233	0.00000000	-28.97392000
132.29999232	0.00000000	-29.38607000
132.49999231	0.00000000	-29.43528000
132.69999230	0.00000000	-29.38607000
132.89999229	0.00000000	-28.97392000
133.09999227	0.00000000	-28.16806000
133.29999226	0.00000000	-27.75590000
133.49999225	0.00000000	-27.75590000
133.69999224	0.00000000	-28.11885000
133.89999223	0.00000000	-28.56791000
134.09999222	0.00000000	-28.57406000
134.29999220	0.00000000	-29.02313000
134.49999219	0.00000000	-29.38607000
134.69999218	0.00000000	-29.38607000
134.89999217	0.00000000	-28.97392000
135.09999216	0.00000000	-28.16806000
135.29999214	0.00000000	-27.70669000
135.49999213	0.00000000	-27.24532000
135.69999212	0.00000000	-26.48253000
135.89999211	0.00000000	-26.48253000
136.09999210	0.00000000	-27.29453000
136.29999208	0.00000000	-28.16806000
136.49999207	0.00000000	-29.43528000
136.69999206	0.00000000	-30.65945000
136.89999205	0.00000000	-31.07160000
137.09999204	0.00000000	-30.70866000
137.29999203	0.00000000	-29.84744000
137.49999201	0.00000000	-28.97392000
137.69999200	0.00000000	-27.70669000
137.89999199	0.00000000	-26.43332000
138.09999198	0.00000000	-25.60900000
138.29999197	0.00000000	-25.20915000
138.49999195	0.00000000	-26.02116000
138.69999194	0.00000000	-27.24532000
138.89999193	0.00000000	-28.11885000
139.09999192	0.00000000	-29.02313000
139.29999191	0.00000000	-29.84744000
139.49999189	0.00000000	-30.65945000
139.69999188	0.00000000	-30.65945000
139.89999187	0.00000000	-29.89665000
140.09999186	0.00000000	-29.43528000
140.29999185	0.00000000	-28.92470000
140.49999184	0.00000000	-27.70669000
140.69999182	0.00000000	-26.53174000
140.89999181	0.00000000	-26.43332000
141.09999180	0.00000000	-26.83317000
141.29999179	0.00000000	-26.84547000
141.49999178	0.00000000	-27.34375000
141.69999176	0.00000000	-28.11885000
141.89999175	0.00000000	-29.02313000
142.09999174	0.00000000	-29.84744000
142.29999173	0.00000000	-30.70866000
142.49999172	0.00000000	-31.12082000
142.69999170	0.00000000	-31.12082000
142.89999169	0.00000000	-30.70866000
143.09999168	0.00000000	-29.84744000
143.29999167	0.00000000	-29.02313000
143.49999166	0.00000000	-28.16806000
143.69999165	0.00000000	-27.70669000
143.89999163	0.00000000	-27.29453000
144.09999162	0.00000000	-26.89468000
144.29999161	0.00000000	-27.29453000
144.49999160	0.00000000	-27.70669000
144.69999159	0.00000000	-28.16806000
144.89999157	0.00000000	-28.97392000
145.09999156	0.00000000	-29.43528000
145.29999155	0.00000000	-29.89665000
145.49999154	0.00000000	-30.65945000
145.69999153	0.00000000	-30.65945000
145.89999151	0.00000000	-29.89665000
146.09999150	0.00000000	-29.43528000
146.29999149	0.00000000	-28.97392000
146.49999148	0.00000000	-28.11885000
146.69999147	0.00000000	-27.29453000
146.89999146	0.00000000	-26.48253000
147.09999144	0.00000000	-26.48253000
147.29999143	0.00000000	-27.24532000
147.49999142	0.00000000	-27.70669000
147.69999141	0.00000000	-28.16806000
147.89999140	0.00000000	-29.02313000
148.09999138	0.00000000	-29.84744000
148.29999137	0.00000000	-30.70866000
148.49999136	0.00000000	-31.07160000
148.69999135	0.00000000	-30.70866000
148.89999134	0.00000000	-29.84744000
149.09999132	0.00000000	-29.02313000
149.29999131	0.00000000	-28.11885000
149.49999130	0.00000000	-27.34375000
149.69999129	0.00000000	-26.89468000
149.89999128	0.00000000	-27.29453000
150.09999127	0.00000000	-27.70669000
150.29999125	0.00000000	-28.16806000
150.49999124	0.00000000	-29.02313000
150.69999123	0.00000000	-29.84744000
150.89999122	0.00000000	-30.70866000
151.09999121	0.00000000	-31.07160000
151.29999119	0.00000000	-30.70866000
151.49999118	0.00000000	-29.84744000
151.69999117	0.00000000	-29.02313000
151.89999116	0.00000000	-28.16806000
152.09999115	0.00000000	-27.75590000
152.29999113	0.00000000	-27.70669000
152.49999112	0.00000000	-27.75590000
152.69999111	0.00000000	-28.16806000
152.89999110	0.00000000	-28.97392000
153.09999109	0.00000000	-29.38607000
153.29999108	0.00000000	-29.43528000
153.49999106	0.00000000	-29.43528000
153.69999105	0.00000000	-29.43528000
153.89999104	0.00000000	-29.38607000
154.09999103	0.00000000	-28.97392000
154.29999102	0.00000000	-28.16806000
154.49999100	0.00000000	-27.75590000
154.69999099	0.00000000	-27.70669000
154.89999098	0.00000000	-27.75590000
155.09999097	0.00000000	-28.16806000
155.29999096	0.00000000	-28.92470000
155.49999094	0.00000000	-28.92470000
155.69999093	0.00000000	-28.16806000
155.89999092	0.00000000	-27.80512000
156.09999091	0.00000000	-28.11885000
156.29999090	0.00000000	-28.51870000
156.49999089	0.00000000	-28.11885000
156.69999087	0.00000000	-27.80512000
156.89999086	0.00000000	-28.16806000
157.09999085	0.00000000	-28.97392000
157.29999084	0.00000000	-29.38607000
157.49999083	0.00000000	-29.43528000
157.69999081	0.00000000	-29.43528000
157.89999080	0.00000000	-29.43528000
158.09999079	0.00000000	-29.38607000
158.29999078	0.00000000	-28.97392000
158.49999077	0.00000000	-28.16806000
158.69999075	0.00000000	-27.75590000
158.89999074	0.00000000	-27.70669000
159.09999073	0.00000000	-27.70669000
159.29999072	0.00000000	-27.75590000
159.49999071	0.00000000	-28.21727000
159.69999070	0.00000000	-29.43528000
159.89999068	0.00000000	-30.65945000
160.09999067	0.00000000	-31.07160000
160.29999066	0.00000000	-30.70866000
160.49999065	0.00000000	-29.89665000
160.69999064	0.00000000	-29.48450000
160.89999062	0.00000000	-29.43528000
161.09999061	0.00000000	-29.38607000
161.29999060	0.00000000	-28.97392000
161.49999059	0.00000000	-28.21727000
161.69999058	0.00000000	-28.21727000
161.89999056	0.00000000	-28.97392000
162.09999055	0.00000000	-29.38607000
162.29999054	0.00000000	-29.43528000
162.49999053	0.00000000	-29.43528000
162.69999052	0.00000000	-29.43528000
162.89999051	0.00000000	-29.43528000
163.09999049	0.00000000	-29.43528000
163.29999048	0.00000000	-29.43528000
163.49999047	0.00000000	-29.43528000
163.69999046	0.00000000	-29.43528000
163.89999045	0.00000000	-29.43528000
164.09999043	0.00000000	-29.43528000
164.29999042	0.00000000	-29.43528000
164.49999041	0.00000000	-29.43528000
164.69999040	0.00000000	-29.43528000
164.89999039	0.00000000	-29.43528000
165.09999037	0.00000000	-29.43528000
165.29999036	0.00000000	-29.43528000
165.49999035	0.00000000	-29.43528000
165.69999034	0.00000000	-29.43528000
165.89999033	0.00000000	-29.43528000
166.09999032	0.00000000	-29.43528000
166.29999030	0.00000000	-29.43528000
166.49999029	0.00000000	-29.43528000
166.69999028	0.00000000	-29.43528000
166.89999027	0.00000000	-29.43528000
167.09999026	0.00000000	-29.43528000
167.29999024	0.00000000	-29.43528000
167.49999023	0.00000000	-29.43528000
167.69999022	0.00000000	-29.43528000
167.89999021	0.00000000	-29.43528000
168.09999020	0.00000000	-29.43528000
168.29999018	0.00000000	-29.43528000
168.49999017	0.00000000	-29.38607000
168.69999016	0.00000000	-28.97392000
168.89999015	0.00000000	-28.21727000
169.09999014	0.00000000	-28.21727000
169.29999013	0.00000000	-28.97392000
169.49999011	0.00000000	-29.38607000
169.69999010	0.00000000	-29.43528000
169.89999009	0.00000000	-29.43528000
170.09999008	0.00000000	-29.43528000
170.29999007	0.00000000	-29.43528000
170.49999005	0.00000000	-29.43528000
170.69999004	0.00000000	-29.43528000
170.89999003	0.00000000	-29.43528000
171.09999002	0.00000000	-29.43528000
171.29999001	0.00000000	-29.38607000
171.49998999	0.00000000	-28.97392000
171.69998998	0.00000000	-28.21727000
171.89998997	0.00000000	-28.21727000
172.09998996	0.00000000	-28.97392000
172.29998995	0.00000000	-29.38607000
172.49998994	0.00000000	-29.43528000
172.69998992	0.00000000	-29.43528000
172.89998991	0.00000000	-29.43528000
173.09998990	0.00000000	-29.43528000
173.29998989	0.00000000	-29.43528000
173.49998988	0.00000000	-29.43528000
173.69998986	0.00000000	-29.43528000
173.89998985	0.00000000	-29.43528000
174.09998984	0.00000000	-29.38607000
174.29998983	0.00000000	-28.97392000
174.49998982	0.00000000	-28.21727000
174.69998980	0.00000000	-28.21727000
174.89998979	0.00000000	-28.97392000
175.09998978	0.00000000	-29.38607000
175.29998977	0.00000000	-29.43528000
175.49998976	0.00000000	-29.48450000
175.69998975	0.00000000	-29.89665000
175.89998973	0.00000000	-30.70866000
176.09998972	0.00000000	-31.12082000
176.29998971	0.00000000	-31.12082000
176.49998970	0.00000000	-30.70866000
176.69998969	0.00000000	-29.89665000
176.89998967	0.00000000	-29.48450000
177.09998966	0.00000000	-29.43528000
177.29998965	0.00000000	-29.43528000
177.49998964	0.00000000	-29.43528000
177.69998963	0.00000000	-29.43528000
177.89998961	0.00000000	-29.43528000
178.09998960	0.00000000	-29.43528000
178.29998959	0.00000000	-29.48450000
178.49998958	0.00000000	-29.89665000
178.69998957	0.00000000	-30.65945000
178.89998956	0.00000000	-30.65945000
179.09998954	0.00000000	-29.89665000
179.29998953	0.00000000	-29.48450000
179.49998952	0.00000000	-29.43528000
179.69998951	0.00000000	-29.43528000
179.89998950	0.00000000	-29.43528000
180.09998948	0.00000000	-29.43528000
180.29998947	0.00000000	-29.43528000
180.49998946	0.00000000	-29.43528000
180.69998945	0.00000000	-29.43528000
180.89998944	0.00000000	-29.43528000
181.09998942	0.00000000	-29.43528000
181.29998941	0.00000000	-29.43528000
181.49998940	0.00000000	-29.43528000
181.69998939	0.00000000	-29.43528000
181.89998938	0.00000000	-29.43528000
182.09998937	0.00000000	-29.43528000
182.29998935	0.00000000	-29.43528000
182.49998934	0.00000000	-29.43528000
182.69998933	0.00000000	-29.43528000
182.89998932	0.00000000	-29.43528000
183.09998931	0.00000000	-29.43528000
183.29998929	0.00000000	-29.43528000
183.49998928	0.00000000	-29.43528000
183.69998927	0.00000000	-29.43528000
183.89998926	0.00000000	-29.43528000
184.09998925	0.00000000	-29.43528000
184.29998923	0.00000000	-29.43528000
184.49998922	0.00000000	-29.43528000
184.69998921	0.00000000	-29.43528000
184.89998920	0.00000000	-29.43528000
185.09998919	0.00000000	-29.43528000
185.29998918	0.00000000	-29.43528000
185.49998916	0.00000000	-29.43528000
185.69998915	0.00000000	-29.43528000
185.89998914	0.00000000	-29.48450000
186.09998913	0.00000000	-29.84744000
186.29998912	0.00000000	-30.24729000
186.49998910	0.00000000	-29.84744000
186.69998909	0.00000000	-29.48450000
186.89998908	0.00000000	-29.43528000
187.09998907	0.00000000	-29.43528000
187.29998906	0.00000000	-29.43528000
187.49998904	0.00000000	-29.48450000
187.69998903	0.00000000	-29.89665000
187.89998902	0.00000000	-30.70866000
188.09998901	0.00000000	-31.12082000
188.29998900	0.00000000	-31.17003000
188.49998899	0.00000000	-31.12082000
188.69998897	0.00000000	-30.70866000
188.89998896	0.00000000	-29.89665000
189.09998895	0.00000000	-29.48450000
189.29998894	0.00000000	-29.43528000
189.49998893	0.00000000	-29.43528000
189.69998891	0.00000000	-29.43528000
189.89998890	0.00000000	-29.43528000
190.09998889	0.00000000	-29.43528000
190.29998888	0.00000000	-29.43528000
190.49998887	0.00000000	-29.48450000
190.69998885	0.00000000	-29.89665000
190.89998884	0.00000000	-30.70866000
191.09998883	0.00000000	-31.12082000
191.29998882	0.00000000	-31.17003000
191.49998881	0.00000000	-31.12082000
191.69998880	0.00000000	-30.70866000
191.89998878	0.00000000	-29.89665000
192.09998877	0.00000000	-29.48450000
192.29998876	0.00000000	-29.43528000
192.49998875	0.00000000	-29.43528000
192.69998874	0.00000000	-29.43528000
192.89998872	0.00000000	-29.43528000
193.09998871	0.00000000	-29.48450000
193.29998870	0.00000000	-29.89665000
193.49998869	0.00000000	-30.70866000
193.69998868	0.00000000	-31.12082000
193.89998866	0.00000000	-31.21924000
194.09998865	0.00000000	-31.58218000
194.29998864	0.00000000	-31.93282000
194.49998863	0.00000000	-31.12082000
194.69998862	0.00000000	-29.94586000
194.89998861	0.00000000	-29.48450000
195.09998859	0.00000000	-29.43528000
195.29998858	0.00000000	-29.43528000
195.49998857	0.00000000	-29.43528000
195.69998856	0.00000000	-29.43528000
195.89998855	0.00000000	-29.48450000
196.09998853	0.00000000	-29.89665000
