Time	Channel A	Channel B	Channel C
(us)	(V)	(mV)	(mV)

-4.49999956	0.00000000	-17.39050000	-4.73671200
-4.29999957	0.00000000	-17.39050000	-4.73671200
-4.09999958	0.00000000	-17.39050000	-4.73671200
-3.89999959	0.00000000	-17.43356000	-4.73671200
-3.69999960	0.00000000	-17.76575000	-4.73671200
-3.49999962	0.00000000	-18.13484000	-4.73671200
-3.29999963	0.00000000	-17.76575000	-4.69365100
-3.09999964	0.00000000	-17.43356000	-4.36146600
-2.89999965	0.00000000	-17.39050000	-3.99237200
-2.69999966	0.00000000	-17.39050000	-4.36146600
-2.49999968	0.00000000	-17.39050000	-4.69365100
-2.29999969	0.00000000	-17.39050000	-4.73671200
-2.09999970	0.00000000	-17.39050000	-4.73671200
-1.89999971	0.00000000	-17.39050000	-4.73671200
-1.69999972	0.00000000	-17.39050000	-4.69365100
-1.49999973	0.00000000	-17.39050000	-4.36146600
-1.29999975	0.00000000	-17.39050000	-3.99237200
-1.09999976	0.00000000	-17.39050000	-4.36146600
-0.89999977	0.00000000	-17.39050000	-4.69365100
-0.69999978	0.00000000	-17.39050000	-4.69365100
-0.49999979	0.00000000	-17.39050000	-4.36146600
-0.29999981	0.31803640	-17.39050000	-3.99237200
-0.09999982	0.63668800	-17.39050000	-4.36146600
0.10000017	0.95533960	-17.39050000	-4.69365100
0.30000016	1.11466500	-17.39050000	-4.73671200
0.50000015	0.79601380	-17.39050000	-4.73671200
0.70000013	0.15871060	-17.39050000	-4.73671200
0.90000012	-0.63668800	-17.39050000	-4.73671200
1.10000011	-1.59264300	-17.43356000	-4.73671200
1.30000010	-2.38927200	-17.76575000	-4.69365100
1.50000009	-2.70792300	-18.13484000	-4.31840500
1.70000008	-2.38927200	-17.76575000	-3.57406500
1.90000006	-1.11466500	-17.43356000	-3.19881900
2.10000005	0.79601380	-17.39050000	-3.15575800
2.30000004	2.86724900	-17.39050000	-3.19881900
2.50000003	4.61921700	-17.39050000	-3.57406500
2.70000002	5.41584600	-17.39050000	-4.31840500
2.90000000	4.61921700	-17.39050000	-4.69365100
3.09999999	2.54859700	-17.39050000	-4.73671200
3.29999998	-0.47736220	-17.39050000	-4.73671200
3.49999997	-3.98191400	-17.39050000	-4.73671200
3.69999996	-6.69045300	-17.39050000	-4.69365100
3.89999994	-7.96444400	-17.39050000	-4.31840500
4.09999993	-7.32714100	-17.39050000	-3.57406500
4.29999992	-4.61921700	-17.39050000	-3.19881900
4.49999991	-0.47736220	-17.39050000	-3.15575800
4.69999990	3.82258900	-17.39050000	-3.19881900
4.89999989	7.48646600	-17.39050000	-3.57406500
5.09999987	9.39837600	-17.39050000	-4.31840500
5.29999986	8.76107300	-17.39050000	-4.69365100
5.49999985	6.05315000	-17.39050000	-4.73671200
5.69999984	1.75196900	-17.39050000	-4.73671200
5.89999983	-2.86724900	-17.39050000	-4.73671200
6.09999981	-7.00848900	-17.39050000	-4.73671200
6.29999980	-9.23905000	-17.39050000	-4.69365100
6.49999979	-9.07972400	-17.39050000	-4.31840500
6.69999978	-6.84916400	-17.39050000	-3.57406500
6.89999977	-2.86724900	-17.39050000	-3.19881900
7.09999975	1.59264300	-17.39050000	-3.19881900
7.29999974	5.25652100	-17.39050000	-3.57406500
7.49999973	7.48646600	-17.43356000	-4.31840500
7.69999972	7.64579200	-17.76575000	-4.69365100
7.89999971	6.05315000	-18.13484000	-4.73671200
8.09999970	3.02657500	-17.76575000	-4.73671200
8.29999968	-0.31803640	-17.43356000	-4.73671200
8.49999967	-3.18590100	-17.39050000	-4.73671200
8.69999966	-4.77854300	-17.39050000	-4.73671200
8.89999965	-5.09719500	-17.39050000	-4.69365100
9.09999964	-4.14124000	-17.39050000	-4.36146600
9.29999962	-2.38927200	-17.39050000	-3.99237200
9.49999961	-0.31803640	-17.39050000	-4.31840500
9.69999960	1.27399100	-17.39050000	-4.31840500
9.89999959	2.38927200	-17.39050000	-3.99237200
10.09999958	2.54859700	-17.39050000	-4.36146600
10.29999956	2.07062000	-17.39050000	-4.69365100
10.49999955	1.27399100	-17.39050000	-4.73671200
10.69999954	0.47736220	-17.39050000	-4.73671200
10.89999953	-0.31803640	-17.39050000	-4.73671200
11.09999952	-0.79601380	-17.39050000	-4.73671200
11.29999951	-0.95533960	-17.39050000	-4.73671200
11.49999949	-0.95533960	-17.39050000	-4.73671200
11.69999948	-0.63668800	-17.39050000	-4.73671200
11.89999947	-0.31803640	-17.39050000	-4.69365100
12.09999946	-0.15871060	-17.39050000	-4.36146600
12.29999945	-0.15871060	-17.39050000	-3.99237200
12.49999943	0.00000000	-17.39050000	-4.36146600
12.69999942	0.00000000	-17.39050000	-4.64443900
12.89999941	0.00000000	-17.39050000	-4.36146600
13.09999940	0.00000000	-17.39050000	-3.94931100
13.29999939	0.00000000	-17.39050000	-3.98622000
13.49999937	0.00000000	-17.39050000	-3.94931100
13.69999936	0.00000000	-17.39050000	-4.36146600
13.89999935	0.00000000	-17.39050000	-4.69365100
14.09999934	-0.15871060	-17.39050000	-4.73671200
14.29999933	-0.15871060	-17.39050000	-4.73671200
14.49999932	-0.15871060	-17.39050000	-4.73671200
14.69999930	0.00000000	-17.39050000	-4.73671200
14.89999929	0.00000000	-17.39050000	-4.73671200
15.09999928	0.00000000	-17.39050000	-4.73671200
15.29999927	0.00000000	-17.39050000	-4.73671200
15.49999926	0.00000000	-17.39050000	-4.73671200
15.69999924	0.00000000	-17.39050000	-4.73671200
15.89999923	0.00000000	-17.39050000	-4.73671200
16.09999922	0.00000000	-17.39050000	-4.73671200
16.29999921	0.00000000	-17.39050000	-4.73671200
16.49999920	-0.15871060	-17.34744000	-4.69365100
16.69999919	-0.15871060	-16.97219000	-4.36146600
16.89999917	-0.15871060	-16.22785000	-3.99237200
17.09999916	0.00000000	-15.85261000	-4.36146600
17.29999915	0.00000000	-15.80955000	-4.64443900
17.49999914	0.00000000	-15.80955000	-4.31840500
17.69999913	0.00000000	-15.85261000	-3.62327700
17.89999911	0.00000000	-16.22785000	-3.57406500
18.09999910	0.00000000	-17.05832000	-3.90009800
18.29999909	0.00000000	-18.22711000	-3.57406500
18.49999908	0.00000000	-20.13410000	-3.62327700
18.69999907	0.00000000	-21.62278000	-4.31840500
18.89999905	0.00000000	-22.04109000	-4.69365100
19.09999904	0.00000000	-21.66585000	-4.73671200
19.29999903	0.00000000	-20.41708000	-4.73671200
19.49999902	0.00000000	-18.08563000	-4.69365100
19.69999901	0.00000000	-14.56078000	-4.36146600
19.89999900	0.00000000	-10.73450000	-3.94931100
20.09999898	0.00000000	-7.29576700	-3.98622000
20.29999897	0.00000000	-5.80708600	-3.90625000
20.49999896	0.00000000	-6.96973400	-3.94315900
20.69999895	0.00000000	-10.50689000	-3.57406500
20.89999894	0.00000000	-16.40625000	-3.62327700
21.09999892	0.00000000	-24.08957000	-4.31840500
21.29999891	0.00000000	-31.76058000	-4.69365100
21.49999890	0.00000000	-36.74950000	-4.73671200
21.69999889	0.00000000	-37.86909000	-4.73671200
21.89999888	0.00000000	-34.28272000	-4.73671200
22.09999886	0.00000000	-25.72589000	-4.73671200
22.29999885	0.00000000	-13.76107000	-4.73671200
22.49999884	0.00000000	-1.02116100	-4.73671200
22.69999883	0.00000000	9.35654400	-4.69365100
22.89999882	0.00000000	14.70842000	-4.31840500
23.09999881	0.00000000	13.08440000	-3.57406500
23.29999879	0.00000000	4.15231300	-3.15575800
23.49999878	0.00000000	-10.59301000	-2.73745100
23.69999877	0.00000000	-28.37106000	-1.99311000
23.89999876	0.00000000	-45.30634000	-1.66707700
24.09999875	0.00000000	-56.79749000	-1.99311000
24.29999873	0.00000000	-59.49803000	-2.78051200
24.49999872	0.00000000	-52.47908000	-3.57406500
24.69999871	0.00000000	-36.98326000	-4.77977300
24.89999870	0.00000000	-15.72342000	-6.31151500
25.09999869	0.00000000	6.28690900	-7.84940900
25.29999867	0.00000000	24.01575000	-8.96284400
25.49999866	0.00000000	33.18159000	-8.96284400
25.69999865	0.00000000	30.43799000	-7.75713500
25.89999864	0.00000000	16.20325000	-5.38262700
26.09999863	0.00000000	-5.80708600	-1.53174200
26.29999862	0.00000000	-30.55487000	2.64517700
26.49999860	0.00000000	-52.56520000	5.75787400
26.69999859	0.00000000	-66.84916000	7.29576700
26.89999858	0.00000000	-69.92495000	6.82824800
27.09999857	0.00000000	-61.03592000	3.67249000
27.29999856	0.00000000	-42.14444000	-2.12844500
27.49999854	0.00000000	-17.80881000	-9.47342500
27.69999853	0.00000000	6.15157400	-16.81225000
27.89999852	0.00000000	24.71087000	-22.52707000
28.09999851	0.00000000	33.59990000	-24.76009000
28.29999850	0.00000000	30.94857000	-22.02264000
28.49999848	0.00000000	17.82726000	-14.67766000
28.69999847	0.00000000	-2.60211600	-4.18307100
28.89999846	0.00000000	-25.35064000	7.75713500
29.09999845	0.00000000	-44.75270000	18.53469000
29.29999844	0.00000000	-57.22195000	25.04306000
29.49999843	0.00000000	-61.12204000	25.78740000
29.69999841	0.00000000	-55.68405000	19.88804000
29.89999840	0.00000000	-42.23056000	7.94783400
30.09999839	0.00000000	-24.08957000	-7.47416300
30.29999838	0.00000000	-5.89936000	-22.57628000
30.49999837	0.00000000	8.84596300	-34.51648000
30.69999835	0.00000000	17.35974000	-40.64960000
30.89999834	0.00000000	17.82726000	-38.70571000
31.09999833	0.00000000	10.93750000	-29.45374000
31.29999832	0.00000000	-1.02116100	-14.67766000
31.49999831	0.00000000	-15.39124000	3.06963600
31.69999829	0.00000000	-29.30610000	20.02337000
31.89999828	0.00000000	-40.14518000	31.96973000
32.09999827	0.00000000	-45.17101000	36.23893000
32.29999826	0.00000000	-43.72539000	32.01279000
32.49999825	0.00000000	-36.79257000	20.39862000
32.69999824	0.00000000	-26.36565000	3.76476400
32.89999822	0.00000000	-14.73917000	-14.76993000
33.09999821	0.00000000	-4.31840500	-30.94242000
33.29999820	0.00000000	2.65748000	-41.02485000
33.49999819	0.00000000	4.57062000	-43.06717000
33.69999818	0.00000000	1.16879900	-37.58612000
33.89999816	0.00000000	-6.50221400	-25.59055000
34.09999815	0.00000000	-15.71727000	-8.59990100
34.29999814	0.00000000	-24.23105000	8.69832600
34.49999813	0.00000000	-30.04429000	22.67470000
34.69999812	0.00000000	-32.04355000	30.38878000
34.89999810	0.00000000	-30.51181000	30.43184000
35.09999809	0.00000000	-25.85507000	23.13607000
35.29999808	0.00000000	-18.97145000	10.40846000
35.49999807	0.00000000	-12.08784000	-4.65059000
35.69999806	0.00000000	-7.43110200	-18.90994000
35.89999805	0.00000000	-5.85014700	-28.94316000
36.09999803	0.00000000	-7.38804100	-32.47416000
36.29999802	0.00000000	-11.62032000	-29.40452000
36.49999801	0.00000000	-17.34744000	-20.53395000
36.69999800	0.00000000	-22.74237000	-7.89247000
36.89999799	0.00000000	-26.18725000	4.78592500
37.09999797	0.00000000	-27.01772000	14.03789000
37.29999796	0.00000000	-25.06767000	17.93799000
37.49999795	0.00000000	-21.24754000	15.66191000
37.69999794	0.00000000	-16.22785000	8.40920300
37.89999793	0.00000000	-11.62032000	-1.57480300
38.09999791	0.00000000	-8.50147600	-11.52190000
38.29999790	0.00000000	-7.34498000	-18.44242000
38.49999789	0.00000000	-8.50147600	-20.35556000
38.69999788	0.00000000	-11.57726000	-16.95374000
38.89999787	0.00000000	-15.80955000	-9.29502900
39.09999786	0.00000000	-20.08489000	-0.13533460
39.29999784	0.00000000	-23.57899000	7.94783400
39.49999783	0.00000000	-25.90428000	12.50615000
39.69999782	0.00000000	-26.27953000	12.08169000
39.89999781	0.00000000	-24.78469000	6.32381900
40.09999780	0.00000000	-22.04109000	-3.20497000
40.29999778	0.00000000	-18.55315000	-13.14591000
40.49999777	0.00000000	-14.64690000	-20.44168000
40.69999776	0.00000000	-11.20202000	-23.17913000
40.89999775	0.00000000	-8.83366100	-20.81693000
41.09999774	0.00000000	-8.04010800	-13.92717000
41.29999772	0.00000000	-8.41535400	-3.94931100
41.49999771	0.00000000	-10.03937000	5.62869100
41.69999770	0.00000000	-13.11516000	12.59227000
41.89999769	0.00000000	-16.97219000	15.28666000
42.09999768	0.00000000	-20.46014000	13.01058000
42.29999767	0.00000000	-23.20374000	6.87746000
42.49999765	0.00000000	-24.74163000	-1.62401600
42.69999764	0.00000000	-24.74163000	-10.45152000
42.89999763	0.00000000	-23.20374000	-17.37205000
43.09999762	0.00000000	-20.55241000	-20.44168000
43.29999761	0.00000000	-17.85802000	-19.00221000
43.49999759	0.00000000	-15.85261000	-14.03174000
43.69999758	0.00000000	-14.27165000	-7.51722400
43.89999757	0.00000000	-13.11516000	-0.92888770
44.09999756	0.00000000	-12.69070000	4.09079700
44.29999755	0.00000000	-12.69070000	6.82824800
44.49999753	0.00000000	-13.02288000	6.82824800
44.69999752	0.00000000	-13.43504000	4.18307100
44.89999751	0.00000000	-13.44119000	0.00000000
45.09999750	0.00000000	-13.94562000	-4.26919300
45.29999749	0.00000000	-15.06521000	-7.75713500
45.49999748	0.00000000	-17.05832000	-10.11934000
45.69999746	0.00000000	-19.38976000	-10.86983000
45.89999745	0.00000000	-22.13336000	-10.11934000
46.09999744	0.00000000	-24.78469000	-7.80019600
46.29999743	0.00000000	-26.32259000	-4.77977300
46.49999742	0.00000000	-26.27953000	-2.04232300
46.69999740	0.00000000	-24.32333000	-0.09227362
46.89999739	0.00000000	-20.37401000	1.06422200
47.09999738	0.00000000	-14.97293000	1.06422200
47.29999737	0.00000000	-8.79060000	-0.09227362
47.49999736	0.00000000	-3.80782500	-1.99311000
47.69999734	0.00000000	-1.10728300	-4.36146600
47.89999733	0.00000000	-1.57480300	-6.64370100
48.09999732	0.00000000	-5.85014700	-8.58759800
48.29999731	0.00000000	-13.15822000	-9.33809000
48.49999730	0.00000000	-21.66585000	-8.96284400
48.69999729	0.00000000	-29.39837000	-7.38188900
48.89999727	0.00000000	-34.75024000	-4.68750000
49.09999726	0.00000000	-35.86368000	-1.62401600
49.29999725	0.00000000	-32.04970000	1.07037400
49.49999724	0.00000000	-24.69857000	2.60211600
49.69999723	0.00000000	-15.43430000	2.60211600
49.89999721	0.00000000	-6.13927100	1.07037400
50.09999720	0.00000000	0.71358260	-1.66707700
50.29999719	0.00000000	3.40182100	-5.15501900
50.49999718	0.00000000	0.33833660	-8.96284400
50.69999717	0.00000000	-6.87746000	-11.65723000
50.89999715	0.00000000	-15.80955000	-12.45079000
51.09999714	0.00000000	-24.64936000	-11.61417000
51.29999713	0.00000000	-31.20694000	-8.54453700
51.49999712	0.00000000	-33.49532000	-3.94931100
51.69999711	0.00000000	-31.25000000	0.28297240
51.89999710	0.00000000	-25.06767000	3.76476400
52.09999708	0.00000000	-17.01525000	5.29650500
52.29999707	0.00000000	-8.96899500	4.55831700
52.49999706	0.00000000	-3.57406500	2.22687000
52.69999705	0.00000000	-2.36220500	-1.62401600
52.89999704	0.00000000	-4.69365100	-5.80093500
53.09999702	0.00000000	-10.45768000	-8.91978400
53.29999701	0.00000000	-18.08563000	-10.49459000
53.49999700	0.00000000	-24.60630000	-10.49459000
53.69999699	0.00000000	-28.50640000	-8.96284400
53.89999698	0.00000000	-28.88164000	-6.26845500
54.09999696	0.00000000	-25.81201000	-3.24803100
54.29999695	0.00000000	-20.08489000	-0.92888770
54.49999694	0.00000000	-13.57652000	-0.13533460
54.69999693	0.00000000	-8.55068800	-0.51058070
54.89999692	0.00000000	-5.85014700	-2.04232300
55.09999691	0.00000000	-6.22539300	-4.31840500
55.29999689	0.00000000	-9.66412400	-6.17618100
55.49999688	0.00000000	-14.64690000	-6.92052100
55.69999687	0.00000000	-20.04183000	-5.80093500
55.89999686	0.00000000	-24.27411000	-3.53100400
56.09999685	0.00000000	-26.18725000	-1.24877000
56.29999683	0.00000000	-25.43676000	0.64591530
56.49999682	0.00000000	-21.99803000	0.97810030
56.69999681	0.00000000	-17.39050000	-0.51058070
56.89999680	0.00000000	-12.73991000	-3.24803100
57.09999679	0.00000000	-8.92593500	-6.72982200
57.29999677	0.00000000	-7.38804100	-10.53765000
57.49999676	0.00000000	-8.45841400	-13.14591000
57.69999675	0.00000000	-11.15896000	-13.14591000
57.89999674	0.00000000	-14.64690000	-10.45152000
58.09999673	0.00000000	-18.46087000	-5.80093500
58.29999672	0.00000000	-21.16142000	-0.04306102
58.49999670	0.00000000	-21.99803000	5.29650500
58.69999669	0.00000000	-21.62278000	8.36614100
58.89999668	0.00000000	-20.08489000	8.36614100
59.09999667	0.00000000	-17.80881000	5.25344500
59.29999666	0.00000000	-15.85261000	-0.51058070
59.49999664	0.00000000	-14.27165000	-7.43110200
59.69999663	0.00000000	-13.15822000	-13.61343000
59.89999662	0.00000000	-13.15822000	-17.83957000
60.09999661	0.00000000	-14.27165000	-18.95300000
60.29999660	0.00000000	-15.76649000	-16.21555000
60.49999658	0.00000000	-16.97219000	-10.07628000
60.69999657	0.00000000	-17.72268000	-1.99311000
60.89999656	0.00000000	-18.08563000	5.67175200
61.09999655	0.00000000	-17.34744000	11.06053000
61.29999654	0.00000000	-16.22785000	12.59227000
61.49999653	0.00000000	-15.43430000	9.94094400
61.69999651	0.00000000	-14.69611000	4.14000900
61.89999650	0.00000000	-14.73917000	-3.57406500
62.09999649	0.00000000	-15.85261000	-11.65723000
62.29999648	0.00000000	-17.39050000	-17.79035000
62.49999647	0.00000000	-18.87918000	-20.48474000
62.69999645	0.00000000	-19.66658000	-18.95300000
62.89999644	0.00000000	-19.30364000	-13.61343000
63.09999643	0.00000000	-18.55315000	-6.31766700
63.29999642	0.00000000	-17.29823000	1.07037400
63.49999641	0.00000000	-15.43430000	7.24655500
63.69999639	0.00000000	-13.48425000	11.10359000
63.89999638	0.00000000	-12.36466000	11.47884000
64.09999637	0.00000000	-11.95251000	8.40920300
64.29999636	0.00000000	-12.78297000	2.64517700
64.49999635	0.00000000	-14.64690000	-4.26919300
64.69999634	0.00000000	-16.97219000	-10.45152000
64.89999632	0.00000000	-18.87918000	-14.72072000
65.09999631	0.00000000	-20.04183000	-16.30167000
65.29999630	0.00000000	-20.04183000	-15.18824000
65.49999629	0.00000000	-18.92839000	-12.11860000
65.69999628	0.00000000	-17.39050000	-7.84940900
65.89999626	0.00000000	-15.85261000	-3.24803100
66.09999625	0.00000000	-14.69611000	0.69512790
66.29999624	0.00000000	-14.32087000	3.39566900
66.49999623	0.00000000	-14.69611000	5.01353300
66.69999622	0.00000000	-15.85261000	5.01968500
66.89999620	0.00000000	-17.39050000	4.26919300
67.09999619	0.00000000	-18.87918000	2.64517700
67.29999618	0.00000000	-19.62352000	-0.04306102
67.49999617	0.00000000	-18.83612000	-3.15575800
67.69999616	0.00000000	-16.97219000	-6.31151500
67.89999615	0.00000000	-14.60384000	-9.38115100
68.09999613	0.00000000	-12.31545000	-11.70029000
68.29999612	0.00000000	-10.45768000	-12.49385000
68.49999611	0.00000000	-10.50689000	-12.11860000
68.69999610	0.00000000	-12.73991000	-10.49459000
68.89999609	0.00000000	-15.85261000	-7.38188900
69.09999607	0.00000000	-19.38976000	-3.11269700
69.29999606	0.00000000	-23.20374000	1.53174200
69.49999605	0.00000000	-25.81201000	5.71481200
69.69999604	0.00000000	-25.85507000	8.03395600
69.89999603	0.00000000	-23.53592000	7.66486200
70.09999601	0.00000000	-19.62352000	5.33956700
70.29999600	0.00000000	-14.22859000	1.02116100
70.49999599	0.00000000	-8.87672100	-4.69365100
70.69999598	0.00000000	-5.38877900	-10.07628000
70.89999597	0.00000000	-4.22613100	-13.56422000
71.09999596	0.00000000	-5.76402500	-14.76993000
71.29999594	0.00000000	-9.66412400	-13.60728000
71.49999593	0.00000000	-15.06521000	-10.53765000
71.69999592	0.00000000	-21.24754000	-6.26845500
71.89999591	0.00000000	-26.23031000	-1.62401600
72.09999590	0.00000000	-28.97392000	2.60211600
72.29999588	0.00000000	-28.93085000	5.24729300
72.49999587	0.00000000	-25.85507000	5.29650500
72.69999586	0.00000000	-20.46014000	3.06348400
72.89999585	0.00000000	-14.27165000	0.00000000
73.09999584	0.00000000	-8.50147600	-3.11269700
73.29999582	0.00000000	-4.64443900	-5.80093500
73.49999581	0.00000000	-3.85088600	-7.33882900
73.69999580	0.00000000	-5.71481200	-7.38188900
73.89999579	0.00000000	-9.62106200	-6.22539300
74.09999578	0.00000000	-14.60384000	-4.40452700
74.29999577	0.00000000	-19.66658000	-2.87893700
74.49999575	0.00000000	-23.53592000	-2.87278500
74.69999574	0.00000000	-25.85507000	-3.57406500
74.89999573	0.00000000	-25.81201000	-4.77977300
75.09999572	0.00000000	-23.20374000	-6.26845500
75.29999571	0.00000000	-19.38976000	-7.38188900
75.49999569	0.00000000	-15.85261000	-7.33882900
75.69999568	0.00000000	-12.73991000	-5.75787400
75.89999567	0.00000000	-10.45768000	-2.73745100
76.09999566	0.00000000	-10.03937000	0.69512790
76.29999565	0.00000000	-11.15896000	3.02042300
76.49999563	0.00000000	-13.06594000	4.18307100
76.69999562	0.00000000	-15.39124000	3.71555100
76.89999561	0.00000000	-17.25517000	0.97810030
77.09999560	0.00000000	-18.08563000	-3.62327700
77.29999559	0.00000000	-17.76575000	-8.96284400
77.49999558	0.00000000	-17.39050000	-13.18898000
77.69999556	0.00000000	-17.01525000	-15.14518000
77.89999555	0.00000000	-16.64616000	-14.76993000
78.09999554	0.00000000	-17.01525000	-12.03248000
78.29999553	0.00000000	-17.39050000	-7.38188900
78.49999552	0.00000000	-17.80881000	-1.62401600
78.69999550	0.00000000	-18.50394000	3.76476400
78.89999549	0.00000000	-18.46087000	7.25270600
79.09999548	0.00000000	-17.29823000	8.40920300
79.29999547	0.00000000	-15.39124000	6.82824800
79.49999546	0.00000000	-13.06594000	2.64517700
79.69999544	0.00000000	-11.20202000	-2.73745100
79.89999543	0.00000000	-10.41462000	-7.75713500
80.09999542	0.00000000	-11.20202000	-11.65723000
80.29999541	0.00000000	-13.11516000	-13.61343000
80.49999540	0.00000000	-15.85261000	-13.65650000
80.69999539	0.00000000	-18.87918000	-12.07554000
80.89999537	0.00000000	-21.20448000	-9.00590400
81.09999536	0.00000000	-21.95497000	-5.15501900
81.29999535	0.00000000	-21.20448000	-1.62401600
81.49999534	0.00000000	-18.92839000	1.48868100
81.69999533	0.00000000	-16.22785000	3.80782500
81.89999531	0.00000000	-13.89641000	4.60137700
82.09999530	0.00000000	-11.90330000	4.22613100
82.29999529	0.00000000	-10.82677000	2.64517700
82.49999528	0.00000000	-10.78986000	-0.04306102
82.69999527	0.00000000	-12.31545000	-3.11269700
82.89999525	0.00000000	-14.22859000	-5.89320800
83.09999524	0.00000000	-16.22785000	-8.26771600
83.29999523	0.00000000	-18.46087000	-10.53765000
83.49999522	0.00000000	-19.62352000	-11.65723000
83.69999521	0.00000000	-19.30364000	-10.91289000
83.89999520	0.00000000	-18.55315000	-9.00590400
84.09999518	0.00000000	-17.34744000	-6.22539300
84.29999517	0.00000000	-15.85261000	-2.73745100
84.49999516	0.00000000	-14.69611000	1.11343500
84.69999515	0.00000000	-14.32087000	4.18307100
84.89999514	0.00000000	-14.64690000	5.75787400
85.09999512	0.00000000	-15.39124000	5.71481200
85.29999511	0.00000000	-15.76649000	3.76476400
85.49999510	0.00000000	-15.76649000	-0.09227362
85.69999509	0.00000000	-15.43430000	-4.69365100
85.89999508	0.00000000	-15.02214000	-8.96284400
86.09999506	0.00000000	-15.05905000	-12.07554000
86.29999505	0.00000000	-15.02214000	-13.56422000
86.49999504	0.00000000	-15.47736000	-12.77067000
86.69999503	0.00000000	-16.22785000	-9.33809000
86.89999502	0.00000000	-17.39050000	-4.73671200
87.09999501	0.00000000	-18.50394000	-0.09227362
87.29999499	0.00000000	-18.87918000	3.76476400
87.49999498	0.00000000	-18.50394000	5.67175200
87.69999497	0.00000000	-17.34744000	5.29650500
87.89999496	0.00000000	-15.80955000	2.60211600
88.09999495	0.00000000	-14.27165000	-1.62401600
88.29999493	0.00000000	-13.11516000	-6.21924200
88.49999492	0.00000000	-12.73991000	-10.11934000
88.69999491	0.00000000	-13.11516000	-12.40157000
88.89999490	0.00000000	-14.27165000	-12.77067000
89.09999489	0.00000000	-15.80955000	-10.45152000
89.29999487	0.00000000	-17.34744000	-6.26845500
89.49999486	0.00000000	-18.50394000	-1.62401600
89.69999485	0.00000000	-18.92839000	2.60211600
89.89999484	0.00000000	-18.92839000	5.24729300
90.09999483	0.00000000	-18.50394000	5.24729300
90.29999482	0.00000000	-17.34744000	2.60211600
90.49999480	0.00000000	-15.85261000	-1.62401600
90.69999479	0.00000000	-14.69611000	-6.21924200
90.89999478	0.00000000	-14.27165000	-10.07628000
91.09999477	0.00000000	-14.22859000	-11.98327000
91.29999476	0.00000000	-14.27165000	-11.61417000
91.49999474	0.00000000	-14.60384000	-8.91978400
91.69999473	0.00000000	-15.01599000	-4.69365100
91.89999472	0.00000000	-15.02214000	-0.09227362
92.09999471	0.00000000	-15.43430000	3.71555100
92.29999470	0.00000000	-15.76649000	5.25344500
92.49999468	0.00000000	-15.80955000	4.13385800
92.69999467	0.00000000	-15.85261000	1.07037400
92.89999466	0.00000000	-16.27707000	-3.15575800
93.09999465	0.00000000	-17.39050000	-7.38188900
93.29999464	0.00000000	-18.50394000	-10.45152000
93.49999463	0.00000000	-18.87918000	-11.60802000
93.69999461	0.00000000	-18.50394000	-10.45152000
93.89999460	0.00000000	-17.34744000	-7.38188900
94.09999459	0.00000000	-15.80955000	-3.15575800
94.29999458	0.00000000	-14.22859000	1.02116100
94.49999457	0.00000000	-12.64764000	3.71555100
94.69999455	0.00000000	-11.15896000	4.14000900
94.89999454	0.00000000	-10.41462000	2.60211600
95.09999453	0.00000000	-11.20202000	-0.46751960
95.29999452	0.00000000	-13.11516000	-4.31840500
95.49999451	0.00000000	-15.85261000	-7.75713500
95.69999449	0.00000000	-18.92839000	-10.07628000
95.89999448	0.00000000	-21.62278000	-10.40846000
96.09999447	0.00000000	-23.16068000	-8.54453700
96.29999446	0.00000000	-23.16068000	-5.11195900
96.49999445	0.00000000	-21.57972000	-1.66707700
96.69999444	0.00000000	-18.50394000	1.07037400
96.89999442	0.00000000	-14.64690000	2.55905500
97.09999441	0.00000000	-11.15896000	2.22687000
97.29999440	0.00000000	-8.45841400	0.33218500
97.49999439	0.00000000	-7.29576700	-1.95004900
97.69999438	0.00000000	-8.08316900	-4.31840500
97.89999436	0.00000000	-10.41462000	-6.22539300
98.09999435	0.00000000	-14.27165000	-7.38188900
98.29999434	0.00000000	-18.50394000	-7.38188900
98.49999433	0.00000000	-21.99803000	-6.26845500
98.69999432	0.00000000	-24.32333000	-4.73671200
98.89999430	0.00000000	-24.69857000	-3.24803100
99.09999429	0.00000000	-23.16068000	-2.41141700
99.29999428	0.00000000	-20.08489000	-2.36220500
99.49999427	0.00000000	-16.22785000	-1.95004900
99.69999426	0.00000000	-12.73991000	-1.61786400
99.89999425	0.00000000	-9.99630800	-1.57480300
100.09999423	0.00000000	-8.45841400	-1.57480300
100.29999422	0.00000000	-8.41535400	-1.57480300
100.49999421	0.00000000	-9.62106200	-1.57480300
100.69999420	0.00000000	-11.95251000	-1.61786400
100.89999419	0.00000000	-15.39124000	-2.04232300
101.09999417	0.00000000	-18.46087000	-3.15575800
101.29999416	0.00000000	-20.46014000	-4.36146600
101.49999415	0.00000000	-21.62278000	-5.53026500
101.69999414	0.00000000	-21.62278000	-7.01279500
101.89999413	0.00000000	-20.46014000	-7.33882900
102.09999411	0.00000000	-18.55315000	-6.22539300
102.29999410	0.00000000	-16.18479000	-4.26919300
102.49999409	0.00000000	-13.89641000	-1.58095500
102.69999408	0.00000000	-11.95251000	1.07037400
102.89999407	0.00000000	-11.15896000	2.60211600
103.09999406	0.00000000	-11.10974000	2.64517700
103.29999404	0.00000000	-11.57726000	1.48868100
103.49999403	0.00000000	-13.11516000	-0.46751960
103.69999402	0.00000000	-15.39124000	-3.19881900
103.89999401	0.00000000	-17.29823000	-6.26845500
104.09999400	0.00000000	-18.50394000	-8.91978400
104.29999398	0.00000000	-18.92839000	-10.07628000
104.49999397	0.00000000	-18.92839000	-9.33809000
104.69999396	0.00000000	-18.50394000	-7.43110200
104.89999395	0.00000000	-17.34744000	-4.68750000
105.09999394	0.00000000	-15.80955000	-1.66707700
105.29999392	0.00000000	-14.27165000	0.64591530
105.49999391	0.00000000	-13.15822000	1.43946800
105.69999390	0.00000000	-13.11516000	1.11343500
105.89999389	0.00000000	-13.85334000	-0.09227362
106.09999388	0.00000000	-14.64690000	-1.99311000
106.29999387	0.00000000	-15.80955000	-4.31840500
106.49999385	0.00000000	-16.92298000	-6.17618100
106.69999384	0.00000000	-17.29823000	-7.00664300
106.89999383	0.00000000	-16.97219000	-6.59448800
107.09999382	0.00000000	-16.18479000	-5.47490100
107.29999381	0.00000000	-15.43430000	-3.53100400
107.49999379	0.00000000	-14.64690000	-1.66707700
107.69999378	0.00000000	-14.27165000	-0.46136810
107.89999377	0.00000000	-14.27165000	-0.13533460
108.09999376	0.00000000	-14.64690000	-0.83661410
108.29999375	0.00000000	-15.43430000	-2.36220500
108.49999374	0.00000000	-16.22785000	-3.53100400
108.69999372	0.00000000	-17.34744000	-4.73671200
108.89999371	0.00000000	-18.08563000	-5.80093500
109.09999370	0.00000000	-17.72268000	-5.80093500
109.29999369	0.00000000	-16.97219000	-4.68750000
109.49999368	0.00000000	-15.76649000	-3.19881900
109.69999366	0.00000000	-14.27165000	-1.99311000
109.89999365	0.00000000	-13.11516000	-1.19955700
110.09999364	0.00000000	-12.73991000	-0.46136810
110.29999363	0.00000000	-13.06594000	-0.51058070
110.49999362	0.00000000	-13.85334000	-1.62401600
110.69999360	0.00000000	-14.64690000	-3.15575800
110.89999359	0.00000000	-15.80955000	-4.68750000
111.09999358	0.00000000	-16.92298000	-5.85014700
111.29999357	0.00000000	-17.34744000	-6.26845500
111.49999356	0.00000000	-17.34744000	-6.26845500
111.69999355	0.00000000	-16.97219000	-5.85014700
111.89999353	0.00000000	-16.18479000	-4.73671200
112.09999352	0.00000000	-15.43430000	-3.57406500
112.29999351	0.00000000	-14.64690000	-2.78051200
112.49999350	0.00000000	-14.27165000	-1.99311000
112.69999349	0.00000000	-14.22859000	-1.61786400
112.89999347	0.00000000	-14.27165000	-1.61786400
113.09999346	0.00000000	-14.64690000	-1.99311000
113.29999345	0.00000000	-15.39124000	-2.73745100
113.49999344	0.00000000	-15.76649000	-3.11269700
113.69999343	0.00000000	-15.80955000	-3.15575800
113.89999341	0.00000000	-15.80955000	-3.19881900
114.09999340	0.00000000	-15.80955000	-3.57406500
114.29999339	0.00000000	-15.80955000	-4.31840500
114.49999338	0.00000000	-15.80955000	-4.69365100
114.69999337	0.00000000	-15.80955000	-4.73671200
114.89999336	0.00000000	-15.76649000	-4.73671200
115.09999334	0.00000000	-15.43430000	-4.73671200
115.29999333	0.00000000	-15.02214000	-4.73671200
115.49999332	0.00000000	-15.01599000	-4.69365100
115.69999331	0.00000000	-14.64690000	-4.26919300
115.89999330	0.00000000	-14.69611000	-3.15575800
116.09999328	0.00000000	-15.39124000	-1.99311000
116.29999327	0.00000000	-15.76649000	-1.24877000
116.49999326	0.00000000	-15.80955000	-0.83661410
116.69999325	0.00000000	-15.80955000	-1.19955700
116.89999324	0.00000000	-15.80955000	-1.57480300
117.09999322	0.00000000	-15.76649000	-2.04232300
117.29999321	0.00000000	-15.39124000	-3.15575800
117.49999320	0.00000000	-14.64690000	-4.31840500
117.69999319	0.00000000	-14.22859000	-5.11195900
117.89999318	0.00000000	-13.85334000	-5.85014700
118.09999317	0.00000000	-13.48425000	-5.85014700
118.29999315	0.00000000	-13.89641000	-5.11195900
118.49999314	0.00000000	-14.60384000	-4.31840500
118.69999313	0.00000000	-15.43430000	-3.15575800
118.89999312	0.00000000	-16.18479000	-2.04232300
119.09999311	0.00000000	-16.97219000	-1.61786400
119.29999309	0.00000000	-17.34744000	-1.57480300
119.49999308	0.00000000	-17.34744000	-1.57480300
119.69999307	0.00000000	-16.92298000	-1.61786400
119.89999306	0.00000000	-15.80955000	-1.99311000
120.09999305	0.00000000	-14.64690000	-2.73745100
120.29999303	0.00000000	-13.85334000	-3.15575800
120.49999302	0.00000000	-13.02288000	-3.53100400
120.69999301	0.00000000	-12.31545000	-3.94315900
120.89999300	0.00000000	-11.95251000	-3.94931100
121.09999299	0.00000000	-12.73991000	-4.31840500
121.29999298	0.00000000	-14.22859000	-4.31840500
121.49999296	0.00000000	-15.76649000	-3.94931100
121.69999295	0.00000000	-16.97219000	-3.94315900
121.89999294	0.00000000	-17.72268000	-3.53100400
122.09999293	0.00000000	-18.13484000	-3.19881900
122.29999292	0.00000000	-17.72268000	-3.11269700
122.49999290	0.00000000	-16.97219000	-2.73745100
122.69999289	0.00000000	-15.80955000	-1.99311000
122.89999288	0.00000000	-14.69611000	-1.61786400
123.09999287	0.00000000	-14.22859000	-1.61786400
123.29999286	0.00000000	-13.81028000	-1.99311000
123.49999284	0.00000000	-13.11516000	-2.73745100
123.69999283	0.00000000	-13.11516000	-3.15575800
123.89999282	0.00000000	-13.81028000	-3.57406500
124.09999281	0.00000000	-14.22859000	-4.31840500
124.29999280	0.00000000	-14.64690000	-4.69365100
124.49999279	0.00000000	-15.39124000	-4.69365100
124.69999277	0.00000000	-15.80955000	-4.31840500
124.89999276	0.00000000	-16.22785000	-3.57406500
125.09999275	0.00000000	-16.97219000	-3.15575800
125.29999274	0.00000000	-17.29823000	-2.73745100
125.49999273	0.00000000	-16.97219000	-1.99311000
125.69999271	0.00000000	-16.18479000	-1.61786400
125.89999270	0.00000000	-15.43430000	-1.57480300
126.09999269	0.00000000	-14.60384000	-1.57480300
126.29999268	0.00000000	-13.85334000	-1.61786400
126.49999267	0.00000000	-13.11516000	-1.99311000
126.69999265	0.00000000	-13.11516000	-2.73745100
126.89999264	0.00000000	-13.81028000	-3.11269700
127.09999263	0.00000000	-14.22859000	-3.19881900
127.29999262	0.00000000	-14.69611000	-3.57406500
127.49999261	0.00000000	-15.80955000	-4.31840500
127.69999260	0.00000000	-16.92298000	-4.64443900
127.89999258	0.00000000	-17.34744000	-4.31840500
128.09999257	0.00000000	-17.34744000	-3.57406500
128.29999256	0.00000000	-16.92298000	-3.19881900
128.49999255	0.00000000	-15.76649000	-3.15575800
128.69999254	0.00000000	-14.27165000	-3.15575800
128.89999252	0.00000000	-13.15822000	-3.15575800
129.09999251	0.00000000	-13.06594000	-3.15575800
129.29999250	0.00000000	-13.43504000	-3.15575800
129.49999249	0.00000000	-13.48425000	-3.15575800
129.69999248	0.00000000	-14.32087000	-3.15575800
129.89999246	0.00000000	-15.76649000	-3.15575800
130.09999245	0.00000000	-16.92298000	-3.15575800
130.29999244	0.00000000	-17.34744000	-3.15575800
130.49999243	0.00000000	-17.29823000	-3.11269700
130.69999242	0.00000000	-16.55389000	-2.78051200
130.89999241	0.00000000	-15.06521000	-2.41141700
131.09999239	0.00000000	-14.27165000	-2.78051200
131.29999238	0.00000000	-13.81028000	-3.11269700
131.49999237	0.00000000	-13.11516000	-3.15575800
131.69999236	0.00000000	-13.11516000	-3.19881900
131.89999235	0.00000000	-13.85334000	-3.57406500
132.09999233	0.00000000	-14.60384000	-4.31840500
132.29999232	0.00000000	-15.39124000	-4.69365100
132.49999231	0.00000000	-15.76649000	-4.69365100
132.69999230	0.00000000	-15.80955000	-4.26919300
132.89999229	0.00000000	-15.80955000	-3.15575800
133.09999227	0.00000000	-15.76649000	-2.04232300
133.29999226	0.00000000	-15.39124000	-1.61786400
133.49999225	0.00000000	-14.64690000	-1.57480300
133.69999224	0.00000000	-14.27165000	-1.57480300
133.89999223	0.00000000	-14.27165000	-1.61786400
134.09999222	0.00000000	-14.64690000	-1.99311000
134.29999220	0.00000000	-15.39124000	-2.78051200
134.49999219	0.00000000	-15.71727000	-3.53100400
134.69999218	0.00000000	-15.39124000	-4.31840500
134.89999217	0.00000000	-14.69611000	-4.69365100
135.09999216	0.00000000	-14.64690000	-4.73671200
135.29999214	0.00000000	-14.97293000	-4.69365100
135.49999213	0.00000000	-14.60384000	-4.31840500
135.69999212	0.00000000	-14.27165000	-3.53100400
135.89999211	0.00000000	-14.27165000	-2.78051200
136.09999210	0.00000000	-14.64690000	-1.99311000
136.29999208	0.00000000	-15.39124000	-1.61786400
136.49999207	0.00000000	-15.76649000	-1.57480300
136.69999206	0.00000000	-15.80955000	-1.61786400
136.89999205	0.00000000	-15.80955000	-1.99311000
137.09999204	0.00000000	-15.76649000	-2.73745100
137.29999203	0.00000000	-15.39124000	-3.15575800
137.49999201	0.00000000	-14.60384000	-3.57406500
137.69999200	0.00000000	-13.85334000	-4.31840500
137.89999199	0.00000000	-13.11516000	-4.69365100
138.09999198	0.00000000	-13.11516000	-4.73671200
138.29999197	0.00000000	-13.85334000	-4.69365100
138.49999195	0.00000000	-14.60384000	-4.31840500
138.69999194	0.00000000	-15.39124000	-3.57406500
138.89999193	0.00000000	-15.76649000	-3.15575800
139.09999192	0.00000000	-15.80955000	-2.73745100
139.29999191	0.00000000	-15.80955000	-1.99311000
139.49999189	0.00000000	-15.76649000	-1.61786400
139.69999188	0.00000000	-15.39124000	-1.57480300
139.89999187	0.00000000	-14.64690000	-1.61786400
140.09999186	0.00000000	-14.27165000	-1.99311000
140.29999185	0.00000000	-14.22859000	-2.78051200
140.49999184	0.00000000	-14.22859000	-3.53100400
140.69999182	0.00000000	-14.27165000	-4.31840500
140.89999181	0.00000000	-14.64690000	-4.69365100
141.09999180	0.00000000	-15.39124000	-4.73671200
141.29999179	0.00000000	-15.76649000	-4.69365100
141.49999178	0.00000000	-15.80955000	-4.31840500
141.69999176	0.00000000	-15.80955000	-3.53100400
141.89999175	0.00000000	-15.76649000	-2.78051200
142.09999174	0.00000000	-15.39124000	-1.99311000
142.29999173	0.00000000	-14.64690000	-1.61786400
142.49999172	0.00000000	-14.27165000	-1.57480300
142.69999170	0.00000000	-14.22859000	-1.61786400
142.89999169	0.00000000	-14.22859000	-1.99311000
143.09999168	0.00000000	-14.27165000	-2.78051200
143.29999167	0.00000000	-14.64690000	-3.53100400
143.49999166	0.00000000	-15.34203000	-4.31840500
143.69999165	0.00000000	-15.39124000	-4.69365100
143.89999163	0.00000000	-15.02214000	-4.69365100
144.09999162	0.00000000	-15.01599000	-4.31840500
144.29999161	0.00000000	-14.60384000	-3.53100400
144.49999160	0.00000000	-14.27165000	-2.78051200
144.69999159	0.00000000	-14.22859000	-1.99311000
144.89999157	0.00000000	-14.22859000	-1.61786400
145.09999156	0.00000000	-14.22859000	-1.61786400
145.29999155	0.00000000	-14.27165000	-1.99311000
145.49999154	0.00000000	-14.64690000	-2.73745100
145.69999153	0.00000000	-15.39124000	-3.15575800
145.89999151	0.00000000	-15.76649000	-3.57406500
146.09999150	0.00000000	-15.80955000	-4.31840500
146.29999149	0.00000000	-15.76649000	-4.69365100
146.49999148	0.00000000	-15.39124000	-4.69365100
146.69999147	0.00000000	-14.64690000	-4.31840500
146.89999146	0.00000000	-14.27165000	-3.57406500
147.09999144	0.00000000	-14.22859000	-3.19881900
147.29999143	0.00000000	-14.22859000	-3.11269700
147.49999142	0.00000000	-14.27165000	-2.73745100
147.69999141	0.00000000	-14.60384000	-1.99311000
147.89999140	0.00000000	-15.01599000	-1.66707700
148.09999138	0.00000000	-14.97908000	-1.95004900
148.29999137	0.00000000	-15.05905000	-2.36220500
148.49999136	0.00000000	-15.02214000	-2.36835600
148.69999135	0.00000000	-15.39124000	-2.78051200
148.89999134	0.00000000	-15.34203000	-3.11269700
149.09999132	0.00000000	-14.64690000	-3.15575800
149.29999131	0.00000000	-14.27165000	-3.15575800
149.49999130	0.00000000	-14.22859000	-3.15575800
149.69999129	0.00000000	-14.22859000	-3.15575800
149.89999128	0.00000000	-14.22859000	-3.15575800
150.09999127	0.00000000	-14.22859000	-3.11269700
150.29999125	0.00000000	-14.22859000	-2.78051200
150.49999124	0.00000000	-14.27165000	-2.36835600
150.69999123	0.00000000	-14.64690000	-2.36220500
150.89999122	0.00000000	-15.39124000	-1.95004900
151.09999121	0.00000000	-15.76649000	-1.66707700
151.29999119	0.00000000	-15.80955000	-1.99311000
151.49999118	0.00000000	-15.80955000	-2.73745100
151.69999117	0.00000000	-15.76649000	-3.11269700
151.89999116	0.00000000	-15.39124000	-3.15575800
152.09999115	0.00000000	-14.64690000	-3.15575800
152.29999113	0.00000000	-14.22859000	-3.15575800
152.49999112	0.00000000	-13.85334000	-3.15575800
152.69999111	0.00000000	-13.48425000	-3.15575800
152.89999110	0.00000000	-13.85334000	-3.15575800
153.09999109	0.00000000	-14.18553000	-3.15575800
153.29999108	0.00000000	-14.27165000	-3.11269700
153.49999106	0.00000000	-14.64690000	-2.73745100
153.69999105	0.00000000	-15.39124000	-2.04232300
153.89999104	0.00000000	-15.76649000	-1.99311000
154.09999103	0.00000000	-15.80955000	-2.36220500
154.29999102	0.00000000	-15.80955000	-2.36835600
154.49999100	0.00000000	-15.80955000	-2.78051200
154.69999099	0.00000000	-15.76649000	-3.11269700
154.89999098	0.00000000	-15.39124000	-3.15575800
155.09999097	0.00000000	-14.60384000	-3.15575800
155.29999096	0.00000000	-13.89641000	-3.15575800
155.49999094	0.00000000	-13.48425000	-3.15575800
155.69999093	0.00000000	-13.81028000	-3.15575800
155.89999092	0.00000000	-13.81028000	-3.15575800
156.09999091	0.00000000	-13.48425000	-3.15575800
156.29999090	0.00000000	-13.89641000	-3.11269700
156.49999089	0.00000000	-14.60384000	-2.78051200
156.69999087	0.00000000	-15.39124000	-2.36835600
156.89999086	0.00000000	-15.76649000	-2.36220500
157.09999085	0.00000000	-15.80955000	-1.95004900
157.29999084	0.00000000	-15.80955000	-1.61786400
157.49999083	0.00000000	-15.76649000	-1.61786400
157.69999081	0.00000000	-15.39124000	-1.99311000
157.89999080	0.00000000	-14.64690000	-2.73745100
158.09999079	0.00000000	-14.27165000	-3.11269700
158.29999078	0.00000000	-14.18553000	-3.15575800
158.49999077	0.00000000	-13.85334000	-3.19881900
158.69999075	0.00000000	-13.48425000	-3.53100400
158.89999074	0.00000000	-13.85334000	-3.90009800
159.09999073	0.00000000	-14.18553000	-3.48794300
159.29999072	0.00000000	-14.22859000	-2.78051200
159.49999071	0.00000000	-14.22859000	-1.99311000
159.69999070	0.00000000	-14.22859000	-1.61786400
159.89999068	0.00000000	-14.22859000	-1.57480300
160.09999067	0.00000000	-14.27165000	-1.57480300
160.29999066	0.00000000	-14.60384000	-1.61786400
160.49999065	0.00000000	-14.97293000	-1.99311000
160.69999064	0.00000000	-14.60384000	-2.73745100
160.89999062	0.00000000	-14.27165000	-3.11269700
161.09999061	0.00000000	-14.22859000	-3.15575800
161.29999060	0.00000000	-14.22859000	-3.15575800
161.49999059	0.00000000	-14.22859000	-3.15575800
161.69999058	0.00000000	-14.22859000	-3.15575800
161.89999056	0.00000000	-14.22859000	-3.15575800
162.09999055	0.00000000	-14.22859000	-3.15575800
162.29999054	0.00000000	-14.22859000	-3.11269700
162.49999053	0.00000000	-14.22859000	-2.73745100
162.69999052	0.00000000	-14.22859000	-2.04232300
162.89999051	0.00000000	-14.22859000	-2.04232300
163.09999049	0.00000000	-14.22859000	-2.73745100
163.29999048	0.00000000	-14.27165000	-3.11269700
163.49999047	0.00000000	-14.64690000	-3.15575800
163.69999046	0.00000000	-15.39124000	-3.15575800
163.89999045	0.00000000	-15.76649000	-3.15575800
164.09999043	0.00000000	-15.76649000	-3.15575800
164.29999042	0.00000000	-15.39124000	-3.15575800
164.49999041	0.00000000	-14.60384000	-3.11269700
164.69999040	0.00000000	-13.89641000	-2.78051200
164.89999039	0.00000000	-13.48425000	-2.41141700
165.09999037	0.00000000	-13.85334000	-2.78051200
165.29999036	0.00000000	-14.18553000	-3.11269700
165.49999035	0.00000000	-14.22859000	-3.15575800
165.69999034	0.00000000	-14.22859000	-3.15575800
165.89999033	0.00000000	-14.27165000	-3.15575800
166.09999032	0.00000000	-14.64690000	-3.15575800
166.29999030	0.00000000	-15.39124000	-3.15575800
166.49999029	0.00000000	-15.71727000	-3.11269700
166.69999028	0.00000000	-15.43430000	-2.78051200
166.89999027	0.00000000	-15.02214000	-2.41141700
167.09999026	0.00000000	-15.01599000	-2.78051200
167.29999024	0.00000000	-14.60384000	-3.11269700
167.49999023	0.00000000	-14.27165000	-3.15575800
167.69999022	0.00000000	-14.22859000	-3.15575800
167.89999021	0.00000000	-14.22859000	-3.15575800
168.09999020	0.00000000	-14.22859000	-3.15575800
168.29999018	0.00000000	-14.22859000	-3.15575800
168.49999017	0.00000000	-14.22859000	-3.15575800
168.69999016	0.00000000	-14.22859000	-3.15575800
168.89999015	0.00000000	-14.22859000	-3.15575800
169.09999014	0.00000000	-14.22859000	-3.15575800
169.29999013	0.00000000	-14.22859000	-3.15575800
169.49999011	0.00000000	-14.22859000	-3.15575800
169.69999010	0.00000000	-14.22859000	-3.15575800
169.89999009	0.00000000	-14.22859000	-3.15575800
170.09999008	0.00000000	-14.22859000	-3.15575800
170.29999007	0.00000000	-14.22859000	-3.15575800
170.49999005	0.00000000	-14.22859000	-3.15575800
170.69999004	0.00000000	-14.22859000	-3.15575800
170.89999003	0.00000000	-14.22859000	-3.15575800
171.09999002	0.00000000	-14.22859000	-3.15575800
171.29999001	0.00000000	-14.22859000	-3.15575800
171.49998999	0.00000000	-14.22859000	-3.15575800
171.69998998	0.00000000	-14.22859000	-3.15575800
171.89998997	0.00000000	-14.22859000	-3.15575800
172.09998996	0.00000000	-14.22859000	-3.15575800
172.29998995	0.00000000	-14.22859000	-3.15575800
172.49998994	0.00000000	-14.22859000	-3.15575800
172.69998992	0.00000000	-14.22859000	-3.15575800
172.89998991	0.00000000	-14.22859000	-3.15575800
173.09998990	0.00000000	-14.22859000	-3.15575800
173.29998989	0.00000000	-14.22859000	-3.15575800
173.49998988	0.00000000	-14.22859000	-3.15575800
173.69998986	0.00000000	-14.22859000	-3.15575800
173.89998985	0.00000000	-14.22859000	-3.15575800
174.09998984	0.00000000	-14.22859000	-3.15575800
174.29998983	0.00000000	-14.22859000	-3.15575800
174.49998982	0.00000000	-14.22859000	-3.15575800
174.69998980	0.00000000	-14.22859000	-3.15575800
174.89998979	0.00000000	-14.22859000	-3.15575800
175.09998978	0.00000000	-14.22859000	-3.15575800
175.29998977	0.00000000	-14.22859000	-3.15575800
175.49998976	0.00000000	-14.22859000	-3.15575800
175.69998975	0.00000000	-14.22859000	-3.15575800
175.89998973	0.00000000	-14.22859000	-3.15575800
176.09998972	0.00000000	-14.22859000	-3.15575800
176.29998971	0.00000000	-14.22859000	-3.15575800
176.49998970	0.00000000	-14.22859000	-3.11269700
176.69998969	0.00000000	-14.22859000	-2.78051200
176.89998967	0.00000000	-14.22859000	-2.36835600
177.09998966	0.00000000	-14.22859000	-2.40526600
177.29998965	0.00000000	-14.22859000	-2.36835600
177.49998964	0.00000000	-14.22859000	-2.78051200
177.69998963	0.00000000	-14.22859000	-3.11269700
177.89998961	0.00000000	-14.22859000	-3.15575800
178.09998960	0.00000000	-14.22859000	-3.15575800
178.29998959	0.00000000	-14.27165000	-3.15575800
178.49998958	0.00000000	-14.60384000	-3.15575800
178.69998957	0.00000000	-14.97293000	-3.15575800
178.89998956	0.00000000	-14.60384000	-3.15575800
179.09998954	0.00000000	-14.27165000	-3.15575800
179.29998953	0.00000000	-14.22859000	-3.15575800
179.49998952	0.00000000	-14.22859000	-3.15575800
179.69998951	0.00000000	-14.18553000	-3.15575800
179.89998950	0.00000000	-13.85334000	-3.15575800
180.09998948	0.00000000	-13.48425000	-3.15575800
180.29998947	0.00000000	-13.85334000	-3.15575800
180.49998946	0.00000000	-14.18553000	-3.15575800
180.69998945	0.00000000	-14.22859000	-3.15575800
180.89998944	0.00000000	-14.22859000	-3.11269700
181.09998942	0.00000000	-14.22859000	-2.73745100
181.29998941	0.00000000	-14.22859000	-2.04232300
181.49998940	0.00000000	-14.22859000	-1.99311000
181.69998939	0.00000000	-14.22859000	-2.31914400
181.89998938	0.00000000	-14.22859000	-1.99311000
182.09998937	0.00000000	-14.22859000	-2.04232300
182.29998935	0.00000000	-14.22859000	-2.73745100
182.49998934	0.00000000	-14.22859000	-3.11269700
182.69998933	0.00000000	-14.22859000	-3.15575800
182.89998932	0.00000000	-14.22859000	-3.15575800
183.09998931	0.00000000	-14.22859000	-3.15575800
183.29998929	0.00000000	-14.22859000	-3.15575800
183.49998928	0.00000000	-14.22859000	-3.15575800
183.69998927	0.00000000	-14.22859000	-3.15575800
183.89998926	0.00000000	-14.22859000	-3.15575800
184.09998925	0.00000000	-14.22859000	-3.11269700
184.29998923	0.00000000	-14.22859000	-2.73745100
184.49998922	0.00000000	-14.22859000	-1.99311000
184.69998921	0.00000000	-14.22859000	-1.61786400
184.89998920	0.00000000	-14.22859000	-1.57480300
185.09998919	0.00000000	-14.22859000	-1.57480300
185.29998918	0.00000000	-14.22859000	-1.61786400
185.49998916	0.00000000	-14.18553000	-1.99311000
185.69998915	0.00000000	-13.85334000	-2.73745100
185.89998914	0.00000000	-13.48425000	-3.11269700
186.09998913	0.00000000	-13.85334000	-3.19881900
186.29998912	0.00000000	-14.18553000	-3.53100400
186.49998910	0.00000000	-14.22859000	-3.90009800
186.69998909	0.00000000	-14.22859000	-3.53100400
186.89998908	0.00000000	-14.22859000	-3.19881900
187.09998907	0.00000000	-14.22859000	-3.11269700
187.29998906	0.00000000	-14.22859000	-2.73745100
187.49998904	0.00000000	-14.22859000	-1.99311000
187.69998903	0.00000000	-14.22859000	-1.61786400
187.89998902	0.00000000	-14.22859000	-1.57480300
188.09998901	0.00000000	-14.22859000	-1.61786400
188.29998900	0.00000000	-14.22859000	-1.99311000
188.49998899	0.00000000	-14.22859000	-2.73745100
188.69998897	0.00000000	-14.22859000	-3.11269700
188.89998896	0.00000000	-14.22859000	-3.15575800
189.09998895	0.00000000	-14.22859000	-3.15575800
189.29998894	0.00000000	-14.22859000	-3.15575800
189.49998893	0.00000000	-14.22859000	-3.15575800
189.69998891	0.00000000	-14.22859000	-3.15575800
189.89998890	0.00000000	-14.22859000	-3.11269700
190.09998889	0.00000000	-14.22859000	-2.78051200
190.29998888	0.00000000	-14.22859000	-2.36835600
190.49998887	0.00000000	-14.22859000	-2.36220500
190.69998885	0.00000000	-14.22859000	-1.99311000
190.89998884	0.00000000	-14.22859000	-1.99311000
191.09998883	0.00000000	-14.22859000	-2.36220500
191.29998882	0.00000000	-14.22859000	-2.32529500
191.49998881	0.00000000	-14.22859000	-2.40526600
191.69998880	0.00000000	-14.22859000	-2.36835600
191.89998878	0.00000000	-14.18553000	-2.78051200
192.09998877	0.00000000	-13.85334000	-3.11269700
192.29998876	0.00000000	-13.48425000	-3.15575800
192.49998875	0.00000000	-13.85334000	-3.15575800
192.69998874	0.00000000	-14.18553000	-3.15575800
192.89998872	0.00000000	-14.22859000	-3.15575800
193.09998871	0.00000000	-14.22859000	-3.15575800
193.29998870	0.00000000	-14.22859000	-3.11269700
193.49998869	0.00000000	-14.22859000	-2.73745100
193.69998868	0.00000000	-14.22859000	-1.99311000
193.89998866	0.00000000	-14.22859000	-1.66707700
194.09998865	0.00000000	-14.18553000	-1.95004900
194.29998864	0.00000000	-13.81028000	-2.31914400
194.49998863	0.00000000	-13.06594000	-1.95004900
194.69998862	0.00000000	-12.73991000	-1.66707700
194.89998861	0.00000000	-13.06594000	-1.99311000
195.09998859	0.00000000	-13.81028000	-2.73745100
195.29998858	0.00000000	-14.18553000	-3.11269700
195.49998857	0.00000000	-14.22859000	-3.15575800
195.69998856	0.00000000	-14.22859000	-3.15575800
195.89998855	0.00000000	-14.22859000	-3.15575800
196.09998853	0.00000000	-14.22859000	-3.15575800
