Time	Channel A	Channel B	Channel C
(us)	(V)	(mV)	(mV)

-4.59999956	0.00000000	-15.06521000	-9.47342500
-4.39999957	0.00000000	-15.43430000	-9.47342500
-4.19999958	0.00000000	-15.71727000	-9.47342500
-3.99999959	0.00000000	-15.43430000	-9.47342500
-3.79999960	0.00000000	-15.06521000	-9.47342500
-3.59999962	0.00000000	-15.39124000	-9.47342500
-3.39999963	0.00000000	-15.34203000	-9.47342500
-3.19999964	0.00000000	-14.69611000	-9.47342500
-2.99999965	0.00000000	-14.69611000	-9.47342500
-2.79999966	0.00000000	-15.34203000	-9.47342500
-2.59999968	0.00000000	-15.39124000	-9.47342500
-2.39999969	0.00000000	-15.06521000	-9.47342500
-2.19999970	0.00000000	-15.43430000	-9.47342500
-1.99999971	0.00000000	-15.76649000	-9.47342500
-1.79999972	0.00000000	-15.76649000	-9.47342500
-1.59999973	0.00000000	-15.39124000	-9.47342500
-1.39999975	0.00000000	-14.69611000	-9.47342500
-1.19999976	0.00000000	-14.69611000	-9.47342500
-0.99999977	0.00000000	-15.34203000	-9.47342500
-0.79999978	0.00000000	-15.34203000	-9.47342500
-0.59999979	0.00000000	-14.69611000	-9.47342500
-0.39999981	0.00000000	-14.64690000	-9.47342500
-0.19999982	0.47736220	-15.01599000	-9.47342500
0.00000017	0.79601380	-14.97908000	-9.47342500
0.20000016	0.95533960	-15.05905000	-9.47342500
0.40000015	0.95533960	-14.97908000	-9.47342500
0.60000013	0.63668800	-15.05905000	-9.47342500
0.80000012	0.00000000	-15.02214000	-9.47342500
1.00000011	-0.79601380	-15.39124000	-9.47342500
1.20000010	-1.91129400	-15.39124000	-9.47342500
1.40000009	-2.54859700	-15.02214000	-9.47342500
1.60000008	-2.70792300	-15.01599000	-9.47342500
1.80000006	-2.07062000	-14.60384000	-9.43036400
2.00000005	-0.63668800	-14.32087000	-9.09817800
2.20000004	1.27399100	-14.60384000	-8.72908400
2.40000003	3.34522600	-14.97293000	-9.09817800
2.60000002	4.93786900	-14.64690000	-9.43036400
2.80000000	5.25652100	-14.69611000	-9.47342500
2.99999999	4.30056600	-15.39124000	-9.47342500
3.19999998	1.91129400	-15.76649000	-9.47342500
3.39999997	-1.27399100	-15.76649000	-9.47342500
3.59999996	-4.61921700	-15.39124000	-9.47342500
3.79999994	-7.16781500	-14.64690000	-9.47342500
3.99999993	-7.96444400	-14.27165000	-9.43036400
4.19999992	-6.84916400	-14.22859000	-9.05511800
4.39999991	-3.82258900	-14.22859000	-8.31077700
4.59999990	0.47736220	-14.22859000	-7.98474400
4.79999989	4.93786900	-14.27165000	-8.31077700
4.99999987	8.12377000	-14.64690000	-9.05511800
5.19999986	9.39837600	-15.39124000	-9.43036400
5.39999985	8.44242100	-15.76649000	-9.51648500
5.59999984	5.25652100	-15.80955000	-9.84867000
5.79999983	0.63668800	-15.80955000	-10.21161000
5.99999981	-4.14124000	-15.80955000	-9.84867000
6.19999980	-7.80511800	-15.76649000	-9.47342500
6.39999979	-9.39837600	-15.39124000	-9.09817800
6.59999978	-8.76107300	-14.64690000	-8.68602300
6.79999977	-5.89382400	-14.27165000	-8.67987200
6.99999975	-1.75196900	-14.22859000	-8.31077700
7.19999974	2.54859700	-14.27165000	-8.35998900
7.39999973	5.89382400	-14.60384000	-9.05511800
7.59999972	7.64579200	-14.97293000	-9.43036400
7.79999971	7.32714100	-14.64690000	-9.47342500
7.99999970	5.25652100	-14.69611000	-9.47342500
8.19999968	2.22994600	-15.39124000	-9.47342500
8.39999967	-0.95533960	-15.71727000	-9.47342500
8.59999966	-3.66326300	-15.43430000	-9.47342500
8.79999965	-5.09719500	-15.06521000	-9.47342500
8.99999964	-4.93786900	-15.43430000	-9.47342500
9.19999962	-3.82258900	-15.76649000	-9.47342500
9.39999961	-1.91129400	-15.76649000	-9.47342500
9.59999960	0.00000000	-15.43430000	-9.47342500
9.79999959	1.59264300	-15.02214000	-9.47342500
9.99999958	2.38927200	-15.05905000	-9.47342500
10.19999956	2.54859700	-15.02214000	-9.47342500
10.39999955	1.91129400	-15.43430000	-9.47342500
10.59999954	1.11466500	-15.76649000	-9.47342500
10.79999953	0.15871060	-15.80955000	-9.47342500
10.99999952	-0.47736220	-15.76649000	-9.47342500
11.19999951	-0.79601380	-15.39124000	-9.47342500
11.39999949	-0.95533960	-14.64690000	-9.47342500
11.59999948	-0.95533960	-14.27165000	-9.47342500
11.79999947	-0.63668800	-14.27165000	-9.47342500
11.99999946	-0.31803640	-14.60384000	-9.47342500
12.19999945	-0.15871060	-14.97293000	-9.47342500
12.39999943	-0.15871060	-14.64690000	-9.47342500
12.59999942	0.00000000	-14.69611000	-9.47342500
12.79999941	0.00000000	-15.34203000	-9.47342500
12.99999940	0.00000000	-15.34203000	-9.47342500
13.19999939	0.00000000	-14.69611000	-9.47342500
13.39999937	0.00000000	-14.69611000	-9.47342500
13.59999936	0.00000000	-15.39124000	-9.47342500
13.79999935	0.00000000	-15.71727000	-9.47342500
13.99999934	0.00000000	-15.43430000	-9.47342500
14.19999933	-0.15871060	-15.02214000	-9.47342500
14.39999932	-0.15871060	-15.05905000	-9.47342500
14.59999930	-0.15871060	-15.02214000	-9.47342500
14.79999929	-0.15871060	-15.43430000	-9.47342500
14.99999928	0.00000000	-15.76649000	-9.47342500
15.19999927	0.00000000	-15.80955000	-9.47342500
15.39999926	0.00000000	-15.80955000	-9.47342500
15.59999924	0.00000000	-15.80955000	-9.47342500
15.79999923	0.00000000	-15.80955000	-9.47342500
15.99999922	0.00000000	-15.80955000	-9.47342500
16.19999921	0.00000000	-15.80955000	-9.47342500
16.39999920	-0.15871060	-15.76649000	-9.47342500
16.59999919	-0.15871060	-15.39124000	-9.47342500
16.79999917	-0.15871060	-14.64690000	-9.47342500
16.99999916	0.00000000	-14.27165000	-9.47342500
17.19999915	0.00000000	-14.18553000	-9.47342500
17.39999914	0.00000000	-13.81028000	-9.47342500
17.59999913	0.00000000	-13.11516000	-9.47342500
17.79999911	0.00000000	-13.15822000	-9.47342500
17.99999910	0.00000000	-14.22859000	-9.47342500
18.19999909	0.00000000	-15.43430000	-9.47342500
18.39999908	0.00000000	-16.60310000	-9.47342500
18.59999907	0.00000000	-18.22096000	-9.47342500
18.79999905	0.00000000	-19.67889000	-9.47342500
18.99999904	0.00000000	-20.82923000	-9.47342500
19.19999903	-0.15871060	-20.37401000	-9.47342500
19.39999902	0.00000000	-18.46087000	-9.47342500
19.59999901	0.00000000	-15.34203000	-9.47342500
19.79999900	0.00000000	-11.48499000	-9.47342500
19.99999898	0.00000000	-7.94783400	-9.47342500
20.19999897	0.00000000	-4.92125900	-9.47342500
20.39999896	0.00000000	-3.48179100	-9.47342500
20.59999895	0.00000000	-5.43184000	-9.47342500
20.79999894	0.00000000	-10.03937000	-9.47342500
20.99999892	0.00000000	-16.32013000	-9.47342500
21.19999891	0.00000000	-23.67126000	-9.47342500
21.39999890	0.00000000	-30.60408000	-9.47342500
21.59999889	0.00000000	-35.11934000	-9.47342500
21.79999888	0.00000000	-35.44537000	-9.47342500
21.99999886	0.00000000	-30.37647000	-9.51648500
22.19999885	0.00000000	-21.06914000	-9.84867000
22.39999884	0.00000000	-9.01820900	-10.21161000
22.59999883	0.00000000	3.67864200	-9.84867000
22.79999882	0.00000000	13.58883000	-9.47342500
22.99999881	0.00000000	17.45202000	-9.09817800
23.19999879	0.00000000	13.87795000	-8.68602300
23.39999878	0.00000000	3.40182100	-8.67987200
23.59999877	0.00000000	-12.87525000	-8.26771600
23.79999876	0.00000000	-30.93012000	-7.89247000
23.99999875	0.00000000	-46.41978000	-7.51722400
24.19999873	0.00000000	-55.64099000	-7.19734200
24.39999872	0.00000000	-56.33612000	-7.98474400
24.59999871	0.00000000	-47.35482000	-9.47342500
24.79999870	0.00000000	-29.95817000	-11.04823000
24.99999869	0.00000000	-7.94783400	-12.62918000
25.19999867	0.00000000	13.63804000	-14.11786000
25.39999866	0.00000000	29.41068000	-14.85605000
25.59999865	0.00000000	35.18085000	-14.07480000
25.79999864	0.00000000	29.41068000	-12.16781000
25.99999863	0.00000000	13.50271000	-9.38115100
26.19999862	0.00000000	-9.30118100	-5.89320800
26.39999860	0.00000000	-34.37500000	-2.04232300
26.59999859	0.00000000	-55.17347000	0.97810030
26.79999858	0.00000000	-66.80610000	2.13459600
26.99999857	0.00000000	-66.80610000	0.88582670
27.19999856	0.00000000	-55.22268000	-3.01427100
27.39999854	0.00000000	-34.75024000	-9.60875900
27.59999853	0.00000000	-10.03937000	-17.27977000
27.79999852	0.00000000	13.12746000	-24.24335000
27.99999851	0.00000000	29.36762000	-28.84473000
28.19999850	0.00000000	35.22392000	-29.91511000
28.39999848	0.00000000	29.87205000	-26.34104000
28.59999847	0.00000000	15.16978000	-17.83957000
28.79999846	0.00000000	-5.67175200	-6.26845500
28.99999845	0.00000000	-28.04503000	5.67175200
29.19999844	0.00000000	-46.28445000	15.32972000
29.39999843	0.00000000	-57.17273000	20.30635000
29.59999841	0.00000000	-59.12278000	19.46973000
29.79999840	0.00000000	-51.40255000	12.08169000
29.99999839	0.00000000	-36.41732000	-0.63976370
30.19999838	0.00000000	-17.85802000	-15.74188000
30.39999837	0.00000000	-0.03690945	-30.42569000
30.59999835	0.00000000	13.54577000	-41.57849000
30.79999834	0.00000000	20.52165000	-46.13681000
30.99999833	0.00000000	19.40822000	-42.64886000
31.19999832	0.00000000	10.98671000	-31.45300000
31.39999831	0.00000000	-2.13459600	-15.23130000
31.59999829	0.00000000	-16.87992000	2.55905500
31.79999828	0.00000000	-30.41954000	18.35630000
31.99999827	0.00000000	-40.09596000	28.38951000
32.19999826	0.00000000	-43.63311000	30.33957000
32.39999825	0.00000000	-40.98179000	24.20645000
32.59999824	0.00000000	-33.25541000	11.38656000
32.79999822	0.00000000	-22.04724000	-5.62253900
32.99999821	0.00000000	-10.08243000	-23.78199000
33.19999820	0.00000000	-0.03690945	-38.79183000
33.39999819	0.00000000	5.77632800	-47.34252000
33.59999818	0.00000000	6.19463500	-47.76082000
33.79999816	0.00000000	1.63016700	-40.41584000
33.99999815	0.00000000	-6.45915300	-26.89468000
34.19999814	0.00000000	-15.67421000	-9.89173200
34.39999813	0.00000000	-23.81275000	6.69291300
34.59999812	0.00000000	-28.83858000	19.46973000
34.79999810	0.00000000	-30.04429000	25.65207000
34.99999809	0.00000000	-27.34990000	24.11417000
35.19999808	0.00000000	-21.62278000	15.28666000
35.39999807	0.00000000	-14.69611000	1.43946800
35.59999806	0.00000000	-8.50147600	-13.61343000
35.79999805	0.00000000	-4.31840500	-26.75935000
35.99999803	0.00000000	-3.53100400	-35.26082000
36.19999802	0.00000000	-6.55142700	-37.21087000
36.39999801	0.00000000	-11.48499000	-32.60949000
36.59999800	0.00000000	-16.92298000	-22.61934000
36.79999799	0.00000000	-21.57972000	-9.94094400
36.99999797	0.00000000	-24.60630000	1.95620100
37.19999796	0.00000000	-25.01845000	10.03937000
37.39999795	0.00000000	-22.33022000	12.03863000
37.59999794	0.00000000	-18.13484000	8.27386800
37.79999793	0.00000000	-13.11516000	0.51673230
37.99999791	0.00000000	-8.87672100	-9.80561000
38.19999790	0.00000000	-6.50221400	-19.69119000
38.39999789	0.00000000	-5.71481200	-25.08612000
38.59999788	0.00000000	-6.96973400	-25.22145000
38.79999787	0.00000000	-10.37155000	-20.90305000
38.99999786	0.00000000	-15.01599000	-12.86294000
39.19999784	0.00000000	-19.25443000	-2.97121000
39.39999783	0.00000000	-22.78543000	4.65059000
39.59999782	0.00000000	-24.69857000	7.76328700
39.79999781	0.00000000	-24.74163000	5.81323800
39.99999780	0.00000000	-23.16068000	-1.06422200
40.19999778	0.00000000	-20.08489000	-10.62992000
40.39999777	0.00000000	-16.18479000	-19.83883000
40.59999776	0.00000000	-12.31545000	-26.38410000
40.79999775	0.00000000	-8.83366100	-28.24803000
40.99999774	0.00000000	-6.87746000	-24.80315000
41.19999772	0.00000000	-6.45915300	-16.76919000
41.39999771	0.00000000	-7.25270600	-6.82209600
41.59999770	0.00000000	-9.62106200	2.04847400
41.79999769	0.00000000	-13.06594000	7.85556000
41.99999768	0.00000000	-16.92298000	9.38730200
42.19999767	0.00000000	-20.04183000	6.32381900
42.39999765	0.00000000	-22.04109000	-0.59670270
42.59999764	0.00000000	-23.20374000	-9.43036400
42.79999763	0.00000000	-23.16068000	-17.88263000
42.99999762	0.00000000	-21.62278000	-23.68971000
43.19999761	0.00000000	-18.92839000	-25.64591000
43.39999759	0.00000000	-15.85261000	-23.73892000
43.59999758	0.00000000	-13.15822000	-18.35015000
43.79999757	0.00000000	-11.57726000	-11.09744000
43.99999756	0.00000000	-11.10974000	-4.17691900
44.19999755	0.00000000	-11.10974000	0.46751960
44.39999753	0.00000000	-11.44193000	2.09153500
44.59999752	0.00000000	-11.85408000	0.97810030
44.79999751	0.00000000	-11.86024000	-2.08538400
44.99999750	0.00000000	-12.27239000	-6.31151500
45.19999749	0.00000000	-12.69070000	-10.58686000
45.39999748	0.00000000	-13.53346000	-14.07480000
45.59999746	0.00000000	-15.47736000	-16.39395000
45.79999745	0.00000000	-17.80881000	-16.76919000
45.99999744	0.00000000	-20.55241000	-15.27436000
46.19999743	0.00000000	-23.20374000	-12.58612000
46.39999742	0.00000000	-24.74163000	-9.51648500
46.59999740	0.00000000	-24.64936000	-6.77903500
46.79999739	0.00000000	-22.31791000	-4.87204700
46.99999738	0.00000000	-17.63041000	-4.04158400
47.19999737	0.00000000	-11.85408000	-4.45374000
47.39999736	0.00000000	-5.67175200	-5.57332700
47.59999734	0.00000000	-1.10728300	-7.56643700
47.79999733	0.00000000	0.42445860	-9.84867000
47.99999732	0.00000000	-1.53174200	-12.21087000
48.19999731	0.00000000	-6.92052100	-14.07480000
48.39999730	0.00000000	-14.32087000	-14.85605000
48.59999729	0.00000000	-22.41634000	-14.07480000
48.79999727	0.00000000	-29.76132000	-12.16781000
48.99999726	0.00000000	-33.91363000	-9.42421200
49.19999725	0.00000000	-33.95054000	-6.36072800
49.39999724	0.00000000	-29.26304000	-3.66633800
49.59999723	0.00000000	-21.20448000	-2.12844500
49.79999721	0.00000000	-11.53420000	-2.17150600
49.99999720	0.00000000	-2.68823800	-4.08464600
50.19999719	0.00000000	3.08193900	-7.56028500
50.39999718	0.00000000	4.23843500	-11.38041000
50.59999717	0.00000000	0.38139760	-14.90526000
50.79999715	0.00000000	-7.29576700	-17.18750000
50.99999714	0.00000000	-16.92298000	-17.97490000
51.19999713	0.00000000	-25.76895000	-16.72613000
51.39999712	0.00000000	-31.53912000	-13.32431000
51.59999711	0.00000000	-32.74483000	-8.72908400
51.79999710	0.00000000	-29.26304000	-4.87204700
51.99999708	0.00000000	-22.41018000	-2.12844500
52.19999707	0.00000000	-13.90871000	-0.97194880
52.39999706	0.00000000	-6.63754800	-1.75319900
52.59999705	0.00000000	-1.95004900	-4.08464600
52.79999704	0.00000000	-1.24261800	-7.89247000
52.99999702	0.00000000	-4.64443900	-11.74951000
53.19999701	0.00000000	-11.15896000	-14.45005000
53.39999700	0.00000000	-18.41781000	-16.01870000
53.59999699	0.00000000	-24.27411000	-15.64960000
53.79999698	0.00000000	-27.67593000	-14.07480000
53.99999696	0.00000000	-27.66978000	-11.37426000
54.19999695	0.00000000	-23.48671000	-7.61564900
54.39999694	0.00000000	-17.39050000	-5.37647600
54.59999693	0.00000000	-11.20202000	-5.24729300
54.79999692	0.00000000	-6.22539300	-6.40378900
54.99999691	0.00000000	-4.31840500	-8.31077700
55.19999689	0.00000000	-5.76402500	-10.58686000
55.39999688	0.00000000	-9.62106200	-12.07554000
55.59999687	0.00000000	-14.64690000	-12.07554000
55.79999686	0.00000000	-19.99877000	-10.58686000
55.99999685	0.00000000	-23.81275000	-8.31077700
56.19999683	0.00000000	-24.64936000	-6.36072800
56.39999682	0.00000000	-23.11762000	-4.87204700
56.59999681	0.00000000	-19.66658000	-4.54601300
56.79999680	0.00000000	-15.02214000	-6.44685000
56.99999679	0.00000000	-10.82677000	-9.51648500
57.19999677	0.00000000	-7.72022600	-13.00443000
57.39999676	0.00000000	-6.96973400	-16.43701000
57.59999675	0.00000000	-8.41535400	-18.30093000
57.79999674	0.00000000	-11.15896000	-17.92569000
57.99999673	0.00000000	-14.60384000	-15.14518000
58.19999672	0.00000000	-18.04257000	-10.11934000
58.39999670	0.00000000	-19.99877000	-3.66633800
58.59999669	0.00000000	-20.46014000	1.67322800
58.79999668	0.00000000	-20.04183000	4.00467500
58.99999667	0.00000000	-18.46087000	3.25418300
59.19999666	0.00000000	-15.85261000	-0.63976370
59.39999664	0.00000000	-13.53346000	-6.77903500
59.59999663	0.00000000	-12.36466000	-13.74262000
59.79999662	0.00000000	-11.95251000	-19.88189000
59.99999661	0.00000000	-12.73991000	-23.73892000
60.19999660	0.00000000	-14.18553000	-24.06496000
60.39999658	0.00000000	-15.34203000	-20.57702000
60.59999657	0.00000000	-15.80955000	-13.69956000
60.79999656	0.00000000	-16.18479000	-5.66560000
60.99999655	0.00000000	-16.50467000	0.93503930
61.19999654	0.00000000	-15.76649000	5.20423200
61.39999653	0.00000000	-14.64690000	6.27460600
61.59999651	0.00000000	-13.89641000	3.21112200
61.79999650	0.00000000	-13.53346000	-3.33415300
61.99999649	0.00000000	-14.27165000	-11.38041000
62.19999648	0.00000000	-15.39124000	-19.13140000
62.39999647	0.00000000	-16.22785000	-24.48326000
62.59999645	0.00000000	-17.39050000	-26.43332000
62.79999644	0.00000000	-18.46087000	-24.10802000
62.99999643	0.00000000	-18.46087000	-18.35015000
63.19999642	0.00000000	-17.34744000	-10.67298000
63.39999641	0.00000000	-15.80955000	-2.97121000
63.59999639	0.00000000	-14.22859000	2.46678100
63.79999638	0.00000000	-12.69070000	5.20423200
63.99999637	0.00000000	-11.57726000	4.78592500
64.19999636	0.00000000	-11.57726000	0.97810030
64.39999635	0.00000000	-12.73991000	-4.77977300
64.59999634	0.00000000	-14.64690000	-11.00517000
64.79999632	0.00000000	-16.97219000	-16.76919000
64.99999631	0.00000000	-18.83612000	-20.62008000
65.19999630	0.00000000	-19.62352000	-21.46284000
65.39999629	0.00000000	-18.87918000	-19.97416000
65.59999628	0.00000000	-17.39050000	-16.85531000
65.79999626	0.00000000	-15.80955000	-12.62918000
65.99999625	0.00000000	-14.27165000	-8.35998900
66.19999624	0.00000000	-13.11516000	-4.82283400
66.39999623	0.00000000	-12.73991000	-2.08538400
66.59999622	0.00000000	-13.15822000	-0.55364170
66.79999620	0.00000000	-14.69611000	-0.51058070
66.99999619	0.00000000	-16.92298000	-1.66707700
67.19999618	0.00000000	-18.41781000	-3.61712600
67.39999617	0.00000000	-18.46087000	-6.36072800
67.59999616	0.00000000	-17.29823000	-9.47342500
67.79999615	0.00000000	-15.39124000	-12.62918000
67.99999613	0.00000000	-13.02288000	-15.69882000
68.19999612	0.00000000	-10.78371000	-18.01796000
68.39999611	0.00000000	-9.25196800	-18.81152000
68.59999610	0.00000000	-9.71333600	-18.39321000
68.79999609	0.00000000	-11.95251000	-16.39395000
68.99999607	0.00000000	-15.47736000	-12.49385000
69.19999606	0.00000000	-19.30364000	-7.51722400
69.39999605	0.00000000	-22.78543000	-2.50369100
69.59999604	0.00000000	-24.64936000	0.93503930
69.79999603	0.00000000	-24.27411000	2.18380900
69.99999601	0.00000000	-21.57972000	1.35334600
70.19999600	0.00000000	-17.29823000	-1.39025600
70.39999599	0.00000000	-12.27239000	-6.40378900
70.59999598	0.00000000	-7.25270600	-12.11860000
70.79999597	0.00000000	-3.85088600	-16.81225000
70.99999596	0.00000000	-3.06348400	-19.92495000
71.19999594	0.00000000	-5.38877900	-21.04454000
71.39999593	0.00000000	-9.99630800	-19.46358000
71.59999592	0.00000000	-15.85261000	-15.32357000
71.79999591	0.00000000	-21.99803000	-10.31004000
71.99999590	0.00000000	-26.97465000	-6.02854300
72.19999588	0.00000000	-28.93085000	-2.50369100
72.39999587	0.00000000	-27.81127000	-0.63976370
72.59999586	0.00000000	-24.32333000	-0.97194880
72.79999585	0.00000000	-18.87918000	-3.29109200
72.99999584	0.00000000	-12.73991000	-6.68676100
73.19999582	0.00000000	-7.29576700	-10.11934000
73.39999581	0.00000000	-3.85088600	-12.07554000
73.59999580	0.00000000	-3.06348400	-12.53691000
73.79999579	0.00000000	-5.38877900	-12.16166000
73.99999578	0.00000000	-9.95324800	-11.00517000
74.19999577	0.00000000	-15.34203000	-9.51648500
74.39999575	0.00000000	-20.04183000	-8.35998900
74.59999574	0.00000000	-23.53592000	-8.02780400
74.79999573	0.00000000	-25.43676000	-8.77214500
74.99999572	0.00000000	-24.64936000	-10.67298000
75.19999571	0.00000000	-21.66585000	-12.49385000
75.39999569	0.00000000	-17.80881000	-13.28125000
75.59999568	0.00000000	-14.32087000	-12.49385000
75.79999567	0.00000000	-11.57726000	-10.53765000
75.99999566	0.00000000	-10.03937000	-7.47416300
76.19999565	0.00000000	-9.99630800	-4.03543200
76.39999563	0.00000000	-11.10974000	-1.75319900
76.59999562	0.00000000	-12.69070000	-0.97194880
76.79999561	0.00000000	-14.60384000	-2.22071800
76.99999560	0.00000000	-16.50467000	-5.66560000
77.19999559	0.00000000	-17.25517000	-10.67298000
77.39999558	0.00000000	-16.97219000	-15.64960000
77.59999556	0.00000000	-16.22785000	-19.50664000
77.79999555	0.00000000	-15.85261000	-21.04454000
77.99999554	0.00000000	-15.80955000	-19.88189000
78.19999553	0.00000000	-15.85261000	-16.39395000
78.39999552	0.00000000	-16.22785000	-11.00517000
78.59999550	0.00000000	-16.97219000	-5.24729300
78.79999549	0.00000000	-17.29823000	-0.59670270
78.99999548	0.00000000	-16.92298000	2.14074800
79.19999547	0.00000000	-15.76649000	2.50984200
79.39999546	0.00000000	-14.22859000	0.55979330
79.59999544	0.00000000	-12.64764000	-3.66633800
79.79999543	0.00000000	-11.15896000	-9.05511800
79.99999542	0.00000000	-10.41462000	-14.07480000
80.19999541	0.00000000	-11.20202000	-17.97490000
80.39999540	0.00000000	-13.11516000	-19.88189000
80.59999539	0.00000000	-15.80955000	-19.55585000
80.79999537	0.00000000	-18.50394000	-17.23056000
80.99999536	0.00000000	-20.41708000	-13.79183000
81.19999535	0.00000000	-21.20448000	-9.89173200
81.39999534	0.00000000	-20.41708000	-6.40378900
81.59999533	0.00000000	-18.50394000	-3.66633800
81.79999531	0.00000000	-15.76649000	-2.08538400
81.99999530	0.00000000	-12.73991000	-1.71013800
82.19999529	0.00000000	-10.45768000	-2.46063000
82.39999528	0.00000000	-10.03937000	-4.40452700
82.59999527	0.00000000	-11.10974000	-6.72982200
82.79999525	0.00000000	-12.69070000	-9.51648500
82.99999524	0.00000000	-14.64690000	-12.58612000
83.19999523	0.00000000	-16.92298000	-15.27436000
83.39999522	0.00000000	-18.46087000	-16.85531000
83.59999521	0.00000000	-18.87918000	-17.27362000
83.79999520	0.00000000	-18.50394000	-16.85531000
83.99999518	0.00000000	-17.39050000	-15.23130000
84.19999517	0.00000000	-16.22785000	-12.11860000
84.39999516	0.00000000	-15.43430000	-7.89247000
84.59999515	0.00000000	-14.64690000	-3.70939900
84.79999514	0.00000000	-14.27165000	-0.97194880
84.99999512	0.00000000	-14.22859000	-0.17839570
85.19999511	0.00000000	-14.22859000	-0.97194880
85.39999510	0.00000000	-14.22859000	-3.70939900
85.59999509	0.00000000	-14.22859000	-7.93553100
85.79999508	0.00000000	-14.22859000	-12.53691000
85.99999506	0.00000000	-14.22859000	-16.43701000
86.19999505	0.00000000	-14.27165000	-18.76845000
86.39999504	0.00000000	-14.64690000	-19.50664000
86.59999503	0.00000000	-15.43430000	-17.93184000
86.79999502	0.00000000	-16.22785000	-14.11786000
86.99999501	0.00000000	-17.39050000	-9.47342500
87.19999499	0.00000000	-18.46087000	-4.82898600
87.39999498	0.00000000	-18.50394000	-1.02116100
87.59999497	0.00000000	-17.76575000	0.51673230
87.79999496	0.00000000	-16.97219000	-0.59670270
87.99999495	0.00000000	-15.76649000	-3.66633800
88.19999493	0.00000000	-14.22859000	-7.93553100
88.39999492	0.00000000	-12.73991000	-12.53691000
88.59999491	0.00000000	-11.95251000	-16.39395000
88.79999490	0.00000000	-12.31545000	-18.30093000
88.99999489	0.00000000	-13.11516000	-17.92569000
89.19999487	0.00000000	-14.64690000	-15.18824000
89.39999486	0.00000000	-16.55389000	-10.62992000
89.59999485	0.00000000	-17.72268000	-5.66560000
89.79999484	0.00000000	-18.50394000	-2.17765700
89.99999483	0.00000000	-18.46087000	-0.59670270
90.19999482	0.00000000	-17.39050000	-1.01501000
90.39999480	0.00000000	-16.22785000	-3.70939900
90.59999479	0.00000000	-15.43430000	-7.93553100
90.79999478	0.00000000	-14.60384000	-12.53691000
90.99999477	0.00000000	-13.89641000	-16.35089000
91.19999476	0.00000000	-13.48425000	-17.88263000
91.39999474	0.00000000	-13.89641000	-16.76919000
91.59999473	0.00000000	-14.60384000	-13.69956000
91.79999472	0.00000000	-15.39124000	-9.47342500
91.99999471	0.00000000	-15.76649000	-5.24729300
92.19999470	0.00000000	-15.76649000	-2.17765700
92.39999468	0.00000000	-15.43430000	-1.01501000
92.59999467	0.00000000	-15.06521000	-2.17765700
92.79999466	0.00000000	-15.47736000	-5.24729300
92.99999465	0.00000000	-16.18479000	-9.47342500
93.19999464	0.00000000	-16.97219000	-13.69956000
93.39999463	0.00000000	-17.34744000	-16.72613000
93.59999461	0.00000000	-17.39050000	-17.50738000
93.79999460	0.00000000	-17.34744000	-15.60654000
93.99999459	0.00000000	-16.92298000	-12.16166000
94.19999458	0.00000000	-15.71727000	-7.93553100
94.39999457	0.00000000	-13.81028000	-4.12770700
94.59999455	0.00000000	-11.53420000	-2.17150600
94.79999454	0.00000000	-10.03937000	-2.17150600
94.99999453	0.00000000	-9.99630800	-4.08464600
95.19999452	0.00000000	-11.15896000	-7.56028500
95.39999451	0.00000000	-13.11516000	-11.38041000
95.59999449	0.00000000	-15.85261000	-14.81299000
95.79999448	0.00000000	-18.92839000	-16.34473000
95.99999447	0.00000000	-21.62278000	-15.64960000
96.19999446	0.00000000	-23.11762000	-13.74262000
96.39999445	0.00000000	-22.74237000	-11.00517000
96.59999444	0.00000000	-20.41708000	-7.93553100
96.79999442	0.00000000	-16.97219000	-5.24729300
96.99999441	0.00000000	-13.06594000	-3.75246000
97.19999440	0.00000000	-9.62106200	-4.08464600
97.39999439	0.00000000	-7.29576700	-5.98548200
97.59999438	0.00000000	-6.92052100	-8.26771600
97.79999436	0.00000000	-8.41535400	-10.58686000
97.99999435	0.00000000	-11.15896000	-12.11860000
98.19999434	0.00000000	-14.64690000	-12.53691000
98.39999433	0.00000000	-18.55315000	-12.21087000
98.59999432	0.00000000	-21.99803000	-11.42347000
98.79999430	0.00000000	-24.27411000	-10.62992000
98.99999429	0.00000000	-24.27411000	-9.47342500
99.19999428	0.00000000	-22.04109000	-8.35998900
99.39999427	0.00000000	-18.92839000	-7.93553100
99.59999426	0.00000000	-15.39124000	-7.89247000
99.79999425	0.00000000	-11.57726000	-7.89247000
99.99999423	0.00000000	-8.87672100	-7.89247000
100.19999422	0.00000000	-8.04010800	-7.89247000
100.39999421	0.00000000	-8.41535400	-7.89247000
100.59999420	0.00000000	-9.99630800	-7.89247000
100.79999419	0.00000000	-12.69070000	-7.93553100
100.99999417	0.00000000	-15.76649000	-8.35998900
101.19999416	0.00000000	-18.50394000	-9.51648500
101.39999415	0.00000000	-20.46014000	-11.04823000
101.59999414	0.00000000	-21.62278000	-12.58612000
101.79999413	0.00000000	-21.57972000	-13.69956000
101.99999411	0.00000000	-20.08489000	-13.69956000
102.19999410	0.00000000	-17.76575000	-12.53691000
102.39999409	0.00000000	-15.43430000	-10.58686000
102.59999408	0.00000000	-13.11516000	-7.89247000
102.79999407	0.00000000	-11.57726000	-5.24729300
102.99999406	0.00000000	-11.10974000	-3.66633800
103.19999404	0.00000000	-11.10974000	-3.29109200
103.39999403	0.00000000	-11.57726000	-4.08464600
103.59999402	0.00000000	-13.11516000	-6.40378900
103.79999401	0.00000000	-15.39124000	-9.47342500
103.99999400	0.00000000	-17.29823000	-12.53691000
104.19999398	0.00000000	-18.50394000	-14.85605000
104.39999397	0.00000000	-18.92839000	-15.60654000
104.59999396	0.00000000	-18.92839000	-14.85605000
104.79999395	0.00000000	-18.50394000	-12.53691000
104.99999394	0.00000000	-17.34744000	-9.51648500
105.19999392	0.00000000	-15.85261000	-6.77903500
105.39999391	0.00000000	-14.64690000	-4.87204700
105.59999390	0.00000000	-13.85334000	-4.08464600
105.79999389	0.00000000	-13.11516000	-4.82283400
105.99999388	0.00000000	-13.15822000	-6.36072800
106.19999387	0.00000000	-14.22859000	-8.31077700
106.39999385	0.00000000	-15.39124000	-10.58686000
106.59999384	0.00000000	-16.18479000	-12.11860000
106.79999383	0.00000000	-16.92298000	-12.53691000
106.99999382	0.00000000	-16.92298000	-12.16166000
107.19999381	0.00000000	-16.18479000	-11.00517000
107.39999379	0.00000000	-15.43430000	-9.47342500
107.59999378	0.00000000	-14.64690000	-7.93553100
107.79999377	0.00000000	-14.27165000	-6.82209600
107.99999376	0.00000000	-14.27165000	-6.82209600
108.19999375	0.00000000	-14.69611000	-7.93553100
108.39999374	0.00000000	-15.80955000	-9.47342500
108.59999372	0.00000000	-16.97219000	-11.00517000
108.79999371	0.00000000	-17.72268000	-12.11860000
108.99999370	0.00000000	-18.13484000	-12.16166000
109.19999369	0.00000000	-17.72268000	-11.42347000
109.39999368	0.00000000	-16.97219000	-10.62992000
109.59999366	0.00000000	-15.76649000	-9.42421200
109.79999365	0.00000000	-14.27165000	-7.93553100
109.99999364	0.00000000	-13.11516000	-6.77903500
110.19999363	0.00000000	-12.73991000	-6.40378900
110.39999362	0.00000000	-13.11516000	-6.77903500
110.59999360	0.00000000	-14.22859000	-7.93553100
110.79999359	0.00000000	-15.39124000	-9.42421200
110.99999358	0.00000000	-16.18479000	-10.62992000
111.19999357	0.00000000	-16.97219000	-11.42347000
111.39999356	0.00000000	-17.34744000	-12.21087000
111.59999355	0.00000000	-17.34744000	-12.53691000
111.79999353	0.00000000	-16.92298000	-12.16166000
111.99999352	0.00000000	-15.80955000	-11.04823000
112.19999351	0.00000000	-14.69611000	-9.89173200
112.39999350	0.00000000	-14.27165000	-9.09817800
112.59999349	0.00000000	-14.22859000	-8.31077700
112.79999347	0.00000000	-14.22859000	-7.93553100
112.99999346	0.00000000	-14.27165000	-7.93553100
113.19999345	0.00000000	-14.64690000	-8.26771600
113.39999344	0.00000000	-15.39124000	-8.67987200
113.59999343	0.00000000	-15.76649000	-8.68602300
113.79999341	0.00000000	-15.85261000	-9.09817800
113.99999340	0.00000000	-16.18479000	-9.47342500
114.19999339	0.00000000	-16.55389000	-9.84867000
114.39999338	0.00000000	-16.18479000	-10.25467000
114.59999337	0.00000000	-15.85261000	-10.26698000
114.79999336	0.00000000	-15.76649000	-10.67298000
114.99999334	0.00000000	-15.43430000	-11.00517000
115.19999333	0.00000000	-15.02214000	-11.04823000
115.39999332	0.00000000	-15.01599000	-11.00517000
115.59999331	0.00000000	-14.64690000	-10.62992000
115.79999330	0.00000000	-14.69611000	-9.84867000
115.99999328	0.00000000	-15.39124000	-9.09817800
116.19999327	0.00000000	-15.76649000	-8.31077700
116.39999326	0.00000000	-15.85261000	-7.93553100
116.59999325	0.00000000	-16.18479000	-7.89247000
116.79999324	0.00000000	-16.55389000	-7.93553100
116.99999322	0.00000000	-16.18479000	-8.31077700
117.19999321	0.00000000	-15.85261000	-9.09817800
117.39999320	0.00000000	-15.76649000	-9.84867000
117.59999319	0.00000000	-15.39124000	-10.67298000
117.79999318	0.00000000	-14.64690000	-11.42347000
117.99999317	0.00000000	-14.27165000	-12.16166000
118.19999315	0.00000000	-14.22859000	-12.16166000
118.39999314	0.00000000	-14.27165000	-11.42347000
118.59999313	0.00000000	-14.69611000	-10.62992000
118.79999312	0.00000000	-15.80955000	-9.47342500
118.99999311	0.00000000	-16.92298000	-8.35998900
119.19999309	0.00000000	-17.39050000	-7.93553100
119.39999308	0.00000000	-17.76575000	-7.89247000
119.59999307	0.00000000	-18.08563000	-7.89247000
119.79999306	0.00000000	-17.29823000	-7.93553100
119.99999305	0.00000000	-15.85261000	-8.31077700
120.19999303	0.00000000	-14.64690000	-9.09817800
120.39999302	0.00000000	-13.85334000	-9.84867000
120.59999301	0.00000000	-13.06594000	-10.62992000
120.79999300	0.00000000	-12.73991000	-11.00517000
120.99999299	0.00000000	-13.06594000	-11.04823000
121.19999298	0.00000000	-13.85334000	-11.00517000
121.39999296	0.00000000	-14.64690000	-10.62992000
121.59999295	0.00000000	-15.85261000	-9.89173200
121.79999294	0.00000000	-17.34744000	-9.51648500
121.99999293	0.00000000	-18.50394000	-9.47342500
122.19999292	0.00000000	-18.87918000	-9.43036400
122.39999290	0.00000000	-18.50394000	-9.05511800
122.59999289	0.00000000	-17.34744000	-8.31077700
122.79999288	0.00000000	-15.85261000	-7.93553100
122.99999287	0.00000000	-14.69611000	-7.89247000
123.19999286	0.00000000	-14.27165000	-7.93553100
123.39999284	0.00000000	-14.22859000	-8.31077700
123.59999283	0.00000000	-14.22859000	-9.05511800
123.79999282	0.00000000	-14.22859000	-9.47342500
123.99999281	0.00000000	-14.27165000	-9.89173200
124.19999280	0.00000000	-14.64690000	-10.62992000
124.39999279	0.00000000	-15.43430000	-11.00517000
124.59999277	0.00000000	-16.18479000	-11.04823000
124.79999276	0.00000000	-16.97219000	-11.00517000
124.99999275	0.00000000	-17.34744000	-10.62992000
125.19999274	0.00000000	-17.39050000	-9.89173200
125.39999273	0.00000000	-17.34744000	-9.47342500
125.59999271	0.00000000	-16.97219000	-9.05511800
125.79999270	0.00000000	-16.18479000	-8.31077700
125.99999269	0.00000000	-15.43430000	-7.93553100
126.19999268	0.00000000	-14.64690000	-7.93553100
126.39999267	0.00000000	-14.27165000	-8.31077700
126.59999265	0.00000000	-14.22859000	-9.05511800
126.79999264	0.00000000	-14.27165000	-9.47342500
126.99999263	0.00000000	-14.69611000	-9.89173200
127.19999262	0.00000000	-15.80955000	-10.62992000
127.39999261	0.00000000	-16.92298000	-11.00517000
127.59999260	0.00000000	-17.34744000	-11.00517000
127.79999258	0.00000000	-17.39050000	-10.62992000
127.99999257	0.00000000	-17.39050000	-9.89173200
128.19999256	0.00000000	-17.34744000	-9.51648500
128.39999255	0.00000000	-16.92298000	-9.47342500
128.59999254	0.00000000	-15.80955000	-9.47342500
128.79999252	0.00000000	-14.69611000	-9.47342500
128.99999251	0.00000000	-14.27165000	-9.47342500
129.19999250	0.00000000	-14.22859000	-9.51648500
129.39999249	0.00000000	-14.27165000	-9.89173200
129.59999248	0.00000000	-14.69611000	-10.62992000
129.79999246	0.00000000	-15.85261000	-11.00517000
129.99999245	0.00000000	-17.34744000	-11.04823000
130.19999244	0.00000000	-18.46087000	-11.00517000
130.39999243	0.00000000	-18.50394000	-10.62992000
130.59999242	0.00000000	-17.76575000	-9.89173200
130.79999241	0.00000000	-17.01525000	-9.51648500
130.99999239	0.00000000	-16.18479000	-9.47342500
131.19999238	0.00000000	-15.43430000	-9.51648500
131.39999237	0.00000000	-14.64690000	-9.89173200
131.59999236	0.00000000	-14.32087000	-10.62992000
131.79999235	0.00000000	-14.64690000	-11.00517000
131.99999233	0.00000000	-15.43430000	-11.09129000
132.19999232	0.00000000	-16.18479000	-11.42347000
132.39999231	0.00000000	-16.97219000	-11.79257000
132.59999230	0.00000000	-17.34744000	-11.42347000
132.79999229	0.00000000	-17.39050000	-11.04823000
132.99999227	0.00000000	-17.34744000	-10.62992000
133.19999226	0.00000000	-16.97219000	-9.84867000
133.39999225	0.00000000	-16.22785000	-9.14124000
133.59999224	0.00000000	-15.85261000	-8.72908400
133.79999223	0.00000000	-15.80955000	-9.09817800
133.99999222	0.00000000	-15.80955000	-9.47342500
134.19999220	0.00000000	-15.85261000	-9.89173200
134.39999219	0.00000000	-16.22785000	-10.67298000
134.59999218	0.00000000	-16.92298000	-11.42347000
134.79999217	0.00000000	-16.92298000	-12.21087000
134.99999216	0.00000000	-16.22785000	-12.58612000
135.19999214	0.00000000	-15.85261000	-12.58612000
135.39999213	0.00000000	-15.80955000	-12.21087000
135.59999212	0.00000000	-15.80955000	-11.42347000
135.79999211	0.00000000	-15.80955000	-10.67298000
135.99999210	0.00000000	-15.85261000	-9.89173200
136.19999208	0.00000000	-16.22785000	-9.51648500
136.39999207	0.00000000	-16.97219000	-9.47342500
136.59999206	0.00000000	-17.34744000	-9.47342500
136.79999205	0.00000000	-17.39050000	-9.47342500
136.99999204	0.00000000	-17.34744000	-9.51648500
137.19999203	0.00000000	-16.97219000	-9.89173200
137.39999201	0.00000000	-16.18479000	-10.62992000
137.59999200	0.00000000	-15.43430000	-11.00517000
137.79999199	0.00000000	-14.64690000	-11.04823000
137.99999198	0.00000000	-14.32087000	-11.04823000
138.19999197	0.00000000	-14.69611000	-11.04823000
138.39999195	0.00000000	-15.80955000	-11.04823000
138.59999194	0.00000000	-16.92298000	-11.04823000
138.79999193	0.00000000	-17.34744000	-11.00517000
138.99999192	0.00000000	-17.39050000	-10.62992000
139.19999191	0.00000000	-17.39050000	-9.89173200
139.39999189	0.00000000	-17.34744000	-9.47342500
139.59999188	0.00000000	-16.97219000	-9.05511800
139.79999187	0.00000000	-16.22785000	-8.35998900
139.99999186	0.00000000	-15.80955000	-8.35998900
140.19999185	0.00000000	-15.43430000	-9.09817800
140.39999184	0.00000000	-15.06521000	-9.84867000
140.59999182	0.00000000	-15.43430000	-10.67298000
140.79999181	0.00000000	-15.76649000	-11.42347000
140.99999180	0.00000000	-15.85261000	-12.21087000
141.19999179	0.00000000	-16.22785000	-12.53691000
141.39999178	0.00000000	-16.97219000	-12.21087000
141.59999176	0.00000000	-17.34744000	-11.42347000
141.79999175	0.00000000	-17.39050000	-10.67298000
141.99999174	0.00000000	-17.34744000	-9.84867000
142.19999173	0.00000000	-16.97219000	-9.09817800
142.39999172	0.00000000	-16.22785000	-8.31077700
142.59999170	0.00000000	-15.85261000	-7.98474400
142.79999169	0.00000000	-15.85261000	-8.35998900
142.99999168	0.00000000	-16.18479000	-9.47342500
143.19999167	0.00000000	-16.59695000	-10.62992000
143.39999166	0.00000000	-16.60310000	-11.42347000
143.59999165	0.00000000	-17.01525000	-12.16166000
143.79999163	0.00000000	-17.34744000	-12.21087000
143.99999162	0.00000000	-17.39050000	-11.88484000
144.19999161	0.00000000	-17.34744000	-12.21087000
144.39999160	0.00000000	-16.97219000	-12.16166000
144.59999159	0.00000000	-16.22785000	-11.42347000
144.79999157	0.00000000	-15.85261000	-10.67298000
144.99999156	0.00000000	-15.80955000	-9.89173200
145.19999155	0.00000000	-15.85261000	-9.56569900
145.39999154	0.00000000	-16.22785000	-9.89173200
145.59999153	0.00000000	-16.97219000	-10.62992000
145.79999151	0.00000000	-17.34744000	-11.04823000
145.99999150	0.00000000	-17.39050000	-11.46653000
146.19999149	0.00000000	-17.39050000	-12.21087000
146.39999148	0.00000000	-17.39050000	-12.58612000
146.59999147	0.00000000	-17.34744000	-12.62918000
146.79999146	0.00000000	-16.97219000	-12.58612000
146.99999144	0.00000000	-16.22785000	-12.21087000
147.19999143	0.00000000	-15.90182000	-11.46653000
147.39999142	0.00000000	-16.22785000	-11.09129000
147.59999141	0.00000000	-16.97219000	-11.00517000
147.79999140	0.00000000	-17.34744000	-10.67298000
147.99999138	0.00000000	-17.39050000	-10.31004000
148.19999137	0.00000000	-17.39050000	-10.67298000
148.39999136	0.00000000	-17.39050000	-11.00517000
148.59999135	0.00000000	-17.39050000	-11.09129000
148.79999134	0.00000000	-17.39050000	-11.46653000
148.99999132	0.00000000	-17.34744000	-12.16166000
149.19999131	0.00000000	-17.01525000	-12.21087000
149.39999130	0.00000000	-16.60310000	-11.88484000
149.59999129	0.00000000	-16.59695000	-12.21087000
149.79999128	0.00000000	-16.18479000	-12.16166000
149.99999127	0.00000000	-15.85261000	-11.46653000
150.19999125	0.00000000	-15.85261000	-11.09129000
150.39999124	0.00000000	-16.22785000	-11.04823000
150.59999123	0.00000000	-16.97219000	-11.04823000
150.79999122	0.00000000	-17.34744000	-11.04823000
150.99999121	0.00000000	-17.39050000	-11.04823000
151.19999119	0.00000000	-17.39050000	-11.04823000
151.39999118	0.00000000	-17.39050000	-11.04823000
151.59999117	0.00000000	-17.39050000	-11.04823000
151.79999116	0.00000000	-17.39050000	-11.04823000
151.99999115	0.00000000	-17.34744000	-11.04823000
152.19999113	0.00000000	-16.97219000	-11.09129000
152.39999112	0.00000000	-16.22785000	-11.42347000
152.59999111	0.00000000	-15.85261000	-11.79257000
152.79999110	0.00000000	-15.80955000	-11.42347000
152.99999109	0.00000000	-15.85261000	-11.09129000
153.19999108	0.00000000	-16.22785000	-11.00517000
153.39999106	0.00000000	-16.97219000	-10.67298000
153.59999105	0.00000000	-17.34744000	-10.26698000
153.79999104	0.00000000	-17.39050000	-10.25467000
153.99999103	0.00000000	-17.43356000	-9.84867000
154.19999102	0.00000000	-17.76575000	-9.56569900
154.39999100	0.00000000	-18.17790000	-9.89173200
154.59999099	0.00000000	-18.14099000	-10.62992000
154.79999098	0.00000000	-18.17790000	-11.00517000
154.99999097	0.00000000	-17.76575000	-11.04823000
155.19999096	0.00000000	-17.39050000	-11.04823000
155.39999094	0.00000000	-16.97219000	-11.04823000
155.59999093	0.00000000	-16.22785000	-11.04823000
155.79999092	0.00000000	-15.85261000	-11.04823000
155.99999091	0.00000000	-15.85261000	-11.04823000
156.19999090	0.00000000	-16.22785000	-11.04823000
156.39999089	0.00000000	-16.97219000	-11.00517000
156.59999087	0.00000000	-17.34744000	-10.62992000
156.79999086	0.00000000	-17.43356000	-9.89173200
156.99999085	0.00000000	-17.80881000	-9.56569900
157.19999084	0.00000000	-18.50394000	-9.89173200
157.39999083	0.00000000	-18.50394000	-10.62992000
157.59999081	0.00000000	-17.80881000	-11.00517000
157.79999080	0.00000000	-17.43356000	-11.04823000
157.99999079	0.00000000	-17.39050000	-11.04823000
158.19999078	0.00000000	-17.39050000	-11.09129000
158.39999077	0.00000000	-17.34744000	-11.46653000
158.59999075	0.00000000	-17.01525000	-12.16166000
158.79999074	0.00000000	-16.64616000	-12.16166000
158.99999073	0.00000000	-17.01525000	-11.46653000
159.19999072	0.00000000	-17.34744000	-11.09129000
159.39999071	0.00000000	-17.39050000	-11.00517000
159.59999070	0.00000000	-17.39050000	-10.67298000
159.79999068	0.00000000	-17.39050000	-10.26698000
159.99999067	0.00000000	-17.39050000	-10.30389000
160.19999066	0.00000000	-17.39050000	-10.26698000
160.39999065	0.00000000	-17.39050000	-10.67298000
160.59999064	0.00000000	-17.39050000	-11.00517000
160.79999062	0.00000000	-17.39050000	-11.09129000
160.99999061	0.00000000	-17.39050000	-11.46653000
161.19999060	0.00000000	-17.39050000	-12.21087000
161.39999059	0.00000000	-17.39050000	-12.58612000
161.59999058	0.00000000	-17.39050000	-12.62918000
161.79999056	0.00000000	-17.39050000	-12.62918000
161.99999055	0.00000000	-17.39050000	-12.58612000
162.19999054	0.00000000	-17.39050000	-12.21087000
162.39999053	0.00000000	-17.39050000	-11.46653000
162.59999052	0.00000000	-17.39050000	-11.09129000
162.79999051	0.00000000	-17.43356000	-11.04823000
162.99999049	0.00000000	-17.80881000	-11.04823000
163.19999048	0.00000000	-18.55315000	-11.04823000
163.39999047	0.00000000	-18.92839000	-11.04823000
163.59999046	0.00000000	-18.97145000	-11.04823000
163.79999045	0.00000000	-18.97145000	-11.09129000
163.99999043	0.00000000	-18.97145000	-11.46653000
164.19999042	0.00000000	-18.92839000	-12.21087000
164.39999041	0.00000000	-18.55315000	-12.58612000
164.59999040	0.00000000	-17.80881000	-12.62918000
164.79999039	0.00000000	-17.43356000	-12.62918000
164.99999037	0.00000000	-17.39050000	-12.62918000
165.19999036	0.00000000	-17.39050000	-12.58612000
165.39999035	0.00000000	-17.39050000	-12.21087000
165.59999034	0.00000000	-17.39050000	-11.46653000
165.79999033	0.00000000	-17.43356000	-11.09129000
165.99999032	0.00000000	-17.80881000	-11.04823000
166.19999030	0.00000000	-18.50394000	-11.04823000
166.39999029	0.00000000	-18.55315000	-11.04823000
166.59999028	0.00000000	-18.22711000	-11.04823000
166.79999027	0.00000000	-18.59621000	-11.09129000
166.99999026	0.00000000	-18.92839000	-11.46653000
167.19999024	0.00000000	-18.92839000	-12.21087000
167.39999023	0.00000000	-18.55315000	-12.58612000
167.59999022	0.00000000	-17.80881000	-12.62918000
167.79999021	0.00000000	-17.43356000	-12.62918000
167.99999020	0.00000000	-17.39050000	-12.58612000
168.19999018	0.00000000	-17.39050000	-12.25394000
168.39999017	0.00000000	-17.39050000	-11.84178000
168.59999016	0.00000000	-17.39050000	-11.83563000
168.79999015	0.00000000	-17.39050000	-11.42347000
168.99999014	0.00000000	-17.39050000	-11.14050000
169.19999013	0.00000000	-17.39050000	-11.42347000
169.39999011	0.00000000	-17.43356000	-11.79257000
169.59999010	0.00000000	-17.80881000	-11.42347000
169.79999009	0.00000000	-18.50394000	-11.09129000
169.99999008	0.00000000	-18.50394000	-11.04823000
170.19999007	0.00000000	-17.80881000	-11.04823000
170.39999005	0.00000000	-17.43356000	-11.04823000
170.59999004	0.00000000	-17.39050000	-11.04823000
170.79999003	0.00000000	-17.39050000	-11.04823000
170.99999002	0.00000000	-17.39050000	-11.04823000
171.19999001	0.00000000	-17.39050000	-11.04823000
171.39998999	0.00000000	-17.39050000	-11.04823000
171.59998998	0.00000000	-17.39050000	-11.04823000
171.79998997	0.00000000	-17.39050000	-11.04823000
171.99998996	0.00000000	-17.43356000	-11.04823000
172.19998995	0.00000000	-17.76575000	-11.04823000
172.39998994	0.00000000	-18.13484000	-11.04823000
172.59998992	0.00000000	-17.80881000	-11.04823000
172.79998991	0.00000000	-17.85802000	-11.04823000
172.99998990	0.00000000	-18.50394000	-11.04823000
173.19998989	0.00000000	-18.50394000	-11.04823000
173.39998988	0.00000000	-17.80881000	-11.04823000
173.59998986	0.00000000	-17.43356000	-11.04823000
173.79998985	0.00000000	-17.39050000	-11.04823000
173.99998984	0.00000000	-17.39050000	-11.04823000
174.19998983	0.00000000	-17.43356000	-11.04823000
174.39998982	0.00000000	-17.76575000	-11.04823000
174.59998980	0.00000000	-18.17790000	-11.04823000
174.79998979	0.00000000	-18.14099000	-11.04823000
174.99998978	0.00000000	-18.22096000	-11.09129000
175.19998977	0.00000000	-18.14099000	-11.46653000
175.39998976	0.00000000	-18.22096000	-12.21087000
175.59998975	0.00000000	-18.18405000	-12.53691000
175.79998973	0.00000000	-18.59621000	-12.21087000
175.99998972	0.00000000	-18.92839000	-11.46653000
176.19998971	0.00000000	-18.97145000	-11.09129000
176.39998970	0.00000000	-18.92839000	-11.09129000
176.59998969	0.00000000	-18.59621000	-11.46653000
176.79998967	0.00000000	-18.22711000	-12.21087000
176.99998966	0.00000000	-18.59621000	-12.58612000
177.19998965	0.00000000	-18.92839000	-12.62918000
177.39998964	0.00000000	-18.92839000	-12.62918000
177.59998963	0.00000000	-18.59621000	-12.62918000
177.79998961	0.00000000	-18.22711000	-12.62918000
177.99998960	0.00000000	-18.59621000	-12.62918000
178.19998959	0.00000000	-18.92839000	-12.62918000
178.39998958	0.00000000	-18.97145000	-12.62918000
178.59998957	0.00000000	-18.97145000	-12.62918000
178.79998956	0.00000000	-18.97145000	-12.62918000
178.99998954	0.00000000	-18.97145000	-12.62918000
179.19998953	0.00000000	-18.97145000	-12.62918000
179.39998952	0.00000000	-18.97145000	-12.62918000
179.59998951	0.00000000	-18.97145000	-12.62918000
179.79998950	0.00000000	-18.97145000	-12.62918000
179.99998948	0.00000000	-18.97145000	-12.62918000
180.19998947	0.00000000	-18.97145000	-12.62918000
180.39998946	0.00000000	-18.97145000	-12.62918000
180.59998945	0.00000000	-18.92839000	-12.62918000
180.79998944	0.00000000	-18.59621000	-12.62918000
180.99998942	0.00000000	-18.22711000	-12.62918000
181.19998941	0.00000000	-18.59621000	-12.58612000
181.39998940	0.00000000	-18.92839000	-12.21087000
181.59998939	0.00000000	-18.97145000	-11.46653000
181.79998938	0.00000000	-18.97145000	-11.09129000
181.99998937	0.00000000	-18.97145000	-11.04823000
182.19998935	0.00000000	-18.97145000	-11.04823000
182.39998934	0.00000000	-18.97145000	-11.09129000
182.59998933	0.00000000	-18.97145000	-11.46653000
182.79998932	0.00000000	-18.97145000	-12.21087000
182.99998931	0.00000000	-18.97145000	-12.58612000
183.19998929	0.00000000	-18.97145000	-12.58612000
183.39998928	0.00000000	-18.97145000	-12.25394000
183.59998927	0.00000000	-18.97145000	-11.84178000
183.79998926	0.00000000	-18.97145000	-11.83563000
183.99998925	0.00000000	-18.97145000	-11.42347000
184.19998923	0.00000000	-18.97145000	-11.09129000
184.39998922	0.00000000	-18.97145000	-11.04823000
184.59998921	0.00000000	-18.97145000	-11.04823000
184.79998920	0.00000000	-18.97145000	-11.04823000
184.99998919	0.00000000	-18.97145000	-11.04823000
185.19998918	0.00000000	-18.97145000	-11.04823000
185.39998916	0.00000000	-18.97145000	-11.04823000
185.59998915	0.00000000	-18.97145000	-11.09129000
185.79998914	0.00000000	-18.92839000	-11.46653000
185.99998913	0.00000000	-18.59621000	-12.21087000
186.19998912	0.00000000	-18.22711000	-12.58612000
186.39998910	0.00000000	-18.59621000	-12.58612000
186.59998909	0.00000000	-18.92839000	-12.21087000
186.79998908	0.00000000	-18.97145000	-11.46653000
186.99998907	0.00000000	-18.97145000	-11.09129000
187.19998906	0.00000000	-18.97145000	-11.04823000
187.39998904	0.00000000	-18.97145000	-11.04823000
187.59998903	0.00000000	-18.97145000	-11.04823000
187.79998902	0.00000000	-18.97145000	-11.04823000
187.99998901	0.00000000	-18.97145000	-11.04823000
188.19998900	0.00000000	-18.97145000	-11.04823000
188.39998899	0.00000000	-18.97145000	-11.09129000
188.59998897	0.00000000	-18.97145000	-11.46653000
188.79998896	0.00000000	-18.97145000	-12.21087000
188.99998895	0.00000000	-18.97145000	-12.58612000
189.19998894	0.00000000	-18.97145000	-12.62918000
189.39998893	0.00000000	-18.97145000	-12.62918000
189.59998891	0.00000000	-18.97145000	-12.62918000
189.79998890	0.00000000	-18.97145000	-12.58612000
189.99998889	0.00000000	-18.97145000	-12.21087000
190.19998888	0.00000000	-18.97145000	-11.46653000
190.39998887	0.00000000	-18.97145000	-11.14050000
190.59998885	0.00000000	-18.97145000	-11.46653000
190.79998884	0.00000000	-18.97145000	-12.16166000
190.99998883	0.00000000	-18.97145000	-12.21087000
191.19998882	0.00000000	-18.97145000	-11.88484000
191.39998881	0.00000000	-18.97145000	-12.25394000
191.59998880	0.00000000	-18.97145000	-12.58612000
191.79998878	0.00000000	-18.97145000	-12.62918000
191.99998877	0.00000000	-18.97145000	-12.62918000
192.19998876	0.00000000	-18.92839000	-12.62918000
192.39998875	0.00000000	-18.59621000	-12.62918000
192.59998874	0.00000000	-18.27633000	-12.62918000
192.79998872	0.00000000	-19.01451000	-12.62918000
192.99998871	0.00000000	-20.04183000	-12.62918000
193.19998870	0.00000000	-20.13410000	-12.62918000
193.39998869	0.00000000	-19.76501000	-12.62918000
193.59998868	0.00000000	-19.75886000	-12.62918000
193.79998866	0.00000000	-19.34670000	-12.62918000
193.99998865	0.00000000	-19.01451000	-12.62918000
194.19998864	0.00000000	-18.97145000	-12.62918000
194.39998863	0.00000000	-18.97145000	-12.62918000
194.59998862	0.00000000	-18.97145000	-12.62918000
194.79998861	0.00000000	-18.97145000	-12.62918000
194.99998859	0.00000000	-18.97145000	-12.62918000
195.19998858	0.00000000	-18.97145000	-12.62918000
195.39998857	0.00000000	-19.01451000	-12.62918000
195.59998856	0.00000000	-19.34670000	-12.62918000
195.79998855	0.00000000	-19.75886000	-12.62918000
195.99998853	0.00000000	-19.76501000	-12.62918000
