Time	Channel A	Channel B	Channel C
(us)	(V)	(mV)	(mV)

-4.53333289	0.00000000	-14.22859000	-9.47342500
-4.33333290	0.00000000	-14.22859000	-9.47342500
-4.13333291	0.00000000	-14.22859000	-9.47342500
-3.93333293	0.00000000	-14.22859000	-9.47342500
-3.73333294	0.00000000	-14.22859000	-9.47342500
-3.53333295	0.00000000	-14.22859000	-9.47342500
-3.33333296	0.00000000	-14.22859000	-9.47342500
-3.13333297	0.00000000	-14.22859000	-9.47342500
-2.93333299	0.00000000	-14.22859000	-9.47342500
-2.73333300	0.00000000	-14.22859000	-9.43036400
-2.53333301	0.00000000	-14.22859000	-9.09817800
-2.33333302	0.00000000	-14.22859000	-8.72908400
-2.13333303	0.00000000	-14.22859000	-9.09817800
-1.93333304	0.00000000	-14.22859000	-9.43036400
-1.73333306	0.00000000	-14.22859000	-9.47342500
-1.53333307	0.00000000	-14.22859000	-9.47342500
-1.33333308	0.00000000	-14.22859000	-9.47342500
-1.13333309	0.00000000	-14.22859000	-9.47342500
-0.93333310	0.00000000	-14.22859000	-9.47342500
-0.73333312	0.00000000	-14.22859000	-9.47342500
-0.53333313	0.00000000	-14.22859000	-9.47342500
-0.33333314	0.15871060	-14.22859000	-9.47342500
-0.13333315	0.47736220	-14.22859000	-9.47342500
0.06666684	0.95533960	-14.22859000	-9.47342500
0.26666682	1.11466500	-14.22859000	-9.47342500
0.46666681	0.95533960	-14.22859000	-9.47342500
0.66666680	0.47736220	-14.22859000	-9.47342500
0.86666679	-0.15871060	-14.22859000	-9.47342500
1.06666678	-1.27399100	-14.22859000	-9.47342500
1.26666677	-2.07062000	-14.22859000	-9.47342500
1.46666675	-2.70792300	-14.22859000	-9.47342500
1.66666674	-2.54859700	-14.22859000	-9.47342500
1.86666673	-1.75196900	-14.22859000	-9.47342500
2.06666672	0.00000000	-14.22859000	-9.47342500
2.26666671	2.07062000	-14.22859000	-9.47342500
2.46666669	3.98191400	-14.22859000	-9.47342500
2.66666668	5.25652100	-14.22859000	-9.47342500
2.86666667	5.09719500	-14.22859000	-9.47342500
3.06666666	3.66326300	-14.22859000	-9.47342500
3.26666665	0.79601380	-14.22859000	-9.47342500
3.46666663	-2.54859700	-14.22859000	-9.47342500
3.66666662	-5.73449800	-14.22859000	-9.43036400
3.86666661	-7.64579200	-14.22859000	-9.05511800
4.06666660	-7.80511800	-14.22859000	-8.31077700
4.26666659	-5.89382400	-14.22859000	-7.93553100
4.46666658	-2.22994600	-14.22859000	-7.93553100
4.66666656	2.07062000	-14.27165000	-8.31077700
4.86666655	6.21247500	-14.60384000	-9.05511800
5.06666654	8.76107300	-15.01599000	-9.47342500
5.26666653	9.39837600	-14.97908000	-9.84867000
5.46666652	7.48646600	-15.01599000	-10.25467000
5.66666650	3.66326300	-14.60384000	-10.21776000
5.86666649	-1.11466500	-14.27165000	-10.25467000
6.06666648	-5.41584600	-14.22859000	-9.84867000
6.26666647	-8.60174700	-14.22859000	-9.51648500
6.46666646	-9.55770200	-14.22859000	-9.43036400
6.66666644	-7.96444400	-14.22859000	-9.05511800
6.86666643	-4.61921700	-14.22859000	-8.35998900
7.06666642	-0.31803640	-14.22859000	-8.35998900
7.26666641	3.82258900	-14.22859000	-9.05511800
7.46666640	6.69045300	-14.22859000	-9.47342500
7.66666639	7.80511800	-14.22859000	-9.84867000
7.86666637	6.84916400	-14.22859000	-10.21161000
8.06666636	4.30056600	-14.22859000	-9.84867000
8.26666635	1.11466500	-14.22859000	-9.51648500
8.46666634	-2.07062000	-14.22859000	-9.47342500
8.66666633	-4.30056600	-14.22859000	-9.47342500
8.86666631	-5.09719500	-14.22859000	-9.47342500
9.06666630	-4.77854300	-14.22859000	-9.43036400
9.26666629	-3.18590100	-14.18553000	-9.09817800
9.46666628	-1.27399100	-13.85334000	-8.72908400
9.66666627	0.63668800	-13.48425000	-9.09817800
9.86666625	1.91129400	-13.85334000	-9.43036400
10.06666624	2.54859700	-14.18553000	-9.47342500
10.26666623	2.38927200	-14.22859000	-9.47342500
10.46666622	1.75196900	-14.27165000	-9.47342500
10.66666621	0.79601380	-14.60384000	-9.47342500
10.86666620	0.00000000	-14.97293000	-9.47342500
11.06666618	-0.63668800	-14.60384000	-9.47342500
11.26666617	-0.95533960	-14.27165000	-9.43036400
11.46666616	-0.95533960	-14.22859000	-9.09817800
11.66666615	-0.79601380	-14.22859000	-8.72908400
11.86666614	-0.47736220	-14.27165000	-9.09817800
12.06666612	-0.15871060	-14.60384000	-9.47342500
12.26666611	-0.15871060	-14.97293000	-9.84867000
12.46666610	-0.15871060	-14.60384000	-10.21161000
12.66666609	0.00000000	-14.27165000	-9.84867000
12.86666608	0.00000000	-14.22859000	-9.51648500
13.06666606	0.00000000	-14.22859000	-9.47342500
13.26666605	0.15871060	-14.22859000	-9.43036400
13.46666604	0.00000000	-14.27165000	-9.09817800
13.66666603	0.00000000	-14.60384000	-8.72908400
13.86666602	0.00000000	-14.97293000	-9.09817800
14.06666601	-0.15871060	-14.60384000	-9.43036400
14.26666599	-0.15871060	-14.27165000	-9.47342500
14.46666598	-0.15871060	-14.22859000	-9.47342500
14.66666597	-0.15871060	-14.22859000	-9.47342500
14.86666596	0.00000000	-14.22859000	-9.47342500
15.06666595	0.00000000	-14.27165000	-9.47342500
15.26666593	0.00000000	-14.60384000	-9.47342500
15.46666592	0.00000000	-14.97293000	-9.47342500
15.66666591	0.00000000	-14.60384000	-9.47342500
15.86666590	0.00000000	-14.32087000	-9.47342500
16.06666589	0.00000000	-14.60384000	-9.47342500
16.26666587	0.00000000	-14.97293000	-9.47342500
16.46666586	-0.15871060	-14.64690000	-9.47342500
16.66666585	-0.15871060	-14.64690000	-9.47342500
16.86666584	0.00000000	-14.97293000	-9.47342500
17.06666583	0.00000000	-14.56078000	-9.47342500
17.26666582	0.00000000	-13.85334000	-9.47342500
17.46666580	0.00000000	-13.06594000	-9.47342500
17.66666579	0.00000000	-12.73991000	-9.47342500
17.86666578	0.00000000	-13.06594000	-9.47342500
18.06666577	0.00000000	-13.85334000	-9.47342500
18.26666576	0.00000000	-14.69611000	-9.47342500
18.46666574	0.00000000	-16.22785000	-9.47342500
18.66666573	0.00000000	-18.13484000	-9.47342500
18.86666572	0.00000000	-19.25443000	-9.47342500
19.06666571	0.00000000	-19.66658000	-9.47342500
19.26666570	0.00000000	-18.83612000	-9.47342500
19.46666568	0.00000000	-16.87992000	-9.47342500
19.66666567	0.00000000	-13.76107000	-9.47342500
19.86666566	0.00000000	-9.90403500	-9.47342500
20.06666565	0.00000000	-6.45915300	-9.47342500
20.26666564	0.00000000	-4.13385800	-9.47342500
20.46666563	0.00000000	-3.85088600	-9.47342500
20.66666561	0.00000000	-6.22539300	-9.47342500
20.86666560	0.00000000	-11.66339000	-9.47342500
21.06666559	0.00000000	-18.97145000	-9.47342500
21.26666558	0.00000000	-26.36565000	-9.47342500
21.46666557	0.00000000	-32.51107000	-9.47342500
21.66666555	0.00000000	-35.86368000	-9.47342500
21.86666554	0.00000000	-34.23966000	-9.47342500
22.06666553	0.00000000	-27.25763000	-9.47342500
22.26666552	0.00000000	-16.41855000	-9.47342500
22.46666551	0.00000000	-3.67249000	-9.47342500
22.66666549	0.00000000	7.91092400	-9.47342500
22.86666548	0.00000000	15.59424000	-9.47342500
23.06666547	0.00000000	17.40280000	-9.43036400
23.26666546	0.00000000	11.50344000	-9.05511800
23.46666545	0.00000000	-1.61786400	-8.31077700
23.66666544	0.00000000	-19.02067000	-7.93553100
23.86666542	0.00000000	-36.74950000	-7.89247000
24.06666541	0.00000000	-50.65821000	-7.89247000
24.26666540	0.00000000	-57.12967000	-7.93553100
24.46666539	0.00000000	-54.37992000	-8.35998900
24.66666538	0.00000000	-41.91683000	-9.51648500
24.86666536	0.00000000	-22.27485000	-11.04823000
25.06666535	0.00000000	0.14148620	-12.62918000
25.26666534	0.00000000	19.82652000	-14.11786000
25.46666533	0.00000000	32.57259000	-14.85605000
25.66666532	0.00000000	35.18085000	-14.03174000
25.86666530	0.00000000	26.24877000	-11.74951000
26.06666529	0.00000000	7.31422200	-8.22465500
26.26666528	0.00000000	-17.34744000	-4.36146600
26.46666527	0.00000000	-41.67692000	-0.46751960
26.66666526	0.00000000	-59.83021000	2.46678100
26.86666525	0.00000000	-67.96874000	2.83587600
27.06666523	0.00000000	-64.06249000	-0.27066930
27.26666522	0.00000000	-49.02805000	-5.66560000
27.46666521	0.00000000	-26.23647000	-12.67840000
27.66666520	0.00000000	-1.15649600	-20.01722000
27.86666519	0.00000000	20.47859000	-26.19955000
28.06666517	0.00000000	33.59990000	-29.95817000
28.26666516	0.00000000	35.27313000	-29.49680000
28.46666515	0.00000000	26.01501000	-24.06496000
28.66666514	0.00000000	8.65526600	-14.76993000
28.86666513	0.00000000	-13.39198000	-3.15575800
29.06666511	0.00000000	-34.61491000	8.40920300
29.26666510	0.00000000	-50.56594000	17.24286000
29.46666509	0.00000000	-58.33538000	21.00763000
29.66666508	0.00000000	-56.79749000	17.89493000
29.86666507	0.00000000	-46.37672000	8.23080600
30.06666506	0.00000000	-29.44143000	-5.70866100
30.26666504	0.00000000	-10.50689000	-21.54897000
30.46666503	0.00000000	6.15157400	-35.76525000
30.66666502	0.00000000	17.40280000	-44.64198000
30.86666501	0.00000000	20.93996000	-46.17987000
31.06666500	0.00000000	16.79995000	-39.95448000
31.26666498	0.00000000	6.74827700	-26.80241000
31.46666497	0.00000000	-6.83439900	-9.43036400
31.66666496	0.00000000	-21.53666000	8.32308000
31.86666495	0.00000000	-34.23966000	22.63164000
32.06666494	0.00000000	-41.63386000	30.29650000
32.26666492	0.00000000	-42.51968000	29.59522000
32.46666491	0.00000000	-37.91216000	20.68159000
32.66666490	0.00000000	-28.97392000	5.99163300
32.86666489	0.00000000	-17.39050000	-12.21087000
33.06666488	0.00000000	-5.85014700	-29.91511000
33.26666487	0.00000000	2.70669300	-43.06717000
33.46666485	0.00000000	6.61294300	-48.87426000
33.66666484	0.00000000	5.86860200	-46.22293000
33.86666483	0.00000000	0.42445860	-36.18971000
34.06666482	0.00000000	-8.37229300	-21.08760000
34.26666481	0.00000000	-17.99951000	-3.70939900
34.46666479	0.00000000	-25.71973000	12.08784000
34.66666478	0.00000000	-30.00123000	22.53937000
34.86666477	0.00000000	-30.04429000	25.69513000
35.06666476	0.00000000	-26.18725000	21.46899000
35.26666475	0.00000000	-19.71580000	11.01132000
35.46666473	0.00000000	-12.41388000	-3.62327700
35.66666472	0.00000000	-7.01279500	-19.00221000
35.86666471	0.00000000	-4.22613100	-30.98548000
36.06666470	0.00000000	-4.26919300	-37.21087000
36.26666469	0.00000000	-7.34498000	-36.84178000
36.46666468	0.00000000	-12.69070000	-29.91511000
36.66666466	0.00000000	-18.46087000	-18.43627000
36.86666465	0.00000000	-23.06841000	-5.70866100
37.06666464	0.00000000	-25.34449000	5.06889700
37.26666463	0.00000000	-24.23105000	11.62032000
37.46666462	0.00000000	-20.46014000	11.99557000
37.66666460	0.00000000	-15.80955000	6.32381900
37.86666459	0.00000000	-11.10974000	-3.24803100
38.06666458	0.00000000	-6.92052100	-13.61343000
38.26666457	0.00000000	-4.60137700	-22.06570000
38.46666456	0.00000000	-4.97047200	-26.24877000
38.66666454	0.00000000	-7.25270600	-24.76009000
38.86666453	0.00000000	-11.15896000	-18.25787000
39.06666452	0.00000000	-15.76649000	-9.09817800
39.26666451	0.00000000	-20.04183000	0.09227362
39.46666450	0.00000000	-23.11762000	6.18848400
39.66666449	0.00000000	-24.32333000	7.39419200
39.86666447	0.00000000	-23.57899000	3.53715500
40.06666446	0.00000000	-21.62278000	-4.17691900
40.26666445	0.00000000	-18.46087000	-14.11786000
40.46666444	0.00000000	-14.27165000	-23.22835000
40.66666443	0.00000000	-10.37155000	-27.87278000
40.86666441	0.00000000	-7.62180000	-27.17766000
41.06666440	0.00000000	-5.67175200	-22.15797000
41.26666439	0.00000000	-5.33956700	-13.65650000
41.46666438	0.00000000	-6.87746000	-3.70939900
41.66666437	0.00000000	-9.95324800	4.74286400
41.86666435	0.00000000	-13.81028000	9.38730200
42.06666434	0.00000000	-17.29823000	9.38730200
42.26666433	0.00000000	-20.08489000	4.78592500
42.46666432	0.00000000	-21.99803000	-3.29109200
42.66666431	0.00000000	-22.78543000	-12.49385000
42.86666430	0.00000000	-21.99803000	-20.57702000
43.06666428	0.00000000	-20.08489000	-25.17839000
43.26666427	0.00000000	-17.39050000	-25.26452000
43.46666426	0.00000000	-14.69611000	-21.45669000
43.66666425	0.00000000	-12.73991000	-15.32357000
43.86666424	0.00000000	-11.53420000	-8.40305000
44.06666422	0.00000000	-11.10974000	-2.59596400
44.26666421	0.00000000	-11.06668000	0.93503930
44.46666420	0.00000000	-11.06668000	2.09153500
44.66666419	0.00000000	-11.10974000	0.55979330
44.86666418	0.00000000	-11.48499000	-3.24803100
45.06666416	0.00000000	-12.27239000	-7.84940900
45.26666415	0.00000000	-13.06594000	-12.11860000
45.46666414	0.00000000	-14.32087000	-15.18824000
45.66666413	0.00000000	-16.22785000	-16.39395000
45.86666412	0.00000000	-18.59621000	-15.64960000
46.06666411	0.00000000	-20.92766000	-13.74262000
46.26666409	0.00000000	-23.20374000	-11.04823000
46.46666408	0.00000000	-24.32333000	-8.35383800
46.66666407	0.00000000	-23.48671000	-6.36072800
46.86666406	0.00000000	-20.73696000	-4.82283400
47.06666405	0.00000000	-15.67421000	-4.08464600
47.26666403	0.00000000	-9.52879000	-4.82283400
47.46666402	0.00000000	-3.75861200	-6.36072800
47.66666401	0.00000000	0.04921259	-8.35383800
47.86666400	0.00000000	0.42445860	-11.04823000
48.06666399	0.00000000	-2.64517700	-13.69956000
48.26666397	0.00000000	-8.50147600	-15.23130000
48.46666396	0.00000000	-16.22785000	-15.23130000
48.66666395	0.00000000	-24.36639000	-13.69956000
48.86666394	0.00000000	-30.84399000	-11.00517000
49.06666393	0.00000000	-33.90748000	-7.89247000
49.26666392	0.00000000	-31.95743000	-4.82283400
49.46666390	0.00000000	-25.81201000	-2.50369100
49.66666389	0.00000000	-16.92298000	-1.75319900
49.86666388	0.00000000	-7.29576700	-2.54675200
50.06666387	0.00000000	0.42445860	-5.24729300
50.26666386	0.00000000	4.66289300	-9.09817800
50.46666384	0.00000000	4.23843500	-12.96137000
50.66666383	0.00000000	-1.15649600	-16.43701000
50.86666382	0.00000000	-9.95324800	-18.30093000
51.06666381	0.00000000	-19.58046000	-17.92569000
51.26666380	0.00000000	-27.30069000	-15.23130000
51.46666379	0.00000000	-31.53912000	-11.04823000
51.66666377	0.00000000	-31.16388000	-6.77903500
51.86666376	0.00000000	-26.23031000	-3.29109200
52.06666375	0.00000000	-18.92839000	-0.97194880
52.26666374	0.00000000	-11.20202000	-0.59670270
52.46666373	0.00000000	-4.64443900	-2.12844500
52.66666371	0.00000000	-1.19955700	-5.19808000
52.86666370	0.00000000	-1.57480300	-9.05511800
53.06666369	0.00000000	-5.80708600	-12.53691000
53.26666368	0.00000000	-12.69070000	-15.23130000
53.46666367	0.00000000	-19.95571000	-16.34473000
53.66666365	0.00000000	-25.34449000	-15.23130000
53.86666364	0.00000000	-27.30069000	-12.58612000
54.06666363	0.00000000	-25.71973000	-9.51648500
54.26666362	0.00000000	-20.78617000	-6.86515700
54.46666361	0.00000000	-13.90871000	-5.70866100
54.66666360	0.00000000	-8.17544300	-6.40378900
54.86666358	0.00000000	-4.60137700	-7.89247000
55.06666357	0.00000000	-3.89394600	-9.47342500
55.26666356	0.00000000	-6.18233200	-11.00517000
55.46666355	0.00000000	-11.15896000	-12.07554000
55.66666354	0.00000000	-16.87992000	-11.70029000
55.86666352	0.00000000	-21.53666000	-9.84867000
56.06666351	0.00000000	-24.23105000	-7.89247000
56.26666350	0.00000000	-24.23105000	-5.93626900
56.46666349	0.00000000	-21.57972000	-4.12770700
56.66666348	0.00000000	-17.34744000	-4.21998000
56.86666346	0.00000000	-12.73991000	-6.86515700
57.06666345	0.00000000	-8.87672100	-11.00517000
57.26666344	0.00000000	-6.92052100	-14.85605000
57.46666343	0.00000000	-6.87746000	-17.18750000
57.66666342	0.00000000	-8.45841400	-17.97490000
57.86666341	0.00000000	-11.53420000	-16.72613000
58.06666339	0.00000000	-15.34203000	-13.23819000
58.26666338	0.00000000	-18.41781000	-7.84940900
58.46666337	0.00000000	-19.99877000	-2.12844500
58.66666336	0.00000000	-20.04183000	2.09768700
58.86666335	0.00000000	-18.87918000	3.62942900
59.06666333	0.00000000	-16.97219000	2.04847400
59.26666332	0.00000000	-14.64690000	-2.59596400
59.46666331	0.00000000	-12.73991000	-9.51648500
59.66666330	0.00000000	-11.57726000	-16.76919000
59.86666329	0.00000000	-11.53420000	-22.15797000
60.06666327	0.00000000	-12.31545000	-24.10802000
60.26666326	0.00000000	-13.44119000	-22.57628000
60.46666325	0.00000000	-14.97293000	-17.88263000
60.66666324	0.00000000	-15.71727000	-10.58686000
60.86666323	0.00000000	-15.76649000	-2.54675200
61.06666322	0.00000000	-15.39124000	3.62942900
61.26666320	0.00000000	-14.60384000	6.69291300
61.46666319	0.00000000	-13.85334000	5.89936000
61.66666318	0.00000000	-13.11516000	0.93503930
61.86666317	0.00000000	-13.11516000	-6.36072800
62.06666316	0.00000000	-13.89641000	-14.11786000
62.26666314	0.00000000	-15.02214000	-21.03838000
62.46666313	0.00000000	-16.59695000	-25.27067000
62.66666312	0.00000000	-17.67347000	-25.63976000
62.86666311	0.00000000	-18.08563000	-22.20103000
63.06666310	0.00000000	-17.29823000	-15.64960000
63.26666308	0.00000000	-15.80955000	-7.93553100
63.46666307	0.00000000	-14.22859000	-0.64591530
63.66666306	0.00000000	-12.69070000	4.36761800
63.86666305	0.00000000	-11.53420000	5.57947800
64.06666304	0.00000000	-11.15896000	3.67249000
64.26666303	0.00000000	-11.53420000	-0.97194880
64.46666301	0.00000000	-12.73991000	-7.47416300
64.66666300	0.00000000	-14.64690000	-13.65650000
64.86666299	0.00000000	-16.92298000	-18.35015000
65.06666298	0.00000000	-18.46087000	-21.03838000
65.26666297	0.00000000	-18.83612000	-21.08760000
65.46666295	0.00000000	-18.08563000	-18.81152000
65.66666294	0.00000000	-16.18479000	-15.32357000
65.86666293	0.00000000	-14.32087000	-11.04823000
66.06666292	0.00000000	-13.11516000	-6.82209600
66.26666291	0.00000000	-12.73991000	-3.66633800
66.46666289	0.00000000	-13.11516000	-1.71013800
66.66666288	0.00000000	-14.27165000	-0.92888770
66.86666287	0.00000000	-15.80955000	-1.66707700
67.06666286	0.00000000	-17.34744000	-3.19881900
67.26666285	0.00000000	-18.46087000	-5.19808000
67.46666284	0.00000000	-18.41781000	-7.93553100
67.66666282	0.00000000	-16.87992000	-11.00517000
67.86666281	0.00000000	-14.22859000	-13.79183000
68.06666280	0.00000000	-11.53420000	-16.11712000
68.26666279	0.00000000	-9.62106200	-18.01796000
68.46666278	0.00000000	-8.87672100	-18.39321000
68.66666276	0.00000000	-10.03937000	-17.27362000
68.86666275	0.00000000	-12.73991000	-15.18824000
69.06666274	0.00000000	-16.22785000	-11.28199000
69.26666273	0.00000000	-20.08489000	-5.61638700
69.46666272	0.00000000	-23.11762000	-1.02116100
69.66666270	0.00000000	-24.27411000	1.39640700
69.86666269	0.00000000	-23.11762000	2.18380900
70.06666268	0.00000000	-19.99877000	0.93503930
70.26666267	0.00000000	-15.34203000	-2.55290300
70.46666266	0.00000000	-9.95324800	-7.89247000
70.66666265	0.00000000	-5.33956700	-13.28125000
70.86666263	0.00000000	-2.64517700	-17.18750000
71.06666262	0.00000000	-2.68823800	-19.55585000
71.26666261	0.00000000	-5.76402500	-19.83883000
71.46666260	0.00000000	-11.15896000	-17.59966000
71.66666259	0.00000000	-17.34744000	-13.28740000
71.86666257	0.00000000	-23.16068000	-8.39689900
72.06666256	0.00000000	-27.34990000	-3.71555100
72.26666255	0.00000000	-28.50640000	-1.42716500
72.46666254	0.00000000	-26.23031000	-0.92888770
72.66666253	0.00000000	-21.62278000	-2.12844500
72.86666251	0.00000000	-15.80955000	-4.77977300
73.06666250	0.00000000	-9.99630800	-7.84940900
73.26666249	0.00000000	-5.33956700	-10.58686000
73.46666248	0.00000000	-2.64517700	-12.49385000
73.66666247	0.00000000	-2.68823800	-13.28125000
73.86666246	0.00000000	-5.76402500	-12.53691000
74.06666244	0.00000000	-11.10974000	-11.04823000
74.26666243	0.00000000	-16.83686000	-9.51648500
74.46666242	0.00000000	-21.16142000	-8.44611200
74.66666241	0.00000000	-23.53592000	-8.77214500
74.86666240	0.00000000	-24.32333000	-10.25467000
75.06666238	0.00000000	-23.11762000	-11.42347000
75.26666237	0.00000000	-20.08489000	-12.58612000
75.46666236	0.00000000	-16.22785000	-13.23819000
75.66666235	0.00000000	-12.73991000	-12.07554000
75.86666234	0.00000000	-10.03937000	-9.42421200
76.06666232	0.00000000	-8.87672100	-6.31151500
76.26666231	0.00000000	-9.57800100	-3.24803100
76.46666230	0.00000000	-11.10974000	-1.01501000
76.66666229	0.00000000	-13.02288000	-1.01501000
76.86666228	0.00000000	-14.97293000	-3.33415300
77.06666227	0.00000000	-16.14173000	-7.19734200
77.26666225	0.00000000	-16.92298000	-12.25394000
77.46666224	0.00000000	-16.92298000	-17.18750000
77.66666223	0.00000000	-16.18479000	-20.62008000
77.86666222	0.00000000	-15.47736000	-21.03838000
78.06666221	0.00000000	-15.11442000	-18.76845000
78.26666219	0.00000000	-15.85261000	-14.85605000
78.46666218	0.00000000	-16.92298000	-9.42421200
78.66666217	0.00000000	-17.29823000	-3.70939900
78.86666216	0.00000000	-16.92298000	0.55979330
79.06666215	0.00000000	-15.76649000	2.50984200
79.26666213	0.00000000	-14.22859000	2.09153500
79.46666212	0.00000000	-12.64764000	-0.97194880
79.66666211	0.00000000	-11.10974000	-5.98548200
79.86666210	0.00000000	-9.99630800	-11.33120000
80.06666209	0.00000000	-9.99630800	-16.01870000
80.26666208	0.00000000	-11.15896000	-18.71924000
80.46666206	0.00000000	-13.11516000	-19.55585000
80.66666205	0.00000000	-15.80955000	-18.39321000
80.86666204	0.00000000	-18.46087000	-15.69882000
81.06666203	0.00000000	-20.04183000	-12.21087000
81.26666202	0.00000000	-20.41708000	-8.31077700
81.46666200	0.00000000	-19.62352000	-4.87204700
81.66666199	0.00000000	-17.29823000	-2.50369100
81.86666198	0.00000000	-14.27165000	-1.71013800
82.06666197	0.00000000	-11.57726000	-2.04232300
82.26666196	0.00000000	-9.99630800	-3.24803100
82.46666194	0.00000000	-9.62106200	-5.19808000
82.66666193	0.00000000	-10.37155000	-7.89247000
82.86666192	0.00000000	-12.31545000	-10.62992000
83.06666191	0.00000000	-14.56078000	-13.00443000
83.26666190	0.00000000	-16.55389000	-15.32357000
83.46666189	0.00000000	-17.72268000	-16.85531000
83.66666187	0.00000000	-18.50394000	-17.23056000
83.86666186	0.00000000	-18.46087000	-16.43701000
84.06666185	0.00000000	-17.34744000	-14.07480000
84.26666184	0.00000000	-15.85261000	-10.62992000
84.46666183	0.00000000	-14.69611000	-6.72982200
84.66666181	0.00000000	-14.27165000	-3.24803100
84.86666180	0.00000000	-14.22859000	-0.55364170
85.06666179	0.00000000	-14.22859000	0.51673230
85.26666178	0.00000000	-14.22859000	-1.02116100
85.46666177	0.00000000	-14.22859000	-4.82898600
85.66666175	0.00000000	-14.22859000	-9.43036400
85.86666174	0.00000000	-14.18553000	-13.74262000
86.06666173	0.00000000	-13.85334000	-17.23056000
86.26666172	0.00000000	-13.48425000	-19.50664000
86.46666171	0.00000000	-13.89641000	-19.46358000
86.66666170	0.00000000	-14.64690000	-16.81225000
86.86666168	0.00000000	-15.80955000	-12.58612000
87.06666167	0.00000000	-16.92298000	-7.93553100
87.26666166	0.00000000	-17.39050000	-3.70939900
87.46666165	0.00000000	-17.72268000	-0.97194880
87.66666164	0.00000000	-17.66732000	-0.22145670
87.86666162	0.00000000	-16.14173000	-1.39025600
88.06666161	0.00000000	-14.27165000	-4.87204700
88.26666160	0.00000000	-12.69070000	-9.47342500
88.46666159	0.00000000	-11.53420000	-14.07480000
88.66666158	0.00000000	-11.15896000	-17.50738000
88.86666156	0.00000000	-11.53420000	-18.30093000
89.06666155	0.00000000	-12.73991000	-16.81225000
89.26666154	0.00000000	-14.60384000	-13.65650000
89.46666153	0.00000000	-16.55389000	-9.05511800
89.66666152	0.00000000	-17.67347000	-4.12770700
89.86666151	0.00000000	-18.13484000	-1.06422200
90.06666149	0.00000000	-17.72268000	-0.59670270
90.26666148	0.00000000	-16.97219000	-2.17765700
90.46666147	0.00000000	-15.76649000	-5.66560000
90.66666146	0.00000000	-14.27165000	-10.62992000
90.86666145	0.00000000	-13.11516000	-15.18824000
91.06666143	0.00000000	-12.73991000	-17.88263000
91.26666142	0.00000000	-13.06594000	-17.92569000
91.46666141	0.00000000	-13.81028000	-15.64960000
91.66666140	0.00000000	-14.22859000	-12.16166000
91.86666139	0.00000000	-14.60384000	-7.89247000
92.06666137	0.00000000	-14.97293000	-3.70939900
92.26666136	0.00000000	-14.60384000	-1.01501000
92.46666135	0.00000000	-14.27165000	-0.63976370
92.66666134	0.00000000	-14.27165000	-2.54675200
92.86666133	0.00000000	-14.69611000	-6.40378900
93.06666132	0.00000000	-15.80955000	-11.00517000
93.26666130	0.00000000	-16.92298000	-15.18824000
93.46666129	0.00000000	-17.34744000	-17.50738000
93.66666128	0.00000000	-17.34744000	-17.13829000
93.86666127	0.00000000	-16.92298000	-14.85605000
94.06666126	0.00000000	-15.76649000	-11.00517000
94.26666124	0.00000000	-14.22859000	-6.77903500
94.46666123	0.00000000	-12.64764000	-3.33415300
94.66666122	0.00000000	-11.10974000	-1.43331700
94.86666121	0.00000000	-9.99630800	-2.22071800
95.06666120	0.00000000	-10.03937000	-5.19808000
95.26666118	0.00000000	-11.57726000	-9.05511800
95.46666117	0.00000000	-14.27165000	-12.53691000
95.66666116	0.00000000	-17.34744000	-15.23130000
95.86666115	0.00000000	-20.04183000	-16.34473000
96.06666114	0.00000000	-21.62278000	-15.23130000
96.26666113	0.00000000	-21.99803000	-12.58612000
96.46666111	0.00000000	-21.20448000	-9.47342500
96.66666110	0.00000000	-18.83612000	-6.40378900
96.86666109	0.00000000	-15.39124000	-4.12770700
97.06666108	0.00000000	-11.48499000	-3.70939900
97.26666107	0.00000000	-8.08316900	-4.82283400
97.46666105	0.00000000	-6.13927100	-6.77903500
97.66666104	0.00000000	-6.50221400	-9.42421200
97.86666103	0.00000000	-8.41535400	-11.70029000
98.06666102	0.00000000	-11.57726000	-12.53691000
98.26666101	0.00000000	-15.80955000	-12.58612000
98.46666099	0.00000000	-19.99877000	-12.16166000
98.66666098	0.00000000	-22.74237000	-11.00517000
98.86666097	0.00000000	-23.57899000	-9.51648500
99.06666096	0.00000000	-23.16068000	-8.35998900
99.26666095	0.00000000	-21.16142000	-7.93553100
99.46666094	0.00000000	-17.34744000	-7.89247000
99.66666092	0.00000000	-13.15822000	-7.89247000
99.86666091	0.00000000	-9.99630800	-7.89247000
100.06666090	0.00000000	-8.04010800	-7.89247000
100.26666089	0.00000000	-7.25270600	-7.84940900
100.46666088	0.00000000	-8.04010800	-7.51722400
100.66666086	0.00000000	-9.95324800	-7.14812900
100.86666085	0.00000000	-12.69070000	-7.56028500
101.06666084	0.00000000	-15.80955000	-8.31077700
101.26666083	0.00000000	-18.87918000	-9.51648500
101.46666082	0.00000000	-21.16142000	-11.04823000
101.66666080	0.00000000	-21.57972000	-12.58612000
101.86666079	0.00000000	-20.50935000	-13.69956000
102.06666078	0.00000000	-18.92839000	-13.65650000
102.26666077	0.00000000	-16.97219000	-12.11860000
102.46666076	0.00000000	-14.64690000	-9.47342500
102.66666075	0.00000000	-12.69070000	-6.77903500
102.86666073	0.00000000	-11.10974000	-4.82283400
103.06666072	0.00000000	-9.99630800	-3.66633800
103.26666071	0.00000000	-10.03937000	-3.70939900
103.46666070	0.00000000	-11.53420000	-5.24729300
103.66666069	0.00000000	-13.81028000	-7.93553100
103.86666067	0.00000000	-15.76649000	-11.00517000
104.06666066	0.00000000	-17.34744000	-13.69956000
104.26666065	0.00000000	-18.50394000	-15.23130000
104.46666064	0.00000000	-18.87918000	-15.27436000
104.66666063	0.00000000	-18.50394000	-14.07480000
104.86666061	0.00000000	-17.34744000	-11.79257000
105.06666060	0.00000000	-15.80955000	-8.68602300
105.26666059	0.00000000	-14.27165000	-6.02854300
105.46666058	0.00000000	-13.11516000	-4.08464600
105.66666057	0.00000000	-12.69070000	-3.75246000
105.86666056	0.00000000	-12.69070000	-5.19808000
106.06666054	0.00000000	-13.11516000	-7.47416300
106.26666053	0.00000000	-14.22859000	-9.42421200
106.46666052	0.00000000	-15.39124000	-11.00517000
106.66666051	0.00000000	-16.14173000	-12.16166000
106.86666050	0.00000000	-16.55389000	-12.53691000
107.06666048	0.00000000	-16.14173000	-12.11860000
107.26666047	0.00000000	-15.43430000	-10.62992000
107.46666046	0.00000000	-14.60384000	-8.72908400
107.66666045	0.00000000	-13.89641000	-7.56028500
107.86666044	0.00000000	-13.48425000	-6.77903500
108.06666042	0.00000000	-13.89641000	-6.82209600
108.26666041	0.00000000	-14.64690000	-7.93553100
108.46666040	0.00000000	-15.80955000	-9.47342500
108.66666039	0.00000000	-16.92298000	-11.00517000
108.86666038	0.00000000	-17.34744000	-12.11860000
109.06666037	0.00000000	-17.34744000	-12.16166000
109.26666035	0.00000000	-16.92298000	-11.42347000
109.46666034	0.00000000	-15.76649000	-10.58686000
109.66666033	0.00000000	-14.27165000	-9.05511800
109.86666032	0.00000000	-13.11516000	-7.19734200
110.06666031	0.00000000	-12.69070000	-6.40378900
110.26666029	0.00000000	-12.69070000	-6.35457700
110.46666028	0.00000000	-13.11516000	-6.77903500
110.66666027	0.00000000	-14.27165000	-7.93553100
110.86666026	0.00000000	-15.76649000	-9.47342500
111.06666025	0.00000000	-16.92298000	-11.00517000
111.26666023	0.00000000	-17.34744000	-12.11860000
111.46666022	0.00000000	-17.34744000	-12.16166000
111.66666021	0.00000000	-16.97219000	-11.46653000
111.86666020	0.00000000	-16.18479000	-11.04823000
112.06666019	0.00000000	-15.43430000	-10.58686000
112.26666018	0.00000000	-14.60384000	-9.47342500
112.46666016	0.00000000	-13.89641000	-8.35998900
112.66666015	0.00000000	-13.48425000	-7.93553100
112.86666014	0.00000000	-13.85334000	-7.89247000
113.06666013	0.00000000	-14.18553000	-7.89247000
113.26666012	0.00000000	-14.27165000	-7.93553100
113.46666010	0.00000000	-14.64690000	-8.31077700
113.66666009	0.00000000	-15.39124000	-9.05511800
113.86666008	0.00000000	-15.76649000	-9.43036400
114.06666007	0.00000000	-15.80955000	-9.51648500
114.26666006	0.00000000	-15.80955000	-9.89173200
114.46666004	0.00000000	-15.80955000	-10.62992000
114.66666003	0.00000000	-15.76649000	-11.00517000
114.86666002	0.00000000	-15.39124000	-11.04823000
115.06666001	0.00000000	-14.64690000	-11.04823000
115.26666000	0.00000000	-14.27165000	-11.00517000
115.46665999	0.00000000	-14.27165000	-10.62992000
115.66665997	0.00000000	-14.60384000	-9.84867000
115.86665996	0.00000000	-15.01599000	-9.09817800
116.06665995	0.00000000	-15.02214000	-8.31077700
116.26665994	0.00000000	-15.43430000	-7.89247000
116.46665993	0.00000000	-15.76649000	-7.51722400
116.66665991	0.00000000	-15.80955000	-7.14812900
116.86665990	0.00000000	-15.80955000	-7.56028500
117.06665989	0.00000000	-15.76649000	-8.31077700
117.26665988	0.00000000	-15.39124000	-9.47342500
117.46665987	0.00000000	-14.60384000	-10.58686000
117.66665985	0.00000000	-13.85334000	-11.04823000
117.86665984	0.00000000	-13.06594000	-11.42347000
118.06665983	0.00000000	-12.73991000	-11.79257000
118.26665982	0.00000000	-13.06594000	-11.38041000
118.46665981	0.00000000	-13.85334000	-10.67298000
118.66665980	0.00000000	-14.60384000	-9.84867000
118.86665978	0.00000000	-15.43430000	-9.09817800
119.06665977	0.00000000	-16.18479000	-8.31077700
119.26665976	0.00000000	-16.97219000	-7.93553100
119.46665975	0.00000000	-17.34744000	-7.89247000
119.66665974	0.00000000	-17.34744000	-7.89247000
119.86665972	0.00000000	-16.92298000	-7.93553100
120.06665971	0.00000000	-15.76649000	-8.31077700
120.26665970	0.00000000	-14.27165000	-9.05511800
120.46665969	0.00000000	-13.11516000	-9.43036400
120.66665968	0.00000000	-12.64764000	-9.51648500
120.86665966	0.00000000	-12.27239000	-9.84867000
121.06665965	0.00000000	-11.95251000	-10.25467000
121.26665964	0.00000000	-12.73991000	-10.26698000
121.46665963	0.00000000	-14.22859000	-10.62992000
121.66665962	0.00000000	-15.76649000	-10.58686000
121.86665961	0.00000000	-16.92298000	-9.89173200
122.06665959	0.00000000	-17.34744000	-9.47342500
122.26665958	0.00000000	-17.39050000	-9.05511800
122.46665957	0.00000000	-17.34744000	-8.31077700
122.66665956	0.00000000	-16.92298000	-7.93553100
122.86665955	0.00000000	-15.80955000	-7.89247000
123.06665953	0.00000000	-14.64690000	-7.89247000
123.26665952	0.00000000	-13.85334000	-7.93553100
123.46665951	0.00000000	-13.06594000	-8.31077700
123.66665950	0.00000000	-12.69070000	-9.05511800
123.86665949	0.00000000	-12.69070000	-9.47342500
124.06665947	0.00000000	-13.06594000	-9.89173200
124.26665946	0.00000000	-13.85334000	-10.62992000
124.46665945	0.00000000	-14.60384000	-10.95595000
124.66665944	0.00000000	-15.43430000	-10.67298000
124.86665943	0.00000000	-16.18479000	-10.26698000
125.06665942	0.00000000	-16.97219000	-10.25467000
125.26665940	0.00000000	-17.29823000	-9.79945900
125.46665939	0.00000000	-16.97219000	-9.09817800
125.66665938	0.00000000	-16.18479000	-8.31077700
125.86665937	0.00000000	-15.43430000	-7.93553100
126.06665936	0.00000000	-14.60384000	-7.89247000
126.26665934	0.00000000	-13.85334000	-7.93553100
126.46665933	0.00000000	-13.11516000	-8.31077700
126.66665932	0.00000000	-13.11516000	-9.05511800
126.86665931	0.00000000	-13.81028000	-9.43036400
127.06665930	0.00000000	-14.22859000	-9.51648500
127.26665928	0.00000000	-14.69611000	-9.89173200
127.46665927	0.00000000	-15.80955000	-10.58686000
127.66665926	0.00000000	-16.92298000	-10.58686000
127.86665925	0.00000000	-17.34744000	-9.89173200
128.06665924	0.00000000	-17.34744000	-9.51648500
128.26665923	0.00000000	-16.92298000	-9.47342500
128.46665921	0.00000000	-15.80955000	-9.47342500
128.66665920	0.00000000	-14.64690000	-9.47342500
128.86665919	0.00000000	-13.85334000	-9.47342500
129.06665918	0.00000000	-13.11516000	-9.47342500
129.26665917	0.00000000	-13.11516000	-9.47342500
129.46665915	0.00000000	-13.85334000	-9.47342500
129.66665914	0.00000000	-14.60384000	-9.47342500
129.86665913	0.00000000	-15.43430000	-9.47342500
130.06665912	0.00000000	-16.18479000	-9.47342500
130.26665911	0.00000000	-16.97219000	-9.47342500
130.46665909	0.00000000	-17.29823000	-9.43036400
130.66665908	0.00000000	-16.92298000	-9.05511800
130.86665907	0.00000000	-15.80955000	-8.31077700
131.06665906	0.00000000	-14.64690000	-7.93553100
131.26665905	0.00000000	-13.85334000	-7.93553100
131.46665904	0.00000000	-13.11516000	-8.31077700
131.66665902	0.00000000	-13.11516000	-9.05511800
131.86665901	0.00000000	-13.85334000	-9.47342500
132.06665900	0.00000000	-14.60384000	-9.89173200
132.26665899	0.00000000	-15.43430000	-10.62992000
132.46665898	0.00000000	-16.14173000	-10.95595000
132.66665896	0.00000000	-16.55389000	-10.62992000
132.86665895	0.00000000	-16.18479000	-9.89173200
133.06665894	0.00000000	-15.85261000	-9.47342500
133.26665893	0.00000000	-15.76649000	-9.05511800
133.46665892	0.00000000	-15.43430000	-8.31077700
133.66665890	0.00000000	-15.02214000	-7.93553100
133.86665889	0.00000000	-15.05905000	-7.93553100
134.06665888	0.00000000	-15.02214000	-8.31077700
134.26665887	0.00000000	-15.39124000	-9.09817800
134.46665886	0.00000000	-15.39124000	-9.84867000
134.66665885	0.00000000	-15.02214000	-10.62992000
134.86665883	0.00000000	-15.01599000	-11.00517000
135.06665882	0.00000000	-14.60384000	-11.04823000
135.26665881	0.00000000	-14.27165000	-11.00517000
135.46665880	0.00000000	-14.22859000	-10.62992000
135.66665879	0.00000000	-14.22859000	-9.84867000
135.86665877	0.00000000	-14.27165000	-9.09817800
136.06665876	0.00000000	-14.64690000	-8.31077700
136.26665875	0.00000000	-15.43430000	-7.93553100
136.46665874	0.00000000	-16.14173000	-7.89247000
136.66665873	0.00000000	-16.55389000	-7.93553100
136.86665871	0.00000000	-16.18479000	-8.31077700
137.06665870	0.00000000	-15.85261000	-9.05511800
137.26665869	0.00000000	-15.76649000	-9.43036400
137.46665868	0.00000000	-15.39124000	-9.51648500
137.66665867	0.00000000	-14.60384000	-9.89173200
137.86665866	0.00000000	-13.89641000	-10.62992000
138.06665864	0.00000000	-13.48425000	-11.00517000
138.26665863	0.00000000	-13.89641000	-11.04823000
138.46665862	0.00000000	-14.60384000	-11.00517000
138.66665861	0.00000000	-15.39124000	-10.58686000
138.86665860	0.00000000	-15.76649000	-9.51648500
139.06665858	0.00000000	-15.80955000	-8.72908400
139.26665857	0.00000000	-15.80955000	-8.72293300
139.46665856	0.00000000	-15.76649000	-8.64296200
139.66665855	0.00000000	-15.39124000	-8.63681000
139.86665854	0.00000000	-14.64690000	-7.89247000
140.06665852	0.00000000	-14.27165000	-7.24040300
140.26665851	0.00000000	-14.22859000	-7.93553100
140.46665850	0.00000000	-14.22859000	-9.05511800
140.66665849	0.00000000	-14.27165000	-9.84867000
140.86665848	0.00000000	-14.64690000	-10.62992000
141.06665847	0.00000000	-15.39124000	-11.00517000
141.26665845	0.00000000	-15.76649000	-11.00517000
141.46665844	0.00000000	-15.80955000	-10.62992000
141.66665843	0.00000000	-15.80955000	-9.84867000
141.86665842	0.00000000	-15.80955000	-9.09817800
142.06665841	0.00000000	-15.76649000	-8.26771600
142.26665839	0.00000000	-15.39124000	-7.56028500
142.46665838	0.00000000	-14.64690000	-7.14812900
142.66665837	0.00000000	-14.27165000	-7.56028500
142.86665836	0.00000000	-14.22859000	-8.26771600
143.06665835	0.00000000	-14.27165000	-9.09817800
143.26665834	0.00000000	-14.64690000	-9.84867000
143.46665832	0.00000000	-15.39124000	-10.62992000
143.66665831	0.00000000	-15.76649000	-11.00517000
143.86665830	0.00000000	-15.80955000	-11.04823000
144.06665829	0.00000000	-15.76649000	-11.00517000
144.26665828	0.00000000	-15.39124000	-10.58686000
144.46665826	0.00000000	-14.64690000	-9.47342500
144.66665825	0.00000000	-14.27165000	-8.35998900
144.86665824	0.00000000	-14.22859000	-7.93553100
145.06665823	0.00000000	-14.27165000	-7.89247000
145.26665822	0.00000000	-14.60384000	-7.89247000
145.46665820	0.00000000	-15.01599000	-7.93553100
145.66665819	0.00000000	-15.02214000	-8.35998900
145.86665818	0.00000000	-15.43430000	-9.47342500
146.06665817	0.00000000	-15.76649000	-10.58686000
146.26665816	0.00000000	-15.80955000	-11.00517000
146.46665815	0.00000000	-15.76649000	-11.04823000
146.66665813	0.00000000	-15.39124000	-11.00517000
146.86665812	0.00000000	-14.64690000	-10.62992000
147.06665811	0.00000000	-14.27165000	-9.89173200
147.26665810	0.00000000	-14.22859000	-9.47342500
147.46665809	0.00000000	-14.22859000	-9.05511800
147.66665807	0.00000000	-14.27165000	-8.31077700
147.86665806	0.00000000	-14.64690000	-7.98474400
148.06665805	0.00000000	-15.39124000	-8.31077700
148.26665804	0.00000000	-15.76649000	-9.05511800
148.46665803	0.00000000	-15.80955000	-9.43036400
148.66665801	0.00000000	-15.80955000	-9.47342500
148.86665800	0.00000000	-15.76649000	-9.47342500
149.06665799	0.00000000	-15.39124000	-9.51648500
149.26665798	0.00000000	-14.64690000	-9.89173200
149.46665797	0.00000000	-14.27165000	-10.58686000
149.66665796	0.00000000	-14.22859000	-10.58686000
149.86665794	0.00000000	-14.22859000	-9.89173200
150.06665793	0.00000000	-14.22859000	-9.47342500
150.26665792	0.00000000	-14.22859000	-9.05511800
150.46665791	0.00000000	-14.27165000	-8.35998900
150.66665790	0.00000000	-14.64690000	-8.31077700
150.86665788	0.00000000	-15.39124000	-8.63681000
151.06665787	0.00000000	-15.76649000	-8.31077700
151.26665786	0.00000000	-15.80955000	-8.35998900
151.46665785	0.00000000	-15.80955000	-9.05511800
151.66665784	0.00000000	-15.80955000	-9.43036400
151.86665782	0.00000000	-15.76649000	-9.47342500
152.06665781	0.00000000	-15.39124000	-9.47342500
152.26665780	0.00000000	-14.64690000	-9.47342500
152.46665779	0.00000000	-14.27165000	-9.47342500
152.66665778	0.00000000	-14.22859000	-9.47342500
152.86665777	0.00000000	-14.22859000	-9.43036400
153.06665775	0.00000000	-14.22859000	-9.09817800
153.26665774	0.00000000	-14.27165000	-8.72908400
153.46665773	0.00000000	-14.64690000	-9.09817800
153.66665772	0.00000000	-15.39124000	-9.38115100
153.86665771	0.00000000	-15.80955000	-9.05511800
154.06665769	0.00000000	-16.18479000	-8.35998900
154.26665768	0.00000000	-16.55389000	-8.35998900
154.46665767	0.00000000	-16.18479000	-9.05511800
154.66665766	0.00000000	-15.85261000	-9.43036400
154.86665765	0.00000000	-15.76649000	-9.47342500
155.06665763	0.00000000	-15.39124000	-9.47342500
155.26665762	0.00000000	-14.64690000	-9.47342500
155.46665761	0.00000000	-14.27165000	-9.47342500
155.66665760	0.00000000	-14.22859000	-9.47342500
155.86665759	0.00000000	-14.22859000	-9.47342500
156.06665758	0.00000000	-14.22859000	-9.47342500
156.26665756	0.00000000	-14.27165000	-9.47342500
156.46665755	0.00000000	-14.64690000	-9.43036400
156.66665754	0.00000000	-15.39124000	-9.05511800
156.86665753	0.00000000	-15.76649000	-8.31077700
157.06665752	0.00000000	-15.80955000	-7.93553100
157.26665750	0.00000000	-15.80955000	-7.93553100
157.46665749	0.00000000	-15.80955000	-8.31077700
157.66665748	0.00000000	-15.76649000	-9.05511800
157.86665747	0.00000000	-15.39124000	-9.43036400
158.06665746	0.00000000	-14.64690000	-9.47342500
158.26665744	0.00000000	-14.27165000	-9.47342500
158.46665743	0.00000000	-14.22859000	-9.47342500
158.66665742	0.00000000	-14.22859000	-9.47342500
158.86665741	0.00000000	-14.22859000	-9.47342500
159.06665740	0.00000000	-14.27165000	-9.47342500
159.26665739	0.00000000	-14.64690000	-9.47342500
159.46665737	0.00000000	-15.39124000	-9.43036400
159.66665736	0.00000000	-15.76649000	-9.05511800
159.86665735	0.00000000	-15.80955000	-8.31077700
160.06665734	0.00000000	-15.80955000	-7.93553100
160.26665733	0.00000000	-15.80955000	-7.93553100
160.46665731	0.00000000	-15.80955000	-8.31077700
160.66665730	0.00000000	-15.80955000	-9.05511800
160.86665729	0.00000000	-15.80955000	-9.47342500
161.06665728	0.00000000	-15.76649000	-9.84867000
161.26665727	0.00000000	-15.39124000	-10.25467000
161.46665725	0.00000000	-14.64690000	-10.21776000
161.66665724	0.00000000	-14.27165000	-10.25467000
161.86665723	0.00000000	-14.22859000	-9.84867000
162.06665722	0.00000000	-14.22859000	-9.51648500
162.26665721	0.00000000	-14.22859000	-9.47342500
162.46665720	0.00000000	-14.22859000	-9.47342500
162.66665718	0.00000000	-14.22859000	-9.47342500
162.86665717	0.00000000	-14.27165000	-9.47342500
163.06665716	0.00000000	-14.64690000	-9.47342500
163.26665715	0.00000000	-15.39124000	-9.47342500
163.46665714	0.00000000	-15.76649000	-9.47342500
163.66665712	0.00000000	-15.80955000	-9.47342500
163.86665711	0.00000000	-15.80955000	-9.47342500
164.06665710	0.00000000	-15.80955000	-9.51648500
164.26665709	0.00000000	-15.76649000	-9.84867000
164.46665708	0.00000000	-15.39124000	-10.21161000
164.66665706	0.00000000	-14.64690000	-9.84867000
164.86665705	0.00000000	-14.27165000	-9.56569900
165.06665704	0.00000000	-14.22859000	-9.84867000
165.26665703	0.00000000	-14.22859000	-10.21161000
165.46665702	0.00000000	-14.27165000	-9.84867000
165.66665701	0.00000000	-14.64690000	-9.51648500
165.86665699	0.00000000	-15.39124000	-9.47342500
166.06665698	0.00000000	-15.76649000	-9.47342500
166.26665697	0.00000000	-15.80955000	-9.47342500
166.46665696	0.00000000	-15.80955000	-9.47342500
166.66665695	0.00000000	-15.80955000	-9.47342500
166.86665693	0.00000000	-15.80955000	-9.47342500
167.06665692	0.00000000	-15.76649000	-9.47342500
167.26665691	0.00000000	-15.39124000	-9.47342500
167.46665690	0.00000000	-14.69611000	-9.47342500
167.66665689	0.00000000	-14.64690000	-9.47342500
167.86665687	0.00000000	-15.01599000	-9.47342500
168.06665686	0.00000000	-14.97908000	-9.47342500
168.26665685	0.00000000	-15.01599000	-9.47342500
168.46665684	0.00000000	-14.64690000	-9.47342500
168.66665683	0.00000000	-14.69611000	-9.47342500
168.86665682	0.00000000	-15.39124000	-9.47342500
169.06665680	0.00000000	-15.76649000	-9.47342500
169.26665679	0.00000000	-15.80955000	-9.47342500
169.46665678	0.00000000	-15.80955000	-9.47342500
169.66665677	0.00000000	-15.80955000	-9.47342500
169.86665676	0.00000000	-15.76649000	-9.47342500
170.06665674	0.00000000	-15.43430000	-9.47342500
170.26665673	0.00000000	-15.06521000	-9.47342500
170.46665672	0.00000000	-15.43430000	-9.47342500
170.66665671	0.00000000	-15.76649000	-9.47342500
170.86665670	0.00000000	-15.80955000	-9.47342500
171.06665668	0.00000000	-15.76649000	-9.47342500
171.26665667	0.00000000	-15.43430000	-9.47342500
171.46665666	0.00000000	-15.02214000	-9.47342500
171.66665665	0.00000000	-15.01599000	-9.47342500
171.86665664	0.00000000	-14.64690000	-9.47342500
172.06665663	0.00000000	-14.69611000	-9.47342500
172.26665661	0.00000000	-15.39124000	-9.47342500
172.46665660	0.00000000	-15.76649000	-9.47342500
172.66665659	0.00000000	-15.80955000	-9.47342500
172.86665658	0.00000000	-15.80955000	-9.47342500
173.06665657	0.00000000	-15.80955000	-9.47342500
173.26665655	0.00000000	-15.80955000	-9.47342500
173.46665654	0.00000000	-15.80955000	-9.47342500
173.66665653	0.00000000	-15.76649000	-9.47342500
173.86665652	0.00000000	-15.39124000	-9.47342500
174.06665651	0.00000000	-14.69611000	-9.47342500
174.26665649	0.00000000	-14.69611000	-9.47342500
174.46665648	0.00000000	-15.34203000	-9.47342500
174.66665647	0.00000000	-15.39124000	-9.47342500
174.86665646	0.00000000	-15.06521000	-9.47342500
175.06665645	0.00000000	-15.43430000	-9.47342500
175.26665644	0.00000000	-15.76649000	-9.47342500
175.46665642	0.00000000	-15.80955000	-9.47342500
175.66665641	0.00000000	-15.80955000	-9.47342500
175.86665640	0.00000000	-15.80955000	-9.47342500
176.06665639	0.00000000	-15.80955000	-9.47342500
176.26665638	0.00000000	-15.80955000	-9.47342500
176.46665636	0.00000000	-15.76649000	-9.47342500
176.66665635	0.00000000	-15.43430000	-9.47342500
176.86665634	0.00000000	-15.06521000	-9.47342500
177.06665633	0.00000000	-15.43430000	-9.47342500
177.26665632	0.00000000	-15.76649000	-9.47342500
177.46665630	0.00000000	-15.80955000	-9.47342500
177.66665629	0.00000000	-15.80955000	-9.47342500
177.86665628	0.00000000	-15.80955000	-9.47342500
178.06665627	0.00000000	-15.80955000	-9.47342500
178.26665626	0.00000000	-15.80955000	-9.47342500
178.46665625	0.00000000	-15.76649000	-9.47342500
178.66665623	0.00000000	-15.43430000	-9.47342500
178.86665622	0.00000000	-15.06521000	-9.47342500
179.06665621	0.00000000	-15.43430000	-9.47342500
179.26665620	0.00000000	-15.76649000	-9.47342500
179.46665619	0.00000000	-15.80955000	-9.47342500
179.66665617	0.00000000	-15.76649000	-9.47342500
179.86665616	0.00000000	-15.43430000	-9.47342500
180.06665615	0.00000000	-15.02214000	-9.47342500
180.26665614	0.00000000	-15.05905000	-9.47342500
180.46665613	0.00000000	-15.02214000	-9.47342500
180.66665611	0.00000000	-15.43430000	-9.47342500
180.86665610	0.00000000	-15.76649000	-9.47342500
181.06665609	0.00000000	-15.80955000	-9.47342500
181.26665608	0.00000000	-15.80955000	-9.47342500
181.46665607	0.00000000	-15.80955000	-9.43036400
181.66665606	0.00000000	-15.76649000	-9.05511800
181.86665604	0.00000000	-15.43430000	-8.35998900
182.06665603	0.00000000	-15.06521000	-8.35998900
182.26665602	0.00000000	-15.39124000	-9.05511800
182.46665601	0.00000000	-15.39124000	-9.43036400
182.66665600	0.00000000	-15.06521000	-9.47342500
182.86665598	0.00000000	-15.43430000	-9.51648500
183.06665597	0.00000000	-15.76649000	-9.84867000
183.26665596	0.00000000	-15.80955000	-10.21161000
183.46665595	0.00000000	-15.80955000	-9.84867000
183.66665594	0.00000000	-15.80955000	-9.51648500
183.86665592	0.00000000	-15.80955000	-9.47342500
184.06665591	0.00000000	-15.80955000	-9.47342500
184.26665590	0.00000000	-15.80955000	-9.47342500
184.46665589	0.00000000	-15.80955000	-9.43036400
184.66665588	0.00000000	-15.80955000	-9.05511800
184.86665587	0.00000000	-15.80955000	-8.31077700
185.06665585	0.00000000	-15.80955000	-7.98474400
185.26665584	0.00000000	-15.76649000	-8.31077700
185.46665583	0.00000000	-15.39124000	-9.05511800
185.66665582	0.00000000	-14.64690000	-9.47342500
185.86665581	0.00000000	-14.32087000	-9.84867000
186.06665579	0.00000000	-14.60384000	-10.25467000
186.26665578	0.00000000	-15.01599000	-10.21776000
186.46665577	0.00000000	-15.02214000	-10.25467000
186.66665576	0.00000000	-15.43430000	-9.84867000
186.86665575	0.00000000	-15.76649000	-9.51648500
187.06665573	0.00000000	-15.80955000	-9.47342500
187.26665572	0.00000000	-15.80955000	-9.47342500
187.46665571	0.00000000	-15.80955000	-9.47342500
187.66665570	0.00000000	-15.80955000	-9.47342500
187.86665569	0.00000000	-15.80955000	-9.43036400
188.06665568	0.00000000	-15.80955000	-9.09817800
188.26665566	0.00000000	-15.80955000	-8.72908400
188.46665565	0.00000000	-15.76649000	-9.09817800
188.66665564	0.00000000	-15.43430000	-9.43036400
188.86665563	0.00000000	-15.02214000	-9.47342500
189.06665562	0.00000000	-15.01599000	-9.51648500
189.26665560	0.00000000	-14.64690000	-9.84867000
189.46665559	0.00000000	-14.69611000	-10.21161000
189.66665558	0.00000000	-15.39124000	-9.84867000
189.86665557	0.00000000	-15.76649000	-9.51648500
190.06665556	0.00000000	-15.80955000	-9.47342500
190.26665554	0.00000000	-15.80955000	-9.47342500
190.46665553	0.00000000	-15.80955000	-9.47342500
190.66665552	0.00000000	-15.80955000	-9.47342500
190.86665551	0.00000000	-15.80955000	-9.47342500
191.06665550	0.00000000	-15.80955000	-9.47342500
191.26665549	0.00000000	-15.80955000	-9.47342500
191.46665547	0.00000000	-15.80955000	-9.47342500
191.66665546	0.00000000	-15.76649000	-9.47342500
191.86665545	0.00000000	-15.43430000	-9.47342500
192.06665544	0.00000000	-15.02214000	-9.47342500
192.26665543	0.00000000	-15.05905000	-9.47342500
192.46665541	0.00000000	-15.02214000	-9.47342500
192.66665540	0.00000000	-15.43430000	-9.47342500
192.86665539	0.00000000	-15.76649000	-9.47342500
193.06665538	0.00000000	-15.80955000	-9.47342500
193.26665537	0.00000000	-15.80955000	-9.47342500
193.46665535	0.00000000	-15.80955000	-9.47342500
193.66665534	0.00000000	-15.80955000	-9.47342500
193.86665533	0.00000000	-15.80955000	-9.47342500
194.06665532	0.00000000	-15.80955000	-9.47342500
194.26665531	0.00000000	-15.76649000	-9.47342500
194.46665530	0.00000000	-15.39124000	-9.47342500
194.66665528	0.00000000	-14.64690000	-9.47342500
194.86665527	0.00000000	-14.32087000	-9.47342500
195.06665526	0.00000000	-14.60384000	-9.47342500
195.26665525	0.00000000	-15.01599000	-9.47342500
195.46665524	0.00000000	-15.02214000	-9.47342500
195.66665522	0.00000000	-15.43430000	-9.47342500
195.86665521	0.00000000	-15.76649000	-9.47342500
196.06665520	0.00000000	-15.80955000	-9.47342500
