Time	Channel A	Channel B	Channel C
(us)	(V)	(mV)	(mV)

-4.59999956	0.00000000	-32.36343000	-11.04823000
-4.39999957	0.00000000	-31.99434000	-11.04823000
-4.19999958	0.00000000	-31.66215000	-11.04823000
-3.99999959	0.00000000	-31.61909000	-11.04823000
-3.79999960	0.00000000	-31.61909000	-11.04823000
-3.59999962	0.00000000	-31.61909000	-11.04823000
-3.39999963	0.00000000	-31.61909000	-11.04823000
-3.19999964	0.00000000	-31.61909000	-11.04823000
-2.99999965	0.00000000	-31.61909000	-11.04823000
-2.79999966	0.00000000	-31.61909000	-11.04823000
-2.59999968	0.00000000	-31.66215000	-11.04823000
-2.39999969	0.00000000	-31.95128000	-11.04823000
-2.19999970	0.00000000	-31.98819000	-11.04823000
-1.99999971	0.00000000	-31.25000000	-11.04823000
-1.79999972	0.00000000	-31.28691000	-11.04823000
-1.59999973	0.00000000	-31.57603000	-11.04823000
-1.39999975	0.00000000	-31.61909000	-11.04823000
-1.19999976	0.00000000	-31.61909000	-11.04823000
-0.99999977	0.00000000	-31.61909000	-11.04823000
-0.79999978	0.00000000	-31.61909000	-11.04823000
-0.59999979	0.00000000	-31.61909000	-11.04823000
-0.39999981	0.00000000	-31.61909000	-11.04823000
-0.19999982	0.47736220	-31.57603000	-11.00517000
0.00000017	0.79601380	-31.24384000	-10.62992000
0.20000016	0.95533960	-30.87475000	-9.93479300
0.40000015	0.95533960	-31.24384000	-9.93479300
0.60000013	0.63668800	-31.57603000	-10.62992000
0.80000012	0.00000000	-31.61909000	-10.95595000
1.00000011	-0.95533960	-31.61909000	-10.67298000
1.20000010	-1.91129400	-31.61909000	-10.26698000
1.40000009	-2.70792300	-31.61909000	-10.25467000
1.60000008	-2.70792300	-31.61909000	-9.84867000
1.80000006	-2.07062000	-31.61909000	-9.51648500
2.00000005	-0.47736220	-31.61909000	-9.47342500
2.20000004	1.59264300	-31.61909000	-9.47342500
2.40000003	3.66326300	-31.61909000	-9.51648500
2.60000002	4.93786900	-31.61909000	-9.89173200
2.80000000	5.25652100	-31.61909000	-10.62992000
2.99999999	4.14124000	-31.61909000	-11.00517000
3.19999998	1.59264300	-31.61909000	-11.04823000
3.39999997	-1.75196900	-31.61909000	-11.04823000
3.59999996	-4.93786900	-31.61909000	-11.00517000
3.79999994	-7.32714100	-31.61909000	-10.62992000
3.99999993	-7.96444400	-31.61909000	-9.89173200
4.19999992	-6.53112700	-31.61909000	-9.51648500
4.39999991	-3.34522600	-31.61909000	-9.47342500
4.59999990	0.95533960	-31.61909000	-9.47342500
4.79999989	5.25652100	-31.61909000	-9.51648500
4.99999987	8.44242100	-31.61909000	-9.89173200
5.19999986	9.39837600	-31.61909000	-10.62992000
5.39999985	8.12377000	-31.61909000	-11.00517000
5.59999984	4.77854300	-31.61909000	-11.04823000
5.79999983	0.15871060	-31.61909000	-11.04823000
5.99999981	-4.45989200	-31.61909000	-11.00517000
6.19999980	-7.96444400	-31.61909000	-10.62992000
6.39999979	-9.55770200	-31.66215000	-9.93479300
6.59999978	-8.60174700	-31.95128000	-9.89173200
6.79999977	-5.57517200	-31.98819000	-10.21161000
6.99999975	-1.43331700	-31.25000000	-9.84867000
7.19999974	2.86724900	-31.28691000	-9.56569900
7.39999973	6.21247500	-31.57603000	-9.89173200
7.59999972	7.64579200	-31.61909000	-10.62992000
7.79999971	7.32714100	-31.61909000	-11.00517000
7.99999970	5.09719500	-31.61909000	-11.04823000
8.19999968	1.91129400	-31.61909000	-11.04823000
8.39999967	-1.43331700	-31.61909000	-11.04823000
8.59999966	-3.82258900	-31.61909000	-11.04823000
8.79999965	-5.09719500	-31.61909000	-11.04823000
8.99999964	-4.93786900	-31.61909000	-11.04823000
9.19999962	-3.66326300	-31.61909000	-11.00517000
9.39999961	-1.75196900	-31.61909000	-10.67298000
9.59999960	0.15871060	-31.61909000	-10.31004000
9.79999959	1.75196900	-31.61909000	-10.67298000
9.99999958	2.38927200	-31.61909000	-11.00517000
10.19999956	2.38927200	-31.61909000	-11.04823000
10.39999955	1.91129400	-31.61909000	-11.04823000
10.59999954	0.95533960	-31.61909000	-11.04823000
10.79999953	0.15871060	-31.61909000	-11.04823000
10.99999952	-0.47736220	-31.61909000	-11.04823000
11.19999951	-0.95533960	-31.61909000	-11.04823000
11.39999949	-0.95533960	-31.61909000	-11.04823000
11.59999948	-0.95533960	-31.61909000	-11.04823000
11.79999947	-0.63668800	-31.61909000	-11.04823000
11.99999946	-0.31803640	-31.61909000	-11.04823000
12.19999945	-0.15871060	-31.57603000	-11.04823000
12.39999943	-0.15871060	-31.24384000	-11.00517000
12.59999942	0.00000000	-30.87475000	-10.62992000
12.79999941	0.00000000	-31.24384000	-9.89173200
12.99999940	0.00000000	-31.57603000	-9.56569900
13.19999939	0.00000000	-31.61909000	-9.89173200
13.39999937	0.00000000	-31.61909000	-10.62992000
13.59999936	0.00000000	-31.61909000	-10.95595000
13.79999935	0.00000000	-31.61909000	-10.62992000
13.99999934	-0.15871060	-31.61909000	-9.89173200
14.19999933	-0.15871060	-31.61909000	-9.56569900
14.39999932	-0.15871060	-31.61909000	-9.84867000
14.59999930	-0.15871060	-31.61909000	-10.25467000
14.79999929	0.00000000	-31.61909000	-10.26698000
14.99999928	0.00000000	-31.61909000	-10.62992000
15.19999927	0.00000000	-31.61909000	-10.62992000
15.39999926	0.15871060	-31.61909000	-10.31004000
15.59999924	0.00000000	-31.61909000	-10.62992000
15.79999923	0.00000000	-31.61909000	-10.62992000
15.99999922	0.00000000	-31.61909000	-10.26698000
16.19999921	0.00000000	-31.61909000	-10.25467000
16.39999920	0.00000000	-31.61909000	-9.89173200
16.59999919	-0.15871060	-31.57603000	-9.93479300
16.79999917	-0.15871060	-31.20078000	-10.58686000
16.99999916	0.00000000	-30.45644000	-10.58686000
17.19999915	0.00000000	-30.03814000	-9.89173200
17.39999914	0.00000000	-29.66289000	-9.56569900
17.59999913	0.00000000	-29.29380000	-9.84867000
17.79999911	0.00000000	-29.70595000	-10.25467000
17.99999910	0.00000000	-30.45644000	-10.26698000
18.19999909	0.00000000	-31.66215000	-10.67298000
18.39999908	0.00000000	-33.20005000	-11.00517000
18.59999907	0.00000000	-34.73794000	-11.00517000
18.79999905	0.00000000	-35.90059000	-10.62992000
18.99999904	0.00000000	-36.27584000	-9.93479300
19.19999903	0.00000000	-35.85752000	-9.93479300
19.39999902	0.00000000	-34.23351000	-10.62992000
19.59999901	0.00000000	-31.10851000	-11.00517000
19.79999900	0.00000000	-26.87623000	-11.00517000
19.99999898	0.00000000	-22.68701000	-10.62992000
20.19999897	0.00000000	-19.99262000	-9.93479300
20.39999896	0.00000000	-19.61737000	-9.89173200
20.59999895	0.00000000	-21.61663000	-10.21161000
20.79999894	0.00000000	-26.31643000	-9.84867000
20.99999892	0.00000000	-33.24926000	-9.51648500
21.19999891	0.00000000	-40.64345000	-9.47342500
21.39999890	0.00000000	-47.20718000	-9.47342500
21.59999889	0.00000000	-51.72244000	-9.47342500
21.79999888	0.00000000	-51.58710000	-9.51648500
21.99999886	0.00000000	-45.81693000	-9.89173200
22.19999885	0.00000000	-35.72219000	-10.62992000
22.39999884	0.00000000	-23.33907000	-11.00517000
22.59999883	0.00000000	-11.01747000	-11.04823000
22.79999882	0.00000000	-2.17150600	-11.04823000
22.99999881	0.00000000	0.85506890	-11.00517000
23.19999879	0.00000000	-3.10039400	-10.62992000
23.39999878	0.00000000	-14.35777000	-9.84867000
23.59999877	0.00000000	-30.59178000	-9.09817800
23.79999876	0.00000000	-48.36983000	-8.35998900
23.99999875	0.00000000	-63.76722000	-8.35998900
24.19999873	0.00000000	-72.57013000	-9.05511800
24.39999872	0.00000000	-72.15181000	-9.47342500
24.59999871	0.00000000	-62.05708000	-9.98400600
24.79999870	0.00000000	-44.23597000	-11.51575000
24.99999869	0.00000000	-22.18258000	-13.74262000
25.19999867	0.00000000	-0.63976370	-15.27436000
25.39999866	0.00000000	14.75763000	-15.69267000
25.59999865	0.00000000	19.74040000	-15.27436000
25.79999864	0.00000000	13.17667000	-13.65650000
25.99999863	0.00000000	-3.84473400	-10.53765000
26.19999862	0.00000000	-27.38681000	-6.31151500
26.39999860	0.00000000	-52.14074000	-2.08538400
26.59999859	0.00000000	-72.57013000	0.97810030
26.79999858	0.00000000	-83.73523000	2.09153500
26.99999857	0.00000000	-82.57258000	0.46751960
27.19999856	0.00000000	-69.49433000	-4.17691900
27.39999854	0.00000000	-47.90846000	-11.14050000
27.59999853	0.00000000	-23.15453000	-18.85458000
27.79999852	0.00000000	-0.72588580	-25.82431000
27.99999851	0.00000000	14.75763000	-30.37647000
28.19999850	0.00000000	19.78961000	-31.07775000
28.39999848	0.00000000	13.64419000	-26.75935000
28.59999847	0.00000000	-2.17150600	-17.88263000
28.79999846	0.00000000	-23.76353000	-6.26845500
28.99999845	0.00000000	-45.81693000	5.67175200
29.19999844	0.00000000	-63.63803000	15.28666000
29.39999843	0.00000000	-73.77583000	19.88804000
29.59999841	0.00000000	-74.52632000	18.31324000
29.79999840	0.00000000	-66.09251000	10.50689000
29.99999839	0.00000000	-50.28297000	-2.63902500
30.19999838	0.00000000	-31.75443000	-18.43627000
30.39999837	0.00000000	-14.26550000	-33.12008000
30.59999835	0.00000000	-1.10113200	-43.52854000
30.79999834	0.00000000	5.08735200	-47.34252000
30.99999833	0.00000000	3.22342500	-43.06717000
31.19999832	0.00000000	-5.98548200	-31.45300000
31.39999831	0.00000000	-19.48204000	-14.85605000
31.59999829	0.00000000	-34.23351000	3.30339500
31.79999828	0.00000000	-47.39788000	18.73154000
31.99999827	0.00000000	-56.32997000	28.38951000
32.19999826	0.00000000	-59.44266000	29.92126000
32.39999825	0.00000000	-56.37303000	23.00074000
32.59999824	0.00000000	-47.90846000	9.43651600
32.79999822	0.00000000	-36.36811000	-8.31077700
32.99999821	0.00000000	-24.73548000	-26.47638000
33.19999820	0.00000000	-15.42815000	-40.74188000
33.39999819	0.00000000	-10.03322000	-48.54207000
33.59999818	0.00000000	-9.99015700	-48.12992000
33.79999816	0.00000000	-14.96063000	-40.04060000
33.99999815	0.00000000	-23.01919000	-25.73203000
34.19999814	0.00000000	-32.27116000	-8.40305000
34.39999813	0.00000000	-39.99754000	7.85556000
34.59999812	0.00000000	-44.69734000	19.84498000
34.79999810	0.00000000	-45.85999000	25.27682000
34.99999809	0.00000000	-43.16560000	22.95768000
35.19999808	0.00000000	-37.43848000	13.70571000
35.39999807	0.00000000	-30.50566000	-0.55364170
35.59999806	0.00000000	-24.36024000	-16.30167000
35.79999805	0.00000000	-20.50320000	-29.45374000
35.99999803	0.00000000	-20.07874000	-37.21087000
36.19999802	0.00000000	-22.73007000	-38.42273000
36.39999801	0.00000000	-27.38681000	-33.03395000
36.59999800	0.00000000	-33.11393000	-22.66855000
36.79999799	0.00000000	-38.09055000	-9.98400600
36.99999797	0.00000000	-40.46506000	1.58710600
37.19999796	0.00000000	-40.46506000	9.30118100
37.39999795	0.00000000	-38.13361000	11.62032000
37.59999794	0.00000000	-33.53223000	7.76943800
37.79999793	0.00000000	-28.54946000	-0.97194880
37.99999791	0.00000000	-24.26796000	-11.70029000
38.19999790	0.00000000	-21.57357000	-20.90305000
38.39999789	0.00000000	-21.14911000	-26.29183000
38.59999788	0.00000000	-22.68701000	-26.29183000
38.79999787	0.00000000	-25.84892000	-20.95226000
38.99999786	0.00000000	-30.45644000	-12.16781000
39.19999784	0.00000000	-35.43922000	-2.59596400
39.39999783	0.00000000	-38.93332000	4.65059000
39.59999782	0.00000000	-40.51427000	7.34498000
39.79999781	0.00000000	-40.18209000	4.65059000
39.99999780	0.00000000	-38.23203000	-2.59596400
40.19999778	0.00000000	-35.48228000	-12.21087000
40.39999777	0.00000000	-31.57603000	-21.41363000
40.59999776	0.00000000	-27.38681000	-27.91584000
40.79999775	0.00000000	-24.22490000	-29.40452000
40.99999774	0.00000000	-22.26870000	-25.22145000
41.19999772	0.00000000	-21.52436000	-16.81225000
41.39999771	0.00000000	-22.68701000	-6.82209600
41.59999770	0.00000000	-25.33834000	2.04847400
41.79999769	0.00000000	-28.50024000	7.81250000
41.99999768	0.00000000	-31.99434000	8.96899500
42.19999767	0.00000000	-35.43922000	5.16117100
42.39999765	0.00000000	-37.39542000	-2.12844500
42.59999764	0.00000000	-37.85679000	-11.00517000
42.79999763	0.00000000	-37.43848000	-19.41437000
42.99999762	0.00000000	-35.90059000	-24.85236000
43.19999761	0.00000000	-33.57529000	-26.06422000
43.39999759	0.00000000	-31.24384000	-23.78199000
43.59999758	0.00000000	-28.92470000	-18.39321000
43.79999757	0.00000000	-27.38681000	-11.51575000
43.99999756	0.00000000	-26.91929000	-5.29035400
44.19999755	0.00000000	-26.87623000	-0.64591530
44.39999753	0.00000000	-26.87623000	1.63016700
44.59999752	0.00000000	-26.91929000	0.51673230
44.79999751	0.00000000	-27.29453000	-3.20497000
44.99999750	0.00000000	-28.03888000	-7.47416300
45.19999749	0.00000000	-28.45718000	-11.38041000
45.39999748	0.00000000	-28.96776000	-14.85605000
45.59999746	0.00000000	-30.54872000	-16.76919000
45.79999745	0.00000000	-33.24926000	-16.81225000
45.99999744	0.00000000	-36.31890000	-15.27436000
46.19999743	0.00000000	-39.01944000	-12.58612000
46.39999742	0.00000000	-40.51427000	-9.51648500
46.59999740	0.00000000	-40.08981000	-6.82209600
46.79999739	0.00000000	-37.34621000	-5.24729300
46.99999738	0.00000000	-32.68946000	-4.82898600
47.19999737	0.00000000	-26.87623000	-5.24729300
47.39999736	0.00000000	-21.06299000	-6.77903500
47.59999734	0.00000000	-16.45546000	-9.09817800
47.79999733	0.00000000	-14.26550000	-11.42347000
47.99999732	0.00000000	-16.22170000	-13.74262000
48.19999731	0.00000000	-22.36097000	-15.27436000
48.39999730	0.00000000	-30.45644000	-15.64960000
48.59999729	0.00000000	-38.97638000	-14.85605000
48.79999727	0.00000000	-45.90305000	-12.53691000
48.99999726	0.00000000	-49.35408000	-9.47342500
49.19999725	0.00000000	-48.60359000	-6.36072800
49.39999724	0.00000000	-43.54084000	-3.66633800
49.59999723	0.00000000	-35.43922000	-2.17150600
49.79999721	0.00000000	-25.76279000	-2.54675200
49.99999720	0.00000000	-16.96604000	-4.87204700
50.19999719	0.00000000	-11.57111000	-8.31077700
50.39999718	0.00000000	-11.19587000	-12.21087000
50.59999717	0.00000000	-15.76033000	-15.64960000
50.79999715	0.00000000	-23.84965000	-17.97490000
50.99999714	0.00000000	-33.11393000	-18.30093000
51.19999713	0.00000000	-41.57849000	-16.43701000
51.39999712	0.00000000	-46.93036000	-12.96137000
51.59999711	0.00000000	-47.35482000	-9.09817800
51.79999710	0.00000000	-43.20866000	-5.19808000
51.99999708	0.00000000	-36.27584000	-2.17765700
52.19999707	0.00000000	-28.54946000	-1.01501000
52.39999706	0.00000000	-21.61663000	-2.17765700
52.59999705	0.00000000	-17.38435000	-5.19808000
52.79999704	0.00000000	-17.00910000	-9.05511800
52.99999702	0.00000000	-20.45399000	-12.53691000
53.19999701	0.00000000	-26.96850000	-15.23130000
53.39999700	0.00000000	-34.23351000	-16.39395000
53.59999699	0.00000000	-40.00369000	-15.64960000
53.79999698	0.00000000	-42.69808000	-13.74262000
53.99999696	0.00000000	-41.58464000	-11.04823000
54.19999695	0.00000000	-37.39542000	-8.35383800
54.39999694	0.00000000	-31.61909000	-6.44685000
54.59999693	0.00000000	-25.84892000	-5.70866100
54.79999692	0.00000000	-21.61663000	-6.82209600
54.99999691	0.00000000	-20.07874000	-9.05511800
55.19999689	0.00000000	-21.57357000	-10.96211000
55.39999688	0.00000000	-25.43061000	-12.11860000
55.59999687	0.00000000	-30.41338000	-12.07554000
55.79999686	0.00000000	-35.43922000	-10.58686000
55.99999685	0.00000000	-38.88410000	-8.31077700
56.19999683	0.00000000	-40.04675000	-6.40378900
56.39999682	0.00000000	-38.50886000	-5.24729300
56.59999681	0.00000000	-34.69488000	-5.29035400
56.79999680	0.00000000	-30.08735000	-6.86515700
56.99999679	0.00000000	-25.80585000	-9.93479300
57.19999677	0.00000000	-22.77928000	-13.74262000
57.39999676	0.00000000	-21.94882000	-16.81225000
57.59999675	0.00000000	-23.47441000	-18.35015000
57.79999674	0.00000000	-26.13189000	-17.88263000
57.99999673	0.00000000	-29.66289000	-14.76993000
58.19999672	0.00000000	-33.06471000	-9.42421200
58.39999670	0.00000000	-35.39001000	-3.66633800
58.59999669	0.00000000	-35.81446000	0.93503930
58.79999668	0.00000000	-34.73794000	3.21112200
58.99999667	0.00000000	-33.15699000	2.04847400
59.19999666	0.00000000	-31.20078000	-2.17765700
59.39999664	0.00000000	-28.92470000	-8.35383800
59.59999663	0.00000000	-27.38681000	-15.27436000
59.79999662	0.00000000	-26.96850000	-21.03838000
59.99999661	0.00000000	-27.34375000	-24.10802000
60.19999660	0.00000000	-28.50024000	-23.68971000
60.39999658	0.00000000	-29.99508000	-19.46358000
60.59999657	0.00000000	-31.15157000	-12.58612000
60.79999656	0.00000000	-31.52682000	-5.20423200
60.99999655	0.00000000	-31.20078000	1.35334600
61.19999654	0.00000000	-30.41338000	5.89936000
61.39999653	0.00000000	-29.66289000	6.23154500
61.59999651	0.00000000	-28.87549000	2.09153500
61.79999650	0.00000000	-28.54946000	-4.82898600
61.99999649	0.00000000	-28.92470000	-12.58612000
62.19999648	0.00000000	-30.08120000	-19.92495000
62.39999647	0.00000000	-31.57603000	-25.27067000
62.59999645	0.00000000	-32.73252000	-26.80241000
62.79999644	0.00000000	-33.10777000	-24.10802000
62.99999643	0.00000000	-32.73252000	-17.97490000
63.19999642	0.00000000	-31.57603000	-9.93479300
63.39999641	0.00000000	-30.03814000	-2.59596400
63.59999639	0.00000000	-28.45718000	2.46678100
63.79999638	0.00000000	-26.91929000	4.82898600
63.99999637	0.00000000	-25.80585000	4.04773600
64.19999636	0.00000000	-25.80585000	0.55979330
64.39999635	0.00000000	-26.96850000	-5.24729300
64.59999634	0.00000000	-28.87549000	-12.11860000
64.79999632	0.00000000	-31.15157000	-17.92569000
64.99999631	0.00000000	-32.68946000	-21.41363000
65.19999630	0.00000000	-33.10777000	-22.24409000
65.39999629	0.00000000	-32.73252000	-20.34941000
65.59999628	0.00000000	-31.57603000	-16.90453000
65.79999626	0.00000000	-30.08120000	-12.62918000
65.99999625	0.00000000	-28.87549000	-8.35998900
66.19999624	0.00000000	-28.12500000	-4.82283400
66.39999623	0.00000000	-27.76206000	-2.08538400
66.59999622	0.00000000	-28.54946000	-0.55364170
66.79999620	0.00000000	-30.03814000	-0.51058070
66.99999619	0.00000000	-31.57603000	-1.66707700
67.19999618	0.00000000	-32.73252000	-3.61712600
67.39999617	0.00000000	-33.06471000	-6.36072800
67.59999616	0.00000000	-32.27116000	-9.51648500
67.79999615	0.00000000	-29.99508000	-13.00443000
67.99999613	0.00000000	-27.34375000	-16.48622000
68.19999612	0.00000000	-25.38755000	-18.76845000
68.39999611	0.00000000	-24.26796000	-19.59892000
68.59999610	0.00000000	-24.68627000	-18.76845000
68.79999609	0.00000000	-27.01156000	-16.43701000
68.99999607	0.00000000	-30.45644000	-12.53691000
69.19999606	0.00000000	-34.36884000	-7.89247000
69.39999605	0.00000000	-37.77067000	-3.24803100
69.59999604	0.00000000	-39.67150000	0.55979330
69.79999603	0.00000000	-38.88410000	2.09153500
69.99999601	0.00000000	-35.81446000	0.97810030
70.19999600	0.00000000	-31.15772000	-2.12844500
70.39999599	0.00000000	-25.71358000	-6.77903500
70.59999598	0.00000000	-20.78002000	-12.21087000
70.79999597	0.00000000	-17.66732000	-17.18750000
70.99999596	0.00000000	-17.66117000	-20.66314000
71.19999594	0.00000000	-19.99262000	-21.41363000
71.39999593	0.00000000	-24.68627000	-19.50664000
71.59999592	0.00000000	-31.20078000	-15.28051000
71.79999591	0.00000000	-37.34621000	-9.93479300
71.99999590	0.00000000	-41.67076000	-5.29035400
72.19999588	0.00000000	-43.54084000	-2.17765700
72.39999587	0.00000000	-42.41511000	-0.97194880
72.59999586	0.00000000	-38.13976000	-1.75319900
72.79999585	0.00000000	-32.40649000	-4.03543200
72.99999584	0.00000000	-26.18110000	-7.47416300
73.19999582	0.00000000	-21.14911000	-10.53765000
73.39999581	0.00000000	-18.03642000	-12.49385000
73.59999580	0.00000000	-17.29208000	-13.28125000
73.79999579	0.00000000	-19.61737000	-12.53691000
73.99999578	0.00000000	-24.18184000	-11.04823000
74.19999577	0.00000000	-29.61983000	-9.51648500
74.39999575	0.00000000	-34.60876000	-8.40305000
74.59999574	0.00000000	-38.13361000	-8.40305000
74.79999573	0.00000000	-39.30241000	-9.51648500
74.99999572	0.00000000	-38.55807000	-11.04823000
75.19999571	0.00000000	-35.85752000	-12.58612000
75.39999569	0.00000000	-31.99434000	-13.65650000
75.59999568	0.00000000	-28.12500000	-13.23819000
75.79999567	0.00000000	-24.68627000	-10.96211000
75.99999566	0.00000000	-23.15453000	-7.89247000
76.19999565	0.00000000	-23.80659000	-4.77977300
76.39999563	0.00000000	-25.33834000	-2.12844500
76.59999562	0.00000000	-27.29453000	-1.05807100
76.79999561	0.00000000	-29.57062000	-2.59596400
76.99999560	0.00000000	-31.10851000	-6.44685000
77.19999559	0.00000000	-31.57603000	-11.42347000
77.39999558	0.00000000	-31.57603000	-16.43701000
77.59999556	0.00000000	-31.20078000	-19.88189000
77.79999555	0.00000000	-30.45644000	-21.08760000
77.99999554	0.00000000	-30.13041000	-19.88189000
78.19999553	0.00000000	-30.45644000	-16.39395000
78.39999552	0.00000000	-31.20078000	-11.00517000
78.59999550	0.00000000	-31.57603000	-5.24729300
78.79999549	0.00000000	-31.57603000	-0.59670270
78.99999548	0.00000000	-31.15157000	2.09153500
79.19999547	0.00000000	-29.94586000	2.09153500
79.39999546	0.00000000	-28.08194000	-0.55364170
79.59999544	0.00000000	-26.13189000	-4.82898600
79.79999543	0.00000000	-25.01230000	-9.84867000
79.99999542	0.00000000	-24.64321000	-14.85605000
80.19999541	0.00000000	-25.84892000	-18.35015000
80.39999540	0.00000000	-28.45718000	-19.93110000
80.59999539	0.00000000	-31.15157000	-19.50664000
80.79999537	0.00000000	-33.15699000	-16.85531000
80.99999536	0.00000000	-34.69488000	-13.00443000
81.19999535	0.00000000	-35.43922000	-9.14124000
81.39999534	0.00000000	-34.65182000	-5.61638700
81.59999533	0.00000000	-32.73868000	-3.29109200
81.79999531	0.00000000	-29.99508000	-2.04232300
81.99999530	0.00000000	-26.96850000	-1.71013800
82.19999529	0.00000000	-24.64321000	-2.46063000
82.39999528	0.00000000	-23.89271000	-4.40452700
82.59999527	0.00000000	-24.60015000	-6.72982200
82.79999525	0.00000000	-26.54404000	-9.51648500
82.99999524	0.00000000	-28.83243000	-12.58612000
83.19999523	0.00000000	-31.15157000	-15.27436000
83.39999522	0.00000000	-32.68946000	-16.85531000
83.59999521	0.00000000	-33.10777000	-17.23056000
83.79999520	0.00000000	-32.73252000	-16.43701000
83.99999518	0.00000000	-31.57603000	-14.11786000
84.19999517	0.00000000	-30.08120000	-11.00517000
84.39999516	0.00000000	-28.92470000	-7.47416300
84.59999515	0.00000000	-28.50024000	-3.66633800
84.79999514	0.00000000	-28.45718000	-0.97194880
84.99999512	0.00000000	-28.45718000	-0.17839570
85.19999511	0.00000000	-28.45718000	-0.97194880
85.39999510	0.00000000	-28.45718000	-3.70939900
85.59999509	0.00000000	-28.45718000	-7.93553100
85.79999508	0.00000000	-28.45718000	-12.58612000
85.99999506	0.00000000	-28.45718000	-16.81225000
86.19999505	0.00000000	-28.50024000	-19.50664000
86.39999504	0.00000000	-28.87549000	-19.88189000
86.59999503	0.00000000	-29.66289000	-17.97490000
86.79999502	0.00000000	-30.41338000	-14.07480000
86.99999501	0.00000000	-31.24384000	-9.09817800
87.19999499	0.00000000	-31.95128000	-4.08464600
87.39999498	0.00000000	-32.36343000	-0.64591530
87.59999497	0.00000000	-31.90207000	0.55979330
87.79999496	0.00000000	-30.78248000	-0.59670270
87.99999495	0.00000000	-28.87549000	-3.70939900
88.19999493	0.00000000	-27.34375000	-8.31077700
88.39999492	0.00000000	-26.54404000	-13.28125000
88.59999491	0.00000000	-26.13189000	-16.76919000
88.79999490	0.00000000	-26.59326000	-18.30093000
88.99999489	0.00000000	-27.71284000	-17.50738000
89.19999487	0.00000000	-29.61983000	-14.07480000
89.39999486	0.00000000	-31.15157000	-9.51648500
89.59999485	0.00000000	-31.95128000	-5.24729300
89.79999484	0.00000000	-32.36343000	-2.12844500
89.99999483	0.00000000	-31.95128000	-0.63976370
90.19999482	0.00000000	-31.20078000	-1.43946800
90.39999480	0.00000000	-30.03814000	-4.87204700
90.59999479	0.00000000	-28.87549000	-9.43036400
90.79999478	0.00000000	-28.08194000	-13.69956000
90.99999477	0.00000000	-27.34375000	-16.76919000
91.19999476	0.00000000	-27.34375000	-17.92569000
91.39999474	0.00000000	-28.03888000	-16.76919000
91.59999473	0.00000000	-28.41412000	-13.69956000
91.79999472	0.00000000	-28.50024000	-9.47342500
91.99999471	0.00000000	-28.83243000	-5.24729300
92.19999470	0.00000000	-29.20152000	-2.17765700
92.39999468	0.00000000	-28.87549000	-1.01501000
92.59999467	0.00000000	-28.92470000	-2.17765700
92.79999466	0.00000000	-29.61983000	-5.24729300
92.99999465	0.00000000	-30.03814000	-9.47342500
93.19999464	0.00000000	-30.45644000	-13.69956000
93.39999463	0.00000000	-31.24384000	-16.72613000
93.59999461	0.00000000	-31.90207000	-17.46432000
93.79999460	0.00000000	-31.89591000	-15.23130000
93.99999459	0.00000000	-30.41338000	-11.42347000
94.19999458	0.00000000	-28.87549000	-7.56028500
94.39999457	0.00000000	-27.62057000	-4.08464600
94.59999455	0.00000000	-25.71358000	-2.17150600
94.79999454	0.00000000	-24.22490000	-2.17150600
94.99999453	0.00000000	-23.84965000	-4.12770700
95.19999452	0.00000000	-24.64321000	-7.93553100
95.39999451	0.00000000	-26.96850000	-12.11860000
95.59999449	0.00000000	-30.03814000	-15.18824000
95.79999448	0.00000000	-33.15699000	-16.39395000
95.99999447	0.00000000	-35.81446000	-15.60654000
96.19999446	0.00000000	-36.97712000	-13.32431000
96.39999445	0.00000000	-36.18971000	-9.89173200
96.59999444	0.00000000	-33.90133000	-6.82209600
96.79999442	0.00000000	-30.37032000	-4.87204700
96.99999441	0.00000000	-26.54404000	-4.08464600
97.19999440	0.00000000	-23.06225000	-4.82283400
97.39999439	0.00000000	-21.14911000	-6.36072800
97.59999438	0.00000000	-21.06299000	-8.31077700
97.79999436	0.00000000	-22.26870000	-10.58686000
97.99999435	0.00000000	-24.64321000	-12.11860000
98.19999434	0.00000000	-28.50024000	-12.53691000
98.39999433	0.00000000	-32.68946000	-12.16166000
98.59999432	0.00000000	-35.81446000	-11.00517000
98.79999430	0.00000000	-37.35236000	-9.51648500
98.99999429	0.00000000	-36.97712000	-8.35998900
99.19999428	0.00000000	-34.69488000	-7.93553100
99.39999427	0.00000000	-31.57603000	-7.89247000
99.59999426	0.00000000	-28.08194000	-7.89247000
99.79999425	0.00000000	-24.60015000	-7.89247000
99.99999423	0.00000000	-22.31176000	-7.84940900
100.19999422	0.00000000	-21.48130000	-7.47416300
100.39999421	0.00000000	-22.26870000	-6.72982200
100.59999420	0.00000000	-24.13263000	-6.40378900
100.79999419	0.00000000	-26.54404000	-6.77903500
100.99999417	0.00000000	-29.25074000	-7.93553100
101.19999416	0.00000000	-32.36343000	-9.47342500
101.39999415	0.00000000	-34.60876000	-11.04823000
101.59999414	0.00000000	-35.43922000	-12.58612000
101.79999413	0.00000000	-34.69488000	-13.69956000
101.99999411	0.00000000	-33.15699000	-13.65650000
102.19999410	0.00000000	-31.20078000	-12.16781000
102.39999409	0.00000000	-28.87549000	-9.84867000
102.59999408	0.00000000	-26.96850000	-7.51722400
102.79999407	0.00000000	-25.71358000	-5.15501900
102.99999406	0.00000000	-24.96309000	-3.29109200
103.19999404	0.00000000	-24.60015000	-2.54675200
103.39999403	0.00000000	-25.43061000	-3.70939900
103.59999402	0.00000000	-27.29453000	-6.36072800
103.79999401	0.00000000	-29.61983000	-9.47342500
103.99999400	0.00000000	-31.52682000	-12.53691000
104.19999398	0.00000000	-32.73252000	-14.85605000
104.39999397	0.00000000	-33.10777000	-15.60654000
104.59999396	0.00000000	-32.73252000	-14.85605000
104.79999395	0.00000000	-31.57603000	-12.53691000
104.99999394	0.00000000	-30.03814000	-9.47342500
105.19999392	0.00000000	-28.50024000	-6.40378900
105.39999391	0.00000000	-27.34375000	-4.12770700
105.59999390	0.00000000	-26.91929000	-3.70939900
105.79999389	0.00000000	-26.91929000	-4.82283400
105.99999388	0.00000000	-27.34375000	-6.72982200
106.19999387	0.00000000	-28.45718000	-9.05511800
106.39999385	0.00000000	-29.57062000	-10.96211000
106.59999384	0.00000000	-29.99508000	-12.16166000
106.79999383	0.00000000	-30.03814000	-12.53691000
106.99999382	0.00000000	-29.99508000	-12.16166000
107.19999381	0.00000000	-29.61983000	-10.96211000
107.39999379	0.00000000	-28.83243000	-9.09817800
107.59999378	0.00000000	-28.08194000	-7.14812900
107.79999377	0.00000000	-27.34375000	-6.07160400
107.99999376	0.00000000	-27.34375000	-5.99163300
108.19999375	0.00000000	-28.08194000	-7.19119100
108.39999374	0.00000000	-28.87549000	-8.64296200
108.59999372	0.00000000	-30.03814000	-10.25467000
108.79999371	0.00000000	-31.15157000	-11.33120000
108.99999370	0.00000000	-31.52682000	-11.79257000
109.19999369	0.00000000	-31.15157000	-11.33120000
109.39999368	0.00000000	-29.99508000	-10.25467000
109.59999366	0.00000000	-28.50024000	-8.68602300
109.79999365	0.00000000	-27.29453000	-7.51722400
109.99999364	0.00000000	-26.54404000	-6.36072800
110.19999363	0.00000000	-26.13189000	-5.66560000
110.39999362	0.00000000	-26.54404000	-6.36072800
110.59999360	0.00000000	-27.29453000	-7.51722400
110.79999359	0.00000000	-28.45718000	-8.68602300
110.99999358	0.00000000	-29.61983000	-10.25467000
111.19999357	0.00000000	-30.41338000	-11.33120000
111.39999356	0.00000000	-31.15157000	-11.79257000
111.59999355	0.00000000	-31.15157000	-11.42347000
111.79999353	0.00000000	-30.41338000	-11.04823000
111.99999352	0.00000000	-29.66289000	-10.58686000
112.19999351	0.00000000	-28.87549000	-9.47342500
112.39999350	0.00000000	-28.45718000	-8.35998900
112.59999349	0.00000000	-28.08194000	-7.93553100
112.79999347	0.00000000	-27.71284000	-7.89247000
112.99999346	0.00000000	-28.08194000	-7.89247000
113.19999345	0.00000000	-28.41412000	-7.89247000
113.39999344	0.00000000	-28.50024000	-7.93553100
113.59999343	0.00000000	-28.87549000	-8.31077700
113.79999341	0.00000000	-29.61983000	-9.05511800
113.99999340	0.00000000	-29.94586000	-9.43036400
114.19999339	0.00000000	-29.61983000	-9.47342500
114.39999338	0.00000000	-28.87549000	-9.47342500
114.59999337	0.00000000	-28.50024000	-9.47342500
114.79999336	0.00000000	-28.45718000	-9.51648500
114.99999334	0.00000000	-28.45718000	-9.84867000
115.19999333	0.00000000	-28.45718000	-10.21161000
115.39999332	0.00000000	-28.45718000	-9.84867000
115.59999331	0.00000000	-28.45718000	-9.51648500
115.79999330	0.00000000	-28.45718000	-9.43036400
115.99999328	0.00000000	-28.50024000	-9.05511800
116.19999327	0.00000000	-28.87549000	-8.26771600
116.39999326	0.00000000	-29.61983000	-7.51722400
116.59999325	0.00000000	-29.99508000	-6.77903500
116.79999324	0.00000000	-29.99508000	-6.77903500
116.99999322	0.00000000	-29.61983000	-7.51722400
117.19999321	0.00000000	-28.87549000	-8.31077700
117.39999320	0.00000000	-28.45718000	-9.47342500
117.59999319	0.00000000	-28.03888000	-10.58686000
117.79999318	0.00000000	-27.29453000	-11.00517000
117.99999317	0.00000000	-26.96850000	-11.04823000
118.19999315	0.00000000	-27.25147000	-11.00517000
118.39999314	0.00000000	-27.66363000	-10.58686000
118.59999313	0.00000000	-27.71284000	-9.47342500
118.79999312	0.00000000	-28.50024000	-8.35998900
118.99999311	0.00000000	-29.61983000	-7.89247000
119.19999309	0.00000000	-30.41338000	-7.47416300
119.39999308	0.00000000	-31.15157000	-6.72982200
119.59999307	0.00000000	-31.10851000	-6.40378900
119.79999306	0.00000000	-30.03814000	-6.72982200
119.99999305	0.00000000	-28.87549000	-7.51722400
120.19999303	0.00000000	-28.03888000	-8.26771600
120.39999302	0.00000000	-26.87623000	-9.05511800
120.59999301	0.00000000	-25.76279000	-9.43036400
120.79999300	0.00000000	-25.38755000	-9.47342500
120.99999299	0.00000000	-25.71358000	-9.47342500
121.19999298	0.00000000	-26.54404000	-9.47342500
121.39999296	0.00000000	-27.66978000	-9.47342500
121.59999295	0.00000000	-29.24459000	-9.47342500
121.79999294	0.00000000	-30.37032000	-9.47342500
121.99999293	0.00000000	-31.15157000	-9.43036400
122.19999292	0.00000000	-31.15157000	-9.05511800
122.39999290	0.00000000	-30.41338000	-8.26771600
122.59999289	0.00000000	-29.61983000	-7.56028500
122.79999288	0.00000000	-28.45718000	-7.14812900
122.99999287	0.00000000	-27.34375000	-7.51722400
123.19999286	0.00000000	-26.91929000	-7.84940900
123.39999284	0.00000000	-26.87623000	-7.93553100
123.59999283	0.00000000	-26.87623000	-8.31077700
123.79999282	0.00000000	-26.91929000	-9.05511800
123.99999281	0.00000000	-27.29453000	-9.43036400
124.19999280	0.00000000	-28.03888000	-9.51648500
124.39999279	0.00000000	-28.45718000	-9.84867000
124.59999277	0.00000000	-28.87549000	-10.21161000
124.79999276	0.00000000	-29.61983000	-9.84867000
124.99999275	0.00000000	-29.99508000	-9.47342500
125.19999274	0.00000000	-30.03814000	-9.05511800
125.39999273	0.00000000	-29.99508000	-8.31077700
125.59999271	0.00000000	-29.61983000	-7.93553100
125.79999270	0.00000000	-28.83243000	-7.89247000
125.99999269	0.00000000	-28.08194000	-7.89247000
126.19999268	0.00000000	-27.29453000	-7.89247000
126.39999267	0.00000000	-26.87623000	-7.93553100
126.59999265	0.00000000	-26.50098000	-8.31077700
126.79999264	0.00000000	-26.18110000	-9.05511800
126.99999263	0.00000000	-26.91929000	-9.43036400
127.19999262	0.00000000	-28.03888000	-9.47342500
127.39999261	0.00000000	-28.83243000	-9.47342500
127.59999260	0.00000000	-29.61983000	-9.47342500
127.79999258	0.00000000	-29.99508000	-9.47342500
127.99999257	0.00000000	-30.03814000	-9.43036400
128.19999256	0.00000000	-29.99508000	-9.05511800
128.39999255	0.00000000	-29.57062000	-8.31077700
128.59999254	0.00000000	-28.41412000	-7.93553100
128.79999252	0.00000000	-26.96850000	-7.89247000
128.99999251	0.00000000	-26.13189000	-7.93553100
129.19999250	0.00000000	-26.12574000	-8.31077700
129.39999249	0.00000000	-26.13189000	-9.05511800
129.59999248	0.00000000	-26.96850000	-9.43036400
129.79999246	0.00000000	-28.41412000	-9.47342500
129.99999245	0.00000000	-29.57062000	-9.47342500
130.19999244	0.00000000	-29.99508000	-9.47342500
130.39999243	0.00000000	-30.03814000	-9.43036400
130.59999242	0.00000000	-29.99508000	-9.05511800
130.79999241	0.00000000	-29.57062000	-8.31077700
130.99999239	0.00000000	-28.45718000	-7.93553100
131.19999238	0.00000000	-27.34375000	-7.93553100
131.39999237	0.00000000	-26.91929000	-8.31077700
131.59999236	0.00000000	-26.87623000	-9.05511800
131.79999235	0.00000000	-26.91929000	-9.43036400
131.99999233	0.00000000	-27.29453000	-9.47342500
132.19999232	0.00000000	-28.08194000	-9.47342500
132.39999231	0.00000000	-28.83243000	-9.47342500
132.59999230	0.00000000	-29.61983000	-9.47342500
132.79999229	0.00000000	-29.94586000	-9.43036400
132.99999227	0.00000000	-29.61983000	-9.05511800
133.19999226	0.00000000	-28.87549000	-8.31077700
133.39999225	0.00000000	-28.50024000	-7.89247000
133.59999224	0.00000000	-28.45718000	-7.51722400
133.79999223	0.00000000	-28.41412000	-7.14812900
133.99999222	0.00000000	-28.08194000	-7.56028500
134.19999220	0.00000000	-27.71284000	-8.26771600
134.39999219	0.00000000	-28.08194000	-9.09817800
134.59999218	0.00000000	-28.41412000	-9.84867000
134.79999217	0.00000000	-28.41412000	-10.62992000
134.99999216	0.00000000	-28.08194000	-10.95595000
135.19999214	0.00000000	-27.66978000	-10.62992000
135.39999213	0.00000000	-27.66363000	-9.89173200
135.59999212	0.00000000	-27.29453000	-9.47342500
135.79999211	0.00000000	-27.34375000	-9.05511800
135.99999210	0.00000000	-28.03888000	-8.31077700
136.19999208	0.00000000	-28.41412000	-7.89247000
136.39999207	0.00000000	-28.50024000	-7.51722400
136.59999206	0.00000000	-28.83243000	-7.14812900
136.79999205	0.00000000	-29.20152000	-7.51722400
136.99999204	0.00000000	-28.83243000	-7.89247000
137.19999203	0.00000000	-28.45718000	-8.31077700
137.39999201	0.00000000	-28.03888000	-9.05511800
137.59999200	0.00000000	-27.29453000	-9.43036400
137.79999199	0.00000000	-26.91929000	-9.47342500
137.99999198	0.00000000	-26.87623000	-9.47342500
138.19999197	0.00000000	-26.87623000	-9.47342500
138.39999195	0.00000000	-26.91929000	-9.47342500
138.59999194	0.00000000	-27.34375000	-9.47342500
138.79999193	0.00000000	-28.45718000	-9.43036400
138.99999192	0.00000000	-29.57062000	-9.05511800
139.19999191	0.00000000	-29.94586000	-8.26771600
139.39999189	0.00000000	-29.61983000	-7.51722400
139.59999188	0.00000000	-28.87549000	-6.77903500
139.79999187	0.00000000	-28.45718000	-6.77903500
139.99999186	0.00000000	-28.03888000	-7.47416300
140.19999185	0.00000000	-27.29453000	-7.89247000
140.39999184	0.00000000	-26.91929000	-8.35998900
140.59999182	0.00000000	-26.91929000	-9.47342500
140.79999181	0.00000000	-27.29453000	-10.58686000
140.99999180	0.00000000	-28.03888000	-11.00517000
141.19999179	0.00000000	-28.41412000	-11.00517000
141.39999178	0.00000000	-28.45718000	-10.62992000
141.59999176	0.00000000	-28.45718000	-9.84867000
141.79999175	0.00000000	-28.45718000	-9.05511800
141.99999174	0.00000000	-28.41412000	-7.89247000
142.19999173	0.00000000	-28.03888000	-6.77903500
142.39999172	0.00000000	-27.29453000	-6.35457700
142.59999170	0.00000000	-26.91929000	-6.35457700
142.79999169	0.00000000	-26.87623000	-6.77903500
142.99999168	0.00000000	-26.91929000	-7.89247000
143.19999167	0.00000000	-27.29453000	-9.05511800
143.39999166	0.00000000	-28.03888000	-9.84867000
143.59999165	0.00000000	-28.41412000	-10.62992000
143.79999163	0.00000000	-28.45718000	-10.95595000
143.99999162	0.00000000	-28.41412000	-10.62992000
144.19999161	0.00000000	-28.03888000	-9.84867000
144.39999160	0.00000000	-27.29453000	-9.09817800
144.59999159	0.00000000	-26.91929000	-8.26771600
144.79999157	0.00000000	-26.87623000	-7.51722400
144.99999156	0.00000000	-26.87623000	-6.72982200
145.19999155	0.00000000	-26.87623000	-6.40378900
145.39999154	0.00000000	-26.91929000	-6.72982200
145.59999153	0.00000000	-27.29453000	-7.51722400
145.79999151	0.00000000	-28.03888000	-8.26771600
145.99999150	0.00000000	-28.41412000	-9.05511800
146.19999149	0.00000000	-28.45718000	-9.43036400
146.39999148	0.00000000	-28.41412000	-9.47342500
146.59999147	0.00000000	-28.03888000	-9.47342500
146.79999146	0.00000000	-27.29453000	-9.47342500
146.99999144	0.00000000	-26.91929000	-9.43036400
147.19999143	0.00000000	-26.87623000	-9.05511800
147.39999142	0.00000000	-26.87623000	-8.31077700
147.59999141	0.00000000	-26.91929000	-7.93553100
147.79999140	0.00000000	-27.29453000	-7.89247000
147.99999138	0.00000000	-28.03888000	-7.89247000
148.19999137	0.00000000	-28.41412000	-7.89247000
148.39999136	0.00000000	-28.45718000	-7.89247000
148.59999135	0.00000000	-28.45718000	-7.93553100
148.79999134	0.00000000	-28.41412000	-8.31077700
148.99999132	0.00000000	-28.03888000	-9.05511800
149.19999131	0.00000000	-27.29453000	-9.43036400
149.39999130	0.00000000	-26.91929000	-9.47342500
149.59999129	0.00000000	-26.87623000	-9.47342500
149.79999128	0.00000000	-26.87623000	-9.47342500
149.99999127	0.00000000	-26.87623000	-9.43036400
150.19999125	0.00000000	-26.87623000	-9.05511800
150.39999124	0.00000000	-26.91929000	-8.31077700
150.59999123	0.00000000	-27.29453000	-7.93553100
150.79999122	0.00000000	-28.03888000	-7.89247000
150.99999121	0.00000000	-28.41412000	-7.89247000
151.19999119	0.00000000	-28.50024000	-7.93553100
151.39999118	0.00000000	-28.83243000	-8.26771600
151.59999117	0.00000000	-29.15231000	-8.63681000
151.79999116	0.00000000	-28.41412000	-8.31077700
151.99999115	0.00000000	-27.34375000	-8.35998900
152.19999113	0.00000000	-26.91929000	-9.05511800
152.39999112	0.00000000	-26.87623000	-9.43036400
152.59999111	0.00000000	-26.87623000	-9.43036400
152.79999110	0.00000000	-26.87623000	-9.09817800
152.99999109	0.00000000	-26.87623000	-8.68602300
153.19999108	0.00000000	-26.91929000	-8.67987200
153.39999106	0.00000000	-27.29453000	-8.26771600
153.59999105	0.00000000	-28.03888000	-7.93553100
153.79999104	0.00000000	-28.41412000	-7.89247000
153.99999103	0.00000000	-28.45718000	-7.89247000
154.19999102	0.00000000	-28.45718000	-7.89247000
154.39999100	0.00000000	-28.45718000	-7.89247000
154.59999099	0.00000000	-28.41412000	-7.89247000
154.79999098	0.00000000	-28.03888000	-7.89247000
154.99999097	0.00000000	-27.29453000	-7.93553100
155.19999096	0.00000000	-26.91929000	-8.31077700
155.39999094	0.00000000	-26.87623000	-9.05511800
155.59999093	0.00000000	-26.83317000	-9.38115100
155.79999092	0.00000000	-26.50098000	-9.05511800
155.99999091	0.00000000	-26.13189000	-8.31077700
156.19999090	0.00000000	-26.50098000	-7.93553100
156.39999089	0.00000000	-26.87623000	-7.89247000
156.59999087	0.00000000	-27.29453000	-7.89247000
156.79999086	0.00000000	-28.03888000	-7.89247000
156.99999085	0.00000000	-28.41412000	-7.89247000
157.19999084	0.00000000	-28.45718000	-7.89247000
157.39999083	0.00000000	-28.45718000	-7.89247000
157.59999081	0.00000000	-28.41412000	-7.93553100
157.79999080	0.00000000	-28.08194000	-8.31077700
157.99999079	0.00000000	-27.62672000	-9.05511800
158.19999078	0.00000000	-27.28839000	-9.43036400
158.39999077	0.00000000	-26.50713000	-9.47342500
158.59999075	0.00000000	-26.54404000	-9.43036400
158.79999074	0.00000000	-26.83317000	-9.09817800
158.99999073	0.00000000	-26.87623000	-8.68602300
159.19999072	0.00000000	-26.87623000	-8.67987200
159.39999071	0.00000000	-26.91929000	-8.26771600
159.59999070	0.00000000	-27.25147000	-7.93553100
159.79999068	0.00000000	-27.66363000	-7.89247000
159.99999067	0.00000000	-27.66978000	-7.89247000
160.19999066	0.00000000	-28.08194000	-7.89247000
160.39999065	0.00000000	-28.41412000	-7.89247000
160.59999064	0.00000000	-28.41412000	-7.93553100
160.79999062	0.00000000	-28.03888000	-8.31077700
160.99999061	0.00000000	-27.29453000	-9.05511800
161.19999060	0.00000000	-26.91929000	-9.43036400
161.39999059	0.00000000	-26.87623000	-9.43036400
161.59999058	0.00000000	-26.87623000	-9.05511800
161.79999056	0.00000000	-26.87623000	-8.31077700
161.99999055	0.00000000	-26.87623000	-7.93553100
162.19999054	0.00000000	-26.87623000	-7.89247000
162.39999053	0.00000000	-26.87623000	-7.89247000
162.59999052	0.00000000	-26.87623000	-7.89247000
162.79999051	0.00000000	-26.87623000	-7.89247000
162.99999049	0.00000000	-26.87623000	-7.89247000
163.19999048	0.00000000	-26.91929000	-7.89247000
163.39999047	0.00000000	-27.29453000	-7.89247000
163.59999046	0.00000000	-28.03888000	-7.93553100
163.79999045	0.00000000	-28.41412000	-8.26771600
163.99999043	0.00000000	-28.45718000	-8.63681000
164.19999042	0.00000000	-28.41412000	-8.26771600
164.39999041	0.00000000	-28.03888000	-7.93553100
164.59999040	0.00000000	-27.29453000	-7.89247000
164.79999039	0.00000000	-26.91929000	-7.89247000
164.99999037	0.00000000	-26.87623000	-7.93553100
165.19999036	0.00000000	-26.87623000	-8.26771600
165.39999035	0.00000000	-26.87623000	-8.63681000
165.59999034	0.00000000	-26.87623000	-8.26771600
165.79999033	0.00000000	-26.87623000	-7.93553100
165.99999032	0.00000000	-26.91929000	-7.89247000
166.19999030	0.00000000	-27.29453000	-7.89247000
166.39999029	0.00000000	-28.03888000	-7.93553100
166.59999028	0.00000000	-28.41412000	-8.26771600
166.79999027	0.00000000	-28.45718000	-8.63681000
166.99999026	0.00000000	-28.41412000	-8.26771600
167.19999024	0.00000000	-28.08194000	-7.93553100
167.39999023	0.00000000	-27.66978000	-7.89247000
167.59999022	0.00000000	-27.66363000	-7.89247000
167.79999021	0.00000000	-27.25147000	-7.89247000
167.99999020	0.00000000	-26.91929000	-7.89247000
168.19999018	0.00000000	-26.87623000	-7.89247000
168.39999017	0.00000000	-26.87623000	-7.89247000
168.59999016	0.00000000	-26.91929000	-7.89247000
168.79999015	0.00000000	-27.25147000	-7.89247000
168.99999014	0.00000000	-27.62057000	-7.89247000
169.19999013	0.00000000	-27.25147000	-7.89247000
169.39999011	0.00000000	-26.91929000	-7.89247000
169.59999010	0.00000000	-26.87623000	-7.89247000
169.79999009	0.00000000	-26.87623000	-7.89247000
169.99999008	0.00000000	-26.87623000	-7.89247000
170.19999007	0.00000000	-26.87623000	-7.89247000
170.39999005	0.00000000	-26.87623000	-7.89247000
170.59999004	0.00000000	-26.87623000	-7.89247000
170.79999003	0.00000000	-26.87623000	-7.89247000
170.99999002	0.00000000	-26.87623000	-7.89247000
171.19999001	0.00000000	-26.87623000	-7.89247000
171.39998999	0.00000000	-26.87623000	-7.89247000
171.59998998	0.00000000	-26.87623000	-7.89247000
171.79998997	0.00000000	-26.87623000	-7.93553100
171.99998996	0.00000000	-26.87623000	-8.26771600
172.19998995	0.00000000	-26.87623000	-8.63681000
172.39998994	0.00000000	-26.87623000	-8.26771600
172.59998992	0.00000000	-26.87623000	-7.93553100
172.79998991	0.00000000	-26.87623000	-7.89247000
172.99998990	0.00000000	-26.87623000	-7.89247000
173.19998989	0.00000000	-26.87623000	-7.89247000
173.39998988	0.00000000	-26.87623000	-7.89247000
173.59998986	0.00000000	-26.87623000	-7.89247000
173.79998985	0.00000000	-26.87623000	-7.89247000
173.99998984	0.00000000	-26.87623000	-7.89247000
174.19998983	0.00000000	-26.87623000	-7.89247000
174.39998982	0.00000000	-26.87623000	-7.89247000
174.59998980	0.00000000	-26.87623000	-7.89247000
174.79998979	0.00000000	-26.87623000	-7.89247000
174.99998978	0.00000000	-26.87623000	-7.93553100
175.19998977	0.00000000	-26.87623000	-8.26771600
175.39998976	0.00000000	-26.87623000	-8.63681000
175.59998975	0.00000000	-26.87623000	-8.26771600
175.79998973	0.00000000	-26.87623000	-7.93553100
175.99998972	0.00000000	-26.87623000	-7.89247000
176.19998971	0.00000000	-26.87623000	-7.89247000
176.39998970	0.00000000	-26.87623000	-7.89247000
176.59998969	0.00000000	-26.87623000	-7.89247000
176.79998967	0.00000000	-26.87623000	-7.89247000
176.99998966	0.00000000	-26.87623000	-7.89247000
177.19998965	0.00000000	-26.87623000	-7.89247000
177.39998964	0.00000000	-26.87623000	-7.89247000
177.59998963	0.00000000	-26.87623000	-7.89247000
177.79998961	0.00000000	-26.87623000	-7.89247000
177.99998960	0.00000000	-26.87623000	-7.89247000
178.19998959	0.00000000	-26.87623000	-7.89247000
178.39998958	0.00000000	-26.87623000	-7.89247000
178.59998957	0.00000000	-26.87623000	-7.89247000
178.79998956	0.00000000	-26.87623000	-7.89247000
178.99998954	0.00000000	-26.87623000	-7.89247000
179.19998953	0.00000000	-26.87623000	-7.89247000
179.39998952	0.00000000	-26.87623000	-7.89247000
179.59998951	0.00000000	-26.87623000	-7.89247000
179.79998950	0.00000000	-26.87623000	-7.89247000
179.99998948	0.00000000	-26.87623000	-7.89247000
180.19998947	0.00000000	-26.87623000	-7.89247000
180.39998946	0.00000000	-26.87623000	-7.89247000
180.59998945	0.00000000	-26.87623000	-7.89247000
180.79998944	0.00000000	-26.87623000	-7.89247000
180.99998942	0.00000000	-26.87623000	-7.89247000
181.19998941	0.00000000	-26.87623000	-7.89247000
181.39998940	0.00000000	-26.87623000	-7.89247000
181.59998939	0.00000000	-26.87623000	-7.89247000
181.79998938	0.00000000	-26.87623000	-7.89247000
181.99998937	0.00000000	-26.87623000	-7.89247000
182.19998935	0.00000000	-26.87623000	-7.89247000
182.39998934	0.00000000	-26.87623000	-7.89247000
182.59998933	0.00000000	-26.87623000	-7.89247000
182.79998932	0.00000000	-26.87623000	-7.93553100
182.99998931	0.00000000	-26.87623000	-8.31077700
183.19998929	0.00000000	-26.87623000	-9.05511800
183.39998928	0.00000000	-26.87623000	-9.38115100
183.59998927	0.00000000	-26.87623000	-9.05511800
183.79998926	0.00000000	-26.87623000	-8.31077700
183.99998925	0.00000000	-26.87623000	-7.93553100
184.19998923	0.00000000	-26.87623000	-7.89247000
184.39998922	0.00000000	-26.87623000	-7.89247000
184.59998921	0.00000000	-26.87623000	-7.89247000
184.79998920	0.00000000	-26.87623000	-7.89247000
184.99998919	0.00000000	-26.87623000	-7.89247000
185.19998918	0.00000000	-26.87623000	-7.89247000
185.39998916	0.00000000	-26.87623000	-7.89247000
185.59998915	0.00000000	-26.87623000	-7.89247000
185.79998914	0.00000000	-26.87623000	-7.93553100
185.99998913	0.00000000	-26.87623000	-8.31077700
186.19998912	0.00000000	-26.87623000	-9.05511800
186.39998910	0.00000000	-26.87623000	-9.43036400
186.59998909	0.00000000	-26.87623000	-9.43036400
186.79998908	0.00000000	-26.87623000	-9.05511800
186.99998907	0.00000000	-26.87623000	-8.31077700
187.19998906	0.00000000	-26.87623000	-7.93553100
187.39998904	0.00000000	-26.87623000	-7.89247000
187.59998903	0.00000000	-26.87623000	-7.84940900
187.79998902	0.00000000	-26.87623000	-7.51722400
187.99998901	0.00000000	-26.87623000	-7.14812900
188.19998900	0.00000000	-26.87623000	-7.51722400
188.39998899	0.00000000	-26.87623000	-7.84940900
188.59998897	0.00000000	-26.87623000	-7.89247000
188.79998896	0.00000000	-26.87623000	-7.89247000
188.99998895	0.00000000	-26.87623000	-7.93553100
189.19998894	0.00000000	-26.87623000	-8.26771600
189.39998893	0.00000000	-26.87623000	-8.67987200
189.59998891	0.00000000	-26.87623000	-8.64296200
189.79998890	0.00000000	-26.87623000	-8.67987200
189.99998889	0.00000000	-26.87623000	-8.26771600
190.19998888	0.00000000	-26.87623000	-7.93553100
190.39998887	0.00000000	-26.83317000	-7.89247000
190.59998885	0.00000000	-26.50098000	-7.89247000
190.79998884	0.00000000	-26.13189000	-7.89247000
190.99998883	0.00000000	-26.50098000	-7.89247000
191.19998882	0.00000000	-26.83317000	-7.89247000
191.39998881	0.00000000	-26.87623000	-7.89247000
191.59998880	0.00000000	-26.87623000	-7.89247000
191.79998878	0.00000000	-26.83317000	-7.89247000
191.99998877	0.00000000	-26.50098000	-7.89247000
192.19998876	0.00000000	-26.13189000	-7.89247000
192.39998875	0.00000000	-26.50098000	-7.89247000
192.59998874	0.00000000	-26.83317000	-7.89247000
192.79998872	0.00000000	-26.87623000	-7.89247000
192.99998871	0.00000000	-26.87623000	-7.89247000
193.19998870	0.00000000	-26.87623000	-7.89247000
193.39998869	0.00000000	-26.87623000	-7.89247000
193.59998868	0.00000000	-26.87623000	-7.89247000
193.79998866	0.00000000	-26.87623000	-7.89247000
193.99998865	0.00000000	-26.87623000	-7.89247000
194.19998864	0.00000000	-26.83317000	-7.89247000
194.39998863	0.00000000	-26.45792000	-7.89247000
194.59998862	0.00000000	-25.76279000	-7.89247000
194.79998861	0.00000000	-25.71358000	-7.89247000
194.99998859	0.00000000	-26.08268000	-7.89247000
195.19998858	0.00000000	-26.08883000	-7.89247000
195.39998857	0.00000000	-26.50098000	-7.89247000
195.59998856	0.00000000	-26.83317000	-7.89247000
195.79998855	0.00000000	-26.87623000	-7.89247000
195.99998853	0.00000000	-26.87623000	-7.89247000
