Time	Channel A	Channel B	Channel C
(us)	(V)	(mV)	(mV)

-4.49999956	0.00000000	-12.64764000	-9.47342500
-4.29999957	0.00000000	-12.64764000	-9.47342500
-4.09999958	0.00000000	-12.64764000	-9.47342500
-3.89999959	0.00000000	-12.60458000	-9.47342500
-3.69999960	0.00000000	-12.27239000	-9.47342500
-3.49999962	0.00000000	-11.90330000	-9.47342500
-3.29999963	0.00000000	-12.27239000	-9.43036400
-3.09999964	0.00000000	-12.60458000	-9.09817800
-2.89999965	0.00000000	-12.64764000	-8.72908400
-2.69999966	0.00000000	-12.64764000	-9.09817800
-2.49999968	0.00000000	-12.64764000	-9.43036400
-2.29999969	0.00000000	-12.64764000	-9.47342500
-2.09999970	0.00000000	-12.64764000	-9.47342500
-1.89999971	0.00000000	-12.64764000	-9.47342500
-1.69999972	0.00000000	-12.64764000	-9.47342500
-1.49999973	0.00000000	-12.64764000	-9.47342500
-1.29999975	0.00000000	-12.64764000	-9.47342500
-1.09999976	0.00000000	-12.64764000	-9.47342500
-0.89999977	0.00000000	-12.64764000	-9.47342500
-0.69999978	0.00000000	-12.64764000	-9.47342500
-0.49999979	0.00000000	-12.64764000	-9.47342500
-0.29999981	0.15871060	-12.64764000	-9.47342500
-0.09999982	0.63668800	-12.64764000	-9.47342500
0.10000017	0.95533960	-12.60458000	-9.47342500
0.30000016	0.95533960	-12.27239000	-9.47342500
0.50000015	0.79601380	-11.90330000	-9.47342500
0.70000013	0.31803640	-12.27239000	-9.47342500
0.90000012	-0.47736220	-12.60458000	-9.47342500
1.10000011	-1.43331700	-12.64764000	-9.47342500
1.30000010	-2.22994600	-12.64764000	-9.47342500
1.50000009	-2.86724900	-12.64764000	-9.47342500
1.70000008	-2.54859700	-12.64764000	-9.47342500
1.90000006	-1.43331700	-12.64764000	-9.47342500
2.10000005	0.31803640	-12.64764000	-9.47342500
2.30000004	2.38927200	-12.64764000	-9.47342500
2.50000003	4.30056600	-12.64764000	-9.47342500
2.70000002	5.25652100	-12.64764000	-9.51648500
2.90000000	4.93786900	-12.64764000	-9.84867000
3.09999999	3.18590100	-12.64764000	-10.25467000
3.29999998	0.31803640	-12.64764000	-10.21776000
3.49999997	-3.18590100	-12.64764000	-10.25467000
3.69999996	-6.21247500	-12.64764000	-9.84867000
3.89999994	-7.80511800	-12.64764000	-9.47342500
4.09999993	-7.64579200	-12.64764000	-9.05511800
4.29999992	-5.41584600	-12.64764000	-8.31077700
4.49999991	-1.59264300	-12.64764000	-7.93553100
4.69999990	2.86724900	-12.64764000	-7.93553100
4.89999989	6.69045300	-12.64764000	-8.31077700
5.09999987	9.07972400	-12.64764000	-9.05511800
5.29999986	9.23905000	-12.64764000	-9.47342500
5.49999985	7.00848900	-12.64764000	-9.84867000
5.69999984	3.02657500	-12.64764000	-10.21161000
5.89999983	-1.91129400	-12.64764000	-9.84867000
6.09999981	-6.21247500	-12.64764000	-9.51648500
6.29999980	-8.92039900	-12.64764000	-9.43036400
6.49999979	-9.39837600	-12.64764000	-9.05511800
6.69999978	-7.64579200	-12.64764000	-8.31077700
6.89999977	-3.82258900	-12.64764000	-7.93553100
7.09999975	0.47736220	-12.64764000	-7.93553100
7.29999974	4.45989200	-12.64764000	-8.31077700
7.49999973	7.00848900	-12.64764000	-9.05511800
7.69999972	7.80511800	-12.64764000	-9.43036400
7.89999971	6.37180100	-12.64764000	-9.47342500
8.09999970	3.66326300	-12.64764000	-9.47342500
8.29999968	0.47736220	-12.64764000	-9.47342500
8.49999967	-2.54859700	-12.64764000	-9.47342500
8.69999966	-4.61921700	-12.64764000	-9.47342500
8.89999965	-5.25652100	-12.64764000	-9.47342500
9.09999964	-4.45989200	-12.64764000	-9.47342500
9.29999962	-2.86724900	-12.64764000	-9.47342500
9.49999961	-0.95533960	-12.64764000	-9.47342500
9.69999960	0.95533960	-12.64764000	-9.47342500
9.89999959	2.07062000	-12.64764000	-9.47342500
10.09999958	2.54859700	-12.64764000	-9.47342500
10.29999956	2.22994600	-12.64764000	-9.47342500
10.49999955	1.59264300	-12.64764000	-9.47342500
10.69999954	0.63668800	-12.64764000	-9.47342500
10.89999953	-0.15871060	-12.64764000	-9.47342500
11.09999952	-0.79601380	-12.64764000	-9.47342500
11.29999951	-0.95533960	-12.64764000	-9.47342500
11.49999949	-0.95533960	-12.64764000	-9.47342500
11.69999948	-0.79601380	-12.64764000	-9.47342500
11.89999947	-0.47736220	-12.64764000	-9.47342500
12.09999946	-0.15871060	-12.64764000	-9.47342500
12.29999945	-0.15871060	-12.64764000	-9.47342500
12.49999943	-0.15871060	-12.64764000	-9.47342500
12.69999942	0.00000000	-12.64764000	-9.47342500
12.89999941	0.00000000	-12.64764000	-9.47342500
13.09999940	0.00000000	-12.64764000	-9.47342500
13.29999939	0.00000000	-12.64764000	-9.47342500
13.49999937	0.00000000	-12.64764000	-9.47342500
13.69999936	0.00000000	-12.64764000	-9.47342500
13.89999935	-0.15871060	-12.64764000	-9.47342500
14.09999934	-0.15871060	-12.64764000	-9.47342500
14.29999933	-0.15871060	-12.64764000	-9.47342500
14.49999932	-0.15871060	-12.64764000	-9.47342500
14.69999930	-0.15871060	-12.64764000	-9.47342500
14.89999929	0.00000000	-12.64764000	-9.47342500
15.09999928	0.00000000	-12.64764000	-9.47342500
15.29999927	0.00000000	-12.64764000	-9.47342500
15.49999926	0.00000000	-12.64764000	-9.47342500
15.69999924	0.00000000	-12.64764000	-9.47342500
15.89999923	0.00000000	-12.64764000	-9.47342500
16.09999922	0.00000000	-12.64764000	-9.47342500
16.29999921	-0.15871060	-12.64764000	-9.47342500
16.49999920	-0.15871060	-12.64764000	-9.47342500
16.69999919	-0.15871060	-12.60458000	-9.47342500
16.89999917	-0.15871060	-12.22933000	-9.47342500
17.09999916	0.00000000	-11.48499000	-9.47342500
17.29999915	0.00000000	-11.10974000	-9.47342500
17.49999914	0.00000000	-11.06668000	-9.47342500
17.69999913	0.00000000	-11.06668000	-9.47342500
17.89999911	0.00000000	-11.10974000	-9.47342500
18.09999910	0.00000000	-11.57726000	-9.47342500
18.29999909	0.00000000	-13.11516000	-9.47342500
18.49999908	0.00000000	-15.34203000	-9.47342500
18.69999907	-0.15871060	-16.92298000	-9.47342500
18.89999905	-0.15871060	-17.72268000	-9.47342500
19.09999904	-0.15871060	-18.04257000	-9.47342500
19.29999903	0.00000000	-16.83686000	-9.47342500
19.49999902	0.00000000	-14.13632000	-9.47342500
19.69999901	0.00000000	-10.64838000	-9.47342500
19.89999900	0.00000000	-6.74212600	-9.47342500
20.09999898	0.00000000	-3.29724400	-9.47342500
20.29999897	0.00000000	-1.06422200	-9.47342500
20.49999896	0.00000000	-1.53174200	-9.47342500
20.69999895	0.00000000	-5.38877900	-9.47342500
20.89999894	0.00000000	-11.57726000	-9.47342500
21.09999892	-0.15871060	-18.97145000	-9.47342500
21.29999891	-0.15871060	-26.27953000	-9.47342500
21.49999890	0.00000000	-31.62524000	-9.47342500
21.69999889	0.00000000	-33.12008000	-9.47342500
21.89999888	0.00000000	-29.95817000	-9.47342500
22.09999886	0.00000000	-22.13952000	-9.47342500
22.29999885	0.00000000	-10.51304000	-9.47342500
22.49999884	0.00000000	2.56520700	-9.47342500
22.69999883	0.00000000	13.68110000	-9.47342500
22.89999882	0.00000000	19.45128000	-9.47342500
23.09999881	0.00000000	18.19636000	-9.43036400
23.29999879	0.00000000	9.63336600	-9.05511800
23.49999878	0.00000000	-5.43184000	-8.31077700
23.69999877	0.00000000	-23.20374000	-7.93553100
23.89999876	0.00000000	-39.86835000	-7.89247000
24.09999875	0.00000000	-52.10384000	-7.89247000
24.29999873	0.00000000	-55.86860000	-7.98474400
24.49999872	0.00000000	-49.26796000	-8.77214500
24.69999871	0.00000000	-33.82136000	-10.67298000
24.89999870	0.00000000	-12.51230000	-12.58612000
25.09999869	0.00000000	9.86712600	-14.11786000
25.29999867	0.00000000	28.34030000	-14.90526000
25.49999866	0.00000000	37.92445000	-14.49311000
25.69999865	-0.15871060	35.59916000	-13.32431000
25.89999864	0.00000000	22.10261000	-10.91289000
26.09999863	0.00000000	0.42445860	-7.43110200
26.29999862	0.00000000	-24.65551000	-3.20497000
26.49999860	0.00000000	-47.44709000	0.60285430
26.69999859	0.00000000	-62.48154000	2.46678100
26.89999858	0.00000000	-66.33858000	1.67322800
27.09999857	0.00000000	-57.82480000	-2.22071800
27.29999856	0.00000000	-38.93332000	-8.40305000
27.49999854	0.00000000	-14.27780000	-15.78494000
27.69999853	-0.15871060	10.05167000	-23.08686000
27.89999852	0.00000000	28.29109000	-28.47564000
28.09999851	0.00000000	37.18011000	-30.33341000
28.29999850	0.00000000	34.89788000	-27.96506000
28.49999848	0.00000000	21.78272000	-20.95226000
28.69999847	0.00000000	1.76550200	-10.49459000
28.89999846	0.00000000	-20.69390000	1.44562000
29.09999845	0.00000000	-40.38509000	12.21703000
29.29999844	0.00000000	-53.21727000	18.73154000
29.49999843	0.00000000	-56.75443000	19.46973000
29.69999841	0.00000000	-51.03346000	13.61343000
29.89999840	0.00000000	-37.86294000	2.04847400
30.09999839	0.00000000	-20.09104000	-12.62918000
30.29999838	0.00000000	-1.57480300	-27.35605000
30.49999837	0.00000000	13.17052000	-39.25935000
30.69999835	0.00000000	21.35827000	-45.42937000
30.89999834	0.00000000	22.19488000	-43.86073000
31.09999833	0.00000000	15.63730000	-35.30389000
31.29999832	0.00000000	3.72170300	-20.57702000
31.49999831	0.00000000	-10.59916000	-2.50369100
31.69999829	0.00000000	-24.14493000	14.08095000
31.89999828	0.00000000	-34.28272000	25.69513000
32.09999827	0.00000000	-39.31471000	29.97047000
32.29999826	0.00000000	-38.60728000	26.11343000
32.49999825	-0.15871060	-32.42495000	15.24360000
32.69999824	0.00000000	-22.78543000	-0.97194880
32.89999822	0.00000000	-11.57726000	-19.08834000
33.09999821	0.00000000	-1.53174200	-34.56570000
33.29999820	0.00000000	5.08120100	-44.69119000
33.49999819	0.00000000	7.40034400	-47.71161000
33.69999818	0.00000000	4.74901600	-42.73499000
33.89999816	0.00000000	-1.75935000	-30.75172000
34.09999815	0.00000000	-9.86097400	-14.94833000
34.29999814	0.00000000	-17.99951000	1.72244100
34.49999813	0.00000000	-24.13878000	15.56963000
34.69999812	0.00000000	-26.88238000	23.69586000
34.89999810	0.00000000	-25.76895000	24.11417000
35.09999809	0.00000000	-21.57972000	17.23671000
35.29999808	0.00000000	-15.76649000	5.25344500
35.49999807	0.00000000	-9.62106200	-9.38730200
35.69999806	0.00000000	-4.64443900	-23.32062000
35.89999805	0.00000000	-2.68823800	-33.31693000
36.09999803	0.00000000	-3.80782500	-37.57997000
36.29999802	0.00000000	-7.25270600	-34.51648000
36.49999801	0.00000000	-12.22933000	-25.73203000
36.69999800	0.00000000	-16.83686000	-13.79183000
36.89999799	0.00000000	-19.95571000	-1.48253000
37.09999797	0.00000000	-21.11220000	7.72022600
37.29999796	0.00000000	-19.95571000	11.62032000
37.49999795	0.00000000	-16.87992000	9.34424200
37.69999794	0.00000000	-12.64764000	2.09153500
37.89999793	0.00000000	-8.41535400	-7.89247000
38.09999791	0.00000000	-5.29650500	-17.83957000
38.29999790	0.00000000	-3.75861200	-24.71703000
38.49999789	0.00000000	-4.18307100	-26.29183000
38.69999788	0.00000000	-6.87746000	-22.48400000
38.89999787	0.00000000	-11.06668000	-14.81299000
39.09999786	0.00000000	-15.34203000	-5.29035400
39.29999784	0.00000000	-18.83612000	2.74360200
39.49999783	0.00000000	-21.20448000	6.60679100
39.69999782	0.00000000	-21.95497000	5.85629900
39.89999781	0.00000000	-21.16142000	0.42445860
40.09999780	0.00000000	-18.46087000	-8.35998900
40.29999778	0.00000000	-14.60384000	-17.92569000
40.49999777	0.00000000	-10.69144000	-25.22145000
40.69999776	0.00000000	-6.83439900	-28.29109000
40.89999775	0.00000000	-4.13385800	-26.34104000
41.09999774	0.00000000	-3.34030500	-19.46358000
41.29999772	0.00000000	-4.09079700	-9.89173200
41.49999771	0.00000000	-6.45915300	-0.64591530
41.69999770	0.00000000	-9.90403500	6.32381900
41.89999769	0.00000000	-13.81028000	9.34424200
42.09999768	0.00000000	-17.25517000	7.43725300
42.29999767	0.00000000	-19.62352000	0.93503930
42.49999765	0.00000000	-20.41708000	-7.84940900
42.69999764	0.00000000	-20.04183000	-16.35089000
42.89999763	0.00000000	-18.46087000	-22.52707000
43.09999762	0.00000000	-15.80955000	-25.27067000
43.29999761	0.00000000	-13.11516000	-24.10802000
43.49999759	0.00000000	-11.10974000	-19.55585000
43.69999758	0.00000000	-9.52879000	-13.04749000
43.89999757	0.00000000	-8.41535400	-6.86515700
44.09999756	0.00000000	-8.37229300	-2.17765700
44.29999755	-0.15871060	-9.11048200	0.51673230
44.49999753	0.00000000	-9.86097400	0.55979330
44.69999752	0.00000000	-10.64838000	-1.71013800
44.89999751	0.00000000	-11.02362000	-5.15501900
45.09999750	0.00000000	-11.10974000	-9.05511800
45.29999749	0.00000000	-11.53420000	-12.53691000
45.49999748	0.00000000	-12.73991000	-15.23130000
45.69999746	0.00000000	-14.69611000	-16.34473000
45.89999745	0.00000000	-17.43356000	-15.27436000
46.09999744	0.00000000	-20.46014000	-13.00443000
46.29999743	0.00000000	-22.74237000	-10.67298000
46.49999742	0.00000000	-23.06841000	-8.31077700
46.69999740	0.00000000	-21.11220000	-6.40378900
46.89999739	0.00000000	-16.83686000	-5.24729300
47.09999738	0.00000000	-11.02362000	-5.24729300
47.29999737	0.00000000	-4.83513700	-6.40378900
47.49999736	0.00000000	0.51673230	-8.31077700
47.69999734	0.00000000	3.16806100	-10.62992000
47.89999733	0.00000000	2.00541300	-12.58612000
48.09999732	0.00000000	-2.64517700	-14.11786000
48.29999731	0.00000000	-10.03937000	-14.85605000
48.49999730	0.00000000	-18.87918000	-14.07480000
48.69999729	0.00000000	-26.92544000	-12.16781000
48.89999727	0.00000000	-31.53912000	-9.42421200
49.09999726	0.00000000	-31.58218000	-6.36072800
49.29999725	0.00000000	-27.30069000	-3.66633800
49.49999724	0.00000000	-19.53125000	-2.17150600
49.69999723	0.00000000	-9.52879000	-2.54675200
49.89999721	0.00000000	0.04921259	-4.82283400
50.09999720	0.00000000	6.19463500	-7.93553100
50.29999719	0.00000000	7.40034400	-11.42347000
50.49999718	0.00000000	3.54330700	-14.90526000
50.69999717	0.00000000	-4.13385800	-17.18750000
50.89999715	0.00000000	-13.76107000	-17.97490000
51.09999714	0.00000000	-22.65010000	-16.76919000
51.29999713	0.00000000	-28.79552000	-13.69956000
51.49999712	0.00000000	-30.69636000	-9.47342500
51.69999711	0.00000000	-27.25763000	-5.24729300
51.89999710	0.00000000	-20.04183000	-2.12844500
52.09999708	0.00000000	-11.57726000	-0.59670270
52.29999707	0.00000000	-4.22613100	-1.01501000
52.49999706	0.00000000	0.42445860	-3.66633800
52.69999705	0.00000000	1.54404500	-7.51722400
52.89999704	0.00000000	-1.53174200	-11.38041000
53.09999702	0.00000000	-8.04010800	-14.85605000
53.29999701	0.00000000	-15.67421000	-16.76919000
53.49999700	0.00000000	-22.23179000	-16.81225000
53.69999699	0.00000000	-25.67667000	-15.27436000
53.89999698	0.00000000	-25.34449000	-12.58612000
54.09999696	0.00000000	-21.53666000	-9.55954600
54.29999695	0.00000000	-15.76649000	-7.24040300
54.49999694	0.00000000	-9.57800100	-6.40378900
54.69999693	0.00000000	-4.22613100	-6.40378900
54.89999692	0.00000000	-1.57480300	-7.19734200
55.09999691	0.00000000	-2.68823800	-9.09817800
55.29999689	0.00000000	-6.87746000	-10.91289000
55.49999688	0.00000000	-12.64764000	-11.70029000
55.69999687	0.00000000	-18.37475000	-10.96211000
55.89999686	0.00000000	-22.23179000	-9.42421200
56.09999685	0.00000000	-23.06841000	-7.51722400
56.29999683	0.00000000	-21.53666000	-5.66560000
56.49999682	0.00000000	-18.04257000	-5.33341500
56.69999681	0.00000000	-13.06594000	-6.82209600
56.89999680	0.00000000	-8.45841400	-9.51648500
57.09999679	0.00000000	-5.33956700	-12.62918000
57.29999677	0.00000000	-4.18307100	-15.69882000
57.49999676	0.00000000	-5.33956700	-17.92569000
57.69999675	0.00000000	-8.37229300	-17.88263000
57.89999674	0.00000000	-12.27239000	-15.23130000
58.09999673	0.00000000	-16.09252000	-10.95595000
58.29999672	0.00000000	-19.15600000	-5.98548200
58.49999670	0.00000000	-19.95571000	-1.39025600
58.69999669	0.00000000	-18.87918000	0.88582670
58.89999668	0.00000000	-16.92298000	0.51673230
59.09999667	0.00000000	-14.22859000	-2.59596400
59.29999666	0.00000000	-11.57726000	-7.98474400
59.49999664	0.00000000	-9.99630800	-14.16708000
59.69999663	0.00000000	-9.57800100	-19.93110000
59.89999662	0.00000000	-9.95324800	-23.73892000
60.09999661	0.00000000	-11.10974000	-24.06496000
60.29999660	0.00000000	-12.64764000	-20.62008000
60.49999658	0.00000000	-14.18553000	-14.11786000
60.69999657	0.00000000	-15.29897000	-6.77903500
60.89999656	0.00000000	-15.29897000	-0.22760820
61.09999655	0.00000000	-14.18553000	4.36761800
61.29999654	0.00000000	-12.69070000	5.11195900
61.49999653	0.00000000	-11.53420000	2.09153500
61.69999651	0.00000000	-11.15896000	-3.75246000
61.89999650	0.00000000	-11.53420000	-11.42347000
62.09999649	0.00000000	-12.64764000	-19.13140000
62.29999648	0.00000000	-13.81028000	-24.48326000
62.49999647	0.00000000	-14.60384000	-26.47638000
62.69999645	0.00000000	-15.39124000	-24.48326000
62.89999644	0.00000000	-15.71727000	-19.13140000
63.09999643	0.00000000	-15.34203000	-11.42347000
63.29999642	0.00000000	-14.18553000	-3.75246000
63.49999641	0.00000000	-12.64764000	2.09153500
63.69999639	0.00000000	-11.10974000	5.16117100
63.89999638	0.00000000	-9.99630800	4.82898600
64.09999637	0.00000000	-9.95324800	1.35334600
64.29999636	0.00000000	-10.73450000	-4.04158400
64.49999635	0.00000000	-11.90330000	-10.62992000
64.69999634	0.00000000	-13.85334000	-16.76919000
64.89999632	0.00000000	-15.71727000	-21.03838000
65.09999631	0.00000000	-16.87992000	-22.61934000
65.29999630	0.00000000	-16.87992000	-21.50590000
65.49999629	0.00000000	-15.76649000	-18.43627000
65.69999628	0.00000000	-14.27165000	-14.16708000
65.89999626	0.00000000	-13.06594000	-9.51648500
66.09999625	0.00000000	-12.31545000	-5.24729300
66.29999624	0.00000000	-11.95251000	-2.12844500
66.49999623	0.00000000	-12.73991000	-0.55364170
66.69999622	0.00000000	-14.18553000	-0.55364170
66.89999620	0.00000000	-15.39124000	-2.08538400
67.09999619	0.00000000	-16.14173000	-4.77977300
67.29999618	0.00000000	-16.50467000	-7.89247000
67.49999617	0.00000000	-15.67421000	-11.04823000
67.69999616	0.00000000	-13.81028000	-14.16092000
67.89999615	0.00000000	-11.48499000	-16.90453000
68.09999613	0.00000000	-9.57800100	-18.81152000
68.29999612	0.00000000	-8.41535400	-19.59892000
68.49999611	0.00000000	-8.50147600	-18.76845000
68.69999610	0.00000000	-10.41462000	-16.48622000
68.89999609	0.00000000	-13.89641000	-12.91215000
69.09999607	0.00000000	-17.72268000	-8.67987200
69.29999606	0.00000000	-21.20448000	-4.04158400
69.49999605	0.00000000	-23.06841000	-0.59670270
69.69999604	0.00000000	-22.69316000	0.97810030
69.89999603	0.00000000	-19.99877000	0.55979330
70.09999601	0.00000000	-15.71727000	-2.17765700
70.29999600	0.00000000	-10.69144000	-6.82209600
70.49999599	0.00000000	-5.71481200	-12.58612000
70.69999598	0.00000000	-2.64517700	-17.97490000
70.89999597	0.00000000	-2.22687000	-21.46284000
71.09999596	0.00000000	-4.18307100	-22.66240000
71.29999594	0.00000000	-8.45841400	-21.46284000
71.49999593	0.00000000	-14.22859000	-18.01796000
71.69999592	0.00000000	-20.04183000	-13.00443000
71.89999591	0.00000000	-24.64936000	-7.98474400
72.09999590	0.00000000	-26.97465000	-3.75246000
72.29999588	0.00000000	-26.18725000	-1.43331700
72.49999587	0.00000000	-22.74237000	-1.80241100
72.69999586	0.00000000	-17.34744000	-4.03543200
72.89999585	0.00000000	-11.53420000	-7.51722400
73.09999584	0.00000000	-6.45915300	-10.96211000
73.29999582	0.00000000	-2.68823800	-13.69956000
73.49999581	0.00000000	-1.90083600	-15.23130000
73.69999580	0.00000000	-4.54601300	-15.27436000
73.89999579	0.00000000	-8.74138700	-14.16092000
74.09999578	0.00000000	-13.81028000	-12.62918000
74.29999577	0.00000000	-18.41781000	-11.09744000
74.49999575	0.00000000	-21.53666000	-9.98400600
74.69999574	0.00000000	-22.74237000	-9.98400600
74.89999573	0.00000000	-21.95497000	-11.09744000
75.09999572	0.00000000	-19.66658000	-12.58612000
75.29999571	0.00000000	-16.18479000	-13.69956000
75.49999569	0.00000000	-12.73991000	-13.65650000
75.69999568	0.00000000	-10.03937000	-12.11860000
75.89999567	0.00000000	-8.87672100	-9.42421200
76.09999566	0.00000000	-9.52879000	-6.40378900
76.29999565	0.00000000	-10.69144000	-4.12770700
76.49999563	0.00000000	-11.90330000	-3.70939900
76.69999562	0.00000000	-13.76107000	-4.87204700
76.89999561	0.00000000	-14.92372000	-7.24040300
77.09999560	0.00000000	-14.97908000	-11.14050000
77.29999559	0.00000000	-15.01599000	-15.69882000
77.49999558	0.00000000	-14.64690000	-19.50664000
77.69999556	0.00000000	-14.64690000	-21.08760000
77.89999555	0.00000000	-15.01599000	-20.30020000
78.09999554	0.00000000	-15.06521000	-17.55659000
78.29999553	0.00000000	-15.85261000	-12.53691000
78.49999552	0.00000000	-16.87992000	-6.86515700
78.69999550	0.00000000	-16.87992000	-2.54675200
78.89999549	0.00000000	-15.76649000	-0.22145670
79.09999548	0.00000000	-14.22859000	0.18454720
79.29999547	0.00000000	-12.64764000	-1.80241100
79.49999546	0.00000000	-11.06668000	-5.61638700
79.69999544	0.00000000	-9.57800100	-10.62992000
79.89999543	0.00000000	-8.83366100	-15.23130000
80.09999542	0.00000000	-9.62106200	-18.39321000
80.29999541	0.00000000	-11.53420000	-19.93110000
80.49999540	0.00000000	-14.27165000	-19.55585000
80.69999539	0.00000000	-17.29823000	-17.27977000
80.89999537	0.00000000	-19.62352000	-14.21014000
81.09999536	0.00000000	-20.37401000	-11.04823000
81.29999535	0.00000000	-19.62352000	-7.93553100
81.49999534	0.00000000	-17.29823000	-5.24729300
81.69999533	0.00000000	-14.27165000	-3.66633800
81.89999531	0.00000000	-11.57726000	-3.29109200
82.09999530	0.00000000	-9.99630800	-4.03543200
82.29999529	0.00000000	-9.57800100	-5.93626900
82.49999528	0.00000000	-9.99630800	-7.89247000
82.69999527	0.00000000	-11.53420000	-9.93479300
82.89999525	0.00000000	-13.81028000	-12.62918000
83.09999524	0.00000000	-15.71727000	-15.32357000
83.29999523	0.00000000	-16.92298000	-17.27362000
83.49999522	0.00000000	-17.34744000	-18.39321000
83.69999521	0.00000000	-17.34744000	-17.97490000
83.89999520	0.00000000	-16.92298000	-15.69882000
84.09999518	0.00000000	-15.80955000	-12.62918000
84.29999517	0.00000000	-14.64690000	-9.47342500
84.49999516	0.00000000	-13.89641000	-6.36072800
84.69999515	0.00000000	-13.48425000	-3.66633800
84.89999514	0.00000000	-13.85334000	-2.17150600
85.09999512	0.00000000	-14.18553000	-2.54675200
85.29999511	0.00000000	-14.22859000	-4.87204700
85.49999510	0.00000000	-14.22859000	-8.35998900
85.69999509	0.00000000	-14.22859000	-12.62918000
85.89999508	0.00000000	-14.22859000	-16.81225000
86.09999506	0.00000000	-14.22859000	-19.55585000
86.29999505	0.00000000	-14.27165000	-20.30020000
86.49999504	0.00000000	-14.64690000	-19.13140000
86.69999503	0.00000000	-15.43430000	-15.64960000
86.89999502	0.00000000	-16.18479000	-11.09129000
87.09999501	0.00000000	-16.97219000	-6.77903500
87.29999499	0.00000000	-17.29823000	-3.33415300
87.49999498	0.00000000	-16.92298000	-1.43331700
87.69999497	0.00000000	-15.76649000	-2.22071800
87.89999496	0.00000000	-14.27165000	-5.29035400
88.09999495	0.00000000	-13.06594000	-9.89173200
88.29999493	0.00000000	-12.31545000	-14.85605000
88.49999492	0.00000000	-11.90330000	-18.35015000
88.69999491	0.00000000	-12.36466000	-19.93110000
88.89999490	0.00000000	-13.44119000	-19.50664000
89.09999489	0.00000000	-15.01599000	-16.81225000
89.29999487	0.00000000	-16.14173000	-12.58612000
89.49999486	0.00000000	-16.97219000	-7.98474400
89.69999485	0.00000000	-17.29823000	-4.12770700
89.89999484	0.00000000	-16.92298000	-2.22071800
90.09999483	0.00000000	-15.80955000	-2.63902500
90.29999482	0.00000000	-14.69611000	-5.70866100
90.49999480	0.00000000	-14.27165000	-10.62992000
90.69999479	0.00000000	-14.22859000	-15.23130000
90.89999478	0.00000000	-14.22859000	-18.39321000
91.09999477	0.00000000	-14.22859000	-19.88189000
91.29999476	0.00000000	-14.22859000	-19.08834000
91.49999474	0.00000000	-14.22859000	-15.64960000
91.69999473	0.00000000	-14.22859000	-11.04823000
91.89999472	0.00000000	-14.22859000	-6.44685000
92.09999471	0.00000000	-14.22859000	-3.01427100
92.29999470	0.00000000	-14.22859000	-2.22071800
92.49999468	0.00000000	-14.27165000	-3.70939900
92.69999467	0.00000000	-14.69611000	-6.86515700
92.89999466	0.00000000	-15.85261000	-11.46653000
93.09999465	0.00000000	-17.34744000	-16.39395000
93.29999464	0.00000000	-18.50394000	-19.46358000
93.49999463	0.00000000	-18.87918000	-19.93110000
93.69999461	0.00000000	-18.50394000	-18.35015000
93.89999460	0.00000000	-17.29823000	-14.90526000
94.09999459	0.00000000	-15.39124000	-10.31004000
94.29999458	0.00000000	-13.06594000	-6.48991100
94.49999457	0.00000000	-11.10974000	-4.12770700
94.69999455	0.00000000	-9.57800100	-3.75246000
94.89999454	0.00000000	-8.87672100	-5.29035400
95.09999453	0.00000000	-10.03937000	-8.40305000
95.29999452	0.00000000	-12.69070000	-12.58612000
95.49999451	0.00000000	-15.80955000	-16.39395000
95.69999449	0.00000000	-18.92839000	-18.30093000
95.89999448	0.00000000	-21.57972000	-17.97490000
96.09999447	0.00000000	-22.74237000	-15.69882000
96.29999446	0.00000000	-21.99803000	-12.62918000
96.49999445	0.00000000	-20.04183000	-9.51648500
96.69999444	0.00000000	-16.87992000	-6.82209600
96.89999442	0.00000000	-12.69070000	-5.33341500
97.09999441	0.00000000	-8.87672100	-5.66560000
97.29999440	0.00000000	-6.87746000	-7.56643700
97.49999439	0.00000000	-6.50221400	-9.84867000
97.69999438	0.00000000	-7.67101300	-12.21087000
97.89999436	0.00000000	-10.78371000	-14.07480000
98.09999435	0.00000000	-14.60384000	-14.90526000
98.29999434	0.00000000	-18.50394000	-14.53617000
98.49999433	0.00000000	-21.62278000	-13.79183000
98.69999432	0.00000000	-23.53592000	-12.62918000
98.89999430	0.00000000	-23.89887000	-11.46653000
99.09999429	0.00000000	-21.95497000	-10.67298000
99.29999428	0.00000000	-18.55315000	-9.89173200
99.49999427	0.00000000	-14.64690000	-9.51648500
99.69999426	0.00000000	-11.20202000	-9.47342500
99.89999425	0.00000000	-8.83366100	-9.47342500
100.09999423	0.00000000	-8.04010800	-9.43036400
100.29999422	0.00000000	-8.41535400	-9.09817800
100.49999421	0.00000000	-9.99630800	-8.72908400
100.69999420	0.00000000	-12.69070000	-9.14124000
100.89999419	0.00000000	-15.76649000	-9.89173200
101.09999417	0.00000000	-18.50394000	-11.14050000
101.29999416	0.00000000	-20.46014000	-13.00443000
101.49999415	0.00000000	-21.62278000	-14.90526000
101.69999414	0.00000000	-21.62278000	-15.69267000
101.89999413	0.00000000	-20.46014000	-15.69267000
102.09999411	0.00000000	-18.50394000	-14.85605000
102.29999410	0.00000000	-15.80955000	-12.53691000
102.49999409	0.00000000	-13.15822000	-9.51648500
102.69999408	0.00000000	-11.57726000	-6.82209600
102.89999407	0.00000000	-11.10974000	-5.29035400
103.09999406	0.00000000	-11.15896000	-5.29035400
103.29999404	0.00000000	-11.95251000	-6.82209600
103.49999403	0.00000000	-13.85334000	-9.51648500
103.69999402	0.00000000	-15.76649000	-12.58612000
103.89999401	0.00000000	-17.39050000	-15.32357000
104.09999400	0.00000000	-18.92839000	-17.23056000
104.29999398	0.00000000	-20.04183000	-17.97490000
104.49999397	0.00000000	-20.04183000	-16.85531000
104.69999396	0.00000000	-18.87918000	-14.58538000
104.89999395	0.00000000	-17.01525000	-12.21087000
105.09999394	0.00000000	-15.06521000	-9.47342500
105.29999392	0.00000000	-13.89641000	-6.86515700
105.49999391	0.00000000	-13.11516000	-5.70866100
105.69999390	0.00000000	-13.11516000	-6.44685000
105.89999389	0.00000000	-13.85334000	-8.35383800
106.09999388	0.00000000	-14.64690000	-11.04823000
106.29999387	0.00000000	-15.85261000	-13.69956000
106.49999385	0.00000000	-17.29823000	-15.27436000
106.69999384	0.00000000	-18.08563000	-15.69267000
106.89999383	0.00000000	-17.72268000	-15.27436000
107.09999382	0.00000000	-16.97219000	-13.74262000
107.29999381	0.00000000	-15.80955000	-11.46653000
107.49999379	0.00000000	-14.69611000	-9.55954600
107.69999378	0.00000000	-14.27165000	-8.40305000
107.89999377	0.00000000	-14.27165000	-8.40305000
108.09999376	0.00000000	-14.64690000	-9.51648500
108.29999375	0.00000000	-15.43430000	-11.04823000
108.49999374	0.00000000	-16.22785000	-12.58612000
108.69999372	0.00000000	-17.39050000	-13.74262000
108.89999371	0.00000000	-18.46087000	-14.11786000
109.09999370	0.00000000	-18.46087000	-13.74262000
109.29999369	0.00000000	-17.39050000	-12.62918000
109.49999368	0.00000000	-16.22785000	-11.46653000
109.69999366	0.00000000	-15.43430000	-10.62992000
109.89999365	0.00000000	-14.60384000	-9.47342500
110.09999364	0.00000000	-13.89641000	-8.40305000
110.29999363	0.00000000	-13.53346000	-8.40305000
110.49999362	0.00000000	-14.32087000	-9.51648500
110.69999360	0.00000000	-15.76649000	-11.04823000
110.89999359	0.00000000	-16.92298000	-12.58612000
111.09999358	0.00000000	-17.34744000	-13.74262000
111.29999357	0.00000000	-17.39050000	-14.16708000
111.49999356	0.00000000	-17.39050000	-14.16708000
111.69999355	0.00000000	-17.34744000	-13.79183000
111.89999353	0.00000000	-16.97219000	-13.00443000
112.09999352	0.00000000	-16.18479000	-12.21087000
112.29999351	0.00000000	-15.43430000	-11.04823000
112.49999350	0.00000000	-14.64690000	-9.93479300
112.69999349	0.00000000	-14.32087000	-9.51648500
112.89999347	0.00000000	-14.64690000	-9.51648500
113.09999346	0.00000000	-15.39124000	-9.89173200
113.29999345	0.00000000	-15.76649000	-10.62992000
113.49999344	0.00000000	-15.80955000	-11.00517000
113.69999343	0.00000000	-15.80955000	-11.09129000
113.89999341	0.00000000	-15.80955000	-11.46653000
114.09999340	0.00000000	-15.80955000	-12.21087000
114.29999339	0.00000000	-15.80955000	-12.58612000
114.49999338	0.00000000	-15.80955000	-12.62918000
114.69999337	0.00000000	-15.80955000	-12.62918000
114.89999336	0.00000000	-15.80955000	-12.62918000
115.09999334	0.00000000	-15.80955000	-12.62918000
115.29999333	0.00000000	-15.80955000	-12.62918000
115.49999332	0.00000000	-15.80955000	-12.58612000
115.69999331	0.00000000	-15.80955000	-12.16166000
115.89999330	0.00000000	-15.80955000	-11.04823000
116.09999328	0.00000000	-15.85261000	-9.93479300
116.29999327	0.00000000	-16.22785000	-9.51648500
116.49999326	0.00000000	-16.97219000	-9.51648500
116.69999325	0.00000000	-17.34744000	-9.89173200
116.89999324	0.00000000	-17.34744000	-10.67298000
117.09999322	0.00000000	-16.97219000	-11.46653000
117.29999321	0.00000000	-16.22785000	-12.62918000
117.49999320	0.00000000	-15.80955000	-13.74262000
117.69999319	0.00000000	-15.39124000	-14.16708000
117.89999318	0.00000000	-14.64690000	-14.21014000
118.09999317	0.00000000	-14.32087000	-14.16708000
118.29999315	0.00000000	-14.64690000	-13.74262000
118.49999314	0.00000000	-15.43430000	-12.62918000
118.69999313	0.00000000	-16.22785000	-11.51575000
118.89999312	0.00000000	-17.39050000	-11.04823000
119.09999311	0.00000000	-18.50394000	-10.62992000
119.29999309	0.00000000	-18.92839000	-9.93479300
119.49999308	0.00000000	-18.92839000	-9.93479300
119.69999307	0.00000000	-18.50394000	-10.67298000
119.89999306	0.00000000	-17.34744000	-11.42347000
120.09999305	0.00000000	-15.85261000	-12.21087000
120.29999303	0.00000000	-14.64690000	-12.58612000
120.49999302	0.00000000	-13.85334000	-12.62918000
120.69999301	0.00000000	-13.11516000	-12.62918000
120.89999300	0.00000000	-13.15822000	-12.62918000
121.09999299	0.00000000	-14.27165000	-12.62918000
121.29999298	0.00000000	-15.80955000	-12.62918000
121.49999296	0.00000000	-17.34744000	-12.62918000
121.69999295	0.00000000	-18.50394000	-12.62918000
121.89999294	0.00000000	-18.92839000	-12.58612000
122.09999293	0.00000000	-18.97145000	-12.21087000
122.29999292	0.00000000	-18.92839000	-11.46653000
122.49999290	0.00000000	-18.50394000	-11.09129000
122.69999289	0.00000000	-17.39050000	-11.04823000
122.89999288	0.00000000	-16.22785000	-11.04823000
123.09999287	0.00000000	-15.43430000	-11.04823000
123.29999286	0.00000000	-14.64690000	-11.04823000
123.49999284	0.00000000	-14.27165000	-11.09129000
123.69999283	0.00000000	-14.22859000	-11.51575000
123.89999282	0.00000000	-14.27165000	-12.58612000
124.09999281	0.00000000	-14.69611000	-13.32431000
124.29999280	0.00000000	-15.80955000	-13.00443000
124.49999279	0.00000000	-16.97219000	-12.67224000
124.69999277	0.00000000	-17.76575000	-12.58612000
124.89999276	0.00000000	-18.55315000	-12.21087000
125.09999275	0.00000000	-18.92839000	-11.46653000
125.29999274	0.00000000	-18.92839000	-11.09129000
125.49999273	0.00000000	-18.55315000	-11.04823000
125.69999271	0.00000000	-17.76575000	-11.04823000
125.89999270	0.00000000	-16.97219000	-11.04823000
126.09999269	0.00000000	-15.80955000	-11.04823000
126.29999268	0.00000000	-14.69611000	-11.04823000
126.49999267	0.00000000	-14.32087000	-11.09129000
126.69999265	0.00000000	-14.64690000	-11.46653000
126.89999264	0.00000000	-15.43430000	-12.21087000
127.09999263	0.00000000	-16.22785000	-12.58612000
127.29999262	0.00000000	-17.39050000	-12.62918000
127.49999261	0.00000000	-18.50394000	-12.62918000
127.69999260	0.00000000	-18.92839000	-12.62918000
127.89999258	0.00000000	-18.92839000	-12.58612000
128.09999257	0.00000000	-18.55315000	-12.25394000
128.29999256	0.00000000	-17.76575000	-11.79872000
128.49999255	0.00000000	-16.97219000	-11.46038000
128.69999254	0.00000000	-15.80955000	-10.68528000
128.89999252	0.00000000	-14.69611000	-10.72219000
129.09999251	0.00000000	-14.32087000	-11.04823000
129.29999250	0.00000000	-14.69611000	-11.46653000
129.49999249	0.00000000	-15.80955000	-12.21087000
129.69999248	0.00000000	-16.97219000	-12.58612000
129.89999246	0.00000000	-17.76575000	-12.62918000
130.09999245	0.00000000	-18.55315000	-12.62918000
130.29999244	0.00000000	-18.87918000	-12.58612000
130.49999243	0.00000000	-18.55315000	-12.21087000
130.69999242	0.00000000	-17.76575000	-11.46653000
130.89999241	0.00000000	-17.01525000	-11.09129000
131.09999239	0.00000000	-16.22785000	-11.04823000
131.29999238	0.00000000	-15.85261000	-11.09129000
131.49999237	0.00000000	-15.80955000	-11.46653000
131.69999236	0.00000000	-15.80955000	-12.21087000
131.89999235	0.00000000	-15.85261000	-12.58612000
132.09999233	0.00000000	-16.22785000	-12.62918000
132.29999232	0.00000000	-16.97219000	-12.62918000
132.49999231	0.00000000	-17.34744000	-12.62918000
132.69999230	0.00000000	-17.39050000	-12.58612000
132.89999229	0.00000000	-17.39050000	-12.21087000
133.09999227	0.00000000	-17.39050000	-11.46653000
133.29999226	0.00000000	-17.39050000	-11.09129000
133.49999225	0.00000000	-17.39050000	-11.04823000
133.69999224	0.00000000	-17.39050000	-11.04823000
133.89999223	0.00000000	-17.39050000	-11.09129000
134.09999222	0.00000000	-17.39050000	-11.46653000
134.29999220	0.00000000	-17.39050000	-12.25394000
134.49999219	0.00000000	-17.39050000	-13.00443000
134.69999218	0.00000000	-17.34744000	-13.79183000
134.89999217	0.00000000	-16.97219000	-14.16708000
135.09999216	0.00000000	-16.27707000	-14.21014000
135.29999214	0.00000000	-16.27707000	-14.16708000
135.49999213	0.00000000	-16.97219000	-13.79183000
135.69999212	0.00000000	-17.39050000	-13.04749000
135.89999211	0.00000000	-17.80881000	-12.62918000
136.09999210	0.00000000	-18.55315000	-12.21087000
136.29999208	0.00000000	-18.92839000	-11.46653000
136.49999207	0.00000000	-18.97145000	-11.14050000
136.69999206	0.00000000	-18.97145000	-11.46653000
136.89999205	0.00000000	-18.92839000	-12.21087000
137.09999204	0.00000000	-18.50394000	-12.58612000
137.29999203	0.00000000	-17.39050000	-12.67224000
137.49999201	0.00000000	-16.27707000	-13.04749000
137.69999200	0.00000000	-15.90182000	-13.79183000
137.89999199	0.00000000	-16.22785000	-14.16708000
138.09999198	0.00000000	-17.01525000	-14.21014000
138.29999197	0.00000000	-17.72268000	-14.16708000
138.49999195	0.00000000	-18.17790000	-13.79183000
138.69999194	0.00000000	-18.18405000	-13.04749000
138.89999193	0.00000000	-18.59621000	-12.62918000
139.09999192	0.00000000	-18.92839000	-12.21087000
139.29999191	0.00000000	-18.92839000	-11.46653000
139.49999189	0.00000000	-18.55315000	-11.09129000
139.69999188	0.00000000	-17.80881000	-11.04823000
139.89999187	0.00000000	-17.39050000	-11.09129000
140.09999186	0.00000000	-17.01525000	-11.51575000
140.29999185	0.00000000	-16.64616000	-12.62918000
140.49999184	0.00000000	-17.01525000	-13.74262000
140.69999182	0.00000000	-17.34744000	-14.16708000
140.89999181	0.00000000	-17.39050000	-14.16708000
141.09999180	0.00000000	-17.43356000	-13.79183000
141.29999179	0.00000000	-17.76575000	-13.04749000
141.49999178	0.00000000	-18.13484000	-12.62918000
141.69999176	0.00000000	-17.76575000	-12.21087000
141.89999175	0.00000000	-17.43356000	-11.42347000
142.09999174	0.00000000	-17.39050000	-10.72219000
142.29999173	0.00000000	-17.39050000	-10.31004000
142.49999172	0.00000000	-17.39050000	-10.67298000
142.69999170	0.00000000	-17.39050000	-11.04823000
142.89999169	0.00000000	-17.39050000	-11.46653000
143.09999168	0.00000000	-17.39050000	-12.21087000
143.29999167	0.00000000	-17.39050000	-12.62918000
143.49999166	0.00000000	-17.39050000	-13.00443000
143.69999165	0.00000000	-17.39050000	-13.37352000
143.89999163	0.00000000	-17.39050000	-13.00443000
144.09999162	0.00000000	-17.39050000	-12.67224000
144.29999161	0.00000000	-17.39050000	-12.58612000
144.49999160	0.00000000	-17.39050000	-12.21087000
144.69999159	0.00000000	-17.39050000	-11.46653000
144.89999157	0.00000000	-17.39050000	-11.09129000
145.09999156	0.00000000	-17.39050000	-11.04823000
145.29999155	0.00000000	-17.39050000	-11.09129000
145.49999154	0.00000000	-17.43356000	-11.46653000
145.69999153	0.00000000	-17.80881000	-12.25394000
145.89999151	0.00000000	-18.55315000	-13.00443000
146.09999150	0.00000000	-18.87918000	-13.79183000
146.29999149	0.00000000	-18.55315000	-14.16708000
146.49999148	0.00000000	-17.80881000	-14.16708000
146.69999147	0.00000000	-17.43356000	-13.79183000
146.89999146	0.00000000	-17.39050000	-13.04749000
147.09999144	0.00000000	-17.39050000	-12.67224000
147.29999143	0.00000000	-17.39050000	-12.62918000
147.49999142	0.00000000	-17.43356000	-12.58612000
147.69999141	0.00000000	-17.80881000	-12.25394000
147.89999140	0.00000000	-18.55315000	-11.84178000
148.09999138	0.00000000	-18.92839000	-11.87869000
148.29999137	0.00000000	-18.97145000	-11.84178000
148.49999136	0.00000000	-18.97145000	-12.25394000
148.69999135	0.00000000	-18.97145000	-12.62918000
148.89999134	0.00000000	-18.92839000	-13.04749000
149.09999132	0.00000000	-18.55315000	-13.79183000
149.29999131	0.00000000	-17.80881000	-14.11786000
149.49999130	0.00000000	-17.43356000	-13.79183000
149.69999129	0.00000000	-17.39050000	-13.04749000
149.89999128	0.00000000	-17.39050000	-12.67224000
150.09999127	0.00000000	-17.39050000	-12.62918000
150.29999125	0.00000000	-17.43356000	-12.62918000
150.49999124	0.00000000	-17.80881000	-12.62918000
150.69999123	0.00000000	-18.55315000	-12.62918000
150.89999122	0.00000000	-18.92839000	-12.62918000
151.09999121	0.00000000	-18.97145000	-12.62918000
151.29999119	0.00000000	-18.97145000	-12.62918000
151.49999118	0.00000000	-18.97145000	-12.62918000
151.69999117	0.00000000	-18.97145000	-12.62918000
151.89999116	0.00000000	-18.92839000	-12.62918000
152.09999115	0.00000000	-18.55315000	-12.67224000
152.29999113	0.00000000	-17.80881000	-13.00443000
152.49999112	0.00000000	-17.43356000	-13.37352000
152.69999111	0.00000000	-17.39050000	-13.00443000
152.89999110	0.00000000	-17.39050000	-12.67224000
153.09999109	0.00000000	-17.43356000	-12.62918000
153.29999108	0.00000000	-17.80881000	-12.62918000
153.49999106	0.00000000	-18.55315000	-12.62918000
153.69999105	0.00000000	-18.92839000	-12.62918000
153.89999104	0.00000000	-18.97145000	-12.58612000
154.09999103	0.00000000	-18.97145000	-12.25394000
154.29999102	0.00000000	-18.97145000	-11.88484000
154.49999100	0.00000000	-18.97145000	-12.25394000
154.69999099	0.00000000	-18.97145000	-12.58612000
154.89999098	0.00000000	-18.92839000	-12.62918000
155.09999097	0.00000000	-18.55315000	-12.62918000
155.29999096	0.00000000	-17.80881000	-12.62918000
155.49999094	0.00000000	-17.43356000	-12.62918000
155.69999093	0.00000000	-17.39050000	-12.62918000
155.89999092	0.00000000	-17.39050000	-12.62918000
156.09999091	0.00000000	-17.43356000	-12.58612000
156.29999090	0.00000000	-17.80881000	-12.25394000
156.49999089	0.00000000	-18.55315000	-11.84178000
156.69999087	0.00000000	-18.92839000	-11.83563000
156.89999086	0.00000000	-18.97145000	-11.42347000
157.09999085	0.00000000	-18.97145000	-11.14050000
157.29999084	0.00000000	-18.97145000	-11.46653000
157.49999083	0.00000000	-18.97145000	-12.21087000
157.69999081	0.00000000	-18.92839000	-12.58612000
157.89999080	0.00000000	-18.55315000	-12.62918000
158.09999079	0.00000000	-17.80881000	-12.62918000
158.29999078	0.00000000	-17.43356000	-12.62918000
158.49999077	0.00000000	-17.39050000	-12.62918000
158.69999075	0.00000000	-17.39050000	-12.62918000
158.89999074	0.00000000	-17.39050000	-12.62918000
159.09999073	0.00000000	-17.43356000	-12.58612000
159.29999072	0.00000000	-17.80881000	-12.21087000
159.49999071	0.00000000	-18.55315000	-11.46653000
159.69999070	0.00000000	-18.92839000	-11.09129000
159.89999068	0.00000000	-18.97145000	-11.09129000
160.09999067	0.00000000	-18.97145000	-11.46653000
160.29999066	0.00000000	-18.97145000	-12.21087000
160.49999065	0.00000000	-18.97145000	-12.58612000
160.69999064	0.00000000	-18.97145000	-12.62918000
160.89999062	0.00000000	-18.92839000	-12.67224000
161.09999061	0.00000000	-18.59621000	-13.00443000
161.29999060	0.00000000	-18.18405000	-13.37352000
161.49999059	0.00000000	-18.17790000	-13.00443000
161.69999058	0.00000000	-17.76575000	-12.67224000
161.89999056	0.00000000	-17.43356000	-12.62918000
162.09999055	0.00000000	-17.39050000	-12.62918000
162.29999054	0.00000000	-17.43356000	-12.62918000
162.49999053	0.00000000	-17.80881000	-12.62918000
162.69999052	0.00000000	-18.55315000	-12.62918000
162.89999051	0.00000000	-18.92839000	-12.62918000
163.09999049	0.00000000	-18.97145000	-12.62918000
163.29999048	0.00000000	-19.01451000	-12.62918000
163.49999047	0.00000000	-19.34670000	-12.62918000
163.69999046	0.00000000	-19.71580000	-12.62918000
163.89999045	0.00000000	-19.34670000	-12.67224000
164.09999043	0.00000000	-19.01451000	-13.04749000
164.29999042	0.00000000	-18.97145000	-13.74262000
164.49999041	0.00000000	-18.92839000	-13.79183000
164.69999040	0.00000000	-18.59621000	-13.42274000
164.89999039	0.00000000	-18.18405000	-13.41658000
165.09999037	0.00000000	-18.22096000	-13.00443000
165.29999036	0.00000000	-18.18405000	-12.67224000
165.49999035	0.00000000	-18.59621000	-12.62918000
165.69999034	0.00000000	-18.92839000	-12.62918000
165.89999033	0.00000000	-19.01451000	-12.62918000
166.09999032	0.00000000	-19.34670000	-12.62918000
166.29999030	0.00000000	-19.75886000	-12.62918000
166.49999029	0.00000000	-19.72195000	-12.62918000
166.69999028	0.00000000	-19.75886000	-12.62918000
166.89999027	0.00000000	-19.34670000	-12.67224000
167.09999026	0.00000000	-19.01451000	-13.04749000
167.29999024	0.00000000	-18.97145000	-13.79183000
167.49999023	0.00000000	-18.97145000	-14.11786000
167.69999022	0.00000000	-18.97145000	-13.79183000
167.89999021	0.00000000	-18.97145000	-13.04749000
168.09999020	0.00000000	-18.97145000	-12.67224000
168.29999018	0.00000000	-18.97145000	-12.62918000
168.49999017	0.00000000	-18.97145000	-12.67224000
168.69999016	0.00000000	-18.97145000	-13.00443000
168.89999015	0.00000000	-18.97145000	-13.37352000
169.09999014	0.00000000	-18.97145000	-13.00443000
169.29999013	0.00000000	-19.01451000	-12.72146000
169.49999011	0.00000000	-19.38976000	-13.00443000
169.69999010	0.00000000	-20.08489000	-13.37352000
169.89999009	0.00000000	-20.08489000	-13.00443000
170.09999008	0.00000000	-19.38976000	-12.67224000
170.29999007	0.00000000	-19.01451000	-12.62918000
170.49999005	0.00000000	-18.97145000	-12.62918000
170.69999004	0.00000000	-18.97145000	-12.62918000
170.89999003	0.00000000	-18.97145000	-12.62918000
171.09999002	0.00000000	-18.97145000	-12.62918000
171.29999001	0.00000000	-18.97145000	-12.62918000
171.49998999	0.00000000	-18.97145000	-12.62918000
171.69998998	0.00000000	-18.97145000	-12.62918000
171.89998997	0.00000000	-18.97145000	-12.62918000
172.09998996	0.00000000	-18.97145000	-12.62918000
172.29998995	0.00000000	-18.97145000	-12.62918000
172.49998994	0.00000000	-19.01451000	-12.62918000
172.69998992	0.00000000	-19.34670000	-12.62918000
172.89998991	0.00000000	-19.71580000	-12.62918000
173.09998990	0.00000000	-19.34670000	-12.62918000
173.29998989	0.00000000	-19.01451000	-12.62918000
173.49998988	0.00000000	-18.97145000	-12.62918000
173.69998986	0.00000000	-18.97145000	-12.62918000
173.89998985	0.00000000	-18.97145000	-12.62918000
174.09998984	0.00000000	-18.97145000	-12.62918000
174.29998983	0.00000000	-18.97145000	-12.62918000
174.49998982	0.00000000	-18.97145000	-12.62918000
174.69998980	0.00000000	-18.97145000	-12.62918000
174.89998979	0.00000000	-18.97145000	-12.62918000
175.09998978	0.00000000	-18.97145000	-12.62918000
175.29998977	0.00000000	-18.97145000	-12.67224000
175.49998976	0.00000000	-18.97145000	-13.04749000
175.69998975	0.00000000	-18.97145000	-13.74262000
175.89998973	0.00000000	-19.01451000	-13.79183000
176.09998972	0.00000000	-19.34670000	-13.42274000
176.29998971	0.00000000	-19.71580000	-13.41658000
176.49998970	0.00000000	-19.34670000	-13.00443000
176.69998969	0.00000000	-19.01451000	-12.67224000
176.89998967	0.00000000	-18.97145000	-12.67224000
177.09998966	0.00000000	-19.01451000	-13.00443000
177.29998965	0.00000000	-19.34670000	-13.41658000
177.49998964	0.00000000	-19.71580000	-13.42274000
177.69998963	0.00000000	-19.34670000	-13.79183000
177.89998961	0.00000000	-19.01451000	-13.74262000
178.09998960	0.00000000	-19.01451000	-13.09670000
178.29998959	0.00000000	-19.34670000	-13.04749000
178.49998958	0.00000000	-19.75886000	-13.37352000
178.69998957	0.00000000	-19.72195000	-13.00443000
178.89998956	0.00000000	-19.75886000	-12.67224000
179.09998954	0.00000000	-19.34670000	-12.62918000
179.29998953	0.00000000	-19.01451000	-12.62918000
179.49998952	0.00000000	-18.97145000	-12.62918000
179.69998951	0.00000000	-18.97145000	-12.62918000
179.89998950	0.00000000	-18.97145000	-12.67224000
180.09998948	0.00000000	-19.01451000	-13.04749000
180.29998947	0.00000000	-19.34670000	-13.79183000
180.49998946	0.00000000	-19.75886000	-14.11786000
180.69998945	0.00000000	-19.72195000	-13.83489000
180.89998944	0.00000000	-19.80192000	-13.42274000
181.09998942	0.00000000	-19.76501000	-13.41658000
181.29998941	0.00000000	-20.17716000	-13.00443000
181.49998940	0.00000000	-20.46014000	-12.67224000
181.69998939	0.00000000	-20.13410000	-12.62918000
181.89998938	0.00000000	-19.38976000	-12.62918000
182.09998937	0.00000000	-19.01451000	-12.62918000
182.29998935	0.00000000	-18.97145000	-12.62918000
182.49998934	0.00000000	-18.97145000	-12.67224000
182.69998933	0.00000000	-18.97145000	-13.04749000
182.89998932	0.00000000	-18.97145000	-13.79183000
183.09998931	0.00000000	-18.97145000	-14.16708000
183.29998929	0.00000000	-19.01451000	-14.21014000
183.49998928	0.00000000	-19.38976000	-14.21014000
183.69998927	0.00000000	-20.13410000	-14.16708000
183.89998926	0.00000000	-20.46014000	-13.79183000
184.09998925	0.00000000	-20.17716000	-13.04749000
184.29998923	0.00000000	-19.80807000	-12.67224000
184.49998922	0.00000000	-20.17716000	-12.62918000
184.69998921	0.00000000	-20.50935000	-12.62918000
184.89998920	0.00000000	-20.50935000	-12.62918000
185.09998919	0.00000000	-20.13410000	-12.62918000
185.29998918	0.00000000	-19.38976000	-12.67224000
185.49998916	0.00000000	-19.01451000	-13.04749000
185.69998915	0.00000000	-18.97145000	-13.79183000
185.89998914	0.00000000	-18.97145000	-14.16708000
186.09998913	0.00000000	-19.01451000	-14.21014000
186.29998912	0.00000000	-19.34670000	-14.21014000
186.49998910	0.00000000	-19.75886000	-14.21014000
186.69998909	0.00000000	-19.76501000	-14.16708000
186.89998908	0.00000000	-20.17716000	-13.79183000
187.09998907	0.00000000	-20.50935000	-13.04749000
187.29998906	0.00000000	-20.55241000	-12.67224000
187.49998904	0.00000000	-20.55241000	-12.62918000
187.69998903	0.00000000	-20.55241000	-12.62918000
187.89998902	0.00000000	-20.55241000	-12.62918000
188.09998901	0.00000000	-20.55241000	-12.67224000
188.29998900	0.00000000	-20.50935000	-13.04749000
188.49998899	0.00000000	-20.13410000	-13.79183000
188.69998897	0.00000000	-19.38976000	-14.16708000
188.89998896	0.00000000	-19.01451000	-14.21014000
189.09998895	0.00000000	-18.97145000	-14.21014000
189.29998894	0.00000000	-19.01451000	-14.16708000
189.49998893	0.00000000	-19.38976000	-13.83489000
189.69998891	0.00000000	-20.13410000	-13.42274000
189.89998890	0.00000000	-20.50935000	-13.41658000
190.09998889	0.00000000	-20.55241000	-13.00443000
190.29998888	0.00000000	-20.55241000	-12.67224000
190.49998887	0.00000000	-20.55241000	-12.62918000
190.69998885	0.00000000	-20.55241000	-12.62918000
190.89998884	0.00000000	-20.50935000	-12.62918000
191.09998883	0.00000000	-20.13410000	-12.62918000
191.29998882	0.00000000	-19.38976000	-12.62918000
191.49998881	0.00000000	-19.01451000	-12.62918000
191.69998880	0.00000000	-18.97145000	-12.67224000
191.89998878	0.00000000	-19.01451000	-13.04749000
192.09998877	0.00000000	-19.38976000	-13.79183000
192.29998876	0.00000000	-20.13410000	-14.16708000
192.49998875	0.00000000	-20.50935000	-14.25320000
192.69998874	0.00000000	-20.55241000	-14.58538000
192.89998872	0.00000000	-20.55241000	-14.94833000
193.09998871	0.00000000	-20.55241000	-14.53617000
193.29998870	0.00000000	-20.55241000	-13.83489000
193.49998869	0.00000000	-20.55241000	-13.04749000
193.69998868	0.00000000	-20.55241000	-12.67224000
193.89998866	0.00000000	-20.55241000	-12.62918000
194.09998865	0.00000000	-20.55241000	-12.62918000
194.29998864	0.00000000	-20.55241000	-12.67224000
194.49998863	0.00000000	-20.50935000	-13.04749000
194.69998862	0.00000000	-20.17716000	-13.74262000
194.89998861	0.00000000	-19.80807000	-13.83489000
195.09998859	0.00000000	-20.17716000	-13.84104000
195.29998858	0.00000000	-20.50935000	-14.57308000
195.49998857	0.00000000	-20.55241000	-14.53617000
195.69998856	0.00000000	-20.55241000	-14.25320000
195.89998855	0.00000000	-20.55241000	-14.21014000
196.09998853	0.00000000	-20.55241000	-14.21014000
