Time	Channel A	Channel B	Channel C
(us)	(V)	(mV)	(mV)

-4.49999956	0.00000000	50.59670000	9.47342500
-4.29999957	0.00000000	50.59670000	9.47342500
-4.09999958	0.00000000	50.59670000	9.47342500
-3.89999959	0.00000000	50.59670000	9.47342500
-3.69999960	0.00000000	50.59670000	9.47342500
-3.49999962	0.00000000	50.59670000	9.47342500
-3.29999963	0.00000000	50.59670000	9.47342500
-3.09999964	0.00000000	50.59670000	9.47342500
-2.89999965	0.00000000	50.59670000	9.47342500
-2.69999966	0.00000000	50.59670000	9.47342500
-2.49999968	0.00000000	50.59670000	9.47342500
-2.29999969	0.00000000	50.59670000	9.47342500
-2.09999970	0.00000000	50.59670000	9.47342500
-1.89999971	0.00000000	50.59670000	9.47342500
-1.69999972	0.00000000	50.59670000	9.43036400
-1.49999973	0.00000000	50.59670000	9.05511800
-1.29999975	0.00000000	50.59670000	8.35998900
-1.09999976	0.00000000	50.59670000	8.35998900
-0.89999977	0.00000000	50.59670000	9.00590400
-0.69999978	0.00000000	50.59670000	9.05511800
-0.49999979	0.00000000	50.59670000	8.72908400
-0.29999981	0.31803640	50.59670000	9.09817800
-0.09999982	0.63668800	50.59670000	9.38115100
0.10000017	0.95533960	50.59670000	9.09817800
0.30000016	0.95533960	50.59670000	8.72908400
0.50000015	0.95533960	50.59670000	9.09817800
0.70000013	0.47736220	50.59670000	9.43036400
0.90000012	-0.31803640	50.59670000	9.47342500
1.10000011	-1.43331700	50.59670000	9.47342500
1.30000010	-2.22994600	50.59670000	9.47342500
1.50000009	-2.86724900	50.59670000	9.47342500
1.70000008	-2.54859700	50.59670000	9.47342500
1.90000006	-1.59264300	50.59670000	9.47342500
2.10000005	0.31803640	50.59670000	9.47342500
2.30000004	2.38927200	50.59670000	9.47342500
2.50000003	4.30056600	50.59670000	9.47342500
2.70000002	5.25652100	50.59670000	9.47342500
2.90000000	5.09719500	50.59670000	9.47342500
3.09999999	3.34522600	50.55364000	9.43036400
3.29999998	0.31803640	50.22145000	9.09817800
3.49999997	-3.02657500	49.85236000	8.72908400
3.69999996	-6.05315000	50.22145000	9.09817800
3.89999994	-7.80511800	50.55364000	9.43036400
4.09999993	-7.64579200	50.59670000	9.51648500
4.29999992	-5.57517200	50.59670000	9.89173200
4.49999991	-1.59264300	50.59670000	10.62992000
4.69999990	2.70792300	50.59670000	10.95595000
4.89999989	6.69045300	50.59670000	10.62992000
5.09999987	9.07972400	50.59670000	9.89173200
5.29999986	9.23905000	50.55364000	9.51648500
5.49999985	7.00848900	50.22145000	9.43036400
5.69999984	3.02657500	49.85236000	9.09817800
5.89999983	-1.75196900	50.22145000	8.72908400
6.09999981	-6.05315000	50.55364000	9.09817800
6.29999980	-8.92039900	50.59670000	9.43036400
6.49999979	-9.39837600	50.59670000	9.47342500
6.69999978	-7.64579200	50.59670000	9.47342500
6.89999977	-3.98191400	50.59670000	9.47342500
7.09999975	0.31803640	50.59670000	9.47342500
7.29999974	4.45989200	50.59670000	9.47342500
7.49999973	7.00848900	50.59670000	9.47342500
7.69999972	7.80511800	50.59670000	9.43036400
7.89999971	6.53112700	50.59670000	9.05511800
8.09999970	3.98191400	50.59670000	8.35998900
8.29999968	0.47736220	50.59670000	8.35998900
8.49999967	-2.38927200	50.59670000	9.05511800
8.69999966	-4.45989200	50.59670000	9.43036400
8.89999965	-5.25652100	50.59670000	9.47342500
9.09999964	-4.61921700	50.59670000	9.47342500
9.29999962	-2.86724900	50.59670000	9.47342500
9.49999961	-0.95533960	50.59670000	9.47342500
9.69999960	0.79601380	50.59670000	9.47342500
9.89999959	2.07062000	50.55364000	9.47342500
10.09999958	2.54859700	50.17839000	9.47342500
10.29999956	2.22994600	49.48326000	9.47342500
10.49999955	1.59264300	49.48326000	9.47342500
10.69999954	0.63668800	50.17839000	9.47342500
10.89999953	-0.15871060	50.55364000	9.47342500
11.09999952	-0.63668800	50.55364000	9.47342500
11.29999951	-0.95533960	50.22145000	9.47342500
11.49999949	-0.95533960	49.80930000	9.47342500
11.69999948	-0.79601380	49.84621000	9.47342500
11.89999947	-0.47736220	49.80930000	9.47342500
12.09999946	-0.15871060	50.22145000	9.47342500
12.29999945	-0.15871060	50.50443000	9.47342500
12.49999943	-0.15871060	50.22145000	9.47342500
12.69999942	0.00000000	49.85236000	9.47342500
12.89999941	0.00000000	50.22145000	9.47342500
13.09999940	0.00000000	50.55364000	9.47342500
13.29999939	0.00000000	50.59670000	9.51648500
13.49999937	0.00000000	50.59670000	9.84867000
13.69999936	0.00000000	50.59670000	10.21161000
13.89999935	0.00000000	50.59670000	9.84867000
14.09999934	-0.15871060	50.59670000	9.51648500
14.29999933	-0.15871060	50.55364000	9.43036400
14.49999932	-0.15871060	50.22145000	9.09817800
14.69999930	-0.15871060	49.85236000	8.72908400
14.89999929	0.00000000	50.22145000	9.09817800
15.09999928	0.00000000	50.55364000	9.43036400
15.29999927	0.00000000	50.59670000	9.47342500
15.49999926	0.00000000	50.55364000	9.47342500
15.69999924	0.00000000	50.22145000	9.47342500
15.89999923	0.00000000	49.80930000	9.47342500
16.09999922	0.00000000	49.84621000	9.47342500
16.29999921	-0.15871060	49.80930000	9.47342500
16.49999920	-0.15871060	50.22145000	9.47342500
16.69999919	-0.15871060	50.55364000	9.47342500
16.89999917	-0.15871060	50.59670000	9.47342500
17.09999916	0.00000000	50.63976000	9.47342500
17.29999915	0.00000000	50.97194000	9.47342500
17.49999914	0.00000000	51.38410000	9.47342500
17.69999913	0.00000000	51.34719000	9.47342500
17.89999911	0.00000000	51.34104000	9.47342500
18.09999910	0.00000000	50.50443000	9.47342500
18.29999909	0.00000000	49.01575000	9.47342500
18.49999908	0.00000000	47.43479000	9.47342500
18.69999907	-0.15871060	45.89690000	9.47342500
18.89999905	0.00000000	44.78346000	9.47342500
19.09999904	-0.15871060	44.78346000	9.47342500
19.29999903	0.00000000	45.98917000	9.47342500
19.49999902	0.00000000	48.32062000	9.47342500
19.69999901	0.00000000	51.84547000	9.47342500
19.89999900	0.00000000	55.67175000	9.47342500
20.09999898	0.00000000	59.15354000	9.47342500
20.29999897	0.00000000	61.01746000	9.47342500
20.49999896	0.00000000	60.59916000	9.47342500
20.69999895	0.00000000	57.43725000	9.47342500
20.89999894	0.00000000	51.58095000	9.43036400
21.09999892	0.00000000	43.89763000	9.09817800
21.29999891	0.00000000	36.17741000	8.72908400
21.49999890	0.00000000	30.81939000	9.09817800
21.69999889	0.00000000	28.91240000	9.38115100
21.89999888	0.00000000	31.74827000	9.05511800
22.09999886	0.00000000	39.52387000	8.31077700
22.29999885	0.00000000	51.10728000	7.98474400
22.49999884	0.00000000	63.85334000	8.31077700
22.69999883	0.00000000	74.65550000	9.05511800
22.89999882	0.00000000	81.16387000	9.43036400
23.09999881	0.00000000	81.02854000	9.47342500
23.29999879	0.00000000	73.25910000	9.51648500
23.49999878	0.00000000	58.93208000	9.89173200
23.69999877	0.00000000	41.15403000	10.62992000
23.89999876	0.00000000	23.80044000	11.00517000
24.09999875	0.00000000	11.14050000	11.00517000
24.29999873	0.00000000	6.95127900	10.58686000
24.49999872	0.00000000	12.77067000	9.42421200
24.69999871	0.00000000	27.47293000	7.89247000
24.89999870	0.00000000	47.98843000	6.31151500
25.09999869	0.00000000	70.04182000	4.77977300
25.29999867	0.00000000	88.89025000	3.66633800
25.49999866	0.00000000	99.63705000	3.66633800
25.69999865	0.00000000	98.80659000	4.87204700
25.89999864	0.00000000	86.47269000	7.24040300
26.09999863	0.00000000	65.20669000	11.09129000
26.29999862	0.00000000	40.12672000	15.32357000
26.49999860	0.00000000	16.95989000	18.81152000
26.69999859	0.00000000	1.13804100	21.08760000
26.89999858	0.00000000	-3.51254900	20.99532000
27.09999857	0.00000000	3.78937000	17.88263000
27.29999856	0.00000000	21.19217000	12.03248000
27.49999854	0.00000000	44.74040000	4.36146600
27.69999853	0.00000000	69.06988000	-3.34645700
27.89999852	0.00000000	88.42888000	-8.74138700
28.09999851	0.00000000	98.84965000	-11.01132000
28.29999850	0.00000000	98.14837000	-8.96899500
28.49999848	0.00000000	86.57111000	-2.04847400
28.69999847	0.00000000	67.66731000	8.02780400
28.89999846	0.00000000	45.29404000	19.27288000
29.09999845	0.00000000	25.19070000	30.05044000
29.29999844	0.00000000	11.92790000	37.30315000
29.49999843	0.00000000	6.86515700	38.79183000
29.69999841	0.00000000	11.09744000	33.72293000
29.89999840	0.00000000	23.37598000	22.53322000
30.09999839	0.00000000	39.99138000	7.84940900
30.29999838	0.00000000	57.43725000	-7.20349400
30.49999837	0.00000000	72.18872000	-19.55585000
30.69999835	0.00000000	81.49606000	-26.07037000
30.89999834	0.00000000	83.86442000	-25.31988000
31.09999833	0.00000000	78.84473000	-17.15059000
31.29999832	0.00000000	68.09177000	-3.25418300
31.49999831	0.00000000	54.17691000	13.79183000
31.69999829	0.00000000	40.63730000	30.33341000
31.89999828	0.00000000	30.12426000	42.73499000
32.09999827	0.00000000	24.26181000	48.13607000
32.29999826	0.00000000	23.84350000	45.80462000
32.49999825	0.00000000	28.49409000	35.67913000
32.69999824	0.00000000	37.38312000	19.55585000
32.89999822	0.00000000	48.54823000	1.39640700
33.09999821	0.00000000	58.97515000	-14.45620000
33.29999820	0.00000000	66.37549000	-25.31988000
33.49999819	0.00000000	69.49433000	-28.80782000
33.69999818	0.00000000	67.99950000	-24.58169000
33.89999816	0.00000000	62.60457000	-13.74877000
34.09999815	0.00000000	54.87204000	1.71013800
34.29999814	0.00000000	46.40748000	18.30093000
34.49999813	0.00000000	39.48080000	32.60949000
34.69999812	0.00000000	35.94365000	41.48622000
34.89999810	0.00000000	35.89444000	43.06717000
35.09999809	0.00000000	38.97022000	37.26009000
35.29999808	0.00000000	44.36515000	25.35679000
35.49999807	0.00000000	50.50443000	10.31004000
35.69999806	0.00000000	55.89936000	-3.95546200
35.89999805	0.00000000	58.97515000	-14.77608000
36.09999803	0.00000000	59.01821000	-19.42667000
36.29999802	0.00000000	56.36687000	-17.15059000
36.49999801	0.00000000	52.13459000	-9.10433000
36.69999800	0.00000000	47.47785000	2.82972400
36.89999799	0.00000000	43.24557000	15.09596000
37.09999797	0.00000000	40.59424000	24.80315000
37.29999796	0.00000000	40.59424000	29.77977000
37.49999795	0.00000000	43.24557000	29.02928000
37.69999794	0.00000000	47.47785000	22.52707000
37.89999793	0.00000000	52.13459000	12.62918000
38.09999791	0.00000000	56.36687000	2.63902500
38.29999790	0.00000000	59.01821000	-4.65059000
38.49999789	0.00000000	59.06127000	-7.34498000
38.69999788	0.00000000	56.78519000	-4.69980300
38.89999787	0.00000000	53.29109000	2.22071800
39.09999786	0.00000000	49.01575000	11.38041000
39.29999784	0.00000000	44.78346000	20.20177000
39.49999783	0.00000000	41.66461000	25.51058000
39.69999782	0.00000000	40.12672000	25.91658000
39.89999781	0.00000000	40.50196000	20.90305000
40.09999780	0.00000000	42.82726000	12.16781000
40.29999778	0.00000000	46.32135000	2.55290300
40.49999777	0.00000000	50.59670000	-5.11811000
40.69999776	0.00000000	54.82898000	-8.96899500
40.89999775	0.00000000	57.94783000	-7.81250000
41.09999774	0.00000000	59.52879000	-2.04847400
41.29999772	0.00000000	59.48573000	6.77903500
41.49999771	0.00000000	57.52953000	16.39395000
41.69999770	0.00000000	53.71555000	24.06496000
41.89999769	0.00000000	49.48326000	27.92200000
42.09999768	0.00000000	45.89690000	26.75935000
42.29999767	0.00000000	42.82726000	21.08760000
42.49999765	0.00000000	40.92643000	13.00443000
42.69999764	0.00000000	41.28937000	4.91510800
42.89999763	0.00000000	43.15945000	-1.67322800
43.09999762	0.00000000	45.89690000	-5.16117100
43.29999761	0.00000000	48.97269000	-5.20423200
43.49999759	0.00000000	51.71013000	-2.09153500
43.69999758	0.00000000	53.62328000	3.62327700
43.89999757	0.00000000	54.45374000	10.11934000
44.09999756	0.00000000	54.13385000	15.18824000
44.29999755	0.00000000	53.71555000	18.30093000
44.49999753	0.00000000	52.96506000	19.08834000
44.69999752	0.00000000	51.85777000	17.18750000
44.89999751	0.00000000	51.84547000	13.79183000
45.09999750	0.00000000	52.08538000	9.93479300
45.29999749	0.00000000	51.71013000	6.82209600
45.49999748	0.00000000	50.50443000	4.82283400
45.69999746	0.00000000	48.54823000	3.66633800
45.89999745	0.00000000	45.85384000	3.70939900
46.09999744	0.00000000	43.15945000	5.19808000
46.29999743	0.00000000	41.24631000	7.51722400
46.49999742	0.00000000	40.50196000	9.79945900
46.69999740	0.00000000	41.70767000	11.74951000
46.89999739	0.00000000	44.86958000	12.53691000
47.09999738	0.00000000	49.90157000	12.58612000
47.29999737	0.00000000	56.03469000	12.16166000
47.49999736	0.00000000	61.01746000	10.96211000
47.69999734	0.00000000	63.76107000	9.05511800
47.89999733	0.00000000	63.66880000	6.72982200
48.09999732	0.00000000	60.13164000	4.82283400
48.29999731	0.00000000	53.20496000	3.70939900
48.49999730	0.00000000	44.74040000	4.08464600
48.69999729	0.00000000	37.00787000	5.98548200
48.89999727	0.00000000	31.65600000	8.31077700
49.09999726	0.00000000	30.49335000	11.04823000
49.29999725	0.00000000	33.98130000	13.69956000
49.49999724	0.00000000	40.92027000	15.23130000
49.69999723	0.00000000	50.22145000	15.23130000
49.89999721	0.00000000	59.39345000	13.69956000
50.09999720	0.00000000	66.00024000	10.96211000
50.29999719	0.00000000	68.33170000	7.47416300
50.49999718	0.00000000	66.37549000	3.66633800
50.69999717	0.00000000	60.18085000	0.97194880
50.89999715	0.00000000	50.97194000	0.17839570
51.09999714	0.00000000	41.75073000	0.97194880
51.29999713	0.00000000	34.81791000	3.70939900
51.49999712	0.00000000	32.12352000	7.89247000
51.69999711	0.00000000	34.35654000	12.11860000
51.89999710	0.00000000	40.12672000	15.23130000
52.09999708	0.00000000	47.85310000	16.81225000
52.29999707	0.00000000	55.89936000	16.81225000
52.49999706	0.00000000	61.66953000	15.23130000
52.69999705	0.00000000	63.62573000	12.16166000
52.89999704	0.00000000	61.66953000	8.31077700
53.09999702	0.00000000	55.94857000	4.87204700
53.29999701	0.00000000	48.32062000	2.50369100
53.49999700	0.00000000	41.79995000	1.80241100
53.69999699	0.00000000	37.89985000	2.92199800
53.89999698	0.00000000	37.47539000	5.93626900
54.09999696	0.00000000	40.17593000	8.96284400
54.29999695	0.00000000	45.15871000	10.96211000
54.49999694	0.00000000	51.34104000	12.11860000
54.69999693	0.00000000	56.69291000	12.11860000
54.89999692	0.00000000	60.13164000	11.00517000
55.09999691	0.00000000	60.13164000	9.47342500
55.29999689	0.00000000	56.74212000	7.93553100
55.49999688	0.00000000	51.75935000	6.82209600
55.69999687	0.00000000	46.32135000	6.82209600
55.89999686	0.00000000	41.75689000	7.98474400
56.09999685	0.00000000	39.43159000	9.84867000
56.29999683	0.00000000	40.17593000	11.74951000
56.49999682	0.00000000	43.20251000	12.49385000
56.69999681	0.00000000	47.47785000	12.07554000
56.89999680	0.00000000	52.08538000	10.11934000
57.09999679	0.00000000	55.94857000	6.72982200
57.29999677	0.00000000	57.85556000	3.66633800
57.49999676	0.00000000	57.52953000	1.75319900
57.69999675	0.00000000	55.20423000	1.39025600
57.89999674	0.00000000	51.75935000	3.37721400
58.09999673	0.00000000	47.90231000	7.19734200
58.29999672	0.00000000	44.86958000	12.21087000
58.49999670	0.00000000	43.66388000	16.81225000
58.69999669	0.00000000	44.36515000	19.88189000
58.89999668	0.00000000	45.85384000	20.62008000
59.09999667	0.00000000	47.47785000	18.25787000
59.29999666	0.00000000	49.39099000	13.28125000
59.49999664	0.00000000	51.29183000	6.72982200
59.69999663	0.00000000	52.08538000	0.59670270
59.89999662	0.00000000	52.13459000	-3.62942900
60.09999661	0.00000000	51.71013000	-4.78592500
60.29999660	0.00000000	50.59670000	-2.46678100
60.49999658	0.00000000	49.43405000	2.55290300
60.69999657	0.00000000	48.68356000	9.51648500
60.89999656	0.00000000	48.27140000	16.81225000
61.09999655	0.00000000	48.68356000	22.52707000
61.29999654	0.00000000	49.39099000	24.85236000
61.49999653	0.00000000	50.17839000	22.90231000
61.69999651	0.00000000	50.50443000	17.55659000
61.89999650	0.00000000	50.17839000	9.84867000
62.09999649	0.00000000	49.39099000	2.17765700
62.29999648	0.00000000	48.64050000	-3.67249000
62.49999647	0.00000000	47.81004000	-6.74212600
62.69999645	0.00000000	47.10260000	-6.36687900
62.89999644	0.00000000	46.73966000	-2.46678100
63.09999643	0.00000000	47.52707000	4.08464600
63.29999642	0.00000000	49.01575000	12.16781000
63.49999641	0.00000000	50.55364000	19.42052000
63.69999639	0.00000000	51.71013000	23.68971000
63.89999638	0.00000000	52.13459000	24.15723000
64.09999637	0.00000000	52.13459000	21.46284000
64.29999636	0.00000000	51.71013000	16.43701000
64.49999635	0.00000000	50.55364000	9.89173200
64.69999634	0.00000000	49.01575000	3.70939900
64.89999632	0.00000000	47.47785000	-0.97810030
65.09999631	0.00000000	46.32135000	-3.67249000
65.29999630	0.00000000	45.94611000	-3.67249000
65.49999629	0.00000000	46.36442000	-1.02116100
65.69999628	0.00000000	47.85310000	3.20497000
65.89999626	0.00000000	49.71087000	7.84940900
66.09999625	0.00000000	50.46136000	12.11860000
66.29999624	0.00000000	50.17839000	15.27436000
66.49999623	0.00000000	49.39099000	17.23056000
66.69999622	0.00000000	48.59744000	18.01796000
66.89999620	0.00000000	47.43479000	17.18750000
67.09999619	0.00000000	46.32135000	14.90526000
67.29999618	0.00000000	45.98917000	11.42347000
67.49999617	0.00000000	46.73966000	7.93553100
67.69999616	0.00000000	48.68356000	4.77977300
67.89999615	0.00000000	50.97194000	2.08538400
68.09999613	0.00000000	53.29109000	0.51058070
68.29999612	0.00000000	54.78592000	0.09227362
68.49999611	0.00000000	54.78592000	0.51058070
68.69999610	0.00000000	53.20496000	2.12844500
68.89999609	0.00000000	50.12918000	5.24729300
69.09999607	0.00000000	46.27214000	9.47342500
69.29999606	0.00000000	42.78420000	13.74262000
69.49999605	0.00000000	40.12672000	17.23056000
69.69999604	0.00000000	39.38853000	19.55585000
69.89999603	0.00000000	41.33858000	19.93110000
70.09999601	0.00000000	45.15871000	18.35015000
70.29999600	0.00000000	50.22145000	14.81299000
70.49999599	0.00000000	55.20423000	9.47342500
70.69999598	0.00000000	59.06127000	4.08464600
70.89999597	0.00000000	60.59916000	0.17839570
71.09999596	0.00000000	59.43651000	-2.14074800
71.29999594	0.00000000	55.94857000	-2.09153500
71.49999593	0.00000000	50.55364000	0.59670270
71.69999592	0.00000000	44.78346000	5.19808000
71.89999591	0.00000000	40.08366000	10.58686000
72.09999590	0.00000000	37.01402000	15.18824000
72.29999588	0.00000000	36.26968000	17.92569000
72.49999587	0.00000000	38.59498000	18.35015000
72.69999586	0.00000000	43.20251000	16.85531000
72.89999585	0.00000000	49.01575000	14.11786000
73.09999584	0.00000000	54.78592000	10.67298000
73.29999582	0.00000000	59.01821000	7.24040300
73.49999581	0.00000000	60.59916000	5.29035400
73.69999580	0.00000000	59.48573000	4.82898600
73.89999579	0.00000000	56.36687000	5.19808000
74.09999578	0.00000000	51.75935000	6.36072800
74.29999577	0.00000000	46.73966000	7.84940900
74.49999575	0.00000000	42.87032000	9.00590400
74.69999574	0.00000000	40.50196000	9.38115100
74.89999573	0.00000000	40.12672000	9.00590400
75.09999572	0.00000000	41.66461000	7.89247000
75.29999571	0.00000000	44.74040000	6.77903500
75.49999569	0.00000000	48.54823000	6.44685000
75.69999568	0.00000000	51.66707000	7.24040300
75.89999567	0.00000000	53.62328000	9.55954600
76.09999566	0.00000000	54.41068000	12.53691000
76.29999565	0.00000000	53.66634000	14.85605000
76.49999563	0.00000000	52.17765000	15.64960000
76.69999562	0.00000000	50.59670000	15.23130000
76.89999561	0.00000000	49.05881000	13.23819000
77.09999560	0.00000000	47.90231000	9.38115100
77.29999559	0.00000000	47.52707000	4.82898600
77.49999558	0.00000000	47.85310000	0.92888770
77.69999556	0.00000000	48.54823000	-1.35334600
77.89999555	0.00000000	48.54823000	-1.71628900
78.09999554	0.00000000	47.81004000	0.59670270
78.29999553	0.00000000	47.05954000	4.82898600
78.49999552	0.00000000	46.27214000	9.84867000
78.69999550	0.00000000	45.94611000	14.85605000
78.89999549	0.00000000	46.32135000	18.35015000
79.09999548	0.00000000	47.52707000	19.88189000
79.29999547	0.00000000	49.43405000	19.08834000
79.49999546	0.00000000	51.71013000	15.64960000
79.69999544	0.00000000	53.24803000	11.04823000
79.89999543	0.00000000	53.66634000	6.35457700
80.09999542	0.00000000	53.24803000	2.12844500
80.29999541	0.00000000	51.66707000	-0.55979330
80.49999540	0.00000000	49.01575000	-0.97810030
80.69999539	0.00000000	46.32135000	0.51058070
80.89999537	0.00000000	44.36515000	3.24803100
81.09999536	0.00000000	43.20251000	6.72982200
81.29999535	0.00000000	43.24557000	10.58686000
81.49999534	0.00000000	44.78346000	13.69956000
81.69999533	0.00000000	47.43479000	15.64960000
81.89999531	0.00000000	50.12918000	16.43701000
82.09999530	0.00000000	52.08538000	15.69882000
82.29999529	0.00000000	53.24803000	14.16092000
82.49999528	0.00000000	53.24803000	12.16781000
82.69999527	0.00000000	52.08538000	9.42421200
82.89999525	0.00000000	50.17839000	6.36072800
83.09999524	0.00000000	47.90231000	3.66633800
83.29999523	0.00000000	46.32135000	2.04232300
83.49999522	0.00000000	45.52165000	1.24877000
83.69999521	0.00000000	45.15871000	0.92888770
83.89999520	0.00000000	45.89690000	2.17765700
84.09999518	0.00000000	47.01648000	5.19808000
84.29999517	0.00000000	47.81004000	9.05511800
84.49999516	0.00000000	48.59744000	12.53691000
84.69999515	0.00000000	48.97269000	15.27436000
84.89999514	0.00000000	49.01575000	16.81225000
85.09999512	0.00000000	49.05881000	16.81225000
85.29999511	0.00000000	49.39099000	15.23130000
85.49999510	0.00000000	49.80315000	12.11860000
85.69999509	0.00000000	49.80930000	7.89247000
85.89999508	0.00000000	50.22145000	3.66633800
86.09999506	0.00000000	50.50443000	0.55364170
86.29999505	0.00000000	50.12918000	-0.97810030
86.49999504	0.00000000	49.01575000	-0.55979330
86.69999503	0.00000000	47.85310000	2.12844500
86.89999502	0.00000000	47.05954000	6.35457700
87.09999501	0.00000000	46.27214000	11.00517000
87.29999499	0.00000000	45.94611000	15.23130000
87.49999498	0.00000000	46.32135000	17.92569000
87.69999497	0.00000000	47.47785000	18.30093000
87.89999496	0.00000000	49.01575000	16.35089000
88.09999495	0.00000000	50.55364000	12.11860000
88.29999493	0.00000000	51.71013000	6.77903500
88.49999492	0.00000000	52.08538000	2.17765700
88.69999491	0.00000000	51.71013000	-0.55979330
88.89999490	0.00000000	50.55364000	-0.93503930
89.09999489	0.00000000	49.01575000	1.02116100
89.29999487	0.00000000	47.47785000	5.24729300
89.49999486	0.00000000	46.32135000	10.58686000
89.69999485	0.00000000	45.89690000	15.18824000
89.89999484	0.00000000	45.89690000	17.92569000
90.09999483	0.00000000	46.32135000	18.30093000
90.29999482	0.00000000	47.43479000	16.35089000
90.49999480	0.00000000	48.59744000	12.11860000
90.69999479	0.00000000	49.34793000	6.77903500
90.89999478	0.00000000	49.80315000	2.17765700
91.09999477	0.00000000	49.76624000	-0.55979330
91.29999476	0.00000000	49.80315000	-0.88582670
91.49999474	0.00000000	49.39099000	1.39025600
91.69999473	0.00000000	49.05881000	5.98548200
91.89999472	0.00000000	49.01575000	10.95595000
92.09999471	0.00000000	49.01575000	15.23130000
92.29999470	0.00000000	49.01575000	17.88263000
92.49999468	0.00000000	49.01575000	17.88263000
92.69999467	0.00000000	48.97269000	15.18824000
92.89999466	0.00000000	48.54823000	10.62992000
93.09999465	0.00000000	47.43479000	5.61638700
93.29999464	0.00000000	46.32135000	1.80241100
93.49999463	0.00000000	45.89690000	-0.14148620
93.69999461	0.00000000	45.89690000	0.64591530
93.89999460	0.00000000	46.32135000	3.62327700
94.09999459	0.00000000	47.52707000	7.51722400
94.29999458	0.00000000	49.43405000	11.38041000
94.49999457	0.00000000	51.71013000	14.81299000
94.69999455	0.00000000	53.24803000	16.30167000
94.89999454	0.00000000	53.66634000	15.18824000
95.09999453	0.00000000	53.24803000	12.16166000
95.29999452	0.00000000	51.66707000	8.31077700
95.49999451	0.00000000	48.97269000	4.82283400
95.69999449	0.00000000	45.89690000	2.12844500
95.89999448	0.00000000	43.20251000	1.01501000
96.09999447	0.00000000	41.66461000	2.17765700
96.29999446	0.00000000	41.66461000	5.19808000
96.49999445	0.00000000	43.20251000	9.00590400
96.69999444	0.00000000	45.89690000	12.07554000
96.89999442	0.00000000	49.01575000	13.65650000
97.09999441	0.00000000	52.13459000	13.69956000
97.29999440	0.00000000	54.82898000	12.53691000
97.49999439	0.00000000	56.32381000	10.62992000
97.69999438	0.00000000	55.94857000	8.31077700
97.89999436	0.00000000	53.62328000	6.40378900
98.09999435	0.00000000	50.17839000	5.24729300
98.29999434	0.00000000	46.27214000	5.19808000
98.49999433	0.00000000	42.82726000	5.93626900
98.69999432	0.00000000	40.45890000	6.68676100
98.89999430	0.00000000	39.70842000	7.51722400
99.09999429	0.00000000	40.50196000	8.26771600
99.29999428	0.00000000	43.20251000	9.00590400
99.49999427	0.00000000	47.05954000	9.09817800
99.69999426	0.00000000	50.87967000	9.10433000
99.89999425	0.00000000	54.03543000	9.87942800
100.09999423	0.00000000	55.57948000	10.21776000
100.29999422	0.00000000	55.99163000	10.67298000
100.49999421	0.00000000	54.78592000	11.00517000
100.69999420	0.00000000	52.13459000	11.00517000
100.89999419	0.00000000	49.05881000	10.58686000
101.09999417	0.00000000	46.27214000	9.38115100
101.29999416	0.00000000	43.94069000	7.47416300
101.49999415	0.00000000	42.03986000	5.19808000
101.69999414	0.00000000	41.66461000	3.70939900
101.89999413	0.00000000	42.78420000	3.66633800
102.09999411	0.00000000	44.69119000	4.77977300
102.29999410	0.00000000	47.01648000	6.40378900
102.49999409	0.00000000	49.01575000	8.72908400
102.69999408	0.00000000	50.97194000	11.79257000
102.89999407	0.00000000	52.87278000	14.03174000
103.09999406	0.00000000	53.58022000	14.85605000
103.29999404	0.00000000	52.87278000	14.03174000
103.49999403	0.00000000	50.92888000	11.79257000
103.69999402	0.00000000	48.68356000	8.68602300
103.89999401	0.00000000	46.69045000	5.98548200
104.09999400	0.00000000	45.52165000	3.61712600
104.29999398	0.00000000	44.69119000	2.12844500
104.49999397	0.00000000	44.36515000	2.12844500
104.69999396	0.00000000	44.74040000	3.66633800
104.89999395	0.00000000	45.89690000	6.36072800
105.09999394	0.00000000	47.43479000	9.42421200
105.29999392	0.00000000	48.97269000	12.11860000
105.49999391	0.00000000	50.12918000	13.65650000
105.69999390	0.00000000	50.50443000	13.65650000
105.89999389	0.00000000	50.12918000	12.16781000
106.09999388	0.00000000	49.01575000	9.84867000
106.29999387	0.00000000	47.85310000	7.56643700
106.49999385	0.00000000	47.05954000	5.61638700
106.69999384	0.00000000	46.27214000	4.82898600
106.89999383	0.00000000	45.94611000	4.82898600
107.09999382	0.00000000	46.32135000	5.61638700
107.29999381	0.00000000	47.47785000	7.51722400
107.49999379	0.00000000	48.97269000	9.38115100
107.69999378	0.00000000	50.08612000	10.58686000
107.89999377	0.00000000	50.12918000	10.95595000
108.09999376	0.00000000	49.39099000	10.58686000
108.29999375	0.00000000	48.59744000	9.42421200
108.49999374	0.00000000	47.43479000	7.89247000
108.69999372	0.00000000	46.32135000	6.36072800
108.89999371	0.00000000	45.89690000	5.24729300
109.09999370	0.00000000	45.89690000	5.24729300
109.29999369	0.00000000	46.32135000	6.36072800
109.49999368	0.00000000	47.43479000	7.89247000
109.69999366	0.00000000	48.59744000	9.42421200
109.89999365	0.00000000	49.39099000	10.62992000
110.09999364	0.00000000	50.12918000	11.38041000
110.29999363	0.00000000	50.12918000	11.74336000
110.49999362	0.00000000	49.39099000	10.96211000
110.69999360	0.00000000	48.64050000	9.47342500
110.89999359	0.00000000	47.81004000	7.89247000
111.09999358	0.00000000	47.05954000	6.36072800
111.29999357	0.00000000	46.27214000	5.19808000
111.49999356	0.00000000	45.94611000	4.82898600
111.69999355	0.00000000	46.27214000	5.19808000
111.89999353	0.00000000	47.01648000	6.36072800
112.09999352	0.00000000	47.43479000	7.84940900
112.29999351	0.00000000	47.85310000	9.00590400
112.49999350	0.00000000	48.59744000	9.43036400
112.69999349	0.00000000	48.97269000	9.47342500
112.89999347	0.00000000	48.97269000	9.47342500
113.09999346	0.00000000	48.59744000	9.47342500
113.29999345	0.00000000	47.85310000	9.43036400
113.49999344	0.00000000	47.47785000	9.05511800
113.69999343	0.00000000	47.43479000	8.31077700
113.89999341	0.00000000	47.43479000	7.93553100
114.09999340	0.00000000	47.43479000	7.84940900
114.29999339	0.00000000	47.43479000	7.47416300
114.49999338	0.00000000	47.43479000	6.72982200
114.69999337	0.00000000	47.43479000	6.35457700
114.89999336	0.00000000	47.39173000	6.31151500
115.09999334	0.00000000	47.05954000	6.31151500
115.29999333	0.00000000	46.73966000	6.35457700
115.49999332	0.00000000	47.47785000	6.72982200
115.69999331	0.00000000	48.50517000	7.51722400
115.89999330	0.00000000	48.54823000	8.26771600
116.09999328	0.00000000	47.85310000	9.09817800
116.29999327	0.00000000	47.47785000	9.84867000
116.49999326	0.00000000	47.43479000	10.62992000
116.69999325	0.00000000	47.43479000	10.95595000
116.89999324	0.00000000	47.43479000	10.58686000
117.09999322	0.00000000	47.43479000	9.42421200
117.29999321	0.00000000	47.47785000	7.93553100
117.49999320	0.00000000	47.85310000	6.72982200
117.69999319	0.00000000	48.59744000	5.93626900
117.89999318	0.00000000	48.97269000	5.19808000
118.09999317	0.00000000	49.01575000	5.19808000
118.29999315	0.00000000	48.97269000	5.93626900
118.49999314	0.00000000	48.54823000	6.72982200
118.69999313	0.00000000	47.43479000	7.89247000
118.89999312	0.00000000	46.32135000	9.00590400
119.09999311	0.00000000	45.85384000	9.43036400
119.29999309	0.00000000	45.47859000	9.47342500
119.49999308	0.00000000	45.10950000	9.47342500
119.69999307	0.00000000	45.52165000	9.47342500
119.89999306	0.00000000	46.27214000	9.43036400
120.09999305	0.00000000	47.47785000	9.05511800
120.29999303	0.00000000	48.97269000	8.31077700
120.49999302	0.00000000	50.12918000	7.93553100
120.69999301	0.00000000	50.55364000	7.84940900
120.89999300	0.00000000	50.55364000	7.47416300
121.09999299	0.00000000	50.12918000	6.72982200
121.29999298	0.00000000	48.97269000	6.40378900
121.49999296	0.00000000	47.43479000	6.72982200
121.69999295	0.00000000	45.89690000	7.47416300
121.89999294	0.00000000	44.74040000	7.84940900
122.09999293	0.00000000	44.36515000	7.93553100
122.29999292	0.00000000	44.69119000	8.31077700
122.49999290	0.00000000	45.47859000	9.05511800
122.69999289	0.00000000	46.27214000	9.43036400
122.89999288	0.00000000	47.43479000	9.47342500
123.09999287	0.00000000	48.59744000	9.47342500
123.29999286	0.00000000	49.39099000	9.43036400
123.49999284	0.00000000	50.17839000	9.05511800
123.69999283	0.00000000	50.50443000	8.31077700
123.89999282	0.00000000	50.12918000	7.89247000
124.09999281	0.00000000	49.01575000	7.47416300
124.29999280	0.00000000	47.85310000	6.72982200
124.49999279	0.00000000	47.05954000	6.40378900
124.69999277	0.00000000	46.27214000	6.72982200
124.89999276	0.00000000	45.89690000	7.47416300
125.09999275	0.00000000	45.85384000	7.84940900
125.29999274	0.00000000	45.85384000	7.93553100
125.49999273	0.00000000	45.89690000	8.31077700
125.69999271	0.00000000	46.27214000	9.05511800
125.89999270	0.00000000	47.05954000	9.43036400
126.09999269	0.00000000	47.81004000	9.47342500
126.29999268	0.00000000	48.64050000	9.43036400
126.49999267	0.00000000	49.39099000	9.05511800
126.69999265	0.00000000	50.12918000	8.31077700
126.89999264	0.00000000	50.12918000	7.89247000
127.09999263	0.00000000	49.34793000	7.47416300
127.29999262	0.00000000	48.22219000	6.77903500
127.49999261	0.00000000	46.64739000	6.77903500
127.69999260	0.00000000	45.52165000	7.47416300
127.89999258	0.00000000	44.74040000	7.84940900
128.09999257	0.00000000	44.78346000	7.89247000
128.29999256	0.00000000	45.85384000	7.93553100
128.49999255	0.00000000	47.01648000	8.31077700
128.69999254	0.00000000	47.81004000	9.05511800
128.89999252	0.00000000	48.59744000	9.38115100
129.09999251	0.00000000	48.97269000	9.05511800
129.29999250	0.00000000	48.97269000	8.31077700
129.49999249	0.00000000	48.54823000	7.93553100
129.69999248	0.00000000	47.43479000	7.89247000
129.89999246	0.00000000	46.32135000	7.89247000
130.09999245	0.00000000	45.89690000	7.89247000
130.29999244	0.00000000	45.85384000	7.89247000
130.49999243	0.00000000	45.89690000	7.93553100
130.69999242	0.00000000	46.27214000	8.31077700
130.89999241	0.00000000	47.05954000	9.00590400
131.09999239	0.00000000	47.81004000	9.05511800
131.29999238	0.00000000	48.59744000	8.68602300
131.49999237	0.00000000	48.92347000	8.67987200
131.69999236	0.00000000	48.59744000	8.22465500
131.89999235	0.00000000	47.85310000	7.51722400
132.09999233	0.00000000	47.47785000	6.72982200
132.29999232	0.00000000	47.39173000	6.40378900
132.49999231	0.00000000	47.01648000	6.72982200
132.69999230	0.00000000	46.32135000	7.47416300
132.89999229	0.00000000	46.32135000	7.89247000
133.09999227	0.00000000	47.01648000	8.31077700
133.29999226	0.00000000	47.39173000	9.05511800
133.49999225	0.00000000	47.43479000	9.43036400
133.69999224	0.00000000	47.43479000	9.47342500
133.89999223	0.00000000	47.43479000	9.43036400
134.09999222	0.00000000	47.43479000	9.05511800
134.29999220	0.00000000	47.43479000	8.26771600
134.49999219	0.00000000	47.43479000	7.51722400
134.69999218	0.00000000	47.43479000	6.72982200
134.89999217	0.00000000	47.43479000	6.35457700
135.09999216	0.00000000	47.47785000	6.31151500
135.29999214	0.00000000	47.81004000	6.35457700
135.49999213	0.00000000	48.17913000	6.72982200
135.69999212	0.00000000	47.81004000	7.47416300
135.89999211	0.00000000	47.43479000	7.89247000
136.09999210	0.00000000	47.01648000	8.31077700
136.29999208	0.00000000	46.27214000	9.05511800
136.49999207	0.00000000	45.89690000	9.43036400
136.69999206	0.00000000	45.85384000	9.43036400
136.89999205	0.00000000	45.89690000	9.05511800
137.09999204	0.00000000	46.27214000	8.31077700
137.29999203	0.00000000	47.05954000	7.89247000
137.49999201	0.00000000	47.81004000	7.47416300
137.69999200	0.00000000	48.59744000	6.72982200
137.89999199	0.00000000	48.92347000	6.35457700
138.09999198	0.00000000	48.59744000	6.31151500
138.29999197	0.00000000	47.81004000	6.35457700
138.49999195	0.00000000	47.05954000	6.72982200
138.69999194	0.00000000	46.27214000	7.47416300
138.89999193	0.00000000	45.89690000	7.89247000
139.09999192	0.00000000	45.85384000	8.31077700
139.29999191	0.00000000	45.85384000	9.05511800
139.49999189	0.00000000	45.89690000	9.43036400
139.69999188	0.00000000	46.27214000	9.47342500
139.89999187	0.00000000	47.05954000	9.43036400
140.09999186	0.00000000	47.81004000	9.05511800
140.29999185	0.00000000	48.59744000	8.26771600
140.49999184	0.00000000	48.92347000	7.51722400
140.69999182	0.00000000	48.59744000	6.72982200
140.89999181	0.00000000	47.81004000	6.35457700
141.09999180	0.00000000	47.05954000	6.31151500
141.29999179	0.00000000	46.27214000	6.35457700
141.49999178	0.00000000	45.89690000	6.72982200
141.69999176	0.00000000	45.89690000	7.51722400
141.89999175	0.00000000	46.27214000	8.26771600
142.09999174	0.00000000	47.01648000	9.05511800
142.29999173	0.00000000	47.39173000	9.43036400
142.49999172	0.00000000	47.43479000	9.47342500
142.69999170	0.00000000	47.43479000	9.43036400
142.89999169	0.00000000	47.43479000	9.05511800
143.09999168	0.00000000	47.39173000	8.26771600
143.29999167	0.00000000	47.05954000	7.51722400
143.49999166	0.00000000	46.64739000	6.72982200
143.69999165	0.00000000	46.64124000	6.35457700
143.89999163	0.00000000	46.27214000	6.31151500
144.09999162	0.00000000	46.32135000	6.31151500
144.29999161	0.00000000	47.01648000	6.35457700
144.49999160	0.00000000	47.39173000	6.77903500
144.69999159	0.00000000	47.43479000	7.89247000
144.89999157	0.00000000	47.43479000	9.00590400
145.09999156	0.00000000	47.43479000	9.38115100
145.29999155	0.00000000	47.43479000	9.05511800
145.49999154	0.00000000	47.39173000	8.31077700
145.69999153	0.00000000	47.01648000	7.89247000
145.89999151	0.00000000	46.27214000	7.47416300
146.09999150	0.00000000	45.89690000	6.72982200
146.29999149	0.00000000	45.89690000	6.35457700
146.49999148	0.00000000	46.27214000	6.31151500
146.69999147	0.00000000	47.01648000	6.35457700
146.89999146	0.00000000	47.39173000	6.72982200
147.09999144	0.00000000	47.43479000	7.47416300
147.29999143	0.00000000	47.47785000	7.84940900
147.49999142	0.00000000	47.81004000	7.93553100
147.69999141	0.00000000	48.17913000	8.31077700
147.89999140	0.00000000	47.81004000	9.05511800
148.09999138	0.00000000	47.43479000	9.38115100
148.29999137	0.00000000	47.01648000	9.05511800
148.49999136	0.00000000	46.27214000	8.31077700
148.69999135	0.00000000	45.94611000	7.89247000
148.89999134	0.00000000	46.27214000	7.47416300
149.09999132	0.00000000	47.01648000	6.72982200
149.29999131	0.00000000	47.39173000	6.35457700
149.49999130	0.00000000	47.43479000	6.35457700
149.69999129	0.00000000	47.43479000	6.72982200
149.89999128	0.00000000	47.43479000	7.47416300
150.09999127	0.00000000	47.43479000	7.84940900
150.29999125	0.00000000	47.43479000	7.93553100
150.49999124	0.00000000	47.43479000	8.26771600
150.69999123	0.00000000	47.39173000	8.63681000
150.89999122	0.00000000	47.01648000	8.26771600
151.09999121	0.00000000	46.27214000	7.93553100
151.29999119	0.00000000	45.89690000	7.89247000
151.49999118	0.00000000	45.85384000	7.89247000
151.69999117	0.00000000	45.85384000	7.89247000
151.89999116	0.00000000	45.89690000	7.89247000
152.09999115	0.00000000	46.27214000	7.89247000
152.29999113	0.00000000	47.01648000	7.89247000
152.49999112	0.00000000	47.39173000	7.89247000
152.69999111	0.00000000	47.43479000	7.89247000
152.89999110	0.00000000	47.43479000	7.89247000
153.09999109	0.00000000	47.43479000	7.89247000
153.29999108	0.00000000	47.43479000	7.89247000
153.49999106	0.00000000	47.39173000	7.89247000
153.69999105	0.00000000	47.01648000	7.89247000
153.89999104	0.00000000	46.27214000	7.89247000
154.09999103	0.00000000	45.89690000	7.89247000
154.29999102	0.00000000	45.85384000	7.89247000
154.49999100	0.00000000	45.85384000	7.89247000
154.69999099	0.00000000	45.85384000	7.89247000
154.89999098	0.00000000	45.89690000	7.89247000
155.09999097	0.00000000	46.27214000	7.89247000
155.29999096	0.00000000	47.01648000	7.89247000
155.49999094	0.00000000	47.39173000	7.89247000
155.69999093	0.00000000	47.43479000	7.89247000
155.89999092	0.00000000	47.43479000	7.89247000
156.09999091	0.00000000	47.39173000	7.89247000
156.29999090	0.00000000	47.01648000	7.89247000
156.49999089	0.00000000	46.27214000	7.89247000
156.69999087	0.00000000	45.89690000	7.93553100
156.89999086	0.00000000	45.85384000	8.31077700
157.09999085	0.00000000	45.85384000	9.00590400
157.29999084	0.00000000	45.85384000	9.00590400
157.49999083	0.00000000	45.85384000	8.31077700
157.69999081	0.00000000	45.85384000	7.93553100
157.89999080	0.00000000	45.89690000	7.84940900
158.09999079	0.00000000	46.27214000	7.47416300
158.29999078	0.00000000	47.01648000	6.72982200
158.49999077	0.00000000	47.39173000	6.35457700
158.69999075	0.00000000	47.43479000	6.35457700
158.89999074	0.00000000	47.43479000	6.72982200
159.09999073	0.00000000	47.43479000	7.47416300
159.29999072	0.00000000	47.39173000	7.84940900
159.49999071	0.00000000	47.01648000	7.93553100
159.69999070	0.00000000	46.27214000	8.26771600
159.89999068	0.00000000	45.89690000	8.63681000
160.09999067	0.00000000	45.85384000	8.26771600
160.29999066	0.00000000	45.85384000	7.93553100
160.49999065	0.00000000	45.85384000	7.89247000
160.69999064	0.00000000	45.85384000	7.89247000
160.89999062	0.00000000	45.85384000	7.84940900
161.09999061	0.00000000	45.85384000	7.47416300
161.29999060	0.00000000	45.89690000	6.72982200
161.49999059	0.00000000	46.27214000	6.40378900
161.69999058	0.00000000	47.01648000	6.72982200
161.89999056	0.00000000	47.39173000	7.47416300
162.09999055	0.00000000	47.43479000	7.84940900
162.29999054	0.00000000	47.43479000	7.89247000
162.49999053	0.00000000	47.43479000	7.89247000
162.69999052	0.00000000	47.39173000	7.89247000
162.89999051	0.00000000	47.01648000	7.89247000
163.09999049	0.00000000	46.27214000	7.89247000
163.29999048	0.00000000	45.89690000	7.89247000
163.49999047	0.00000000	45.85384000	7.89247000
163.69999046	0.00000000	45.85384000	7.84940900
163.89999045	0.00000000	45.85384000	7.51722400
164.09999043	0.00000000	45.85384000	7.14812900
164.29999042	0.00000000	45.89690000	7.47416300
164.49999041	0.00000000	46.27214000	7.42495000
164.69999040	0.00000000	47.01648000	6.77903500
164.89999039	0.00000000	47.39173000	6.77903500
165.09999037	0.00000000	47.43479000	7.47416300
165.29999036	0.00000000	47.43479000	7.84940900
165.49999035	0.00000000	47.43479000	7.89247000
165.69999034	0.00000000	47.39173000	7.89247000
165.89999033	0.00000000	47.01648000	7.89247000
166.09999032	0.00000000	46.27214000	7.89247000
166.29999030	0.00000000	45.89690000	7.89247000
166.49999029	0.00000000	45.85384000	7.84940900
166.69999028	0.00000000	45.85384000	7.47416300
166.89999027	0.00000000	45.85384000	6.77903500
167.09999026	0.00000000	45.85384000	6.72982200
167.29999024	0.00000000	45.85384000	7.05585600
167.49999023	0.00000000	45.89690000	6.68676100
167.69999022	0.00000000	46.27214000	6.35457700
167.89999021	0.00000000	47.01648000	6.35457700
168.09999020	0.00000000	47.34252000	6.72982200
168.29999018	0.00000000	47.01648000	7.47416300
168.49999017	0.00000000	46.27214000	7.84940900
168.69999016	0.00000000	45.89690000	7.89247000
168.89999015	0.00000000	45.85384000	7.89247000
169.09999014	0.00000000	45.85384000	7.89247000
169.29999013	0.00000000	45.85384000	7.89247000
169.49999011	0.00000000	45.85384000	7.89247000
169.69999010	0.00000000	45.85384000	7.89247000
169.89999009	0.00000000	45.85384000	7.89247000
170.09999008	0.00000000	45.85384000	7.89247000
170.29999007	0.00000000	45.89690000	7.84940900
170.49999005	0.00000000	46.22908000	7.51722400
170.69999004	0.00000000	46.59818000	7.14812900
170.89999003	0.00000000	46.22908000	7.51722400
171.09999002	0.00000000	45.89690000	7.84940900
171.29999001	0.00000000	45.85384000	7.89247000
171.49998999	0.00000000	45.89690000	7.89247000
171.69998998	0.00000000	46.22908000	7.84940900
171.89998997	0.00000000	46.59818000	7.51722400
172.09998996	0.00000000	46.22908000	7.14812900
172.29998995	0.00000000	45.94611000	7.51722400
172.49998994	0.00000000	46.22908000	7.84940900
172.69998992	0.00000000	46.59818000	7.89247000
172.89998991	0.00000000	46.22908000	7.89247000
173.09998990	0.00000000	45.89690000	7.89247000
173.29998989	0.00000000	45.85384000	7.89247000
173.49998988	0.00000000	45.85384000	7.89247000
173.69998986	0.00000000	45.85384000	7.89247000
173.89998985	0.00000000	45.85384000	7.89247000
174.09998984	0.00000000	45.85384000	7.84940900
174.29998983	0.00000000	45.85384000	7.51722400
174.49998982	0.00000000	45.85384000	7.14812900
174.69998980	0.00000000	45.85384000	7.51722400
174.89998979	0.00000000	45.85384000	7.84940900
175.09998978	0.00000000	45.85384000	7.89247000
175.29998977	0.00000000	45.85384000	7.89247000
175.49998976	0.00000000	45.85384000	7.89247000
175.69998975	0.00000000	45.85384000	7.89247000
175.89998973	0.00000000	45.85384000	7.89247000
176.09998972	0.00000000	45.85384000	7.89247000
176.29998971	0.00000000	45.85384000	7.84940900
176.49998970	0.00000000	45.85384000	7.51722400
176.69998969	0.00000000	45.85384000	7.14812900
176.89998967	0.00000000	45.85384000	7.51722400
177.09998966	0.00000000	45.85384000	7.84940900
177.29998965	0.00000000	45.85384000	7.89247000
177.49998964	0.00000000	45.85384000	7.89247000
177.69998963	0.00000000	45.85384000	7.89247000
177.89998961	0.00000000	45.85384000	7.89247000
178.09998960	0.00000000	45.85384000	7.89247000
178.29998959	0.00000000	45.85384000	7.89247000
178.49998958	0.00000000	45.85384000	7.89247000
178.69998957	0.00000000	45.85384000	7.89247000
178.89998956	0.00000000	45.85384000	7.84940900
179.09998954	0.00000000	45.89690000	7.51722400
179.29998953	0.00000000	46.22908000	7.14812900
179.49998952	0.00000000	46.59818000	7.47416300
179.69998951	0.00000000	46.22908000	7.42495000
179.89998950	0.00000000	45.89690000	6.77903500
180.09998948	0.00000000	45.85384000	6.77903500
180.29998947	0.00000000	45.85384000	7.42495000
180.49998946	0.00000000	45.85384000	7.42495000
180.69998945	0.00000000	45.85384000	6.77903500
180.89998944	0.00000000	45.85384000	6.77903500
181.09998942	0.00000000	45.85384000	7.42495000
181.29998941	0.00000000	45.85384000	7.47416300
181.49998940	0.00000000	45.85384000	7.14812900
181.69998939	0.00000000	45.85384000	7.51722400
181.89998938	0.00000000	45.85384000	7.84940900
182.09998937	0.00000000	45.85384000	7.89247000
182.29998935	0.00000000	45.85384000	7.89247000
182.49998934	0.00000000	45.85384000	7.84940900
182.69998933	0.00000000	45.85384000	7.47416300
182.89998932	0.00000000	45.85384000	6.72982200
183.09998931	0.00000000	45.85384000	6.35457700
183.29998929	0.00000000	45.85384000	6.31151500
183.49998928	0.00000000	45.85384000	6.31151500
183.69998927	0.00000000	45.85384000	6.31151500
183.89998926	0.00000000	45.85384000	6.35457700
184.09998925	0.00000000	45.85384000	6.72982200
184.29998923	0.00000000	45.85384000	7.47416300
184.49998922	0.00000000	45.85384000	7.84940900
184.69998921	0.00000000	45.85384000	7.89247000
184.89998920	0.00000000	45.85384000	7.89247000
185.09998919	0.00000000	45.85384000	7.89247000
185.29998918	0.00000000	45.85384000	7.84940900
185.49998916	0.00000000	45.85384000	7.47416300
185.69998915	0.00000000	45.85384000	6.72982200
185.89998914	0.00000000	45.85384000	6.35457700
186.09998913	0.00000000	45.85384000	6.31151500
186.29998912	0.00000000	45.85384000	6.31151500
186.49998910	0.00000000	45.85384000	6.31151500
186.69998909	0.00000000	45.85384000	6.35457700
186.89998908	0.00000000	45.85384000	6.72982200
187.09998907	0.00000000	45.85384000	7.47416300
187.29998906	0.00000000	45.85384000	7.84940900
187.49998904	0.00000000	45.85384000	7.89247000
187.69998903	0.00000000	45.85384000	7.89247000
187.89998902	0.00000000	45.85384000	7.89247000
188.09998901	0.00000000	45.85384000	7.89247000
188.29998900	0.00000000	45.85384000	7.89247000
188.49998899	0.00000000	45.85384000	7.84940900
188.69998897	0.00000000	45.85384000	7.47416300
188.89998896	0.00000000	45.85384000	6.72982200
189.09998895	0.00000000	45.85384000	6.35457700
189.29998894	0.00000000	45.85384000	6.31151500
189.49998893	0.00000000	45.85384000	6.31151500
189.69998891	0.00000000	45.85384000	6.31151500
189.89998890	0.00000000	45.85384000	6.31151500
190.09998889	0.00000000	45.85384000	6.35457700
190.29998888	0.00000000	45.85384000	6.72982200
190.49998887	0.00000000	45.85384000	7.42495000
190.69998885	0.00000000	45.85384000	7.47416300
190.89998884	0.00000000	45.85384000	7.14812900
191.09998883	0.00000000	45.85384000	7.51722400
191.29998882	0.00000000	45.85384000	7.84940900
191.49998881	0.00000000	45.85384000	7.89247000
191.69998880	0.00000000	45.85384000	7.84940900
191.89998878	0.00000000	45.85384000	7.47416300
192.09998877	0.00000000	45.85384000	6.72982200
192.29998876	0.00000000	45.85384000	6.35457700
192.49998875	0.00000000	45.85384000	6.31151500
192.69998874	0.00000000	45.85384000	6.31151500
192.89998872	0.00000000	45.81078000	6.31151500
193.09998871	0.00000000	45.43553000	6.35457700
193.29998870	0.00000000	44.69119000	6.72982200
193.49998869	0.00000000	44.36515000	7.42495000
193.69998868	0.00000000	44.69119000	7.42495000
193.89998866	0.00000000	45.43553000	6.77903500
194.09998865	0.00000000	45.81078000	6.77903500
194.29998864	0.00000000	45.85384000	7.47416300
194.49998863	0.00000000	45.85384000	7.84940900
194.69998862	0.00000000	45.85384000	7.89247000
194.89998861	0.00000000	45.85384000	7.84940900
195.09998859	0.00000000	45.85384000	7.47416300
195.29998858	0.00000000	45.85384000	6.72982200
195.49998857	0.00000000	45.81078000	6.35457700
195.69998856	0.00000000	45.47859000	6.31151500
195.89998855	0.00000000	45.10950000	6.31151500
196.09998853	0.00000000	45.47859000	6.35457700
