Time	Channel A	Channel B	Channel C
(us)	(V)	(mV)	(mV)

-4.59999956	0.00000000	46.68430000	7.89247000
-4.39999957	0.00000000	46.60433000	7.89247000
-4.19999958	0.00000000	46.68430000	7.89247000
-3.99999959	0.00000000	46.60433000	7.89247000
-3.79999960	0.00000000	46.68430000	7.89247000
-3.59999962	0.00000000	46.64739000	7.89247000
-3.39999963	0.00000000	47.05954000	7.89247000
-3.19999964	0.00000000	47.39173000	7.89247000
-2.99999965	0.00000000	47.39173000	7.89247000
-2.79999966	0.00000000	47.01648000	7.89247000
-2.59999968	0.00000000	46.32135000	7.89247000
-2.39999969	0.00000000	46.32135000	7.89247000
-2.19999970	0.00000000	46.96727000	7.89247000
-1.99999971	0.00000000	47.01648000	7.89247000
-1.79999972	0.00000000	46.64739000	7.89247000
-1.59999973	0.00000000	46.68430000	7.89247000
-1.39999975	0.00000000	46.60433000	7.89247000
-1.19999976	0.00000000	46.64124000	7.89247000
-0.99999977	0.00000000	46.27214000	7.89247000
-0.79999978	0.00000000	46.27214000	7.89247000
-0.59999979	0.00000000	46.59818000	7.89247000
-0.39999981	0.15871060	46.22908000	7.89247000
-0.19999982	0.47736220	45.89690000	7.89247000
0.00000017	0.79601380	45.89690000	7.89247000
0.20000016	0.95533960	46.27214000	7.89247000
0.40000015	0.95533960	47.01648000	7.89247000
0.60000013	0.63668800	47.39173000	7.89247000
0.80000012	0.00000000	47.43479000	7.89247000
1.00000011	-1.11466500	47.43479000	7.89247000
1.20000010	-2.07062000	47.43479000	7.89247000
1.40000009	-2.70792300	47.43479000	7.89247000
1.60000008	-2.70792300	47.39173000	7.89247000
1.80000006	-1.91129400	47.05954000	7.89247000
2.00000005	-0.47736220	46.64739000	7.89247000
2.20000004	1.59264300	46.64124000	7.89247000
2.40000003	3.66326300	46.22908000	7.89247000
2.60000002	5.09719500	45.89690000	7.89247000
2.80000000	5.25652100	45.85384000	7.84940900
2.99999999	3.98191400	45.85384000	7.51722400
3.19999998	1.43331700	45.85384000	7.14812900
3.39999997	-1.91129400	45.85384000	7.51722400
3.59999996	-5.09719500	45.85384000	7.84940900
3.79999994	-7.48646600	45.85384000	7.89247000
3.99999993	-7.96444400	45.85384000	7.89247000
4.19999992	-6.37180100	45.85384000	7.93553100
4.39999991	-3.02657500	45.85384000	8.26771600
4.59999990	1.27399100	45.85384000	8.63681000
4.79999989	5.41584600	45.85384000	8.26771600
4.99999987	8.44242100	45.85384000	7.89247000
5.19999986	9.39837600	45.85384000	7.47416300
5.39999985	7.96444400	45.85384000	6.72982200
5.59999984	4.45989200	45.85384000	6.35457700
5.79999983	0.00000000	45.89690000	6.35457700
5.99999981	-4.77854300	46.22908000	6.72982200
6.19999980	-8.12377000	46.64124000	7.47416300
6.39999979	-9.55770200	46.64739000	7.84940900
6.59999978	-8.44242100	47.01648000	7.89247000
6.79999977	-5.41584600	46.96727000	7.89247000
6.99999975	-1.11466500	46.27214000	7.89247000
7.19999974	3.18590100	45.89690000	7.89247000
7.39999973	6.37180100	45.85384000	7.89247000
7.59999972	7.64579200	45.85384000	7.84940900
7.79999971	7.16781500	45.85384000	7.51722400
7.99999970	4.93786900	45.85384000	7.14812900
8.19999968	1.59264300	45.85384000	7.51722400
8.39999967	-1.59264300	45.85384000	7.84940900
8.59999966	-3.98191400	45.85384000	7.89247000
8.79999965	-5.09719500	45.89690000	7.89247000
8.99999964	-4.93786900	46.22908000	7.89247000
9.19999962	-3.50393700	46.59818000	7.89247000
9.39999961	-1.59264300	46.22908000	7.89247000
9.59999960	0.31803640	45.89690000	7.89247000
9.79999959	1.75196900	45.85384000	7.89247000
9.99999958	2.54859700	45.85384000	7.89247000
10.19999956	2.38927200	45.89690000	7.89247000
10.39999955	1.75196900	46.22908000	7.89247000
10.59999954	0.95533960	46.59818000	7.89247000
10.79999953	0.15871060	46.22908000	7.89247000
10.99999952	-0.47736220	45.89690000	7.89247000
11.19999951	-0.95533960	45.85384000	7.89247000
11.39999949	-0.95533960	45.85384000	7.89247000
11.59999948	-0.79601380	45.85384000	7.89247000
11.79999947	-0.63668800	45.85384000	7.89247000
11.99999946	-0.31803640	45.85384000	7.89247000
12.19999945	-0.15871060	45.85384000	7.89247000
12.39999943	-0.15871060	45.85384000	7.89247000
12.59999942	0.00000000	45.85384000	7.89247000
12.79999941	0.00000000	45.85384000	7.89247000
12.99999940	0.00000000	45.85384000	7.89247000
13.19999939	0.00000000	45.85384000	7.89247000
13.39999937	0.00000000	45.85384000	7.89247000
13.59999936	0.00000000	45.85384000	7.89247000
13.79999935	0.00000000	45.85384000	7.89247000
13.99999934	-0.15871060	45.85384000	7.89247000
14.19999933	-0.15871060	45.85384000	7.84940900
14.39999932	-0.15871060	45.85384000	7.51722400
14.59999930	-0.15871060	45.85384000	7.14812900
14.79999929	0.00000000	45.85384000	7.51722400
14.99999928	0.00000000	45.85384000	7.84940900
15.19999927	0.00000000	45.85384000	7.89247000
15.39999926	0.00000000	45.85384000	7.89247000
15.59999924	0.00000000	45.85384000	7.89247000
15.79999923	0.00000000	45.85384000	7.89247000
15.99999922	0.00000000	45.85384000	7.89247000
16.19999921	0.00000000	45.85384000	7.89247000
16.39999920	-0.15871060	45.85384000	7.89247000
16.59999919	-0.15871060	45.89690000	7.89247000
16.79999917	-0.15871060	46.27214000	7.89247000
16.99999916	0.00000000	47.01648000	7.89247000
17.19999915	0.00000000	47.39173000	7.89247000
17.39999914	0.00000000	47.47785000	7.84940900
17.59999913	0.00000000	47.81004000	7.51722400
17.79999911	0.00000000	48.12992000	7.14812900
17.99999910	0.00000000	47.34252000	7.51722400
18.19999909	0.00000000	45.85384000	7.84940900
18.39999908	0.00000000	44.27288000	7.84940900
18.59999907	0.00000000	42.73499000	7.51722400
18.79999905	0.00000000	41.57849000	7.14812900
18.99999904	0.00000000	41.20325000	7.51722400
19.19999903	0.00000000	41.66461000	7.84940900
19.39999902	0.00000000	43.62082000	7.89247000
19.59999901	0.00000000	47.10260000	7.89247000
19.79999900	0.00000000	50.97194000	7.89247000
19.99999898	0.00000000	54.82898000	7.89247000
20.19999897	0.00000000	57.43725000	7.89247000
20.39999896	0.00000000	57.43725000	7.89247000
20.59999895	0.00000000	54.69365000	7.89247000
20.79999894	0.00000000	49.62475000	7.84940900
20.99999892	0.00000000	42.59965000	7.51722400
21.19999891	0.00000000	34.92249000	7.14812900
21.39999890	0.00000000	28.35876000	7.51722400
21.59999889	0.00000000	24.95694000	7.84940900
21.79999888	0.00000000	25.84276000	7.89247000
21.99999886	0.00000000	32.08046000	7.84940900
22.19999885	0.00000000	42.87032000	7.47416300
22.39999884	0.00000000	55.25344000	6.77903500
22.59999883	0.00000000	66.87991000	6.77903500
22.79999882	0.00000000	75.30757000	7.47416300
22.99999881	0.00000000	77.86663000	7.84940900
23.19999879	0.00000000	72.74852000	7.93553100
23.39999878	0.00000000	60.00246000	8.31077700
23.59999877	0.00000000	42.64272000	9.05511800
23.79999876	0.00000000	24.87082000	9.43036400
23.99999875	0.00000000	10.58686000	9.43036400
24.19999873	0.00000000	3.32800200	9.00590400
24.39999872	0.00000000	5.32726300	7.84940900
24.59999871	0.00000000	17.00295000	6.31151500
24.79999870	0.00000000	36.36196000	4.73671200
24.99999869	0.00000000	59.43651000	3.19881900
25.19999867	0.00000000	80.27805000	2.04232300
25.39999866	0.00000000	93.41166000	1.71013800
25.59999865	0.00000000	96.47514000	2.50369100
25.79999864	0.00000000	87.86909000	4.87204700
25.99999863	0.00000000	68.97761000	8.31077700
26.19999862	0.00000000	44.31594000	12.21087000
26.39999860	0.00000000	19.98646000	15.69882000
26.59999859	0.00000000	1.79010800	18.35015000
26.79999858	0.00000000	-6.71751900	19.04527000
26.99999857	0.00000000	-3.60482300	16.67692000
27.19999856	0.00000000	10.67913000	11.65723000
27.39999854	0.00000000	32.68332000	4.69365100
27.59999853	0.00000000	57.39419000	-2.64517700
27.79999852	0.00000000	79.02928000	-8.82750900
27.99999851	0.00000000	92.56889000	-12.59227000
28.19999850	0.00000000	95.35556000	-12.13091000
28.39999848	0.00000000	87.26623000	-6.74212600
28.59999847	0.00000000	70.65083000	2.17765700
28.79999846	0.00000000	49.05881000	13.04749000
28.99999845	0.00000000	27.79896000	24.24335000
29.19999844	0.00000000	11.88484000	33.03395000
29.39999843	0.00000000	3.70324800	36.84178000
29.59999841	0.00000000	4.86589500	34.05511000
29.79999840	0.00000000	14.81914000	24.80315000
29.99999839	0.00000000	30.59178000	10.86983000
30.19999838	0.00000000	48.03764000	-4.51525500
30.39999837	0.00000000	63.58267000	-18.07332000
30.59999835	0.00000000	74.84006000	-26.53174000
30.79999834	0.00000000	79.49680000	-28.43258000
30.99999833	0.00000000	76.83932000	-22.58243000
31.19999832	0.00000000	67.99950000	-9.85482200
31.39999831	0.00000000	55.20423000	6.73597400
31.59999829	0.00000000	41.28937000	23.78199000
31.79999828	0.00000000	28.91855000	37.67839000
31.99999827	0.00000000	21.14296000	45.76156000
32.19999826	0.00000000	19.14370000	45.71235000
32.39999825	-0.15871060	22.58858000	37.30315000
32.59999824	0.00000000	30.68405000	22.99459000
32.79999822	0.00000000	41.11097000	5.94242000
32.99999821	0.00000000	51.58095000	-11.06053000
33.19999820	0.00000000	60.13779000	-24.16338000
33.39999819	0.00000000	65.12057000	-30.38878000
33.59999818	0.00000000	65.53272000	-28.85088000
33.79999816	0.00000000	60.93134000	-19.93110000
33.99999815	0.00000000	53.29109000	-5.29650500
34.19999814	0.00000000	44.78346000	11.65723000
34.39999813	0.00000000	37.43233000	26.75935000
34.59999812	0.00000000	32.73252000	37.26009000
34.79999810	0.00000000	31.19464000	41.48622000
34.99999809	0.00000000	33.10162000	38.37352000
35.19999808	0.00000000	38.12746000	28.38337000
35.39999807	0.00000000	44.60506000	14.12401000
35.59999806	0.00000000	50.78125000	-0.88582670
35.79999805	0.00000000	54.65059000	-13.23819000
35.99999803	0.00000000	55.81324000	-19.83883000
36.19999802	0.00000000	53.90009000	-19.88804000
36.39999801	0.00000000	49.34793000	-13.70571000
36.59999800	0.00000000	44.36515000	-2.60211600
36.79999799	0.00000000	40.04060000	10.07628000
36.99999797	0.00000000	37.01402000	20.85999000
37.19999796	0.00000000	36.22662000	27.45448000
37.39999795	0.00000000	38.17667000	28.20497000
37.59999794	0.00000000	41.99680000	23.27141000
37.79999793	0.00000000	47.01648000	14.07480000
37.99999791	0.00000000	51.58095000	3.75861200
38.19999790	0.00000000	54.31840000	-4.69365100
38.39999789	0.00000000	54.74286000	-8.92593500
38.59999788	0.00000000	53.20496000	-7.81250000
38.79999787	0.00000000	50.08612000	-2.09768700
38.99999786	0.00000000	45.85384000	6.36072800
39.19999784	0.00000000	41.62155000	15.18824000
39.39999783	0.00000000	38.45964000	22.02264000
39.59999782	0.00000000	36.50344000	24.29257000
39.79999781	0.00000000	35.75910000	20.85999000
39.99999780	0.00000000	36.96481000	13.23819000
40.19999778	0.00000000	40.04060000	3.62327700
40.39999777	0.00000000	44.31594000	-5.20423200
40.59999776	0.00000000	48.92347000	-10.92520000
40.79999775	0.00000000	52.78666000	-11.70645000
40.99999774	0.00000000	54.74286000	-7.11737200
41.19999772	0.00000000	54.82898000	0.92888770
41.39999771	0.00000000	53.62328000	10.58686000
41.59999770	0.00000000	51.24877000	19.37131000
41.79999769	0.00000000	47.39173000	24.76009000
41.99999768	0.00000000	43.15945000	25.17839000
42.19999767	0.00000000	39.66535000	20.99532000
42.39999765	0.00000000	37.34006000	13.69956000
42.59999764	0.00000000	36.92175000	5.24729300
42.79999763	0.00000000	38.04134000	-2.09153500
42.99999762	0.00000000	39.99754000	-6.74212600
43.19999761	0.00000000	42.73499000	-7.89862200
43.39999759	0.00000000	45.81078000	-5.25344500
43.59999758	0.00000000	48.46210000	0.09227362
43.79999757	0.00000000	49.66781000	6.26845500
43.99999756	0.00000000	49.39099000	12.03248000
44.19999755	0.00000000	49.01575000	15.92642000
44.39999753	0.00000000	48.59744000	17.09523000
44.59999752	0.00000000	47.85310000	16.01870000
44.79999751	0.00000000	47.47785000	12.91215000
44.99999750	0.00000000	47.39173000	9.09817800
45.19999749	0.00000000	46.96727000	5.19808000
45.39999748	0.00000000	45.81078000	2.17765700
45.59999746	0.00000000	44.22982000	0.97194880
45.79999745	0.00000000	42.22441000	1.66707700
45.99999744	0.00000000	39.53002000	3.19881900
46.19999743	0.00000000	36.92175000	5.15501900
46.39999742	0.00000000	35.75910000	7.47416300
46.59999740	0.00000000	36.59571000	9.42421200
46.79999739	0.00000000	39.34547000	10.96211000
46.99999738	0.00000000	44.40821000	11.70029000
47.19999737	0.00000000	50.50443000	10.96211000
47.39999736	0.00000000	55.94857000	9.42421200
47.59999734	0.00000000	59.39345000	7.47416300
47.79999733	0.00000000	60.13164000	5.15501900
47.99999732	0.00000000	57.39419000	3.19881900
48.19999731	0.00000000	51.58095000	1.66707700
48.39999730	-0.15871060	43.85457000	1.01501000
48.59999729	0.00000000	35.71604000	2.50369100
48.79999727	0.00000000	29.23843000	5.51796200
48.99999726	0.00000000	26.17495000	8.21850300
49.19999725	0.00000000	28.11885000	10.62992000
49.39999724	0.00000000	34.22121000	12.53691000
49.59999723	0.00000000	42.77805000	13.65650000
49.79999721	0.00000000	52.04232000	13.23819000
49.99999720	0.00000000	60.08858000	10.91289000
50.19999719	0.00000000	64.27780000	7.47416300
50.39999718	0.00000000	63.20743000	3.62327700
50.59999717	0.00000000	57.81250000	0.55364170
50.79999715	0.00000000	49.71087000	-1.02116100
50.99999714	0.00000000	40.45890000	-0.97810030
51.19999713	0.00000000	32.77559000	0.97194880
51.39999712	0.00000000	28.53716000	4.77977300
51.59999711	0.00000000	28.91240000	9.00590400
51.79999710	0.00000000	33.88902000	12.49385000
51.99999708	0.00000000	41.52928000	14.81299000
52.19999707	0.00000000	49.62475000	15.18824000
52.39999706	0.00000000	55.81324000	13.69956000
52.59999705	0.00000000	58.92593000	10.96211000
52.79999704	0.00000000	58.50763000	7.47416300
52.99999702	0.00000000	54.27534000	3.66633800
53.19999701	0.00000000	47.39173000	0.97194880
53.39999700	0.00000000	40.12672000	0.17839570
53.59999699	0.00000000	34.73179000	0.92888770
53.79999698	0.00000000	32.77559000	3.24803100
53.99999696	0.00000000	34.31348000	6.26845500
54.19999695	0.00000000	38.92101000	8.96284400
54.39999694	0.00000000	45.43553000	10.49459000
54.59999693	0.00000000	51.53174000	10.58686000
54.79999692	0.00000000	55.43799000	9.79945900
54.99999691	0.00000000	56.18848000	8.63681000
55.19999689	0.00000000	53.94316000	6.72982200
55.39999688	0.00000000	49.29871000	5.29035400
55.59999687	0.00000000	43.94069000	5.24729300
55.79999686	0.00000000	38.92101000	6.36072800
55.99999685	-0.15871060	35.85138000	7.89247000
56.19999683	0.00000000	35.43307000	9.42421200
56.39999682	0.00000000	37.34006000	10.53765000
56.59999681	0.00000000	41.20325000	10.49459000
56.79999680	0.00000000	45.81078000	8.96284400
56.99999679	0.00000000	50.04306000	6.26845500
57.19999677	0.00000000	52.73745000	3.19881900
57.39999676	0.00000000	53.16190000	0.55364170
57.59999675	0.00000000	51.62401000	-0.55979330
57.79999674	0.00000000	48.54823000	0.59670270
57.99999673	0.00000000	44.74040000	3.70939900
58.19999672	0.00000000	41.62155000	8.35998900
58.39999670	0.00000000	39.66535000	13.65650000
58.59999669	0.00000000	38.92101000	17.46432000
58.79999668	0.00000000	40.04060000	18.30093000
58.99999667	0.00000000	42.31668000	16.72613000
59.19999666	0.00000000	44.60506000	12.81373000
59.39999664	0.00000000	46.54896000	6.64370100
59.59999663	0.00000000	47.34252000	0.17839570
59.79999662	0.00000000	47.39173000	-4.87819900
59.99999661	0.00000000	46.96727000	-7.16043300
60.19999660	0.00000000	45.85384000	-6.32381900
60.39999658	0.00000000	44.69119000	-1.72244100
60.59999657	0.00000000	43.94069000	5.56717500
60.79999656	0.00000000	43.52854000	12.86909000
60.99999655	0.00000000	43.94069000	19.08834000
61.19999654	0.00000000	44.64813000	22.48400000
61.39999653	0.00000000	45.43553000	22.10876000
61.59999651	0.00000000	45.81078000	17.83957000
61.79999650	0.00000000	45.81078000	10.58686000
61.99999649	0.00000000	45.38631000	2.50369100
62.19999648	0.00000000	44.27288000	-4.09694900
62.39999647	0.00000000	43.11023000	-8.36614100
62.59999645	0.00000000	42.35974000	-9.47957600
62.79999644	0.00000000	41.99680000	-6.74212600
62.99999643	0.00000000	42.73499000	-0.60285430
63.19999642	0.00000000	43.85457000	7.47416300
63.39999641	0.00000000	44.69119000	15.14518000
63.59999639	0.00000000	45.85384000	20.57702000
63.79999638	0.00000000	47.01648000	22.52707000
63.99999637	0.00000000	47.71776000	20.99532000
64.19999636	0.00000000	47.71161000	16.39395000
64.39999635	0.00000000	46.18602000	9.84867000
64.59999634	0.00000000	44.31594000	3.29109200
64.79999632	0.00000000	42.73499000	-2.18380900
64.99999631	0.00000000	41.57849000	-5.62253900
65.19999630	0.00000000	41.20325000	-6.40994000
65.39999629	0.00000000	41.57849000	-4.14000900
65.59999628	0.00000000	42.73499000	0.04306102
65.79999626	0.00000000	44.27288000	4.73671200
65.99999625	0.00000000	45.76156000	9.38115100
66.19999624	0.00000000	46.54896000	13.28125000
66.39999623	0.00000000	46.18602000	15.60654000
66.59999622	0.00000000	45.43553000	16.43701000
66.79999620	0.00000000	44.22982000	15.64960000
66.99999619	0.00000000	42.73499000	13.74262000
67.19999618	0.00000000	41.62155000	11.00517000
67.39999617	0.00000000	41.66461000	7.89247000
67.59999616	0.00000000	43.20251000	4.73671200
67.79999615	0.00000000	45.85384000	1.66707700
67.99999613	0.00000000	48.50517000	-0.64591530
68.19999612	0.00000000	50.08612000	-1.48253000
68.39999611	0.00000000	50.46136000	-1.48253000
68.59999610	0.00000000	49.62475000	-0.60285430
68.79999609	0.00000000	46.92421000	2.08538400
68.99999607	0.00000000	43.06717000	5.93626900
69.19999606	0.00000000	39.24704000	9.84867000
69.39999605	0.00000000	36.13435000	13.74262000
69.59999604	0.00000000	35.01476000	16.76919000
69.79999603	0.00000000	35.80832000	17.92569000
69.99999601	0.00000000	38.92101000	16.76919000
70.19999600	0.00000000	43.89763000	13.65650000
70.39999599	0.00000000	48.92347000	9.00590400
70.59999598	0.00000000	53.20496000	3.62327700
70.79999597	0.00000000	55.85630000	-0.97810030
70.99999596	0.00000000	55.85630000	-3.71555100
71.19999594	0.00000000	53.16190000	-4.09079700
71.39999593	0.00000000	48.50517000	-2.18380900
71.59999592	0.00000000	42.69193000	1.66707700
71.79999591	0.00000000	36.92175000	6.31151500
71.99999590	0.00000000	32.68332000	10.91289000
72.19999588	0.00000000	31.14542000	14.39468000
72.39999587	0.00000000	32.68332000	15.56348000
72.59999586	0.00000000	36.92175000	14.85605000
72.79999585	0.00000000	42.69193000	12.53691000
72.99999584	0.00000000	48.50517000	9.47342500
73.19999582	0.00000000	53.16190000	6.36072800
73.39999581	0.00000000	55.85630000	3.66633800
73.59999580	0.00000000	55.85630000	2.12844500
73.79999579	0.00000000	53.16190000	2.12844500
73.99999578	0.00000000	48.54823000	3.57406500
74.19999577	0.00000000	43.15945000	5.43184000
74.39999575	0.00000000	38.54576000	6.21924200
74.59999574	0.00000000	35.80832000	6.31151500
74.79999573	0.00000000	35.38385000	6.26845500
74.99999572	0.00000000	36.87869000	5.85014700
75.19999571	0.00000000	39.57308000	4.77977300
75.39999569	0.00000000	42.69193000	4.08464600
75.59999568	0.00000000	45.81078000	4.82283400
75.79999567	0.00000000	48.46210000	6.36072800
75.99999566	0.00000000	49.62475000	8.35383800
76.19999565	0.00000000	48.92347000	11.00517000
76.39999563	0.00000000	47.43479000	13.23819000
76.59999562	0.00000000	45.85384000	13.61343000
76.79999561	0.00000000	44.31594000	12.07554000
76.99999560	0.00000000	43.20251000	8.96284400
77.19999559	0.00000000	43.15945000	4.73671200
77.39999558	0.00000000	43.85457000	0.51058070
77.59999556	0.00000000	44.18061000	-2.55905500
77.79999555	0.00000000	43.85457000	-3.67249000
77.99999554	0.00000000	43.06717000	-2.14074800
78.19999553	0.00000000	42.31668000	1.66707700
78.39999552	0.00000000	41.52928000	6.31151500
78.59999550	0.00000000	41.20325000	11.00517000
78.79999549	0.00000000	41.57849000	15.23130000
78.99999548	0.00000000	42.73499000	17.88263000
79.19999547	0.00000000	44.31594000	17.88263000
79.39999546	0.00000000	46.22908000	15.18824000
79.59999544	0.00000000	48.12992000	10.58686000
79.79999543	0.00000000	48.88041000	5.19808000
79.99999542	0.00000000	48.54823000	0.55364170
80.19999541	0.00000000	47.34252000	-2.55905500
80.39999540	0.00000000	45.38631000	-3.71555100
80.59999539	0.00000000	42.69193000	-2.60211600
80.79999537	0.00000000	40.04060000	0.09227362
80.99999536	0.00000000	38.50270000	3.57406500
81.19999535	0.00000000	38.45964000	7.47416300
81.39999534	0.00000000	39.62229000	10.91289000
81.59999533	0.00000000	41.57849000	13.28125000
81.79999531	0.00000000	44.27288000	14.07480000
81.99999530	0.00000000	46.92421000	13.74262000
82.19999529	0.00000000	48.50517000	12.53691000
82.39999528	0.00000000	48.92347000	10.58686000
82.59999527	0.00000000	48.50517000	7.89247000
82.79999525	0.00000000	46.96727000	5.15501900
82.99999524	0.00000000	44.69119000	2.78051200
83.19999523	0.00000000	42.78420000	0.46751960
83.39999522	0.00000000	41.57849000	-1.02116100
83.59999521	0.00000000	41.15403000	-1.06422200
83.79999520	0.00000000	41.15403000	0.09227362
83.99999518	0.00000000	41.57849000	2.08538400
84.19999517	0.00000000	42.69193000	5.19808000
84.39999516	0.00000000	43.80536000	9.05511800
84.59999515	0.00000000	44.22982000	12.49385000
84.79999514	0.00000000	44.27288000	14.85605000
84.99999512	0.00000000	44.27288000	15.56348000
85.19999511	0.00000000	44.27288000	14.39468000
85.39999510	0.00000000	44.31594000	10.95595000
85.59999509	0.00000000	44.69119000	6.72982200
85.79999508	0.00000000	45.43553000	2.82972400
85.99999506	0.00000000	45.76156000	-0.64591530
86.19999505	0.00000000	45.43553000	-2.55905500
86.39999504	0.00000000	44.64813000	-2.55905500
86.59999503	0.00000000	43.85457000	-0.60285430
86.79999502	0.00000000	42.69193000	3.24803100
86.99999501	0.00000000	41.57849000	7.84940900
87.19999499	0.00000000	41.15403000	12.11860000
87.39999498	0.00000000	41.15403000	15.18824000
87.59999497	0.00000000	41.57849000	16.30167000
87.79999496	0.00000000	42.78420000	14.76993000
87.99999495	0.00000000	44.64813000	10.95595000
88.19999493	0.00000000	46.54896000	6.31151500
88.39999492	0.00000000	47.29946000	1.66707700
88.59999491	0.00000000	46.96727000	-2.14074800
88.79999490	0.00000000	45.81078000	-3.62942900
88.99999489	0.00000000	44.27288000	-2.14074800
89.19999487	0.00000000	42.73499000	1.66707700
89.39999486	0.00000000	41.57849000	6.31151500
89.59999485	0.00000000	41.15403000	10.95595000
89.79999484	0.00000000	41.15403000	14.76993000
89.99999483	0.00000000	41.57849000	16.25861000
90.19999482	0.00000000	42.69193000	14.76993000
90.39999480	0.00000000	43.85457000	10.95595000
90.59999479	0.00000000	44.64813000	6.31151500
90.79999478	0.00000000	45.43553000	1.71013800
90.99999477	0.00000000	45.76156000	-1.72244100
91.19999476	0.00000000	45.43553000	-2.50984200
91.39999474	0.00000000	44.69119000	-0.97810030
91.59999473	0.00000000	44.31594000	2.50369100
91.79999472	0.00000000	44.27288000	7.51722400
91.99999471	0.00000000	44.27288000	12.45079000
92.19999470	0.00000000	44.27288000	15.92642000
92.39999468	0.00000000	44.27288000	16.67692000
92.59999467	0.00000000	44.22982000	14.81299000
92.79999466	0.00000000	43.80536000	10.95595000
92.99999465	0.00000000	42.69193000	6.31151500
93.19999464	0.00000000	41.52928000	1.71013800
93.39999463	0.00000000	40.77879000	-1.72244100
93.59999461	0.00000000	40.41584000	-2.46678100
93.79999460	0.00000000	41.20325000	-0.60285430
93.99999459	0.00000000	42.69193000	3.24803100
94.19999458	0.00000000	44.27288000	7.84940900
94.39999457	0.00000000	45.85384000	12.03248000
94.59999455	0.00000000	47.39173000	14.35162000
94.79999454	0.00000000	48.50517000	13.98253000
94.99999453	0.00000000	48.50517000	11.70029000
95.19999452	0.00000000	47.34252000	7.84940900
95.39999451	0.00000000	45.38631000	3.66633800
95.59999449	0.00000000	42.64886000	0.59670270
95.79999448	0.00000000	39.62229000	-0.60285430
95.99999447	0.00000000	37.29700000	0.13533460
96.19999446	0.00000000	36.54650000	2.08538400
96.39999445	0.00000000	37.29700000	5.15501900
96.59999444	0.00000000	39.66535000	8.58759800
96.79999442	0.00000000	43.11023000	10.86983000
96.99999441	0.00000000	46.96727000	11.70029000
97.19999440	0.00000000	50.04306000	10.91289000
97.39999439	0.00000000	51.62401000	9.05511800
97.59999438	0.00000000	51.62401000	6.72982200
97.79999436	0.00000000	50.04306000	4.82283400
97.99999435	0.00000000	46.96727000	3.62327700
98.19999434	0.00000000	43.11023000	3.24803100
98.39999433	0.00000000	39.62229000	3.62327700
98.59999432	0.00000000	36.87869000	4.73671200
98.79999430	0.00000000	35.38385000	5.85014700
98.99999429	0.00000000	35.75910000	6.26845500
99.19999428	0.00000000	38.08440000	6.35457700
99.39999427	0.00000000	41.52928000	6.72982200
99.59999426	0.00000000	45.38631000	7.47416300
99.79999425	0.00000000	48.50517000	7.84940900
99.99999423	0.00000000	50.50443000	7.93553100
100.19999422	0.00000000	51.62401000	8.31077700
100.39999421	0.00000000	51.20571000	9.05511800
100.59999420	0.00000000	48.92347000	9.38115100
100.79999419	0.00000000	45.85384000	9.00590400
100.99999417	0.00000000	42.73499000	7.80019600
101.19999416	0.00000000	39.99754000	5.89320800
101.39999415	0.00000000	38.08440000	3.61712600
101.59999414	0.00000000	37.29700000	2.08538400
101.79999413	0.00000000	38.04134000	1.71013800
101.99999411	0.00000000	39.57308000	2.46063000
102.19999410	0.00000000	41.52928000	4.40452700
102.39999409	0.00000000	43.85457000	6.68676100
102.59999408	0.00000000	45.81078000	9.05511800
102.79999407	0.00000000	47.39173000	10.96211000
102.99999406	0.00000000	48.50517000	12.11860000
103.19999404	0.00000000	48.46210000	12.07554000
103.39999403	0.00000000	46.96727000	10.53765000
103.59999402	0.00000000	44.69119000	7.84940900
103.79999401	0.00000000	42.73499000	4.77977300
103.99999400	0.00000000	41.15403000	2.08538400
104.19999398	0.00000000	39.99754000	0.55364170
104.39999397	0.00000000	39.62229000	0.51058070
104.59999396	0.00000000	39.99754000	1.66707700
104.79999395	0.00000000	41.15403000	3.61712600
104.99999394	0.00000000	42.69193000	6.31151500
105.19999392	0.00000000	44.22982000	9.00590400
105.39999391	0.00000000	45.38631000	10.91289000
105.59999390	0.00000000	45.76156000	11.65723000
105.79999389	0.00000000	45.43553000	10.53765000
105.99999388	0.00000000	44.64813000	8.26771600
106.19999387	0.00000000	43.85457000	5.98548200
106.39999385	0.00000000	42.69193000	3.99237200
106.59999384	0.00000000	41.57849000	2.87278500
106.79999383	0.00000000	41.20325000	2.46063000
106.99999382	0.00000000	41.57849000	3.24803100
107.19999381	0.00000000	42.69193000	4.77977300
107.39999379	0.00000000	43.85457000	6.68676100
107.59999378	0.00000000	44.60506000	8.58759800
107.79999377	0.00000000	45.01722000	9.33809000
107.99999376	0.00000000	44.60506000	9.00590400
108.19999375	0.00000000	43.89763000	7.84940900
108.39999374	0.00000000	43.06717000	6.31151500
108.59999372	0.00000000	42.31668000	4.77977300
108.79999371	0.00000000	41.52928000	3.62327700
108.99999370	0.00000000	41.20325000	3.24803100
109.19999369	0.00000000	41.52928000	3.62327700
109.39999368	0.00000000	42.31668000	4.77977300
109.59999366	0.00000000	43.11023000	6.31151500
109.79999365	0.00000000	44.27288000	7.84940900
109.99999364	0.00000000	45.38631000	9.00590400
110.19999363	0.00000000	45.76156000	9.38115100
110.39999362	0.00000000	45.38631000	9.00590400
110.59999360	0.00000000	44.27288000	7.84940900
110.79999359	0.00000000	43.11023000	6.31151500
110.99999358	0.00000000	42.31668000	4.77977300
111.19999357	0.00000000	41.52928000	3.62327700
111.39999356	0.00000000	41.20325000	3.19881900
111.59999355	0.00000000	41.52928000	3.19881900
111.79999353	0.00000000	42.31668000	3.62327700
111.99999352	0.00000000	43.06717000	4.77977300
112.19999351	0.00000000	43.85457000	6.26845500
112.39999350	0.00000000	44.22982000	7.42495000
112.59999349	0.00000000	44.27288000	7.84940900
112.79999347	0.00000000	44.22982000	7.89247000
112.99999346	0.00000000	43.85457000	7.89247000
113.19999345	0.00000000	43.15945000	7.84940900
113.39999344	0.00000000	43.11023000	7.47416300
113.59999343	0.00000000	43.43627000	6.72982200
113.79999341	0.00000000	43.06717000	6.31151500
113.99999340	0.00000000	42.73499000	5.89320800
114.19999339	0.00000000	42.69193000	5.15501900
114.39999338	0.00000000	42.69193000	4.77977300
114.59999337	0.00000000	42.69193000	4.73671200
114.79999336	0.00000000	42.69193000	4.73671200
114.99999334	0.00000000	42.73499000	4.73671200
115.19999333	0.00000000	43.06717000	4.73671200
115.39999332	0.00000000	43.43627000	4.77977300
115.59999331	0.00000000	43.11023000	5.19808000
115.79999330	0.00000000	43.11023000	6.31151500
115.99999328	0.00000000	43.43627000	7.42495000
116.19999327	0.00000000	43.06717000	7.84940900
116.39999326	0.00000000	42.73499000	7.89247000
116.59999325	0.00000000	42.69193000	7.89247000
116.79999324	0.00000000	42.69193000	7.84940900
116.99999322	0.00000000	42.69193000	7.42495000
117.19999321	0.00000000	42.73499000	6.31151500
117.39999320	0.00000000	43.11023000	5.19808000
117.59999319	0.00000000	43.85457000	4.73671200
117.79999318	0.00000000	44.22982000	4.31840500
117.99999317	0.00000000	44.27288000	3.62327700
118.19999315	0.00000000	44.27288000	3.66633800
118.39999314	0.00000000	44.22982000	4.73671200
118.59999313	0.00000000	43.85457000	5.89320800
118.79999312	0.00000000	43.06717000	6.68676100
118.99999311	0.00000000	42.27362000	7.51722400
119.19999309	0.00000000	41.11097000	8.22465500
119.39999308	0.00000000	40.04060000	8.63681000
119.59999307	0.00000000	40.04060000	8.26771600
119.79999306	0.00000000	41.15403000	7.89247000
119.99999305	0.00000000	42.69193000	7.47416300
120.19999303	0.00000000	44.22982000	6.72982200
120.39999302	0.00000000	45.38631000	6.31151500
120.59999301	0.00000000	45.81078000	5.89320800
120.79999300	0.00000000	45.81078000	5.15501900
120.99999299	0.00000000	45.38631000	4.82898600
121.19999298	0.00000000	44.27288000	5.11195900
121.39999296	0.00000000	43.11023000	5.51796200
121.59999295	0.00000000	42.27362000	5.53026500
121.79999294	0.00000000	41.15403000	5.93626900
121.99999293	0.00000000	40.36663000	6.26845500
122.19999292	0.00000000	40.36048000	6.35457700
122.39999290	0.00000000	40.36663000	6.72982200
122.59999289	0.00000000	41.20325000	7.47416300
122.79999288	0.00000000	42.64886000	7.84940900
122.99999287	0.00000000	43.80536000	7.84940900
123.19999286	0.00000000	44.27288000	7.47416300
123.39999284	0.00000000	44.69119000	6.68676100
123.59999283	0.00000000	45.43553000	5.98548200
123.79999282	0.00000000	45.76156000	5.53026500
123.99999281	0.00000000	45.38631000	5.51796200
124.19999280	0.00000000	44.27288000	5.11195900
124.39999279	0.00000000	43.11023000	4.77977300
124.59999277	0.00000000	42.31668000	4.73671200
124.79999276	0.00000000	41.52928000	4.77977300
124.99999275	0.00000000	41.15403000	5.15501900
125.19999274	0.00000000	41.11097000	5.89320800
125.39999273	0.00000000	41.15403000	6.26845500
125.59999271	0.00000000	41.52928000	6.35457700
125.79999270	0.00000000	42.31668000	6.72982200
125.99999269	0.00000000	43.06717000	7.42495000
126.19999268	0.00000000	43.85457000	7.42495000
126.39999267	0.00000000	44.27288000	6.72982200
126.59999265	0.00000000	44.64813000	6.35457700
126.79999264	0.00000000	44.96801000	6.26845500
126.99999263	0.00000000	44.22982000	5.89320800
127.19999262	0.00000000	43.11023000	5.15501900
127.39999261	0.00000000	42.27362000	4.77977300
127.59999260	0.00000000	41.11097000	4.73671200
127.79999258	0.00000000	40.04060000	4.77977300
127.99999257	0.00000000	39.99754000	5.15501900
128.19999256	0.00000000	40.73573000	5.89320800
128.39999255	0.00000000	41.52928000	6.26845500
128.59999254	0.00000000	42.69193000	6.31151500
128.79999252	0.00000000	43.80536000	6.31151500
128.99999251	0.00000000	44.22982000	6.31151500
129.19999250	0.00000000	44.27288000	6.26845500
129.39999249	0.00000000	44.22982000	5.93626900
129.59999248	0.00000000	43.80536000	5.57332700
129.79999246	0.00000000	42.69193000	5.89320800
129.99999245	0.00000000	41.57849000	5.89320800
130.19999244	0.00000000	41.15403000	5.57332700
130.39999243	0.00000000	41.11097000	5.93626900
130.59999242	0.00000000	41.15403000	6.26845500
130.79999241	0.00000000	41.52928000	6.31151500
130.99999239	0.00000000	42.31668000	6.31151500
131.19999238	0.00000000	43.06717000	6.31151500
131.39999237	0.00000000	43.85457000	6.31151500
131.59999236	0.00000000	44.18061000	6.26845500
131.79999235	0.00000000	43.85457000	5.89320800
131.99999233	0.00000000	43.11023000	5.15501900
132.19999232	0.00000000	42.69193000	4.77977300
132.39999231	0.00000000	42.31668000	4.73671200
132.59999230	0.00000000	41.90453000	4.77977300
132.79999229	0.00000000	41.89838000	5.15501900
132.99999227	0.00000000	41.52928000	5.93626900
133.19999226	0.00000000	41.57849000	6.68676100
133.39999225	0.00000000	42.27362000	7.47416300
133.59999224	0.00000000	42.64886000	7.84940900
133.79999223	0.00000000	42.69193000	7.84940900
133.99999222	0.00000000	42.69193000	7.47416300
134.19999220	0.00000000	42.69193000	6.68676100
134.39999219	0.00000000	42.69193000	5.93626900
134.59999218	0.00000000	42.69193000	5.11195900
134.79999217	0.00000000	42.69193000	4.36146600
134.99999216	0.00000000	42.73499000	3.62327700
135.19999214	0.00000000	43.06717000	3.62327700
135.39999213	0.00000000	43.43627000	4.31840500
135.59999212	0.00000000	43.06717000	4.73671200
135.79999211	0.00000000	42.69193000	5.19808000
135.99999210	0.00000000	42.27362000	6.31151500
136.19999208	0.00000000	41.52928000	7.42495000
136.39999207	0.00000000	41.15403000	7.84940900
136.59999206	0.00000000	41.11097000	7.84940900
136.79999205	0.00000000	41.11097000	7.47416300
136.99999204	0.00000000	41.15403000	6.72982200
137.19999203	0.00000000	41.57849000	6.31151500
137.39999201	0.00000000	42.69193000	5.89320800
137.59999200	0.00000000	43.80536000	5.15501900
137.79999199	0.00000000	44.22982000	4.77977300
137.99999198	0.00000000	44.22982000	4.73671200
138.19999197	0.00000000	43.85457000	4.73671200
138.39999195	0.00000000	43.06717000	4.73671200
138.59999194	0.00000000	42.31668000	4.77977300
138.79999193	0.00000000	41.52928000	5.15501900
138.99999192	0.00000000	41.15403000	5.93626900
139.19999191	0.00000000	41.11097000	6.68676100
139.39999189	0.00000000	41.15403000	7.47416300
139.59999188	0.00000000	41.52928000	7.80019600
139.79999187	0.00000000	42.27362000	7.47416300
139.99999186	0.00000000	42.64886000	6.72982200
140.19999185	0.00000000	42.69193000	6.31151500
140.39999184	0.00000000	42.69193000	5.89320800
140.59999182	0.00000000	42.69193000	5.15501900
140.79999181	0.00000000	42.69193000	4.73671200
140.99999180	0.00000000	42.64886000	4.36146600
141.19999179	0.00000000	42.27362000	3.99237200
141.39999178	0.00000000	41.52928000	4.40452700
141.59999176	0.00000000	41.20325000	5.15501900
141.79999175	0.00000000	41.52928000	6.31151500
141.99999174	0.00000000	42.27362000	7.42495000
142.19999173	0.00000000	42.69193000	7.84940900
142.39999172	0.00000000	43.06717000	7.84940900
142.59999170	0.00000000	43.43627000	7.47416300
142.79999169	0.00000000	43.06717000	6.68676100
142.99999168	0.00000000	42.73499000	5.93626900
143.19999167	0.00000000	42.69193000	5.15501900
143.39999166	0.00000000	42.64886000	4.77977300
143.59999165	0.00000000	42.31668000	4.73671200
143.79999163	0.00000000	41.94759000	4.73671200
143.99999162	0.00000000	42.31668000	4.77977300
144.19999161	0.00000000	42.64886000	5.15501900
144.39999160	0.00000000	42.69193000	5.89320800
144.59999159	0.00000000	42.69193000	6.31151500
144.79999157	0.00000000	42.69193000	6.72982200
144.99999156	0.00000000	42.69193000	7.47416300
145.19999155	0.00000000	42.69193000	7.80019600
145.39999154	0.00000000	42.69193000	7.47416300
145.59999153	0.00000000	42.64886000	6.72982200
145.79999151	0.00000000	42.27362000	6.31151500
145.99999150	0.00000000	41.52928000	5.89320800
146.19999149	0.00000000	41.15403000	5.15501900
146.39999148	0.00000000	41.15403000	4.77977300
146.59999147	0.00000000	41.52928000	4.73671200
146.79999146	0.00000000	42.27362000	4.77977300
146.99999144	0.00000000	42.64886000	5.15501900
147.19999143	0.00000000	42.69193000	5.89320800
147.39999142	0.00000000	42.69193000	6.26845500
147.59999141	0.00000000	42.69193000	6.31151500
147.79999140	0.00000000	42.64886000	6.31151500
147.99999138	0.00000000	42.27362000	6.31151500
148.19999137	0.00000000	41.52928000	6.31151500
148.39999136	0.00000000	41.15403000	6.31151500
148.59999135	0.00000000	41.11097000	6.26845500
148.79999134	0.00000000	41.15403000	5.89320800
148.99999132	0.00000000	41.52928000	5.15501900
149.19999131	0.00000000	42.27362000	4.77977300
149.39999130	0.00000000	42.64886000	4.77977300
149.59999129	0.00000000	42.69193000	5.15501900
149.79999128	0.00000000	42.69193000	5.89320800
149.99999127	0.00000000	42.69193000	6.21924200
150.19999125	0.00000000	42.69193000	5.93626900
150.39999124	0.00000000	42.69193000	5.61638700
150.59999123	0.00000000	42.69193000	6.31151500
150.79999122	0.00000000	42.64886000	7.00664300
150.99999121	0.00000000	42.31668000	6.68676100
151.19999119	0.00000000	41.90453000	6.35457700
151.39999118	0.00000000	41.89838000	6.31151500
151.59999117	0.00000000	41.52928000	6.26845500
151.79999116	0.00000000	41.57849000	5.93626900
151.99999115	0.00000000	42.27362000	5.57332700
152.19999113	0.00000000	42.64886000	5.93626900
152.39999112	0.00000000	42.69193000	6.26845500
152.59999111	0.00000000	42.69193000	6.31151500
152.79999110	0.00000000	42.69193000	6.31151500
152.99999109	0.00000000	42.69193000	6.31151500
153.19999108	0.00000000	42.69193000	6.31151500
153.39999106	0.00000000	42.64886000	6.31151500
153.59999105	0.00000000	42.27362000	6.31151500
153.79999104	0.00000000	41.52928000	6.31151500
153.99999103	0.00000000	41.15403000	6.31151500
154.19999102	0.00000000	41.11097000	6.31151500
154.39999100	0.00000000	41.11097000	6.31151500
154.59999099	0.00000000	41.11097000	6.31151500
154.79999098	0.00000000	41.11097000	6.26845500
154.99999097	0.00000000	41.15403000	5.89320800
155.19999096	0.00000000	41.52928000	5.15501900
155.39999094	0.00000000	42.27362000	4.77977300
155.59999093	0.00000000	42.64886000	4.73671200
155.79999092	0.00000000	42.69193000	4.77977300
155.99999091	0.00000000	42.69193000	5.15501900
156.19999090	0.00000000	42.64886000	5.89320800
156.39999089	0.00000000	42.27362000	6.26845500
156.59999087	0.00000000	41.52928000	6.31151500
156.79999086	0.00000000	41.11097000	6.31151500
156.99999085	0.00000000	40.73573000	6.35457700
157.19999084	0.00000000	40.36663000	6.68676100
157.39999083	0.00000000	40.73573000	7.05585600
157.59999081	0.00000000	41.06791000	6.68676100
157.79999080	0.00000000	41.15403000	6.31151500
157.99999079	0.00000000	41.48622000	5.89320800
158.19999078	0.00000000	41.89838000	5.15501900
158.39999077	0.00000000	41.90453000	4.77977300
158.59999075	0.00000000	42.31668000	4.73671200
158.79999074	0.00000000	42.64886000	4.77977300
158.99999073	0.00000000	42.69193000	5.15501900
159.19999072	0.00000000	42.69193000	5.89320800
159.39999071	0.00000000	42.64886000	6.26845500
159.59999070	0.00000000	42.27362000	6.35457700
159.79999068	0.00000000	41.52928000	6.72982200
159.99999067	0.00000000	41.15403000	7.42495000
160.19999066	0.00000000	41.11097000	7.42495000
160.39999065	0.00000000	41.11097000	6.72982200
160.59999064	0.00000000	41.11097000	6.31151500
160.79999062	0.00000000	41.11097000	5.89320800
160.99999061	0.00000000	41.11097000	5.15501900
161.19999060	0.00000000	41.11097000	4.77977300
161.39999059	0.00000000	41.15403000	4.73671200
161.59999058	0.00000000	41.52928000	4.77977300
161.79999056	0.00000000	42.27362000	5.11195900
161.99999055	0.00000000	42.64886000	5.51796200
162.19999054	0.00000000	42.69193000	5.53026500
162.39999053	0.00000000	42.69193000	5.93626900
162.59999052	0.00000000	42.64886000	6.26845500
162.79999051	0.00000000	42.27362000	6.31151500
162.99999049	0.00000000	41.52928000	6.31151500
163.19999048	0.00000000	41.15403000	6.31151500
163.39999047	0.00000000	41.11097000	6.31151500
163.59999046	0.00000000	41.11097000	6.31151500
163.79999045	0.00000000	41.11097000	6.26845500
163.99999043	0.00000000	41.11097000	5.93626900
164.19999042	0.00000000	41.15403000	5.53026500
164.39999041	0.00000000	41.52928000	5.51796200
164.59999040	0.00000000	42.27362000	5.15501900
164.79999039	0.00000000	42.64886000	5.19808000
164.99999037	0.00000000	42.69193000	5.89320800
165.19999036	0.00000000	42.69193000	6.21924200
165.39999035	0.00000000	42.69193000	5.93626900
165.59999034	0.00000000	42.64886000	5.57332700
165.79999033	0.00000000	42.27362000	5.93626900
165.99999032	0.00000000	41.52928000	6.26845500
166.19999030	0.00000000	41.15403000	6.31151500
166.39999029	0.00000000	41.11097000	6.26845500
166.59999028	0.00000000	41.11097000	5.93626900
166.79999027	0.00000000	41.11097000	5.57332700
166.99999026	0.00000000	41.11097000	5.89320800
167.19999024	0.00000000	41.15403000	5.89320800
167.39999023	0.00000000	41.52928000	5.57332700
167.59999022	0.00000000	42.27362000	5.93626900
167.79999021	0.00000000	42.64886000	6.26845500
167.99999020	0.00000000	42.69193000	6.31151500
168.19999018	0.00000000	42.64886000	6.31151500
168.39999017	0.00000000	42.27362000	6.26845500
168.59999016	0.00000000	41.52928000	5.89320800
168.79999015	0.00000000	41.15403000	5.15501900
168.99999014	0.00000000	41.11097000	4.77977300
169.19999013	0.00000000	41.11097000	4.73671200
169.39999011	0.00000000	41.11097000	4.77977300
169.59999010	0.00000000	41.11097000	5.15501900
169.79999009	0.00000000	41.11097000	5.89320800
169.99999008	0.00000000	41.11097000	6.26845500
170.19999007	0.00000000	41.11097000	6.31151500
170.39999005	0.00000000	41.11097000	6.31151500
170.59999004	0.00000000	41.11097000	6.31151500
170.79999003	0.00000000	41.11097000	6.31151500
170.99999002	0.00000000	41.11097000	6.26845500
171.19999001	0.00000000	41.11097000	5.89320800
171.39998999	0.00000000	41.11097000	5.19808000
171.59998998	0.00000000	41.11097000	5.15501900
171.79998997	0.00000000	41.11097000	5.51796200
171.99998996	0.00000000	41.11097000	5.53026500
172.19998995	0.00000000	41.11097000	5.93626900
172.39998994	0.00000000	41.11097000	6.26845500
172.59998992	0.00000000	41.11097000	6.31151500
172.79998991	0.00000000	41.11097000	6.26845500
172.99998990	0.00000000	41.11097000	5.93626900
173.19998989	0.00000000	41.11097000	5.57332700
173.39998988	0.00000000	41.11097000	5.93626900
173.59998986	0.00000000	41.11097000	6.26845500
173.79998985	0.00000000	41.11097000	6.31151500
173.99998984	0.00000000	41.11097000	6.31151500
174.19998983	0.00000000	41.15403000	6.31151500
174.39998982	0.00000000	41.48622000	6.26845500
174.59998980	0.00000000	41.85531000	5.93626900
174.79998979	0.00000000	41.48622000	5.53026500
174.99998978	0.00000000	41.15403000	5.51796200
175.19998977	0.00000000	41.11097000	5.15501900
175.39998976	0.00000000	41.11097000	5.19808000
175.59998975	0.00000000	41.11097000	5.89320800
175.79998973	0.00000000	41.11097000	6.26845500
175.99998972	0.00000000	41.11097000	6.31151500
176.19998971	0.00000000	41.11097000	6.31151500
176.39998970	0.00000000	41.11097000	6.26845500
176.59998969	0.00000000	41.11097000	5.93626900
176.79998967	0.00000000	41.11097000	5.53026500
176.99998966	0.00000000	41.11097000	5.51796200
177.19998965	0.00000000	41.11097000	5.11195900
177.39998964	0.00000000	41.11097000	4.77977300
177.59998963	0.00000000	41.11097000	4.73671200
177.79998961	0.00000000	41.11097000	4.77977300
177.99998960	0.00000000	41.11097000	5.11195900
178.19998959	0.00000000	41.11097000	5.47490100
178.39998958	0.00000000	41.11097000	5.15501900
178.59998957	0.00000000	41.11097000	5.19808000
178.79998956	0.00000000	41.11097000	5.89320800
178.99998954	0.00000000	41.11097000	6.26845500
179.19998953	0.00000000	41.11097000	6.26845500
179.39998952	0.00000000	41.11097000	5.93626900
179.59998951	0.00000000	41.11097000	5.53026500
179.79998950	0.00000000	41.11097000	5.51796200
179.99998948	0.00000000	41.11097000	5.11195900
180.19998947	0.00000000	41.11097000	4.77977300
180.39998946	0.00000000	41.11097000	4.73671200
180.59998945	0.00000000	41.11097000	4.77977300
180.79998944	0.00000000	41.11097000	5.15501900
180.99998942	0.00000000	41.11097000	5.85014700
181.19998941	0.00000000	41.11097000	5.85014700
181.39998940	0.00000000	41.11097000	5.19808000
181.59998939	0.00000000	41.11097000	5.19808000
181.79998938	0.00000000	41.11097000	5.89320800
181.99998937	0.00000000	41.11097000	6.26845500
182.19998935	0.00000000	41.11097000	6.31151500
182.39998934	0.00000000	41.11097000	6.26845500
182.59998933	0.00000000	41.15403000	5.93626900
182.79998932	0.00000000	41.48622000	5.53026500
182.99998931	0.00000000	41.85531000	5.51796200
183.19998929	0.00000000	41.48622000	5.15501900
183.39998928	0.00000000	41.15403000	5.15501900
183.59998927	0.00000000	41.11097000	5.47490100
183.79998926	0.00000000	41.11097000	5.15501900
183.99998925	0.00000000	41.11097000	5.19808000
184.19998923	0.00000000	41.11097000	5.89320800
184.39998922	0.00000000	41.11097000	6.26845500
184.59998921	0.00000000	41.11097000	6.31151500
184.79998920	0.00000000	41.11097000	6.31151500
184.99998919	0.00000000	41.11097000	6.31151500
185.19998918	0.00000000	41.11097000	6.26845500
185.39998916	0.00000000	41.11097000	5.89320800
185.59998915	0.00000000	41.11097000	5.15501900
185.79998914	0.00000000	41.11097000	4.77977300
185.99998913	0.00000000	41.11097000	4.73671200
186.19998912	0.00000000	41.11097000	4.73671200
186.39998910	0.00000000	41.11097000	4.73671200
186.59998909	0.00000000	41.11097000	4.73671200
186.79998908	0.00000000	41.11097000	4.77977300
186.99998907	0.00000000	41.11097000	5.15501900
187.19998906	0.00000000	41.11097000	5.89320800
187.39998904	0.00000000	41.11097000	6.26845500
187.59998903	0.00000000	41.11097000	6.31151500
187.79998902	0.00000000	41.11097000	6.31151500
187.99998901	0.00000000	41.11097000	6.26845500
188.19998900	0.00000000	41.11097000	5.93626900
188.39998899	0.00000000	41.15403000	5.53026500
188.59998897	0.00000000	41.48622000	5.51796200
188.79998896	0.00000000	41.85531000	5.11195900
188.99998895	0.00000000	41.48622000	4.77977300
189.19998894	0.00000000	41.15403000	4.73671200
189.39998893	0.00000000	41.11097000	4.73671200
189.59998891	0.00000000	41.11097000	4.77977300
189.79998890	0.00000000	41.11097000	5.15501900
189.99998889	0.00000000	41.11097000	5.85014700
190.19998888	0.00000000	41.11097000	5.89320800
190.39998887	0.00000000	41.11097000	5.57332700
190.59998885	0.00000000	41.11097000	5.93626900
190.79998884	0.00000000	41.11097000	6.26845500
190.99998883	0.00000000	41.11097000	6.31151500
191.19998882	0.00000000	41.11097000	6.26845500
191.39998881	0.00000000	41.11097000	5.89320800
191.59998880	0.00000000	41.11097000	5.15501900
191.79998878	0.00000000	41.11097000	4.77977300
191.99998877	0.00000000	41.11097000	4.73671200
192.19998876	0.00000000	41.11097000	4.73671200
192.39998875	0.00000000	41.11097000	4.73671200
192.59998874	0.00000000	41.11097000	4.73671200
192.79998872	0.00000000	41.11097000	4.73671200
192.99998871	0.00000000	41.11097000	4.73671200
193.19998870	0.00000000	41.11097000	4.73671200
193.39998869	0.00000000	41.11097000	4.73671200
193.59998868	0.00000000	41.11097000	4.77977300
193.79998866	0.00000000	41.11097000	5.15501900
193.99998865	0.00000000	41.11097000	5.89320800
194.19998864	0.00000000	41.11097000	6.26845500
194.39998863	0.00000000	41.11097000	6.31151500
194.59998862	0.00000000	41.11097000	6.26845500
194.79998861	0.00000000	41.11097000	5.93626900
194.99998859	0.00000000	41.11097000	5.53026500
195.19998858	0.00000000	41.11097000	5.51796200
195.39998857	0.00000000	41.11097000	5.11195900
195.59998856	0.00000000	41.11097000	4.77977300
195.79998855	0.00000000	41.06791000	4.73671200
195.99998853	0.00000000	40.73573000	4.73671200
