Time	Channel A	Channel B	Channel C
(us)	(V)	(mV)	(mV)

-4.49999956	0.00000000	-77.47908000	-30.00123000
-4.29999957	0.00000000	-77.43602000	-30.00123000
-4.09999958	0.00000000	-77.10384000	-30.00123000
-3.89999959	0.00000000	-76.73474000	-30.00123000
-3.69999960	0.00000000	-77.10384000	-30.00123000
-3.49999962	0.00000000	-77.43602000	-30.00123000
-3.29999963	0.00000000	-77.47908000	-30.00123000
-3.09999964	0.00000000	-77.47908000	-30.00123000
-2.89999965	0.00000000	-77.47908000	-30.00123000
-2.69999966	0.00000000	-77.47908000	-30.00123000
-2.49999968	0.00000000	-77.47908000	-30.00123000
-2.29999969	0.00000000	-77.47908000	-30.00123000
-2.09999970	0.00000000	-77.47908000	-30.00123000
-1.89999971	0.00000000	-77.47908000	-30.00123000
-1.69999972	0.00000000	-77.47908000	-30.00123000
-1.49999973	0.00000000	-77.47908000	-30.04429000
-1.29999975	0.00000000	-77.47908000	-30.37647000
-1.09999976	0.00000000	-77.47908000	-30.78248000
-0.89999977	0.00000000	-77.47908000	-30.74557000
-0.69999978	0.00000000	-77.47908000	-30.78248000
-0.49999979	0.00000000	-77.47908000	-30.37647000
-0.29999981	0.31803640	-77.47908000	-30.04429000
-0.09999982	0.63668800	-77.47908000	-30.00123000
0.10000017	0.95533960	-77.43602000	-30.04429000
0.30000016	0.95533960	-77.10384000	-30.37647000
0.50000015	0.79601380	-76.73474000	-30.78248000
0.70000013	0.15871060	-77.10384000	-30.74557000
0.90000012	-0.63668800	-77.43602000	-30.78248000
1.10000011	-1.75196900	-77.47908000	-30.37647000
1.30000010	-2.38927200	-77.47908000	-30.04429000
1.50000009	-2.86724900	-77.43602000	-30.00123000
1.70000008	-2.22994600	-77.10384000	-30.00123000
1.90000006	-0.95533960	-76.69167000	-30.00123000
2.10000005	0.95533960	-76.72858000	-30.00123000
2.30000004	3.02657500	-76.69167000	-30.00123000
2.50000003	4.61921700	-77.10384000	-30.04429000
2.70000002	5.25652100	-77.43602000	-30.41954000
2.90000000	4.61921700	-77.47908000	-31.15772000
3.09999999	2.54859700	-77.47908000	-31.53297000
3.29999998	-0.63668800	-77.47908000	-31.53297000
3.49999997	-4.14124000	-77.47908000	-31.20078000
3.69999996	-6.84916400	-77.47908000	-30.79478000
3.89999994	-7.96444400	-77.43602000	-30.73942000
4.09999993	-7.16781500	-77.06077000	-30.00123000
4.29999992	-4.45989200	-76.31644000	-29.25689000
4.49999991	-0.31803640	-75.99039000	-29.25074000
4.69999990	4.14124000	-76.31644000	-29.21383000
4.89999989	7.64579200	-77.06077000	-29.62598000
5.09999987	9.39837600	-77.43602000	-30.00123000
5.29999986	8.92039900	-77.47908000	-30.41954000
5.49999985	5.89382400	-77.47908000	-31.15772000
5.69999984	1.59264300	-77.47908000	-31.48376000
5.89999983	-3.18590100	-77.47908000	-31.15772000
6.09999981	-7.16781500	-77.47908000	-30.41954000
6.29999980	-9.23905000	-77.43602000	-30.04429000
6.49999979	-9.07972400	-77.10384000	-29.95817000
6.69999978	-6.53112700	-76.69167000	-29.62598000
6.89999977	-2.70792300	-76.72858000	-29.25689000
7.09999975	1.75196900	-76.64862000	-29.62598000
7.29999974	5.41584600	-76.72858000	-29.95817000
7.49999973	7.48646600	-76.64862000	-30.00123000
7.69999972	7.64579200	-76.72858000	-30.00123000
7.89999971	5.89382400	-76.69167000	-30.00123000
8.09999970	2.86724900	-77.10384000	-30.00123000
8.29999968	-0.47736220	-77.43602000	-30.00123000
8.49999967	-3.18590100	-77.43602000	-30.00123000
8.69999966	-4.93786900	-77.06077000	-30.00123000
8.89999965	-5.09719500	-76.31644000	-30.00123000
9.09999964	-4.14124000	-75.99039000	-30.00123000
9.29999962	-2.38927200	-76.27337000	-30.00123000
9.49999961	-0.31803640	-76.64246000	-30.00123000
9.69999960	1.27399100	-76.27337000	-30.00123000
9.89999959	2.38927200	-75.94118000	-30.00123000
10.09999958	2.54859700	-75.94118000	-30.00123000
10.29999956	2.07062000	-76.31644000	-30.00123000
10.49999955	1.27399100	-77.01156000	-30.00123000
10.69999954	0.31803640	-77.06077000	-30.00123000
10.89999953	-0.31803640	-76.69167000	-30.00123000
11.09999952	-0.79601380	-76.68553000	-30.00123000
11.29999951	-0.95533960	-76.27337000	-30.00123000
11.49999949	-0.95533960	-75.94118000	-30.00123000
11.69999948	-0.63668800	-75.94118000	-30.00123000
11.89999947	-0.31803640	-76.27337000	-30.00123000
12.09999946	-0.15871060	-76.64246000	-30.00123000
12.29999945	-0.15871060	-76.27337000	-30.00123000
12.49999943	0.00000000	-75.94118000	-30.00123000
12.69999942	0.00000000	-75.89813000	-30.00123000
12.89999941	0.00000000	-75.94118000	-30.00123000
13.09999940	0.00000000	-76.27337000	-30.00123000
13.29999939	0.00000000	-76.64246000	-30.00123000
13.49999937	0.00000000	-76.31644000	-30.00123000
13.69999936	0.00000000	-76.36565000	-30.00123000
13.89999935	-0.15871060	-77.01156000	-30.00123000
14.09999934	0.00000000	-77.01156000	-30.00123000
14.29999933	-0.15871060	-76.31644000	-30.00123000
14.49999932	0.00000000	-75.94118000	-30.00123000
14.69999930	0.00000000	-75.89813000	-30.00123000
14.89999929	0.00000000	-75.94118000	-30.00123000
15.09999928	0.00000000	-76.31644000	-30.00123000
15.29999927	0.00000000	-77.06077000	-30.00123000
15.49999926	0.00000000	-77.43602000	-30.00123000
15.69999924	0.00000000	-77.47908000	-30.00123000
15.89999923	0.00000000	-77.47908000	-30.00123000
16.09999922	0.00000000	-77.43602000	-30.00123000
16.29999921	-0.15871060	-77.06077000	-30.00123000
16.49999920	-0.15871060	-76.31644000	-30.00123000
16.69999919	0.00000000	-75.94118000	-30.00123000
16.89999917	0.00000000	-75.85506000	-30.00123000
17.09999916	0.00000000	-75.47981000	-30.00123000
17.29999915	0.00000000	-74.73548000	-30.00123000
17.49999914	0.00000000	-74.40945000	-30.00123000
17.69999913	0.00000000	-74.73548000	-30.00123000
17.89999911	0.00000000	-75.52288000	-30.00123000
18.09999910	0.00000000	-76.31644000	-30.00123000
18.29999909	0.00000000	-77.52214000	-30.00123000
18.49999908	0.00000000	-79.06004000	-30.00123000
18.69999907	0.00000000	-80.59792000	-30.00123000
18.89999905	0.00000000	-81.71136000	-30.00123000
19.09999904	0.00000000	-81.66830000	-30.00123000
19.29999903	0.00000000	-80.13041000	-30.00123000
19.49999902	0.00000000	-77.38681000	-30.00123000
19.69999901	0.00000000	-73.89886000	-30.00123000
19.89999900	0.00000000	-69.99261000	-30.00123000
20.09999898	0.00000000	-66.58464000	-30.00123000
20.29999897	0.00000000	-64.72686000	-30.00123000
20.49999896	0.00000000	-65.93873000	-30.00123000
20.69999895	0.00000000	-70.17101000	-30.00123000
20.89999894	0.00000000	-76.40871000	-30.00123000
21.09999892	0.00000000	-83.80289000	-30.00123000
21.29999891	0.00000000	-91.06176000	-30.00123000
21.49999890	0.00000000	-96.03838000	-30.00123000
21.69999889	0.00000000	-96.73966000	-30.00123000
21.89999888	0.00000000	-92.83341000	-30.00123000
22.09999886	0.00000000	-84.22736000	-30.00123000
22.29999885	0.00000000	-72.26870000	-30.00123000
22.49999884	0.00000000	-59.56569000	-30.00123000
22.69999883	0.00000000	-49.56323000	-30.00123000
22.89999882	0.00000000	-44.99877000	-30.00123000
23.09999881	0.00000000	-47.33021000	-29.95817000
23.29999879	0.00000000	-56.71751000	-29.58292000
23.49999878	0.00000000	-71.43208000	-28.83858000
23.69999877	0.00000000	-89.24089000	-28.46333000
23.89999876	0.00000000	-105.72100000	-28.42027000
24.09999875	0.00000000	-116.51080000	-28.46333000
24.29999873	0.00000000	-118.38090000	-28.88779000
24.49999872	0.00000000	-110.60530000	-30.04429000
24.69999871	0.00000000	-94.32209000	-31.57603000
24.89999870	0.00000000	-72.68700000	-33.11393000
25.09999869	0.00000000	-50.72588000	-34.27042000
25.29999867	0.00000000	-33.74139000	-34.69488000
25.49999866	0.00000000	-26.05807000	-34.64567000
25.69999865	0.00000000	-29.55216000	-33.76599000
25.89999864	0.00000000	-43.87918000	-31.06545000
26.09999863	0.00000000	-65.88951000	-27.21457000
26.29999862	0.00000000	-90.64346000	-23.35138000
26.49999860	0.00000000	-112.61070000	-19.87574000
26.69999859	0.00000000	-126.51940000	-18.05487000
26.89999858	0.00000000	-128.84470000	-18.84842000
27.09999857	0.00000000	-119.58660000	-22.74852000
27.29999856	0.00000000	-100.60280000	-28.93085000
27.49999854	0.00000000	-75.94118000	-36.31274000
27.69999853	0.00000000	-51.65477000	-43.61467000
27.89999852	0.00000000	-33.83366000	-49.00344000
28.09999851	0.00000000	-26.01501000	-50.86122000
28.29999850	0.00000000	-29.09080000	-48.44365000
28.49999848	0.00000000	-42.21210000	-41.06176000
28.69999847	0.00000000	-62.26624000	-29.90895000
28.89999846	0.00000000	-84.31963000	-17.91953000
29.09999845	0.00000000	-103.67860000	-7.51107200
29.29999844	0.00000000	-116.46780000	-1.01501000
29.49999843	0.00000000	-120.00490000	-0.68282480
29.69999841	0.00000000	-114.23470000	-6.86515700
29.89999840	0.00000000	-100.73820000	-18.52239000
30.09999839	0.00000000	-82.59719000	-33.57529000
30.29999838	0.00000000	-64.40083000	-49.00344000
30.49999837	0.00000000	-49.69857000	-60.94365000
30.69999835	0.00000000	-41.51698000	-66.70767000
30.89999834	0.00000000	-41.41855000	-64.75147000
31.09999833	0.00000000	-47.93922000	-55.09350000
31.29999832	0.00000000	-59.56569000	-39.99138000
31.49999831	0.00000000	-73.89886000	-22.19488000
31.69999829	0.00000000	-87.81372000	-5.23499000
31.89999828	0.00000000	-98.69586000	6.70521600
32.09999827	0.00000000	-104.09690000	10.97441000
32.29999826	0.00000000	-103.39570000	6.70521600
32.49999825	0.00000000	-96.83193000	-5.23499000
32.69999824	0.00000000	-86.41116000	-22.23794000
32.89999822	0.00000000	-74.45251000	-40.45275000
33.09999821	0.00000000	-63.61343000	-56.67445000
33.29999820	0.00000000	-56.63139000	-67.44586000
33.49999819	0.00000000	-54.26304000	-69.77731000
33.69999818	0.00000000	-56.95743000	-63.68110000
33.89999816	0.00000000	-63.84719000	-50.91043000
34.09999815	0.00000000	-72.73621000	-34.31963000
34.29999814	0.00000000	-81.62524000	-17.31053000
34.49999813	0.00000000	-88.55191000	-3.79552100
34.69999812	0.00000000	-91.62770000	3.59251900
34.89999810	0.00000000	-90.17593000	3.59251900
35.09999809	0.00000000	-85.20546000	-3.70324800
35.29999808	0.00000000	-78.68478000	-16.43085000
35.49999807	0.00000000	-72.08414000	-31.44069000
35.69999806	0.00000000	-67.09522000	-45.38017000
35.89999805	0.00000000	-64.77608000	-55.00122000
36.09999803	0.00000000	-65.93873000	-58.53223000
36.29999802	0.00000000	-70.08488000	-55.05044000
36.49999801	0.00000000	-75.47981000	-45.88459000
36.69999800	0.00000000	-80.50565000	-33.53223000
36.89999799	0.00000000	-84.36269000	-21.25984000
37.09999797	0.00000000	-85.85753000	-11.97096000
37.29999796	0.00000000	-84.36269000	-8.15698700
37.49999795	0.00000000	-80.54871000	-10.39001000
37.69999794	0.00000000	-75.89813000	-18.05487000
37.89999793	0.00000000	-71.24138000	-28.37721000
38.09999791	0.00000000	-67.42741000	-38.31816000
38.29999790	0.00000000	-65.84645000	-44.86958000
38.49999789	0.00000000	-66.58464000	-46.08144000
38.69999788	0.00000000	-68.96530000	-42.63656000
38.89999787	0.00000000	-73.20374000	-35.29773000
39.09999786	0.00000000	-78.13115000	-25.76895000
39.29999784	0.00000000	-81.66830000	-17.35974000
39.49999783	0.00000000	-83.71062000	-12.80143000
39.69999782	0.00000000	-84.78715000	-13.55192000
39.89999781	0.00000000	-83.98745000	-19.67889000
40.09999780	0.00000000	-80.92397000	-28.83858000
40.29999778	0.00000000	-77.10384000	-38.45349000
40.49999777	0.00000000	-73.15452000	-45.74926000
40.69999776	0.00000000	-69.70964000	-48.81889000
40.89999775	0.00000000	-67.33513000	-46.86885000
41.09999774	0.00000000	-66.54158000	-39.94832000
41.29999772	0.00000000	-66.95989000	-30.00123000
41.49999771	0.00000000	-68.92224000	-20.01107000
41.69999770	0.00000000	-72.40403000	-12.70915000
41.89999769	0.00000000	-76.23032000	-10.01476000
42.09999768	0.00000000	-79.75516000	-12.66609000
42.29999767	0.00000000	-82.08661000	-19.54355000
42.49999765	0.00000000	-83.29231000	-28.42027000
42.69999764	0.00000000	-83.24926000	-37.25394000
42.89999763	0.00000000	-81.75443000	-43.79921000
43.09999762	0.00000000	-79.43528000	-46.17372000
43.29999761	0.00000000	-77.10384000	-44.68504000
43.49999759	0.00000000	-74.73548000	-40.03444000
43.69999758	0.00000000	-72.87155000	-33.15699000
43.89999757	0.00000000	-72.04109000	-26.27953000
44.09999756	0.00000000	-72.36097000	-21.59203000
44.29999755	0.00000000	-72.69316000	-19.54355000
44.49999753	0.00000000	-72.73621000	-19.54355000
44.69999752	0.00000000	-72.73621000	-21.49975000
44.89999751	0.00000000	-72.77928000	-25.35679000
45.09999750	0.00000000	-73.15452000	-29.90895000
45.29999749	0.00000000	-73.98499000	-33.80905000
45.49999748	0.00000000	-75.20300000	-36.13435000
45.69999746	0.00000000	-77.57135000	-36.96481000
45.89999745	0.00000000	-80.59792000	-36.17741000
46.09999744	0.00000000	-83.33538000	-34.27042000
46.29999743	0.00000000	-85.24852000	-31.53297000
46.49999742	0.00000000	-85.94365000	-28.46333000
46.69999740	0.00000000	-84.31963000	-25.81816000
46.89999739	0.00000000	-80.08734000	-24.61245000
47.09999738	0.00000000	-74.27411000	-24.98154000
47.29999737	0.00000000	-68.07948000	-26.10113000
47.49999736	0.00000000	-62.72760000	-28.09424000
47.69999734	0.00000000	-60.07627000	-30.37647000
47.89999733	0.00000000	-61.23892000	-32.73868000
48.09999732	0.00000000	-65.84645000	-34.60261000
48.29999731	0.00000000	-72.87155000	-35.38385000
48.49999730	0.00000000	-80.97318000	-34.60261000
48.69999729	0.00000000	-88.68725000	-32.69562000
48.89999727	0.00000000	-93.62696000	-29.95201000
49.09999726	0.00000000	-94.41436000	-26.88853000
49.29999725	0.00000000	-90.55118000	-24.19414000
49.49999724	0.00000000	-83.20619000	-22.65625000
49.69999723	0.00000000	-73.94193000	-22.65625000
49.89999721	0.00000000	-64.68381000	-24.23720000
50.09999720	0.00000000	-58.21235000	-27.30684000
50.29999719	0.00000000	-56.21924000	-31.15772000
50.49999718	0.00000000	-59.32578000	-34.64567000
50.69999717	0.00000000	-66.22169000	-37.34006000
50.89999715	0.00000000	-75.47981000	-38.45349000
51.09999714	0.00000000	-84.27657000	-37.29700000
51.29999713	0.00000000	-90.13287000	-34.22736000
51.49999712	0.00000000	-92.04601000	-29.95817000
51.69999711	0.00000000	-89.75762000	-25.39985000
51.89999710	0.00000000	-83.57529000	-21.91806000
52.09999708	0.00000000	-75.56593000	-20.74926000
52.29999707	0.00000000	-67.84571000	-21.49975000
52.49999706	0.00000000	-62.86294000	-24.19414000
52.69999705	0.00000000	-61.61417000	-28.00197000
52.89999704	0.00000000	-63.98253000	-31.48991000
53.09999702	0.00000000	-69.34055000	-34.22736000
53.29999701	0.00000000	-76.64246000	-35.75910000
53.49999700	0.00000000	-83.11392000	-35.75910000
53.69999699	0.00000000	-87.01402000	-34.18430000
53.89999698	0.00000000	-87.38926000	-31.15772000
54.09999696	0.00000000	-84.31963000	-27.76821000
54.29999695	0.00000000	-78.54945000	-25.81816000
54.49999694	0.00000000	-71.70891000	-25.39985000
54.69999693	0.00000000	-66.35703000	-26.14419000
54.89999692	0.00000000	-64.35162000	-28.09424000
55.09999691	0.00000000	-65.47121000	-30.32726000
55.29999689	0.00000000	-68.96530000	-32.22810000
55.49999688	0.00000000	-74.27411000	-32.56028000
55.69999687	0.00000000	-79.29380000	-31.11466000
55.89999686	0.00000000	-82.46185000	-28.79552000
56.09999685	0.00000000	-84.36269000	-26.51329000
56.29999683	0.00000000	-83.90133000	-24.61245000
56.49999682	0.00000000	-80.50565000	-24.28026000
56.69999681	0.00000000	-75.94118000	-25.81816000
56.89999680	0.00000000	-71.66584000	-28.88779000
57.09999679	0.00000000	-68.54699000	-32.73868000
57.29999677	0.00000000	-67.00910000	-36.17741000
57.49999676	0.00000000	-67.42741000	-38.45349000
57.69999675	0.00000000	-70.08488000	-38.41043000
57.89999674	0.00000000	-73.89886000	-35.71604000
58.09999673	0.00000000	-77.38681000	-31.06545000
58.29999672	0.00000000	-80.08734000	-25.30758000
58.49999670	0.00000000	-81.24999000	-19.96186000
58.69999669	0.00000000	-80.50565000	-16.89222000
58.89999668	0.00000000	-78.64173000	-16.89222000
59.09999667	0.00000000	-76.31644000	-20.01107000
59.29999666	0.00000000	-74.36023000	-25.81816000
59.49999664	0.00000000	-72.77928000	-33.07087000
59.69999663	0.00000000	-71.66584000	-39.61614000
59.89999662	0.00000000	-71.66584000	-43.47933000
60.09999661	0.00000000	-72.77928000	-44.21752000
60.29999660	0.00000000	-74.27411000	-41.10482000
60.49999658	0.00000000	-75.43060000	-34.60261000
60.69999657	0.00000000	-75.85506000	-26.88853000
60.89999656	0.00000000	-75.85506000	-19.58661000
61.09999655	0.00000000	-75.47981000	-14.57308000
61.29999654	0.00000000	-74.69241000	-13.41043000
61.49999653	0.00000000	-73.98499000	-15.73573000
61.69999651	0.00000000	-73.57283000	-21.59203000
61.89999650	0.00000000	-74.03419000	-30.00123000
62.09999649	0.00000000	-75.11072000	-38.45964000
62.29999648	0.00000000	-76.68553000	-44.63582000
62.49999647	0.00000000	-77.81126000	-47.33021000
62.69999645	0.00000000	-78.59251000	-45.74926000
62.89999644	0.00000000	-78.54945000	-40.03444000
63.09999643	0.00000000	-77.43602000	-31.99434000
63.29999642	0.00000000	-75.85506000	-24.28026000
63.49999641	0.00000000	-73.94193000	-18.38706000
63.69999639	0.00000000	-72.04109000	-14.89911000
63.89999638	0.00000000	-71.24754000	-14.15477000
64.09999637	0.00000000	-71.24754000	-16.89222000
64.29999636	0.00000000	-72.08414000	-22.61319000
64.49999635	0.00000000	-74.31717000	-29.53371000
64.69999634	0.00000000	-76.59325000	-35.71604000
64.89999632	0.00000000	-77.81126000	-40.03444000
65.09999631	0.00000000	-78.59251000	-41.99065000
65.29999630	0.00000000	-78.54945000	-41.61540000
65.49999629	0.00000000	-77.43602000	-38.87795000
65.69999628	0.00000000	-75.89813000	-34.27042000
65.89999626	0.00000000	-74.31717000	-28.88779000
66.09999625	0.00000000	-72.82849000	-24.23720000
66.29999624	0.00000000	-72.08414000	-21.08145000
66.49999623	0.00000000	-72.87155000	-19.50049000
66.69999622	0.00000000	-74.69241000	-19.50049000
66.89999620	0.00000000	-76.64246000	-20.98917000
67.09999619	0.00000000	-77.76205000	-23.30832000
67.29999618	0.00000000	-78.17421000	-25.72589000
67.49999617	0.00000000	-77.34374000	-28.83858000
67.69999616	0.00000000	-75.47981000	-32.32037000
67.89999615	0.00000000	-73.11147000	-35.06397000
68.09999613	0.00000000	-70.82307000	-37.38312000
68.29999612	0.00000000	-68.92224000	-38.50270000
68.49999611	0.00000000	-68.63927000	-37.75836000
68.69999610	0.00000000	-70.50320000	-35.80217000
68.89999609	0.00000000	-73.98499000	-32.64640000
69.09999607	0.00000000	-77.85432000	-28.37721000
69.29999606	0.00000000	-81.71136000	-23.77584000
69.49999605	0.00000000	-84.36269000	-19.91880000
69.69999604	0.00000000	-84.73794000	-18.01181000
69.89999603	0.00000000	-82.78174000	-18.38706000
70.09999601	0.00000000	-78.50639000	-21.08145000
70.29999600	0.00000000	-72.77928000	-25.35679000
70.49999599	0.00000000	-67.38435000	-30.37647000
70.69999598	0.00000000	-63.89025000	-35.38385000
70.89999597	0.00000000	-62.72760000	-38.82874000
71.09999596	0.00000000	-64.30856000	-40.03444000
71.29999594	0.00000000	-68.54699000	-38.87795000
71.49999593	0.00000000	-74.36023000	-35.80217000
71.69999592	0.00000000	-80.50565000	-31.53297000
71.89999591	0.00000000	-85.52534000	-26.93159000
72.09999590	0.00000000	-87.85679000	-23.07455000
72.29999588	0.00000000	-87.48154000	-21.12451000
72.49999587	0.00000000	-84.36269000	-21.08145000
72.69999586	0.00000000	-78.96776000	-22.61319000
72.89999585	0.00000000	-72.82233000	-25.30758000
73.09999584	0.00000000	-67.38435000	-28.37721000
73.29999582	0.00000000	-63.89025000	-31.06545000
73.49999581	0.00000000	-62.72760000	-32.60334000
73.69999580	0.00000000	-64.26550000	-32.64640000
73.89999579	0.00000000	-68.12868000	-31.53297000
74.09999578	0.00000000	-73.11147000	-30.04429000
74.29999577	0.00000000	-78.17421000	-28.88779000
74.49999575	0.00000000	-81.99433000	-28.55561000
74.69999574	0.00000000	-83.98745000	-29.25689000
74.89999573	0.00000000	-83.62450000	-30.78248000
75.09999572	0.00000000	-81.71136000	-31.90822000
75.29999571	0.00000000	-78.54945000	-32.68946000
75.49999569	0.00000000	-74.40945000	-32.60334000
75.69999568	0.00000000	-70.97072000	-31.06545000
75.89999567	0.00000000	-69.70964000	-28.32800000
76.09999566	0.00000000	-69.61736000	-24.93233000
76.29999565	0.00000000	-70.04182000	-21.87500000
76.49999563	0.00000000	-71.24754000	-20.79847000
76.69999562	0.00000000	-73.11147000	-21.91806000
76.89999561	0.00000000	-75.01230000	-25.39985000
77.09999560	0.00000000	-75.80585000	-30.00123000
77.29999559	0.00000000	-75.89813000	-34.69488000
77.49999558	0.00000000	-75.85506000	-38.87795000
77.69999556	0.00000000	-75.52288000	-41.14788000
77.89999555	0.00000000	-75.15379000	-40.40969000
78.09999554	0.00000000	-75.56593000	-37.34006000
78.29999553	0.00000000	-76.27337000	-32.64640000
78.49999552	0.00000000	-77.06077000	-26.88853000
78.69999550	0.00000000	-77.38681000	-21.49975000
78.89999549	0.00000000	-77.01156000	-18.01181000
79.09999548	0.00000000	-75.80585000	-16.84916000
79.29999547	0.00000000	-73.89886000	-18.43012000
79.49999546	0.00000000	-71.57356000	-22.61319000
79.69999544	0.00000000	-69.70964000	-28.00197000
79.89999543	0.00000000	-68.92224000	-33.02165000
80.09999542	0.00000000	-69.70964000	-36.96481000
80.29999541	0.00000000	-71.62278000	-39.24704000
80.49999540	0.00000000	-74.36023000	-39.65920000
80.69999539	0.00000000	-77.38681000	-37.71530000
80.89999537	0.00000000	-79.71210000	-34.31963000
81.09999536	0.00000000	-80.46259000	-30.37647000
81.29999535	0.00000000	-79.75516000	-26.51329000
81.49999534	0.00000000	-77.81126000	-23.03149000
81.69999533	0.00000000	-75.47981000	-21.08145000
81.89999531	0.00000000	-72.73621000	-20.62008000
82.09999530	0.00000000	-70.08488000	-21.03838000
82.29999529	0.00000000	-68.59006000	-22.61319000
82.49999528	0.00000000	-68.92224000	-25.30758000
82.69999527	0.00000000	-70.82307000	-28.42027000
82.89999525	0.00000000	-73.11147000	-31.53297000
83.09999524	0.00000000	-75.43060000	-34.27042000
83.29999523	0.00000000	-76.96850000	-36.17741000
83.49999522	0.00000000	-77.43602000	-36.96481000
83.69999521	0.00000000	-77.43602000	-36.17741000
83.89999520	0.00000000	-77.01156000	-34.27042000
84.09999518	0.00000000	-75.85506000	-31.48991000
84.29999517	0.00000000	-74.36023000	-28.00197000
84.49999516	0.00000000	-73.20374000	-24.15108000
84.69999515	0.00000000	-72.82849000	-21.08145000
84.89999514	0.00000000	-73.15452000	-19.54355000
85.09999512	0.00000000	-73.89886000	-19.91880000
85.29999511	0.00000000	-74.27411000	-22.23794000
85.49999510	0.00000000	-74.27411000	-25.72589000
85.69999509	0.00000000	-73.89886000	-30.00123000
85.89999508	0.00000000	-73.15452000	-34.22736000
86.09999506	0.00000000	-72.77928000	-37.29700000
86.29999505	0.00000000	-72.77928000	-38.45349000
86.49999504	0.00000000	-73.20374000	-37.29700000
86.69999503	0.00000000	-74.36023000	-34.22736000
86.89999502	0.00000000	-75.85506000	-29.95817000
87.09999501	0.00000000	-77.01156000	-25.35679000
87.29999499	0.00000000	-77.38681000	-21.49975000
87.49999498	0.00000000	-77.01156000	-19.59276000
87.69999497	0.00000000	-75.85506000	-19.96186000
87.89999496	0.00000000	-74.31717000	-22.65625000
88.09999495	0.00000000	-72.77928000	-26.83932000
88.29999493	0.00000000	-71.62278000	-31.11466000
88.49999492	0.00000000	-71.24754000	-34.64567000
88.69999491	0.00000000	-71.62278000	-37.29700000
88.89999490	0.00000000	-72.77928000	-37.99213000
89.09999489	0.00000000	-74.31717000	-35.71604000
89.29999487	0.00000000	-75.85506000	-31.57603000
89.49999486	0.00000000	-77.01156000	-27.30684000
89.69999485	0.00000000	-77.38681000	-23.81890000
89.89999484	0.00000000	-77.06077000	-21.49975000
90.09999483	0.00000000	-76.27337000	-21.16757000
90.29999482	0.00000000	-75.47981000	-23.07455000
90.49999480	0.00000000	-74.31717000	-26.93159000
90.69999479	0.00000000	-73.20374000	-31.48376000
90.89999478	0.00000000	-72.77928000	-35.34079000
91.09999477	0.00000000	-72.73621000	-37.24778000
91.29999476	0.00000000	-72.77928000	-36.92175000
91.49999474	0.00000000	-73.15452000	-34.60261000
91.69999473	0.00000000	-73.89886000	-31.11466000
91.89999472	0.00000000	-74.27411000	-26.83932000
92.09999471	0.00000000	-74.31717000	-22.69931000
92.29999470	0.00000000	-74.31717000	-20.42938000
92.49999468	0.00000000	-74.31717000	-21.16757000
92.69999467	0.00000000	-74.36023000	-24.19414000
92.89999466	0.00000000	-74.73548000	-28.46333000
93.09999465	0.00000000	-75.52288000	-33.02165000
93.29999464	0.00000000	-76.27337000	-36.50344000
93.49999463	0.00000000	-77.01156000	-37.62303000
93.69999461	0.00000000	-76.96850000	-36.50344000
93.89999460	0.00000000	-75.85506000	-33.06471000
94.09999459	0.00000000	-74.31717000	-28.83858000
94.29999458	0.00000000	-72.69316000	-24.98154000
94.49999457	0.00000000	-70.78001000	-21.91806000
94.69999455	0.00000000	-68.87917000	-21.16757000
94.89999454	0.00000000	-68.17175000	-22.65625000
95.09999453	0.00000000	-68.92224000	-25.77510000
95.29999452	0.00000000	-71.24754000	-29.95817000
95.49999451	0.00000000	-74.31717000	-33.76599000
95.69999449	0.00000000	-77.43602000	-35.71604000
95.89999448	0.00000000	-80.13041000	-35.75910000
96.09999447	0.00000000	-81.62524000	-34.18430000
96.29999446	0.00000000	-81.24999000	-31.11466000
96.49999445	0.00000000	-78.96776000	-27.30684000
96.69999444	0.00000000	-75.85506000	-24.23720000
96.89999442	0.00000000	-72.36097000	-22.69931000
97.09999441	0.00000000	-68.87303000	-23.03149000
97.29999440	0.00000000	-66.54158000	-24.93233000
97.49999439	0.00000000	-65.37893000	-27.21457000
97.69999438	0.00000000	-65.84645000	-29.58292000
97.89999436	0.00000000	-68.50394000	-31.48991000
98.09999435	0.00000000	-72.36097000	-32.64640000
98.29999434	0.00000000	-76.23032000	-32.64640000
98.49999433	0.00000000	-79.71210000	-31.53297000
98.69999432	0.00000000	-81.66830000	-30.00123000
98.89999430	0.00000000	-82.08661000	-28.46333000
99.09999429	0.00000000	-81.24999000	-27.30684000
99.29999428	0.00000000	-78.54945000	-26.93159000
99.49999427	0.00000000	-74.73548000	-27.25763000
99.69999426	0.00000000	-71.19833000	-27.95275000
99.89999425	0.00000000	-68.12868000	-27.95275000
100.09999423	0.00000000	-66.22169000	-27.25763000
100.29999422	0.00000000	-66.54158000	-26.88238000
100.49999421	0.00000000	-68.03641000	-26.83932000
100.69999420	0.00000000	-70.04182000	-26.88238000
100.89999419	0.00000000	-72.77928000	-27.30684000
101.09999417	0.00000000	-75.85506000	-28.46333000
101.29999416	0.00000000	-78.54945000	-30.00123000
101.49999415	0.00000000	-80.08734000	-31.53297000
101.69999414	0.00000000	-80.13041000	-32.68946000
101.89999413	0.00000000	-78.96776000	-33.02165000
102.09999411	0.00000000	-77.06077000	-32.27731000
102.29999410	0.00000000	-74.73548000	-30.32726000
102.49999409	0.00000000	-72.77928000	-28.00197000
102.69999408	0.00000000	-71.15526000	-25.30758000
102.89999407	0.00000000	-69.66658000	-23.07455000
103.09999406	0.00000000	-68.92224000	-22.65625000
103.29999404	0.00000000	-69.70964000	-23.77584000
103.49999403	0.00000000	-71.57356000	-25.72589000
103.69999402	0.00000000	-73.84965000	-28.46333000
103.89999401	0.00000000	-75.47981000	-31.53297000
104.09999400	0.00000000	-76.64862000	-34.22736000
104.29999398	0.00000000	-77.79896000	-35.71604000
104.49999397	0.00000000	-77.76205000	-35.34079000
104.69999396	0.00000000	-77.06077000	-33.06471000
104.89999395	0.00000000	-75.85506000	-30.00123000
105.09999394	0.00000000	-74.31717000	-26.93159000
105.29999392	0.00000000	-72.77928000	-24.61245000
105.49999391	0.00000000	-71.66584000	-23.81890000
105.69999390	0.00000000	-71.62278000	-24.15108000
105.89999389	0.00000000	-72.36097000	-25.35064000
106.09999388	0.00000000	-73.15452000	-27.30684000
106.29999387	0.00000000	-74.31717000	-29.95201000
106.49999385	0.00000000	-75.43060000	-32.22810000
106.69999384	0.00000000	-75.80585000	-33.02165000
106.89999383	0.00000000	-75.43060000	-32.68946000
107.09999382	0.00000000	-74.31717000	-31.53297000
107.29999381	0.00000000	-73.15452000	-29.95201000
107.49999379	0.00000000	-72.40403000	-28.04503000
107.69999378	0.00000000	-71.99188000	-26.19340000
107.89999377	0.00000000	-72.40403000	-25.77510000
108.09999376	0.00000000	-73.15452000	-26.51329000
108.29999375	0.00000000	-74.31717000	-27.67593000
108.49999374	0.00000000	-75.43060000	-29.58292000
108.69999372	0.00000000	-75.85506000	-31.06545000
108.89999371	0.00000000	-75.89813000	-31.48376000
109.09999370	0.00000000	-75.85506000	-31.11466000
109.29999369	0.00000000	-75.43060000	-30.00123000
109.49999368	0.00000000	-74.27411000	-28.79552000
109.69999366	0.00000000	-72.77928000	-27.62672000
109.89999365	0.00000000	-71.62278000	-26.10113000
110.09999364	0.00000000	-71.19833000	-25.39985000
110.29999363	0.00000000	-71.19833000	-25.72589000
110.49999362	0.00000000	-71.62278000	-26.88853000
110.69999360	0.00000000	-72.77928000	-28.37721000
110.89999359	0.00000000	-74.27411000	-29.58292000
111.09999358	0.00000000	-75.43060000	-30.37647000
111.29999357	0.00000000	-75.85506000	-31.15772000
111.49999356	0.00000000	-75.85506000	-31.48376000
111.69999355	0.00000000	-75.43060000	-31.11466000
111.89999353	0.00000000	-74.31717000	-30.00123000
112.09999352	0.00000000	-73.15452000	-28.83858000
112.29999351	0.00000000	-72.36097000	-28.04503000
112.49999350	0.00000000	-71.62278000	-27.25763000
112.69999349	0.00000000	-71.62278000	-26.88238000
112.89999347	0.00000000	-72.31791000	-26.83932000
113.09999346	0.00000000	-72.73621000	-26.88238000
113.29999345	0.00000000	-73.15452000	-27.25763000
113.49999344	0.00000000	-73.89886000	-28.00197000
113.69999343	0.00000000	-74.27411000	-28.42027000
113.89999341	0.00000000	-74.31717000	-28.79552000
114.09999340	0.00000000	-74.31717000	-29.20767000
114.29999339	0.00000000	-74.27411000	-29.21383000
114.49999338	0.00000000	-73.94193000	-29.62598000
114.69999337	0.00000000	-73.52977000	-29.95817000
114.89999336	0.00000000	-73.52361000	-30.00123000
115.09999334	0.00000000	-73.11147000	-30.00123000
115.29999333	0.00000000	-72.77928000	-29.95817000
115.49999332	0.00000000	-72.73621000	-29.58292000
115.69999331	0.00000000	-72.77928000	-28.79552000
115.89999330	0.00000000	-73.11147000	-28.04503000
116.09999328	0.00000000	-73.52361000	-27.25763000
116.29999327	0.00000000	-73.52977000	-26.88238000
116.49999326	0.00000000	-73.94193000	-26.83932000
116.69999325	0.00000000	-74.27411000	-26.88238000
116.89999324	0.00000000	-74.27411000	-27.25763000
117.09999322	0.00000000	-73.89886000	-28.04503000
117.29999321	0.00000000	-73.11147000	-28.79552000
117.49999320	0.00000000	-72.36097000	-29.58292000
117.69999319	0.00000000	-71.57356000	-29.95817000
117.89999318	0.00000000	-71.19833000	-30.00123000
118.09999317	0.00000000	-71.15526000	-29.95817000
118.29999315	0.00000000	-71.24754000	-29.58292000
118.49999314	0.00000000	-71.99188000	-28.83858000
118.69999313	0.00000000	-73.52361000	-28.42027000
118.89999312	0.00000000	-74.64935000	-28.00197000
119.09999311	0.00000000	-75.47981000	-27.25763000
119.29999309	0.00000000	-75.85506000	-26.88238000
119.49999308	0.00000000	-75.85506000	-26.83932000
119.69999307	0.00000000	-75.43060000	-26.83932000
119.89999306	0.00000000	-74.27411000	-26.83932000
120.09999305	0.00000000	-72.77928000	-26.88238000
120.29999303	0.00000000	-71.57356000	-27.25763000
120.49999302	0.00000000	-70.73695000	-28.04503000
120.69999301	0.00000000	-69.66658000	-28.79552000
120.89999300	0.00000000	-69.34055000	-29.58292000
121.09999299	0.00000000	-70.82307000	-29.95817000
121.29999298	0.00000000	-72.69316000	-30.00123000
121.49999296	0.00000000	-74.27411000	-30.00123000
121.69999295	0.00000000	-75.47981000	-29.95817000
121.89999294	0.00000000	-76.23032000	-29.58292000
122.09999293	0.00000000	-76.64246000	-28.83858000
122.29999292	0.00000000	-76.23032000	-28.42027000
122.49999290	0.00000000	-75.47981000	-28.00197000
122.69999289	0.00000000	-74.31717000	-27.25763000
122.89999288	0.00000000	-73.15452000	-26.93159000
123.09999287	0.00000000	-72.36097000	-27.25763000
123.29999286	0.00000000	-71.57356000	-28.00197000
123.49999284	0.00000000	-71.19833000	-28.37721000
123.69999283	0.00000000	-71.19833000	-28.46333000
123.89999282	0.00000000	-71.57356000	-28.83858000
124.09999281	0.00000000	-72.36097000	-29.58292000
124.29999280	0.00000000	-73.11147000	-29.95817000
124.49999279	0.00000000	-73.89886000	-30.00123000
124.69999277	0.00000000	-74.31717000	-29.95817000
124.89999276	0.00000000	-74.73548000	-29.58292000
125.09999275	0.00000000	-75.43060000	-28.83858000
125.29999274	0.00000000	-75.43060000	-28.42027000
125.49999273	0.00000000	-74.73548000	-28.04503000
125.69999271	0.00000000	-74.31717000	-27.63287000
125.89999270	0.00000000	-73.89886000	-27.66978000
126.09999269	0.00000000	-73.11147000	-27.63287000
126.29999268	0.00000000	-72.36097000	-28.04503000
126.49999267	0.00000000	-71.62278000	-28.42027000
126.69999265	0.00000000	-71.57356000	-28.79552000
126.89999264	0.00000000	-71.94266000	-29.16461000
127.09999263	0.00000000	-71.99188000	-28.79552000
127.29999262	0.00000000	-72.77928000	-28.46333000
127.49999261	0.00000000	-73.89886000	-28.42027000
127.69999260	0.00000000	-74.69241000	-28.42027000
127.89999258	0.00000000	-75.43060000	-28.42027000
128.09999257	0.00000000	-75.43060000	-28.42027000
128.29999256	0.00000000	-74.69241000	-28.42027000
128.49999255	0.00000000	-73.89886000	-28.42027000
128.69999254	0.00000000	-72.73621000	-28.42027000
128.89999252	0.00000000	-71.62278000	-28.42027000
129.09999251	0.00000000	-71.19833000	-28.42027000
129.29999250	0.00000000	-71.19833000	-28.42027000
129.49999249	0.00000000	-71.62278000	-28.42027000
129.69999248	0.00000000	-72.73621000	-28.42027000
129.89999246	0.00000000	-73.84965000	-28.42027000
130.09999245	0.00000000	-74.27411000	-28.42027000
130.29999244	0.00000000	-74.31717000	-28.42027000
130.49999243	0.00000000	-74.27411000	-28.42027000
130.69999242	0.00000000	-73.89886000	-28.37721000
130.89999241	0.00000000	-73.11147000	-28.04503000
131.09999239	0.00000000	-72.36097000	-27.67593000
131.29999238	0.00000000	-71.57356000	-28.04503000
131.49999237	0.00000000	-71.19833000	-28.37721000
131.69999236	0.00000000	-71.19833000	-28.46333000
131.89999235	0.00000000	-71.57356000	-28.83858000
132.09999233	0.00000000	-72.36097000	-29.58292000
132.29999232	0.00000000	-73.11147000	-29.95817000
132.49999231	0.00000000	-73.89886000	-29.95817000
132.69999230	0.00000000	-74.27411000	-29.58292000
132.89999229	0.00000000	-74.27411000	-28.79552000
133.09999227	0.00000000	-73.89886000	-28.04503000
133.29999226	0.00000000	-73.15452000	-27.25763000
133.49999225	0.00000000	-72.77928000	-26.88238000
133.69999224	0.00000000	-72.73621000	-26.83932000
133.89999223	0.00000000	-72.73621000	-26.88238000
134.09999222	0.00000000	-72.73621000	-27.25763000
134.29999220	0.00000000	-72.73621000	-28.04503000
134.49999219	0.00000000	-72.73621000	-28.79552000
134.69999218	0.00000000	-72.73621000	-29.58292000
134.89999217	0.00000000	-72.73621000	-29.95817000
135.09999216	0.00000000	-72.73621000	-30.00123000
135.29999214	0.00000000	-72.73621000	-30.00123000
135.49999213	0.00000000	-72.73621000	-29.95817000
135.69999212	0.00000000	-72.73621000	-29.53371000
135.89999211	0.00000000	-72.77928000	-28.42027000
136.09999210	0.00000000	-73.15452000	-27.30684000
136.29999208	0.00000000	-73.89886000	-26.88238000
136.49999207	0.00000000	-74.27411000	-26.88238000
136.69999206	0.00000000	-74.22490000	-27.25763000
136.89999205	0.00000000	-73.56668000	-28.00197000
137.09999204	0.00000000	-72.79158000	-28.37721000
137.29999203	0.00000000	-73.10531000	-28.46333000
137.49999201	0.00000000	-72.64394000	-28.83858000
137.69999200	0.00000000	-71.62278000	-29.58292000
137.89999199	0.00000000	-71.19833000	-29.95817000
138.09999198	0.00000000	-71.19833000	-30.00123000
138.29999197	0.00000000	-71.57356000	-30.00123000
138.49999195	0.00000000	-72.36097000	-29.95817000
138.69999194	0.00000000	-73.11147000	-29.58292000
138.89999193	0.00000000	-73.89886000	-28.83858000
139.09999192	0.00000000	-74.27411000	-28.42027000
139.29999191	0.00000000	-74.31717000	-28.00197000
139.49999189	0.00000000	-74.27411000	-27.25763000
139.69999188	0.00000000	-73.89886000	-26.88238000
139.89999187	0.00000000	-73.11147000	-26.88238000
140.09999186	0.00000000	-72.36097000	-27.25763000
140.29999185	0.00000000	-71.62278000	-28.04503000
140.49999184	0.00000000	-71.62278000	-28.79552000
140.69999182	0.00000000	-72.31791000	-29.58292000
140.89999181	0.00000000	-72.69316000	-29.95817000
141.09999180	0.00000000	-72.73621000	-30.00123000
141.29999179	0.00000000	-72.73621000	-29.95817000
141.49999178	0.00000000	-72.73621000	-29.58292000
141.69999176	0.00000000	-72.73621000	-28.79552000
141.89999175	0.00000000	-72.73621000	-28.04503000
142.09999174	0.00000000	-72.73621000	-27.21457000
142.29999173	0.00000000	-72.73621000	-26.51329000
142.49999172	0.00000000	-72.73621000	-26.10113000
142.69999170	0.00000000	-72.73621000	-26.51329000
142.89999169	0.00000000	-72.73621000	-27.21457000
143.09999168	0.00000000	-72.73621000	-28.04503000
143.29999167	0.00000000	-72.73621000	-28.79552000
143.49999166	0.00000000	-72.73621000	-29.58292000
143.69999165	0.00000000	-72.73621000	-29.95817000
143.89999163	0.00000000	-72.73621000	-29.95817000
144.09999162	0.00000000	-72.73621000	-29.58292000
144.29999161	0.00000000	-72.69316000	-28.79552000
144.49999160	0.00000000	-72.36097000	-28.04503000
144.69999159	0.00000000	-71.99188000	-27.25763000
144.89999157	0.00000000	-72.36097000	-26.88238000
145.09999156	0.00000000	-72.69316000	-26.83932000
145.29999155	0.00000000	-72.73621000	-26.88238000
145.49999154	0.00000000	-72.73621000	-27.25763000
145.69999153	0.00000000	-72.73621000	-28.00197000
145.89999151	0.00000000	-72.73621000	-28.37721000
146.09999150	0.00000000	-72.73621000	-28.42027000
146.29999149	0.00000000	-72.73621000	-28.42027000
146.49999148	0.00000000	-72.73621000	-28.42027000
146.69999147	0.00000000	-72.69316000	-28.42027000
146.89999146	0.00000000	-72.31791000	-28.42027000
147.09999144	0.00000000	-71.62278000	-28.37721000
147.29999143	0.00000000	-71.62278000	-28.00197000
147.49999142	0.00000000	-72.31791000	-27.25763000
147.69999141	0.00000000	-72.73621000	-26.88238000
147.89999140	0.00000000	-73.11147000	-26.83932000
148.09999138	0.00000000	-73.48056000	-26.88238000
148.29999137	0.00000000	-73.11147000	-27.25763000
148.49999136	0.00000000	-72.77928000	-28.00197000
148.69999135	0.00000000	-72.73621000	-28.37721000
148.89999134	0.00000000	-72.73621000	-28.42027000
149.09999132	0.00000000	-72.69316000	-28.42027000
149.29999131	0.00000000	-72.31791000	-28.42027000
149.49999130	0.00000000	-71.57356000	-28.42027000
149.69999129	0.00000000	-71.24754000	-28.42027000
149.89999128	0.00000000	-71.57356000	-28.42027000
150.09999127	0.00000000	-72.31791000	-28.42027000
150.29999125	0.00000000	-72.69316000	-28.37721000
150.49999124	0.00000000	-72.73621000	-28.00197000
150.69999123	0.00000000	-72.73621000	-27.30684000
150.89999122	0.00000000	-72.73621000	-27.30684000
151.09999121	0.00000000	-72.73621000	-28.00197000
151.29999119	0.00000000	-72.73621000	-28.37721000
151.49999118	0.00000000	-72.73621000	-28.42027000
151.69999117	0.00000000	-72.73621000	-28.42027000
151.89999116	0.00000000	-72.73621000	-28.42027000
152.09999115	0.00000000	-72.73621000	-28.42027000
152.29999113	0.00000000	-72.69316000	-28.42027000
152.49999112	0.00000000	-72.31791000	-28.42027000
152.69999111	0.00000000	-71.62278000	-28.42027000
152.89999110	0.00000000	-71.62278000	-28.42027000
153.09999109	0.00000000	-72.31791000	-28.37721000
153.29999108	0.00000000	-72.69316000	-28.04503000
153.49999106	0.00000000	-72.77928000	-27.67593000
153.69999105	0.00000000	-73.11147000	-28.04503000
153.89999104	0.00000000	-73.52361000	-28.37721000
154.09999103	0.00000000	-73.48671000	-28.42027000
154.29999102	0.00000000	-73.52361000	-28.42027000
154.49999100	0.00000000	-73.11147000	-28.42027000
154.69999099	0.00000000	-72.77928000	-28.42027000
154.89999098	0.00000000	-72.69316000	-28.42027000
155.09999097	0.00000000	-72.31791000	-28.42027000
155.29999096	0.00000000	-71.57356000	-28.42027000
155.49999094	0.00000000	-71.19833000	-28.42027000
155.69999093	0.00000000	-71.15526000	-28.42027000
155.89999092	0.00000000	-71.15526000	-28.42027000
156.09999091	0.00000000	-71.15526000	-28.42027000
156.29999090	0.00000000	-71.19833000	-28.42027000
156.49999089	0.00000000	-71.57356000	-28.37721000
156.69999087	0.00000000	-72.31791000	-28.00197000
156.89999086	0.00000000	-72.73621000	-27.25763000
157.09999085	0.00000000	-73.11147000	-26.88238000
157.29999084	0.00000000	-73.48056000	-26.83932000
157.49999083	0.00000000	-73.06840000	-26.88238000
157.69999081	0.00000000	-72.40403000	-27.25763000
157.89999080	0.00000000	-71.99188000	-28.00197000
158.09999079	0.00000000	-72.31791000	-28.37721000
158.29999078	0.00000000	-72.26870000	-28.42027000
158.49999077	0.00000000	-71.57356000	-28.42027000
158.69999075	0.00000000	-71.19833000	-28.42027000
158.89999074	0.00000000	-71.15526000	-28.42027000
159.09999073	0.00000000	-71.15526000	-28.37721000
159.29999072	0.00000000	-71.19833000	-28.00197000
159.49999071	0.00000000	-71.57356000	-27.25763000
159.69999070	0.00000000	-72.31791000	-26.88238000
159.89999068	0.00000000	-72.69316000	-26.83932000
160.09999067	0.00000000	-72.73621000	-26.83932000
160.29999066	0.00000000	-72.73621000	-26.83932000
160.49999065	0.00000000	-72.73621000	-26.83932000
160.69999064	0.00000000	-72.73621000	-26.88238000
160.89999062	0.00000000	-72.69316000	-27.25763000
161.09999061	0.00000000	-72.31791000	-28.00197000
161.29999060	0.00000000	-71.57356000	-28.37721000
161.49999059	0.00000000	-71.19833000	-28.42027000
161.69999058	0.00000000	-71.15526000	-28.42027000
161.89999056	0.00000000	-71.15526000	-28.42027000
162.09999055	0.00000000	-71.15526000	-28.42027000
162.29999054	0.00000000	-71.15526000	-28.37721000
162.49999053	0.00000000	-71.19833000	-28.04503000
162.69999052	0.00000000	-71.57356000	-27.63287000
162.89999051	0.00000000	-72.31791000	-27.66978000
163.09999049	0.00000000	-72.69316000	-27.63287000
163.29999048	0.00000000	-72.73621000	-28.04503000
163.49999047	0.00000000	-72.73621000	-28.37721000
163.69999046	0.00000000	-72.73621000	-28.42027000
163.89999045	0.00000000	-72.73621000	-28.42027000
164.09999043	0.00000000	-72.73621000	-28.42027000
164.29999042	0.00000000	-72.73621000	-28.42027000
164.49999041	0.00000000	-72.69316000	-28.42027000
164.69999040	0.00000000	-72.31791000	-28.42027000
164.89999039	0.00000000	-71.57356000	-28.42027000
165.09999037	0.00000000	-71.24754000	-28.42027000
165.29999036	0.00000000	-71.53051000	-28.42027000
165.49999035	0.00000000	-71.94266000	-28.42027000
165.69999034	0.00000000	-71.94881000	-28.42027000
165.89999033	0.00000000	-72.36097000	-28.37721000
166.09999032	0.00000000	-72.69316000	-28.04503000
166.29999030	0.00000000	-72.73621000	-27.63287000
166.49999029	0.00000000	-72.73621000	-27.66978000
166.69999028	0.00000000	-72.73621000	-27.63287000
166.89999027	0.00000000	-72.73621000	-28.04503000
167.09999026	0.00000000	-72.69316000	-28.37721000
167.29999024	0.00000000	-72.31791000	-28.42027000
167.49999023	0.00000000	-71.57356000	-28.37721000
167.69999022	0.00000000	-71.19833000	-28.04503000
167.89999021	0.00000000	-71.11221000	-27.63287000
168.09999020	0.00000000	-70.78001000	-27.66978000
168.29999018	0.00000000	-70.41092000	-27.63287000
168.49999017	0.00000000	-70.78001000	-28.04503000
168.69999016	0.00000000	-71.11221000	-28.37721000
168.89999015	0.00000000	-71.19833000	-28.42027000
169.09999014	0.00000000	-71.53051000	-28.42027000
169.29999013	0.00000000	-71.94266000	-28.42027000
169.49999011	0.00000000	-71.94881000	-28.42027000
169.69999010	0.00000000	-72.36097000	-28.42027000
169.89999009	0.00000000	-72.69316000	-28.42027000
170.09999008	0.00000000	-72.73621000	-28.42027000
170.29999007	0.00000000	-72.73621000	-28.42027000
170.49999005	0.00000000	-72.73621000	-28.42027000
170.69999004	0.00000000	-72.69316000	-28.42027000
170.89999003	0.00000000	-72.31791000	-28.42027000
171.09999002	0.00000000	-71.57356000	-28.42027000
171.29999001	0.00000000	-71.19833000	-28.42027000
171.49998999	0.00000000	-71.19833000	-28.42027000
171.69998998	0.00000000	-71.57356000	-28.42027000
171.89998997	0.00000000	-72.26870000	-28.42027000
172.09998996	0.00000000	-72.31791000	-28.42027000
172.29998995	0.00000000	-71.99188000	-28.42027000
172.49998994	0.00000000	-72.36097000	-28.42027000
172.69998992	0.00000000	-72.69316000	-28.42027000
172.89998991	0.00000000	-72.69316000	-28.37721000
173.09998990	0.00000000	-72.31791000	-28.04503000
173.29998989	0.00000000	-71.57356000	-27.67593000
173.49998988	0.00000000	-71.19833000	-28.04503000
173.69998986	0.00000000	-71.15526000	-28.37721000
173.89998985	0.00000000	-71.15526000	-28.42027000
174.09998984	0.00000000	-71.15526000	-28.42027000
174.29998983	0.00000000	-71.15526000	-28.42027000
174.49998982	0.00000000	-71.15526000	-28.42027000
174.69998980	0.00000000	-71.15526000	-28.42027000
174.89998979	0.00000000	-71.15526000	-28.42027000
175.09998978	0.00000000	-71.15526000	-28.37721000
175.29998977	0.00000000	-71.15526000	-28.04503000
175.49998976	0.00000000	-71.15526000	-27.63287000
175.69998975	0.00000000	-71.15526000	-27.62672000
175.89998973	0.00000000	-71.15526000	-27.25763000
176.09998972	0.00000000	-71.15526000	-27.25763000
176.29998971	0.00000000	-71.15526000	-27.62672000
176.49998970	0.00000000	-71.15526000	-27.63287000
176.69998969	0.00000000	-71.15526000	-28.00197000
176.89998967	0.00000000	-71.15526000	-28.00197000
177.09998966	0.00000000	-71.15526000	-27.67593000
177.29998965	0.00000000	-71.15526000	-28.04503000
177.49998964	0.00000000	-71.15526000	-28.32800000
177.69998963	0.00000000	-71.15526000	-28.04503000
177.89998961	0.00000000	-71.15526000	-27.67593000
178.09998960	0.00000000	-71.19833000	-28.00197000
178.29998959	0.00000000	-71.53051000	-27.95275000
178.49998958	0.00000000	-71.89960000	-27.25763000
178.69998957	0.00000000	-71.53051000	-26.88238000
178.89998956	0.00000000	-71.19833000	-26.83932000
179.09998954	0.00000000	-71.15526000	-26.83932000
179.29998953	0.00000000	-71.15526000	-26.88238000
179.49998952	0.00000000	-71.15526000	-27.21457000
179.69998951	0.00000000	-71.15526000	-27.62672000
179.89998950	0.00000000	-71.15526000	-27.63287000
180.09998948	0.00000000	-71.15526000	-28.04503000
180.29998947	0.00000000	-71.15526000	-28.37721000
180.49998946	0.00000000	-71.15526000	-28.42027000
180.69998945	0.00000000	-71.19833000	-28.42027000
180.89998944	0.00000000	-71.53051000	-28.37721000
181.09998942	0.00000000	-71.94266000	-28.00197000
181.29998941	0.00000000	-71.90575000	-27.25763000
181.49998940	0.00000000	-71.94266000	-26.88238000
181.69998939	0.00000000	-71.53051000	-26.83932000
181.89998938	0.00000000	-71.19833000	-26.83932000
182.09998937	0.00000000	-71.15526000	-26.88238000
182.29998935	0.00000000	-71.15526000	-27.25763000
182.49998934	0.00000000	-71.15526000	-28.00197000
182.69998933	0.00000000	-71.15526000	-28.37721000
182.89998932	0.00000000	-71.15526000	-28.42027000
183.09998931	0.00000000	-71.15526000	-28.42027000
183.29998929	0.00000000	-71.15526000	-28.42027000
183.49998928	0.00000000	-71.15526000	-28.42027000
183.69998927	0.00000000	-71.15526000	-28.42027000
183.89998926	0.00000000	-71.15526000	-28.42027000
184.09998925	0.00000000	-71.15526000	-28.42027000
184.29998923	0.00000000	-71.15526000	-28.37721000
184.49998922	0.00000000	-71.15526000	-28.00197000
184.69998921	0.00000000	-71.15526000	-27.25763000
184.89998920	0.00000000	-71.19833000	-26.88238000
185.09998919	0.00000000	-71.53051000	-26.88238000
185.29998918	0.00000000	-71.85040000	-27.21457000
185.49998916	0.00000000	-71.15526000	-27.62672000
185.69998915	0.00000000	-70.46014000	-27.63287000
185.89998914	0.00000000	-70.78001000	-28.04503000
186.09998913	0.00000000	-71.11221000	-28.37721000
186.29998912	0.00000000	-71.15526000	-28.42027000
186.49998910	0.00000000	-71.15526000	-28.42027000
186.69998909	0.00000000	-71.15526000	-28.42027000
186.89998908	0.00000000	-71.15526000	-28.37721000
187.09998907	0.00000000	-71.19833000	-28.00197000
187.29998906	0.00000000	-71.53051000	-27.25763000
187.49998904	0.00000000	-71.89960000	-26.88238000
187.69998903	0.00000000	-71.53051000	-26.83932000
187.89998902	0.00000000	-71.19833000	-26.83932000
188.09998901	0.00000000	-71.15526000	-26.83932000
188.29998900	0.00000000	-71.15526000	-26.88238000
188.49998899	0.00000000	-71.15526000	-27.25763000
188.69998897	0.00000000	-71.15526000	-28.00197000
188.89998896	0.00000000	-71.15526000	-28.37721000
189.09998895	0.00000000	-71.15526000	-28.42027000
189.29998894	0.00000000	-71.15526000	-28.42027000
189.49998893	0.00000000	-71.15526000	-28.42027000
189.69998891	0.00000000	-71.15526000	-28.42027000
189.89998890	0.00000000	-71.15526000	-28.37721000
190.09998889	0.00000000	-71.15526000	-28.00197000
190.29998888	0.00000000	-71.15526000	-27.25763000
190.49998887	0.00000000	-71.15526000	-26.88238000
190.69998885	0.00000000	-71.15526000	-26.83932000
190.89998884	0.00000000	-71.15526000	-26.83932000
191.09998883	0.00000000	-71.11221000	-26.83932000
191.29998882	0.00000000	-70.73695000	-26.83932000
191.49998881	0.00000000	-70.04182000	-26.83932000
191.69998880	0.00000000	-70.04182000	-26.83932000
191.89998878	0.00000000	-70.73695000	-26.88238000
192.09998877	0.00000000	-71.11221000	-27.25763000
192.29998876	0.00000000	-71.15526000	-28.00197000
192.49998875	0.00000000	-71.15526000	-28.37721000
192.69998874	0.00000000	-71.15526000	-28.37721000
192.89998872	0.00000000	-71.15526000	-28.00197000
193.09998871	0.00000000	-71.15526000	-27.25763000
193.29998870	0.00000000	-71.15526000	-26.88238000
193.49998869	0.00000000	-71.15526000	-26.83932000
193.69998868	0.00000000	-71.15526000	-26.83932000
193.89998866	0.00000000	-71.15526000	-26.83932000
194.09998865	0.00000000	-71.15526000	-26.83932000
194.29998864	0.00000000	-71.15526000	-26.83932000
194.49998863	0.00000000	-71.15526000	-26.83932000
194.69998862	0.00000000	-71.15526000	-26.83932000
194.89998861	0.00000000	-71.15526000	-26.88238000
195.09998859	0.00000000	-71.15526000	-27.25763000
195.29998858	0.00000000	-71.15526000	-28.00197000
195.49998857	0.00000000	-71.15526000	-28.37721000
195.69998856	0.00000000	-71.15526000	-28.42027000
195.89998855	0.00000000	-71.15526000	-28.42027000
196.09998853	0.00000000	-71.15526000	-28.42027000
