Time	Channel A	Channel B	Channel C
(us)	(V)	(mV)	(mV)

-4.59999956	0.00000000	14.22859000	9.47342500
-4.39999957	0.00000000	14.22859000	9.47342500
-4.19999958	0.00000000	14.22859000	9.47342500
-3.99999959	0.00000000	14.22859000	9.47342500
-3.79999960	0.00000000	14.22859000	9.47342500
-3.59999962	0.00000000	14.22859000	9.47342500
-3.39999963	0.00000000	14.22859000	9.47342500
-3.19999964	0.00000000	14.22859000	9.43036400
-2.99999965	0.00000000	14.22859000	9.09817800
-2.79999966	0.00000000	14.22859000	8.72908400
-2.59999968	0.00000000	14.22859000	9.05511800
-2.39999969	0.00000000	14.22859000	9.05511800
-2.19999970	0.00000000	14.22859000	8.72908400
-1.99999971	0.00000000	14.22859000	9.09817800
-1.79999972	0.00000000	14.22859000	9.43036400
-1.59999973	0.00000000	14.22859000	9.47342500
-1.39999975	0.00000000	14.22859000	9.47342500
-1.19999976	0.00000000	14.22859000	9.47342500
-0.99999977	0.00000000	14.22859000	9.47342500
-0.79999978	0.00000000	14.22859000	9.47342500
-0.59999979	0.00000000	14.22859000	9.47342500
-0.39999981	0.15871060	14.22859000	9.47342500
-0.19999982	0.47736220	14.22859000	9.47342500
0.00000017	0.79601380	14.22859000	9.43036400
0.20000016	0.95533960	14.22859000	9.09817800
0.40000015	0.95533960	14.22859000	8.72908400
0.60000013	0.63668800	14.22859000	9.09817800
0.80000012	0.00000000	14.22859000	9.43036400
1.00000011	-0.95533960	14.22859000	9.47342500
1.20000010	-1.91129400	14.22859000	9.47342500
1.40000009	-2.70792300	14.22859000	9.47342500
1.60000008	-2.70792300	14.22859000	9.47342500
1.80000006	-2.07062000	14.22859000	9.47342500
2.00000005	-0.47736220	14.22859000	9.47342500
2.20000004	1.43331700	14.22859000	9.47342500
2.40000003	3.50393700	14.22859000	9.47342500
2.60000002	4.93786900	14.18553000	9.43036400
2.80000000	5.25652100	13.85334000	9.05511800
2.99999999	4.14124000	13.48425000	8.31077700
3.19999998	1.59264300	13.85334000	7.93553100
3.39999997	-1.59264300	14.18553000	7.93553100
3.59999996	-4.93786900	14.22859000	8.31077700
3.79999994	-7.32714100	14.22859000	9.05511800
3.99999993	-7.96444400	14.22859000	9.43036400
4.19999992	-6.53112700	14.22859000	9.47342500
4.39999991	-3.34522600	14.22859000	9.47342500
4.59999990	0.95533960	14.22859000	9.47342500
4.79999989	5.25652100	14.22859000	9.47342500
4.99999987	8.28309500	14.22859000	9.47342500
5.19999986	9.39837600	14.22859000	9.43036400
5.39999985	8.12377000	14.22859000	9.05511800
5.59999984	4.77854300	14.22859000	8.31077700
5.79999983	0.15871060	14.22859000	7.93553100
5.99999981	-4.45989200	14.22859000	7.93553100
6.19999980	-7.96444400	14.22859000	8.31077700
6.39999979	-9.55770200	14.22859000	9.05511800
6.59999978	-8.60174700	14.22859000	9.43036400
6.79999977	-5.57517200	14.22859000	9.47342500
6.99999975	-1.43331700	14.22859000	9.47342500
7.19999974	2.86724900	14.22859000	9.47342500
7.39999973	6.21247500	14.22859000	9.47342500
7.59999972	7.64579200	14.22859000	9.47342500
7.79999971	7.16781500	14.22859000	9.43036400
7.99999970	5.09719500	14.22859000	9.09817800
8.19999968	1.91129400	14.22859000	8.72908400
8.39999967	-1.43331700	14.22859000	9.09817800
8.59999966	-3.82258900	14.22859000	9.43036400
8.79999965	-5.09719500	14.22859000	9.47342500
8.99999964	-4.93786900	14.22859000	9.47342500
9.19999962	-3.66326300	14.22859000	9.47342500
9.39999961	-1.75196900	14.22859000	9.47342500
9.59999960	0.15871060	14.22859000	9.47342500
9.79999959	1.75196900	14.22859000	9.47342500
9.99999958	2.38927200	14.22859000	9.47342500
10.19999956	2.38927200	14.22859000	9.47342500
10.39999955	1.91129400	14.22859000	9.47342500
10.59999954	0.95533960	14.22859000	9.47342500
10.79999953	0.15871060	14.22859000	9.47342500
10.99999952	-0.47736220	14.22859000	9.47342500
11.19999951	-0.95533960	14.22859000	9.47342500
11.39999949	-0.95533960	14.22859000	9.47342500
11.59999948	-0.95533960	14.22859000	9.47342500
11.79999947	-0.63668800	14.22859000	9.47342500
11.99999946	-0.31803640	14.22859000	9.47342500
12.19999945	-0.15871060	14.22859000	9.47342500
12.39999943	-0.15871060	14.22859000	9.47342500
12.59999942	0.00000000	14.22859000	9.47342500
12.79999941	0.00000000	14.22859000	9.47342500
12.99999940	0.00000000	14.22859000	9.47342500
13.19999939	0.00000000	14.22859000	9.47342500
13.39999937	0.00000000	14.22859000	9.47342500
13.59999936	0.00000000	14.22859000	9.47342500
13.79999935	0.00000000	14.22859000	9.47342500
13.99999934	-0.15871060	14.22859000	9.47342500
14.19999933	-0.15871060	14.22859000	9.47342500
14.39999932	-0.15871060	14.22859000	9.47342500
14.59999930	-0.15871060	14.22859000	9.47342500
14.79999929	0.00000000	14.22859000	9.47342500
14.99999928	0.00000000	14.22859000	9.47342500
15.19999927	0.00000000	14.22859000	9.47342500
15.39999926	0.00000000	14.22859000	9.47342500
15.59999924	0.00000000	14.22859000	9.47342500
15.79999923	0.00000000	14.18553000	9.47342500
15.99999922	0.00000000	13.85334000	9.47342500
16.19999921	0.00000000	13.48425000	9.47342500
16.39999920	-0.15871060	13.85334000	9.47342500
16.59999919	-0.15871060	14.18553000	9.47342500
16.79999917	0.00000000	14.27165000	9.47342500
16.99999916	0.00000000	14.64690000	9.47342500
17.19999915	0.00000000	15.39124000	9.47342500
17.39999914	0.00000000	15.76649000	9.47342500
17.59999913	0.00000000	15.80955000	9.47342500
17.79999911	0.00000000	15.76649000	9.47342500
17.99999910	0.00000000	15.34203000	9.47342500
18.19999909	0.00000000	14.18553000	9.47342500
18.39999908	0.00000000	12.64764000	9.47342500
18.59999907	0.00000000	11.06668000	9.47342500
18.79999905	0.00000000	9.57800100	9.47342500
18.99999904	0.00000000	8.83366100	9.47342500
19.19999903	0.00000000	9.57800100	9.47342500
19.39999902	0.00000000	11.15896000	9.47342500
19.59999901	0.00000000	13.57652000	9.43036400
19.79999900	0.00000000	17.43356000	9.05511800
19.99999898	0.00000000	21.62278000	8.35998900
20.19999897	0.00000000	24.69857000	8.35998900
20.39999896	0.00000000	25.85507000	9.05511800
20.59999895	0.00000000	24.60630000	9.43036400
20.79999894	0.00000000	20.69390000	9.47342500
20.99999892	0.00000000	14.09326000	9.47342500
21.19999891	0.00000000	6.41609200	9.47342500
21.39999890	0.00000000	-0.55979330	9.47342500
21.59999889	0.00000000	-5.12426100	9.47342500
21.79999888	0.00000000	-5.86860200	9.47342500
21.99999886	0.00000000	-1.91929100	9.43036400
22.19999885	0.00000000	6.27460600	9.09817800
22.39999884	0.00000000	17.90108000	8.72908400
22.59999883	0.00000000	30.60408000	9.09817800
22.79999882	0.00000000	40.98179000	9.43036400
22.99999881	0.00000000	46.33366000	9.47342500
23.19999879	0.00000000	44.66043000	9.51648500
23.39999878	0.00000000	35.35310000	9.89173200
23.59999877	0.00000000	19.86343000	10.62992000
23.79999876	0.00000000	1.75935000	11.00517000
23.99999875	0.00000000	-14.84375000	11.04823000
24.19999873	0.00000000	-25.59670000	11.00517000
24.39999872	0.00000000	-27.87278000	10.58686000
24.59999871	0.00000000	-20.42938000	9.42421200
24.79999870	0.00000000	-4.19537400	7.89247000
24.99999869	0.00000000	17.43971000	6.31151500
25.19999867	0.00000000	39.44390000	4.77977300
25.39999866	0.00000000	56.80363000	3.66633800
25.59999865	0.00000000	65.22514000	3.70939900
25.79999864	0.00000000	62.06324000	5.24729300
25.99999863	0.00000000	47.40403000	7.98474400
26.19999862	0.00000000	24.65551000	11.51575000
26.39999860	0.00000000	-0.47367120	15.74188000
26.59999859	0.00000000	-22.52707000	19.54970000
26.79999858	0.00000000	-36.76181000	21.41363000
26.99999857	0.00000000	-39.46235000	20.62008000
27.19999856	0.00000000	-29.82899000	16.71998000
27.39999854	0.00000000	-10.51919000	10.53765000
27.59999853	0.00000000	14.22859000	3.11269700
27.79999852	0.00000000	38.93332000	-4.55831700
27.99999851	0.00000000	57.82480000	-10.64222000
28.19999850	0.00000000	66.38779000	-12.50000000
28.39999848	0.00000000	62.94291000	-9.43036400
28.59999847	0.00000000	49.07111000	-2.00541300
28.79999846	0.00000000	27.81742000	8.86441900
28.99999845	0.00000000	4.31840500	21.54897000
29.19999844	0.00000000	-15.87106000	32.70177000
29.39999843	0.00000000	-28.66634000	39.25935000
29.59999841	0.00000000	-32.15428000	39.95448000
29.79999840	0.00000000	-25.26452000	33.67987000
29.99999839	0.00000000	-10.24237000	20.95226000
30.19999838	0.00000000	8.69832600	4.77977300
30.39999837	0.00000000	28.04503000	-11.10359000
30.59999835	0.00000000	43.12254000	-23.41904000
30.79999834	0.00000000	50.98425000	-29.55216000
30.99999833	0.00000000	50.98425000	-27.18381000
31.19999832	0.00000000	43.25787000	-16.77534000
31.39999831	0.00000000	29.39837000	-0.51673230
31.59999829	0.00000000	13.20128000	18.39321000
31.79999828	0.00000000	-1.54404500	35.77140000
31.99999827	0.00000000	-12.00787000	47.76082000
32.19999826	0.00000000	-16.28937000	51.98696000
32.39999825	0.00000000	-13.63804000	47.33637000
32.59999824	0.00000000	-5.16732200	34.56570000
32.79999822	0.00000000	6.79133800	16.43701000
32.99999821	0.00000000	19.53125000	-3.25418300
33.19999820	0.00000000	29.95817000	-19.84498000
33.39999819	0.00000000	35.82062000	-29.97047000
33.59999818	0.00000000	36.23893000	-31.87746000
33.79999816	0.00000000	31.62524000	-25.31988000
33.99999815	0.00000000	23.16068000	-11.43578000
34.19999814	0.00000000	13.20128000	6.26845500
34.39999813	0.00000000	4.69365100	23.68971000
34.59999812	0.00000000	-0.33833660	37.26009000
34.79999810	0.00000000	-1.16879900	44.59892000
34.99999809	0.00000000	2.26993100	44.22367000
35.19999808	0.00000000	8.37229300	36.14050000
35.39999807	0.00000000	15.34203000	22.66240000
35.59999806	0.00000000	21.48745000	6.82209600
35.79999805	0.00000000	25.34449000	-7.81250000
35.99999803	0.00000000	25.71973000	-17.84572000
36.19999802	0.00000000	22.69316000	-20.95841000
36.39999801	0.00000000	17.29823000	-16.77534000
36.59999800	0.00000000	11.20202000	-6.78518600
36.79999799	0.00000000	6.18233200	6.26845500
36.99999797	0.00000000	3.85088600	18.95300000
37.19999796	0.00000000	4.22613100	27.82972000
37.39999795	0.00000000	7.34498000	30.98548000
37.59999794	0.00000000	12.64764000	28.29109000
37.79999793	0.00000000	18.04257000	20.62008000
37.99999791	0.00000000	21.90576000	9.94094400
38.19999790	0.00000000	23.89887000	-0.00615157
38.39999789	0.00000000	23.48671000	-6.18848400
38.59999788	0.00000000	21.20448000	-7.34498000
38.79999787	0.00000000	17.34744000	-3.11884800
38.99999786	0.00000000	13.11516000	5.24729300
39.19999784	0.00000000	9.62106200	14.81299000
39.39999783	0.00000000	7.25270600	22.48400000
39.59999782	0.00000000	6.50221400	26.34104000
39.79999781	0.00000000	7.25270600	25.13533000
39.99999780	0.00000000	9.52879000	19.00221000
40.19999778	0.00000000	12.22933000	9.38730200
40.39999777	0.00000000	14.60384000	-0.88582670
40.59999776	0.00000000	16.97219000	-8.55068800
40.79999775	0.00000000	18.87918000	-10.87598000
40.99999774	0.00000000	20.04183000	-7.81250000
41.19999772	0.00000000	20.08489000	-0.09842519
41.39999771	0.00000000	19.34670000	10.62992000
41.59999770	0.00000000	18.55315000	20.95226000
41.79999769	0.00000000	17.29823000	27.91584000
41.99999768	0.00000000	15.39124000	29.87205000
42.19999767	0.00000000	13.06594000	26.80241000
42.39999765	0.00000000	11.10974000	19.50664000
42.59999764	0.00000000	9.52879000	9.89173200
42.79999763	0.00000000	8.41535400	0.64591530
42.99999762	0.00000000	8.41535400	-6.27460600
43.19999761	0.00000000	9.52879000	-8.96899500
43.39999759	0.00000000	11.06668000	-6.74212600
43.59999758	0.00000000	12.69070000	-1.02116100
43.79999757	0.00000000	14.64690000	6.31766700
43.99999756	0.00000000	16.97219000	13.65650000
44.19999755	0.00000000	18.87918000	19.42052000
44.39999753	0.00000000	20.08489000	22.15797000
44.59999752	0.00000000	20.46014000	21.46284000
44.79999751	0.00000000	20.13410000	18.39321000
44.99999750	0.00000000	19.34670000	13.79183000
45.19999749	0.00000000	18.50394000	8.77829600
45.39999748	0.00000000	16.87992000	4.87204700
45.59999746	0.00000000	14.18553000	2.12844500
45.79999745	0.00000000	11.06668000	1.01501000
45.99999744	0.00000000	7.94783400	2.12844500
46.19999743	0.00000000	5.25344500	4.77977300
46.39999742	0.00000000	3.71555100	7.84940900
46.59999740	0.00000000	3.80782500	10.62992000
46.79999739	0.00000000	6.18233200	12.95522000
46.99999738	0.00000000	11.20202000	14.85605000
47.19999737	0.00000000	17.34744000	15.23130000
47.39999736	0.00000000	23.20374000	14.11786000
47.59999734	0.00000000	27.86048000	12.16781000
47.79999733	0.00000000	30.51181000	9.42421200
47.99999732	0.00000000	30.00123000	6.40378900
48.19999731	0.00000000	25.39370000	4.08464600
48.39999730	0.00000000	17.67347000	3.29109200
48.59999729	0.00000000	9.15354300	3.62327700
48.79999727	0.00000000	1.02116100	4.82283400
48.99999726	0.00000000	-4.70595500	6.82209600
49.19999725	0.00000000	-6.19463500	9.93479300
49.39999724	0.00000000	-2.70669300	13.69956000
49.59999723	0.00000000	5.38877900	16.35089000
49.79999721	0.00000000	15.76649000	16.76919000
49.99999720	0.00000000	25.76895000	15.27436000
50.19999719	0.00000000	32.74483000	12.53691000
50.39999718	0.00000000	35.07628000	9.05511800
50.59999717	0.00000000	32.79404000	5.19808000
50.79999715	0.00000000	26.18725000	2.12844500
50.99999714	0.00000000	16.92298000	0.59670270
51.19999713	0.00000000	6.96973400	1.01501000
51.39999712	0.00000000	-0.70127950	3.70939900
51.59999711	0.00000000	-3.45103300	7.89247000
51.79999710	0.00000000	-1.58710600	12.11860000
51.99999708	0.00000000	4.22613100	15.23130000
52.19999707	0.00000000	12.64764000	16.81225000
52.39999706	0.00000000	21.06914000	16.76919000
52.59999705	0.00000000	26.88238000	14.85605000
52.79999704	0.00000000	28.83858000	11.38041000
52.99999702	0.00000000	26.92544000	7.56028500
53.19999701	0.00000000	21.53666000	4.12770700
53.39999700	0.00000000	14.27165000	2.59596400
53.59999699	0.00000000	7.38804100	3.29109200
53.79999698	0.00000000	3.15575800	5.19808000
53.99999696	0.00000000	2.73745100	7.89247000
54.19999695	0.00000000	5.80708600	10.53765000
54.39999694	0.00000000	11.53420000	12.11860000
54.59999693	0.00000000	18.04257000	12.49385000
54.79999692	0.00000000	23.02534000	11.74951000
54.99999691	0.00000000	25.34449000	9.84867000
55.19999689	0.00000000	24.18799000	7.93553100
55.39999688	0.00000000	19.99877000	6.40378900
55.59999687	0.00000000	14.22859000	5.70866100
55.79999686	0.00000000	8.45841400	6.86515700
55.99999685	0.00000000	4.22613100	9.51648500
56.19999683	0.00000000	2.68823800	12.53691000
56.39999682	0.00000000	4.22613100	14.81299000
56.59999681	0.00000000	8.45841400	15.18824000
56.79999680	0.00000000	14.22859000	13.65650000
56.99999679	0.00000000	19.99877000	10.53765000
57.19999677	0.00000000	24.18799000	6.31151500
57.39999676	0.00000000	25.39370000	2.12844500
57.59999675	0.00000000	23.48671000	-0.51673230
57.79999674	0.00000000	19.66658000	-0.46751960
57.99999673	0.00000000	14.60384000	2.59596400
58.19999672	0.00000000	9.66412400	7.93553100
58.39999670	0.00000000	6.18233200	13.74262000
58.59999669	0.00000000	5.38877900	18.76845000
58.79999668	0.00000000	6.87746000	22.15797000
58.99999667	0.00000000	9.99630800	22.10876000
59.19999666	0.00000000	14.18553000	18.35015000
59.39999664	0.00000000	18.04257000	12.53691000
59.59999663	0.00000000	20.37401000	5.94242000
59.79999662	0.00000000	21.20448000	-0.55979330
59.99999661	0.00000000	20.37401000	-4.74286400
60.19999660	0.00000000	18.08563000	-5.16117100
60.39999658	0.00000000	14.64690000	-2.04847400
60.59999657	0.00000000	11.57726000	4.12770700
60.79999656	0.00000000	9.62106200	12.16781000
60.99999655	0.00000000	8.87672100	19.46358000
61.19999654	0.00000000	10.03937000	24.10802000
61.39999653	0.00000000	12.64764000	25.27067000
61.59999651	0.00000000	15.34203000	22.52707000
61.79999650	0.00000000	17.29823000	16.39395000
61.99999649	0.00000000	18.41781000	8.31077700
62.19999648	0.00000000	18.04257000	0.64591530
62.39999647	0.00000000	16.14173000	-4.78592500
62.59999645	0.00000000	13.85334000	-6.73597400
62.79999644	0.00000000	11.53420000	-5.20423200
62.99999643	0.00000000	10.03937000	-0.55979330
63.19999642	0.00000000	9.99630800	6.36072800
63.39999641	0.00000000	11.15896000	13.65650000
63.59999639	0.00000000	13.06594000	19.46358000
63.79999638	0.00000000	15.43430000	22.57628000
63.99999637	0.00000000	17.67347000	22.57628000
64.19999636	0.00000000	19.20522000	19.50664000
64.39999635	0.00000000	18.83612000	14.16708000
64.59999634	0.00000000	17.34744000	8.35998900
64.79999632	0.00000000	15.39124000	3.33415300
64.99999631	0.00000000	13.06594000	-0.18454720
65.19999630	0.00000000	11.15896000	-1.35334600
65.39999629	0.00000000	9.99630800	-0.64591530
65.59999628	0.00000000	10.03937000	1.71013800
65.79999626	0.00000000	11.53420000	5.15501900
65.99999625	0.00000000	13.81028000	9.00590400
66.19999624	0.00000000	15.71727000	12.11860000
66.39999623	0.00000000	16.92298000	14.16092000
66.59999622	0.00000000	17.25517000	15.74188000
66.79999620	0.00000000	16.46161000	16.85531000
66.99999619	0.00000000	14.22859000	16.85531000
67.19999618	0.00000000	11.95251000	15.74188000
67.39999617	0.00000000	10.78371000	14.16092000
67.59999616	0.00000000	10.41462000	12.16781000
67.79999615	0.00000000	11.62032000	9.38115100
67.99999613	0.00000000	14.27165000	5.93626900
68.19999612	0.00000000	17.34744000	2.46063000
68.39999611	0.00000000	19.99877000	0.13533460
68.59999610	0.00000000	21.11220000	-0.97810030
68.79999609	0.00000000	19.95571000	-0.14148620
68.99999607	0.00000000	16.87992000	3.29109200
69.19999606	0.00000000	12.64764000	7.93553100
69.39999605	0.00000000	8.41535400	13.00443000
69.59999604	0.00000000	5.29650500	18.01796000
69.79999603	0.00000000	3.80782500	21.41363000
69.99999601	0.00000000	4.64443900	22.20103000
70.19999600	0.00000000	8.50147600	19.88189000
70.39999599	0.00000000	14.22859000	15.28051000
70.59999598	0.00000000	20.04183000	9.47342500
70.79999597	0.00000000	24.69857000	3.66633800
70.99999596	0.00000000	27.39296000	-0.93503930
71.19999594	0.00000000	27.30069000	-3.25418300
71.39999593	0.00000000	23.81275000	-2.46678100
71.59999592	0.00000000	17.29823000	0.92888770
71.79999591	0.00000000	9.99630800	5.93626900
71.99999590	0.00000000	3.75861200	10.95595000
72.19999588	0.00000000	-0.47367120	15.23130000
72.39999587	0.00000000	-1.58710600	17.88263000
72.59999586	0.00000000	1.10728300	17.92569000
72.79999585	0.00000000	6.87746000	15.69882000
72.99999584	0.00000000	14.18553000	12.62918000
73.19999582	0.00000000	21.16142000	9.51648500
73.39999581	0.00000000	26.18725000	6.82209600
73.59999580	0.00000000	28.50640000	5.33341500
73.79999579	0.00000000	27.39296000	5.66560000
73.99999578	0.00000000	23.53592000	7.51722400
74.19999577	0.00000000	18.08563000	9.38115100
74.39999575	0.00000000	11.53420000	10.53765000
74.59999574	0.00000000	5.80708600	10.53765000
74.79999573	0.00000000	2.68823800	9.38115100
74.99999572	0.00000000	2.64517700	7.47416300
75.19999571	0.00000000	5.29650500	5.19808000
75.39999569	0.00000000	9.52879000	3.75246000
75.59999568	0.00000000	14.18553000	4.12770700
75.79999567	0.00000000	18.46087000	6.48991100
75.99999566	0.00000000	21.53666000	10.31004000
76.19999565	0.00000000	22.69316000	14.94833000
76.39999563	0.00000000	21.57972000	18.71924000
76.59999562	0.00000000	18.97145000	20.62008000
76.79999561	0.00000000	16.22785000	19.46358000
76.99999560	0.00000000	13.89641000	15.60654000
77.19999559	0.00000000	11.95251000	10.21161000
77.39999558	0.00000000	11.20202000	4.04158400
77.59999556	0.00000000	11.48499000	-0.93503930
77.79999555	0.00000000	12.27239000	-3.67249000
77.99999554	0.00000000	13.02288000	-3.62942900
78.19999553	0.00000000	13.76107000	-0.51673230
78.39999552	0.00000000	13.76107000	5.20423200
78.59999550	0.00000000	13.06594000	11.74951000
78.79999549	0.00000000	12.69070000	17.18750000
78.99999548	0.00000000	12.73991000	21.08760000
79.19999547	0.00000000	13.53346000	22.57628000
79.39999546	0.00000000	15.43430000	21.03838000
79.59999544	0.00000000	17.34744000	16.81225000
79.79999543	0.00000000	18.87918000	11.04823000
79.99999542	0.00000000	19.62352000	5.24729300
80.19999541	0.00000000	18.87918000	0.59670270
80.39999540	0.00000000	17.34744000	-2.09153500
80.59999539	0.00000000	15.34203000	-2.14074800
80.79999537	0.00000000	12.60458000	0.13533460
80.99999536	0.00000000	9.62106200	3.62327700
81.19999535	0.00000000	7.72022600	7.84940900
81.39999534	0.00000000	8.08316900	11.74951000
81.59999533	0.00000000	9.95324800	14.49311000
81.79999531	0.00000000	12.69070000	16.48622000
81.99999530	0.00000000	15.76649000	17.18750000
82.19999529	0.00000000	18.46087000	16.48622000
82.39999528	0.00000000	19.99877000	14.58538000
82.59999527	0.00000000	19.99877000	12.62918000
82.79999525	0.00000000	18.50394000	10.58686000
82.99999524	0.00000000	16.18479000	7.89247000
83.19999523	0.00000000	13.89641000	5.19808000
83.39999522	0.00000000	11.95251000	3.24803100
83.59999521	0.00000000	11.20202000	2.08538400
83.79999520	0.00000000	11.48499000	2.08538400
83.99999518	0.00000000	12.27239000	3.24803100
84.19999517	0.00000000	13.02288000	5.24729300
84.39999516	0.00000000	13.85334000	8.40305000
84.59999515	0.00000000	14.56078000	12.58612000
84.79999514	0.00000000	14.97293000	16.39395000
84.99999512	0.00000000	14.60384000	18.35015000
85.19999511	0.00000000	14.27165000	18.39321000
85.39999510	0.00000000	14.22859000	16.81225000
85.59999509	0.00000000	14.27165000	13.69956000
85.79999508	0.00000000	14.69611000	9.47342500
85.99999506	0.00000000	15.80955000	5.19808000
86.19999505	0.00000000	16.87992000	1.75935000
86.39999504	0.00000000	16.92298000	-0.18454720
86.59999503	0.00000000	16.18479000	0.22145670
86.79999502	0.00000000	15.39124000	2.54675200
86.99999501	0.00000000	14.13632000	6.77903500
87.19999499	0.00000000	12.27239000	11.74336000
87.39999498	0.00000000	10.41462000	15.60654000
87.59999497	0.00000000	10.03937000	17.92569000
87.79999496	0.00000000	11.10974000	17.92569000
87.99999495	0.00000000	12.69070000	15.64960000
88.19999493	0.00000000	14.64690000	12.16166000
88.39999492	0.00000000	16.92298000	7.89247000
88.59999491	0.00000000	18.46087000	3.75246000
88.79999490	0.00000000	18.83612000	1.43331700
88.99999489	0.00000000	18.13484000	1.80241100
89.19999487	0.00000000	16.56004000	4.08464600
89.39999486	0.00000000	15.01599000	7.93553100
89.59999485	0.00000000	13.02288000	12.11860000
89.79999484	0.00000000	11.20202000	15.23130000
89.99999483	0.00000000	10.41462000	16.76919000
90.19999482	0.00000000	11.15896000	16.35089000
90.39999480	0.00000000	12.64764000	13.65650000
90.59999479	0.00000000	14.22859000	9.47342500
90.79999478	0.00000000	15.76649000	5.24729300
90.99999477	0.00000000	16.92298000	2.17765700
91.19999476	0.00000000	17.29823000	1.01501000
91.39999474	0.00000000	16.97219000	2.17765700
91.59999473	0.00000000	16.22785000	5.24729300
91.79999472	0.00000000	15.80955000	9.51648500
91.99999471	0.00000000	15.39124000	14.07480000
92.19999470	0.00000000	14.64690000	17.55659000
92.39999468	0.00000000	14.27165000	18.67618000
92.59999467	0.00000000	14.22859000	17.50738000
92.79999466	0.00000000	14.18553000	13.65650000
92.99999465	0.00000000	13.81028000	8.35998900
93.19999464	0.00000000	13.06594000	3.70939900
93.39999463	0.00000000	12.69070000	0.59670270
93.59999461	0.00000000	12.64764000	-0.51673230
93.79999460	0.00000000	12.69070000	1.06422200
93.99999459	0.00000000	13.11516000	5.24729300
94.19999458	0.00000000	14.27165000	10.58686000
94.39999457	0.00000000	15.80955000	15.18824000
94.59999455	0.00000000	17.39050000	17.92569000
94.79999454	0.00000000	18.87918000	18.30093000
94.99999453	0.00000000	19.66658000	16.39395000
95.19999452	0.00000000	19.21137000	12.53691000
95.39999451	0.00000000	17.66732000	7.93553100
95.59999449	0.00000000	14.60384000	3.70939900
95.79999448	0.00000000	11.53420000	1.01501000
95.99999447	0.00000000	9.15354300	0.63976370
96.19999446	0.00000000	7.25270600	2.54675200
96.39999445	0.00000000	6.92052100	6.35457700
96.59999444	0.00000000	8.45841400	10.53765000
96.79999442	0.00000000	11.53420000	13.65650000
96.99999441	0.00000000	15.43430000	15.23130000
97.19999440	0.00000000	19.25443000	15.23130000
97.39999439	0.00000000	22.36712000	13.69956000
97.59999438	0.00000000	23.53592000	11.04823000
97.79999436	0.00000000	23.16068000	8.35383800
97.99999435	0.00000000	21.16142000	6.40378900
98.19999434	0.00000000	17.34744000	5.24729300
98.39999433	0.00000000	13.11516000	5.24729300
98.59999432	0.00000000	9.57800100	6.36072800
98.79999430	0.00000000	6.87746000	7.84940900
98.99999429	0.00000000	5.76402500	9.05511800
99.19999428	0.00000000	6.87746000	9.84867000
99.39999427	0.00000000	9.57800100	10.62992000
99.59999426	0.00000000	13.06594000	11.00517000
99.79999425	0.00000000	16.92298000	11.00517000
99.99999423	0.00000000	19.99877000	10.67298000
100.19999422	0.00000000	21.62278000	10.31004000
100.39999421	0.00000000	21.99803000	10.67298000
100.59999420	0.00000000	21.20448000	11.00517000
100.79999419	0.00000000	18.87918000	11.00517000
100.99999417	0.00000000	15.80955000	10.58686000
101.19999416	0.00000000	12.69070000	9.42421200
101.39999415	0.00000000	9.99630800	7.89247000
101.59999414	0.00000000	8.45841400	6.36072800
101.79999413	0.00000000	8.41535400	5.19808000
101.99999411	0.00000000	9.52879000	4.87204700
102.19999410	0.00000000	11.10974000	5.66560000
102.39999409	0.00000000	13.06594000	7.93553100
102.59999408	0.00000000	15.39124000	10.62992000
102.79999407	0.00000000	17.29823000	12.95522000
102.99999406	0.00000000	18.50394000	14.90526000
103.19999404	0.00000000	18.87918000	15.60654000
103.39999403	0.00000000	18.50394000	14.85605000
103.59999402	0.00000000	17.34744000	12.53691000
103.79999401	0.00000000	15.80955000	9.47342500
103.99999400	0.00000000	14.22859000	6.40378900
104.19999398	0.00000000	12.69070000	4.08464600
104.39999397	0.00000000	11.53420000	3.29109200
104.59999396	0.00000000	11.10974000	3.66633800
104.79999395	0.00000000	11.15896000	5.24729300
104.99999394	0.00000000	11.95251000	7.93553100
105.19999392	0.00000000	13.85334000	10.96211000
105.39999391	0.00000000	15.71727000	13.28125000
105.59999390	0.00000000	16.87992000	14.07480000
105.79999389	0.00000000	16.92298000	13.69956000
105.99999388	0.00000000	16.18479000	12.16781000
106.19999387	0.00000000	15.43430000	9.89173200
106.39999385	0.00000000	14.60384000	7.93553100
106.59999384	0.00000000	13.85334000	6.36072800
106.79999383	0.00000000	13.11516000	5.29035400
106.99999382	0.00000000	13.11516000	5.66560000
107.19999381	0.00000000	13.85334000	7.51722400
107.39999379	0.00000000	14.60384000	9.42421200
107.59999378	0.00000000	15.39124000	11.00517000
107.79999377	0.00000000	15.76649000	12.11860000
107.99999376	0.00000000	15.76649000	12.11860000
108.19999375	0.00000000	15.34203000	11.00517000
108.39999374	0.00000000	14.22859000	9.47342500
108.59999372	0.00000000	13.11516000	7.93553100
108.79999371	0.00000000	12.69070000	6.77903500
108.99999370	0.00000000	12.64764000	6.40378900
109.19999369	0.00000000	12.69070000	6.77903500
109.39999368	0.00000000	13.11516000	7.93553100
109.59999366	0.00000000	14.27165000	9.47342500
109.79999365	0.00000000	15.71727000	11.00517000
109.99999364	0.00000000	16.55389000	12.16166000
110.19999363	0.00000000	16.56004000	12.53691000
110.39999362	0.00000000	16.55389000	12.16166000
110.59999360	0.00000000	15.71727000	11.00517000
110.79999359	0.00000000	14.27165000	9.47342500
110.99999358	0.00000000	13.06594000	7.93553100
111.19999357	0.00000000	12.27239000	6.77903500
111.39999356	0.00000000	11.53420000	6.35457700
111.59999355	0.00000000	11.57726000	6.35457700
111.79999353	0.00000000	12.69070000	6.77903500
111.99999352	0.00000000	14.18553000	7.93553100
112.19999351	0.00000000	15.39124000	9.42421200
112.39999350	0.00000000	16.14173000	10.58686000
112.59999349	0.00000000	16.55389000	11.00517000
112.79999347	0.00000000	16.18479000	11.04823000
112.99999346	0.00000000	15.80955000	11.00517000
113.19999345	0.00000000	15.34203000	10.62992000
113.39999344	0.00000000	14.22859000	9.89173200
113.59999343	0.00000000	13.11516000	9.51648500
113.79999341	0.00000000	12.69070000	9.43036400
113.99999340	0.00000000	12.69070000	9.09817800
114.19999339	0.00000000	13.06594000	8.68602300
114.39999338	0.00000000	13.81028000	8.67987200
114.59999337	0.00000000	14.22859000	8.26771600
114.79999336	0.00000000	14.64690000	7.93553100
114.99999334	0.00000000	15.39124000	7.89247000
115.19999333	0.00000000	15.76649000	7.89247000
115.39999332	0.00000000	15.80955000	7.93553100
115.59999331	0.00000000	15.76649000	8.31077700
115.79999330	0.00000000	15.39124000	9.09817800
115.99999328	0.00000000	14.60384000	9.84867000
116.19999327	0.00000000	13.85334000	10.62992000
116.39999326	0.00000000	13.06594000	11.00517000
116.59999325	0.00000000	12.69070000	11.04823000
116.79999324	0.00000000	12.64764000	11.00517000
116.99999322	0.00000000	12.69070000	10.62992000
117.19999321	0.00000000	13.11516000	9.84867000
117.39999320	0.00000000	14.22859000	9.09817800
117.59999319	0.00000000	15.39124000	8.26771600
117.79999318	0.00000000	16.18479000	7.51722400
117.99999317	0.00000000	16.97219000	6.77903500
118.19999315	0.00000000	17.29823000	6.77903500
118.39999314	0.00000000	16.92298000	7.51722400
118.59999313	0.00000000	15.76649000	8.31077700
118.79999312	0.00000000	14.27165000	9.47342500
118.99999311	0.00000000	13.06594000	10.58686000
119.19999309	0.00000000	12.31545000	11.00517000
119.39999308	0.00000000	11.90330000	11.04823000
119.59999307	0.00000000	12.31545000	11.04823000
119.79999306	0.00000000	13.06594000	11.04823000
119.99999305	0.00000000	14.27165000	11.00517000
120.19999303	0.00000000	15.76649000	10.62992000
120.39999302	0.00000000	16.92298000	9.89173200
120.59999301	0.00000000	17.34744000	9.51648500
120.79999300	0.00000000	17.34744000	9.47342500
120.99999299	0.00000000	16.97219000	9.43036400
121.19999298	0.00000000	16.14173000	9.05511800
121.39999296	0.00000000	15.01599000	8.31077700
121.59999295	0.00000000	13.48425000	7.93553100
121.79999294	0.00000000	12.73991000	7.93553100
121.99999293	0.00000000	12.64764000	8.31077700
122.19999292	0.00000000	12.64764000	9.05511800
122.39999290	0.00000000	12.64764000	9.47342500
122.59999289	0.00000000	12.69070000	9.89173200
122.79999288	0.00000000	13.06594000	10.58686000
122.99999287	0.00000000	13.85334000	10.58686000
123.19999286	0.00000000	14.60384000	9.89173200
123.39999284	0.00000000	15.39124000	9.51648500
123.59999283	0.00000000	15.76649000	9.43036400
123.79999282	0.00000000	15.80955000	9.05511800
123.99999281	0.00000000	15.80955000	8.31077700
124.19999280	0.00000000	15.76649000	7.93553100
124.39999279	0.00000000	15.39124000	7.89247000
124.59999277	0.00000000	14.60384000	7.89247000
124.79999276	0.00000000	13.85334000	7.89247000
124.99999275	0.00000000	13.06594000	7.93553100
125.19999274	0.00000000	12.69070000	8.31077700
125.39999273	0.00000000	12.64764000	9.05511800
125.59999271	0.00000000	12.69070000	9.43036400
125.79999270	0.00000000	13.06594000	9.47342500
125.99999269	0.00000000	13.85334000	9.47342500
126.19999268	0.00000000	14.64690000	9.47342500
126.39999267	0.00000000	15.80955000	9.47342500
126.59999265	0.00000000	16.92298000	9.47342500
126.79999264	0.00000000	17.29823000	9.47342500
126.99999263	0.00000000	16.92298000	9.47342500
127.19999262	0.00000000	15.80955000	9.47342500
127.39999261	0.00000000	14.64690000	9.43036400
127.59999260	0.00000000	13.85334000	9.05511800
127.79999258	0.00000000	13.06594000	8.35998900
127.99999257	0.00000000	12.69070000	8.35998900
128.19999256	0.00000000	12.69070000	9.05511800
128.39999255	0.00000000	13.11516000	9.43036400
128.59999254	0.00000000	14.27165000	9.47342500
128.79999252	0.00000000	15.76649000	9.47342500
128.99999251	0.00000000	16.92298000	9.47342500
129.19999250	0.00000000	17.29823000	9.47342500
129.39999249	0.00000000	16.92298000	9.47342500
129.59999248	0.00000000	15.76649000	9.47342500
129.79999246	0.00000000	14.27165000	9.47342500
129.99999245	0.00000000	13.11516000	9.47342500
130.19999244	0.00000000	12.64764000	9.47342500
130.39999243	0.00000000	12.27239000	9.47342500
130.59999242	0.00000000	11.95251000	9.47342500
130.79999241	0.00000000	12.73991000	9.47342500
130.99999239	0.00000000	14.18553000	9.47342500
131.19999238	0.00000000	15.34203000	9.47342500
131.39999237	0.00000000	15.80955000	9.47342500
131.59999236	0.00000000	16.18479000	9.43036400
131.79999235	0.00000000	16.50467000	9.05511800
131.99999233	0.00000000	15.76649000	8.31077700
132.19999232	0.00000000	14.69611000	7.93553100
132.39999231	0.00000000	14.22859000	7.89247000
132.59999230	0.00000000	13.81028000	7.93553100
132.79999229	0.00000000	13.11516000	8.31077700
132.99999227	0.00000000	13.11516000	9.09817800
133.19999226	0.00000000	13.81028000	9.84867000
133.39999225	0.00000000	14.22859000	10.62992000
133.59999224	0.00000000	14.64690000	11.00517000
133.79999223	0.00000000	15.34203000	11.00517000
133.99999222	0.00000000	15.34203000	10.62992000
134.19999220	0.00000000	14.64690000	9.84867000
134.39999219	0.00000000	14.27165000	9.09817800
134.59999218	0.00000000	14.22859000	8.31077700
134.79999217	0.00000000	14.22859000	7.93553100
134.99999216	0.00000000	14.22859000	7.89247000
135.19999214	0.00000000	14.27165000	7.89247000
135.39999213	0.00000000	14.64690000	7.93553100
135.59999212	0.00000000	15.39124000	8.35998900
135.79999211	0.00000000	15.71727000	9.47342500
135.99999210	0.00000000	15.39124000	10.58686000
136.19999208	0.00000000	14.64690000	11.00517000
136.39999207	0.00000000	14.22859000	11.04823000
136.59999206	0.00000000	13.81028000	11.00517000
136.79999205	0.00000000	13.11516000	10.62992000
136.99999204	0.00000000	13.11516000	9.89173200
137.19999203	0.00000000	13.81028000	9.47342500
137.39999201	0.00000000	14.22859000	9.05511800
137.59999200	0.00000000	14.64690000	8.31077700
137.79999199	0.00000000	15.39124000	7.93553100
137.99999198	0.00000000	15.76649000	7.89247000
138.19999197	0.00000000	15.80955000	7.89247000
138.39999195	0.00000000	15.76649000	7.89247000
138.59999194	0.00000000	15.39124000	7.93553100
138.79999193	0.00000000	14.60384000	8.31077700
138.99999192	0.00000000	13.85334000	9.05511800
139.19999191	0.00000000	13.06594000	9.43036400
139.39999189	0.00000000	12.73991000	9.51648500
139.59999188	0.00000000	13.06594000	9.89173200
139.79999187	0.00000000	13.85334000	10.62992000
139.99999186	0.00000000	14.60384000	10.95595000
140.19999185	0.00000000	15.39124000	10.62992000
140.39999184	0.00000000	15.76649000	9.84867000
140.59999182	0.00000000	15.80955000	9.09817800
140.79999181	0.00000000	15.76649000	8.31077700
140.99999180	0.00000000	15.39124000	7.93553100
141.19999179	0.00000000	14.64690000	7.89247000
141.39999178	0.00000000	14.22859000	7.93553100
141.59999176	0.00000000	13.85334000	8.31077700
141.79999175	0.00000000	13.48425000	9.09817800
141.99999174	0.00000000	13.85334000	9.84867000
142.19999173	0.00000000	14.18553000	10.67298000
142.39999172	0.00000000	14.27165000	11.38041000
142.59999170	0.00000000	14.64690000	11.79257000
142.79999169	0.00000000	15.39124000	11.38041000
142.99999168	0.00000000	15.71727000	10.62992000
143.19999167	0.00000000	15.39124000	9.47342500
143.39999166	0.00000000	14.64690000	8.35998900
143.59999165	0.00000000	14.27165000	7.93553100
143.79999163	0.00000000	14.22859000	7.89247000
143.99999162	0.00000000	14.22859000	7.93553100
144.19999161	0.00000000	14.22859000	8.31077700
144.39999160	0.00000000	14.27165000	9.09817800
144.59999159	0.00000000	14.64690000	9.84867000
144.79999157	0.00000000	15.39124000	10.62992000
144.99999156	0.00000000	15.71727000	11.00517000
145.19999155	0.00000000	15.39124000	11.04823000
145.39999154	0.00000000	14.64690000	11.00517000
145.59999153	0.00000000	14.27165000	10.62992000
145.79999151	0.00000000	14.22859000	9.89173200
145.99999150	0.00000000	14.22859000	9.47342500
146.19999149	0.00000000	14.22859000	9.05511800
146.39999148	0.00000000	14.22859000	8.31077700
146.59999147	0.00000000	14.22859000	7.93553100
146.79999146	0.00000000	14.27165000	7.93553100
146.99999144	0.00000000	14.64690000	8.31077700
147.19999143	0.00000000	15.34203000	9.05511800
147.39999142	0.00000000	15.39124000	9.43036400
147.59999141	0.00000000	15.02214000	9.47342500
147.79999140	0.00000000	15.01599000	9.47342500
147.99999138	0.00000000	14.60384000	9.51648500
148.19999137	0.00000000	14.27165000	9.84867000
148.39999136	0.00000000	14.22859000	10.21161000
148.59999135	0.00000000	14.22859000	9.84867000
148.79999134	0.00000000	14.22859000	9.51648500
148.99999132	0.00000000	14.22859000	9.47342500
149.19999131	0.00000000	14.27165000	9.43036400
149.39999130	0.00000000	14.64690000	9.05511800
149.59999129	0.00000000	15.39124000	8.31077700
149.79999128	0.00000000	15.76649000	7.93553100
149.99999127	0.00000000	15.80955000	7.93553100
150.19999125	0.00000000	15.80955000	8.31077700
150.39999124	0.00000000	15.76649000	9.09817800
150.59999123	0.00000000	15.39124000	9.84867000
150.79999122	0.00000000	14.64690000	10.62992000
150.99999121	0.00000000	14.27165000	10.95595000
151.19999119	0.00000000	14.22859000	10.62992000
151.39999118	0.00000000	14.22859000	9.89173200
151.59999117	0.00000000	14.22859000	9.51648500
151.79999116	0.00000000	14.22859000	9.47342500
151.99999115	0.00000000	14.22859000	9.47342500
152.19999113	0.00000000	14.27165000	9.43036400
152.39999112	0.00000000	14.64690000	9.05511800
152.59999111	0.00000000	15.39124000	8.35998900
152.79999110	0.00000000	15.76649000	8.35998900
152.99999109	0.00000000	15.80955000	9.09817800
153.19999108	0.00000000	15.76649000	9.79945900
153.39999106	0.00000000	15.39124000	10.21161000
153.59999105	0.00000000	14.64690000	9.84867000
153.79999104	0.00000000	14.27165000	9.51648500
153.99999103	0.00000000	14.22859000	9.47342500
154.19999102	0.00000000	14.22859000	9.47342500
154.39999100	0.00000000	14.22859000	9.47342500
154.59999099	0.00000000	14.22859000	9.47342500
154.79999098	0.00000000	14.22859000	9.47342500
154.99999097	0.00000000	14.27165000	9.47342500
155.19999096	0.00000000	14.64690000	9.43036400
155.39999094	0.00000000	15.39124000	9.09817800
155.59999093	0.00000000	15.76649000	8.72908400
155.79999092	0.00000000	15.80955000	9.09817800
155.99999091	0.00000000	15.76649000	9.43036400
156.19999090	0.00000000	15.39124000	9.47342500
156.39999089	0.00000000	14.64690000	9.47342500
156.59999087	0.00000000	14.27165000	9.47342500
156.79999086	0.00000000	14.22859000	9.51648500
156.99999085	0.00000000	14.18553000	9.89173200
157.19999084	0.00000000	13.85334000	10.58686000
157.39999083	0.00000000	13.48425000	10.58686000
157.59999081	0.00000000	13.85334000	9.89173200
157.79999080	0.00000000	14.18553000	9.51648500
157.99999079	0.00000000	14.27165000	9.47342500
158.19999078	0.00000000	14.64690000	9.47342500
158.39999077	0.00000000	15.39124000	9.43036400
158.59999075	0.00000000	15.76649000	9.09817800
158.79999074	0.00000000	15.80955000	8.72908400
158.99999073	0.00000000	15.80955000	9.09817800
159.19999072	0.00000000	15.76649000	9.43036400
159.39999071	0.00000000	15.39124000	9.47342500
159.59999070	0.00000000	14.64690000	9.51648500
159.79999068	0.00000000	14.27165000	9.89173200
159.99999067	0.00000000	14.22859000	10.62992000
160.19999066	0.00000000	14.22859000	10.95595000
160.39999065	0.00000000	14.22859000	10.62992000
160.59999064	0.00000000	14.22859000	9.89173200
160.79999062	0.00000000	14.22859000	9.51648500
160.99999061	0.00000000	14.22859000	9.43036400
161.19999060	0.00000000	14.22859000	9.05511800
161.39999059	0.00000000	14.22859000	8.35998900
161.59999058	0.00000000	14.27165000	8.35998900
161.79999056	0.00000000	14.64690000	9.05511800
161.99999055	0.00000000	15.34203000	9.43036400
162.19999054	0.00000000	15.39124000	9.47342500
162.39999053	0.00000000	15.02214000	9.47342500
162.59999052	0.00000000	15.01599000	9.47342500
162.79999051	0.00000000	14.60384000	9.47342500
162.99999049	0.00000000	14.27165000	9.47342500
163.19999048	0.00000000	14.22859000	9.47342500
163.39999047	0.00000000	14.22859000	9.47342500
163.59999046	0.00000000	14.22859000	9.47342500
163.79999045	0.00000000	14.22859000	9.47342500
163.99999043	0.00000000	14.22859000	9.47342500
164.19999042	0.00000000	14.22859000	9.47342500
164.39999041	0.00000000	14.22859000	9.47342500
164.59999040	0.00000000	14.27165000	9.47342500
164.79999039	0.00000000	14.64690000	9.47342500
164.99999037	0.00000000	15.39124000	9.47342500
165.19999036	0.00000000	15.76649000	9.47342500
165.39999035	0.00000000	15.76649000	9.47342500
165.59999034	0.00000000	15.39124000	9.47342500
165.79999033	0.00000000	14.64690000	9.47342500
165.99999032	0.00000000	14.27165000	9.47342500
166.19999030	0.00000000	14.22859000	9.47342500
166.39999029	0.00000000	14.22859000	9.47342500
166.59999028	0.00000000	14.22859000	9.47342500
166.79999027	0.00000000	14.22859000	9.47342500
166.99999026	0.00000000	14.22859000	9.47342500
167.19999024	0.00000000	14.22859000	9.47342500
167.39999023	0.00000000	14.27165000	9.47342500
167.59999022	0.00000000	14.60384000	9.47342500
167.79999021	0.00000000	15.01599000	9.47342500
167.99999020	0.00000000	15.02214000	9.47342500
168.19999018	0.00000000	15.43430000	9.47342500
168.39999017	0.00000000	15.71727000	9.47342500
168.59999016	0.00000000	15.39124000	9.47342500
168.79999015	0.00000000	14.64690000	9.47342500
168.99999014	0.00000000	14.27165000	9.47342500
169.19999013	0.00000000	14.22859000	9.47342500
169.39999011	0.00000000	14.22859000	9.47342500
169.59999010	0.00000000	14.22859000	9.47342500
169.79999009	0.00000000	14.22859000	9.47342500
169.99999008	0.00000000	14.22859000	9.47342500
170.19999007	0.00000000	14.22859000	9.47342500
170.39999005	0.00000000	14.22859000	9.47342500
170.59999004	0.00000000	14.22859000	9.47342500
170.79999003	0.00000000	14.22859000	9.47342500
170.99999002	0.00000000	14.22859000	9.47342500
171.19999001	0.00000000	14.22859000	9.47342500
171.39998999	0.00000000	14.27165000	9.47342500
171.59998998	0.00000000	14.60384000	9.47342500
171.79998997	0.00000000	14.97293000	9.47342500
171.99998996	0.00000000	14.60384000	9.47342500
172.19998995	0.00000000	14.27165000	9.47342500
172.39998994	0.00000000	14.22859000	9.47342500
172.59998992	0.00000000	14.22859000	9.47342500
172.79998991	0.00000000	14.22859000	9.47342500
172.99998990	0.00000000	14.22859000	9.47342500
173.19998989	0.00000000	14.22859000	9.47342500
173.39998988	0.00000000	14.22859000	9.47342500
173.59998986	0.00000000	14.22859000	9.47342500
173.79998985	0.00000000	14.22859000	9.47342500
173.99998984	0.00000000	14.22859000	9.47342500
174.19998983	0.00000000	14.22859000	9.47342500
174.39998982	0.00000000	14.22859000	9.47342500
174.59998980	0.00000000	14.22859000	9.47342500
174.79998979	0.00000000	14.22859000	9.47342500
174.99998978	0.00000000	14.22859000	9.47342500
175.19998977	0.00000000	14.22859000	9.47342500
175.39998976	0.00000000	14.27165000	9.47342500
175.59998975	0.00000000	14.60384000	9.47342500
175.79998973	0.00000000	14.97293000	9.47342500
175.99998972	0.00000000	14.60384000	9.47342500
176.19998971	0.00000000	14.32087000	9.47342500
176.39998970	0.00000000	14.64690000	9.47342500
176.59998969	0.00000000	15.39124000	9.47342500
176.79998967	0.00000000	15.76649000	9.47342500
176.99998966	0.00000000	15.76649000	9.47342500
177.19998965	0.00000000	15.39124000	9.47342500
177.39998964	0.00000000	14.64690000	9.47342500
177.59998963	0.00000000	14.27165000	9.47342500
177.79998961	0.00000000	14.22859000	9.47342500
177.99998960	0.00000000	14.22859000	9.47342500
178.19998959	0.00000000	14.22859000	9.47342500
178.39998958	0.00000000	14.22859000	9.47342500
178.59998957	0.00000000	14.22859000	9.47342500
178.79998956	0.00000000	14.22859000	9.47342500
178.99998954	0.00000000	14.22859000	9.47342500
179.19998953	0.00000000	14.27165000	9.47342500
179.39998952	0.00000000	14.64690000	9.47342500
179.59998951	0.00000000	15.39124000	9.47342500
179.79998950	0.00000000	15.71727000	9.47342500
179.99998948	0.00000000	15.39124000	9.47342500
180.19998947	0.00000000	14.64690000	9.43036400
180.39998946	0.00000000	14.27165000	9.09817800
180.59998945	0.00000000	14.22859000	8.68602300
180.79998944	0.00000000	14.22859000	8.72293300
180.99998942	0.00000000	14.22859000	8.68602300
181.19998941	0.00000000	14.22859000	9.09817800
181.39998940	0.00000000	14.22859000	9.43036400
181.59998939	0.00000000	14.22859000	9.47342500
181.79998938	0.00000000	14.27165000	9.47342500
181.99998937	0.00000000	14.64690000	9.51648500
182.19998935	0.00000000	15.39124000	9.84867000
182.39998934	0.00000000	15.76649000	10.21161000
182.59998933	0.00000000	15.80955000	9.84867000
182.79998932	0.00000000	15.80955000	9.51648500
182.99998931	0.00000000	15.76649000	9.47342500
183.19998929	0.00000000	15.39124000	9.43036400
183.39998928	0.00000000	14.64690000	9.09817800
183.59998927	0.00000000	14.27165000	8.72908400
183.79998926	0.00000000	14.22859000	9.09817800
183.99998925	0.00000000	14.22859000	9.43036400
184.19998923	0.00000000	14.22859000	9.47342500
184.39998922	0.00000000	14.22859000	9.47342500
184.59998921	0.00000000	14.22859000	9.47342500
184.79998920	0.00000000	14.22859000	9.47342500
184.99998919	0.00000000	14.22859000	9.47342500
185.19998918	0.00000000	14.22859000	9.47342500
185.39998916	0.00000000	14.27165000	9.47342500
185.59998915	0.00000000	14.60384000	9.47342500
185.79998914	0.00000000	15.01599000	9.47342500
185.99998913	0.00000000	15.02214000	9.43036400
186.19998912	0.00000000	15.43430000	9.05511800
186.39998910	0.00000000	15.76649000	8.31077700
186.59998909	0.00000000	15.76649000	7.93553100
186.79998908	0.00000000	15.39124000	7.93553100
186.99998907	0.00000000	14.64690000	8.31077700
187.19998906	0.00000000	14.27165000	9.05511800
187.39998904	0.00000000	14.22859000	9.43036400
187.59998903	0.00000000	14.22859000	9.51648500
187.79998902	0.00000000	14.22859000	9.89173200
187.99998901	0.00000000	14.27165000	10.58686000
188.19998900	0.00000000	14.60384000	10.58686000
188.39998899	0.00000000	14.97293000	9.89173200
188.59998897	0.00000000	14.64690000	9.51648500
188.79998896	0.00000000	14.69611000	9.47342500
188.99998895	0.00000000	15.34203000	9.43036400
189.19998894	0.00000000	15.39124000	9.05511800
189.39998893	0.00000000	15.02214000	8.31077700
189.59998891	0.00000000	15.01599000	7.98474400
189.79998890	0.00000000	14.60384000	8.31077700
189.99998889	0.00000000	14.27165000	9.05511800
190.19998888	0.00000000	14.22859000	9.43036400
190.39998887	0.00000000	14.22859000	9.47342500
190.59998885	0.00000000	14.22859000	9.47342500
190.79998884	0.00000000	14.22859000	9.47342500
190.99998883	0.00000000	14.22859000	9.47342500
191.19998882	0.00000000	14.22859000	9.47342500
191.39998881	0.00000000	14.27165000	9.47342500
191.59998880	0.00000000	14.64690000	9.47342500
191.79998878	0.00000000	15.39124000	9.47342500
191.99998877	0.00000000	15.71727000	9.47342500
192.19998876	0.00000000	15.43430000	9.47342500
192.39998875	0.00000000	15.06521000	9.47342500
192.59998874	0.00000000	15.39124000	9.47342500
192.79998872	0.00000000	15.34203000	9.47342500
192.99998871	0.00000000	14.64690000	9.47342500
193.19998870	0.00000000	14.27165000	9.47342500
193.39998869	0.00000000	14.22859000	9.47342500
193.59998868	0.00000000	14.22859000	9.47342500
193.79998866	0.00000000	14.22859000	9.47342500
193.99998865	0.00000000	14.22859000	9.47342500
194.19998864	0.00000000	14.27165000	9.47342500
194.39998863	0.00000000	14.64690000	9.47342500
194.59998862	0.00000000	15.39124000	9.47342500
194.79998861	0.00000000	15.76649000	9.47342500
194.99998859	0.00000000	15.76649000	9.47342500
195.19998858	0.00000000	15.39124000	9.47342500
195.39998857	0.00000000	14.64690000	9.47342500
195.59998856	0.00000000	14.27165000	9.47342500
195.79998855	0.00000000	14.22859000	9.47342500
195.99998853	0.00000000	14.22859000	9.47342500
