Time	Channel A	Channel B	Channel C
(us)	(V)	(mV)	(mV)

-4.59999956	0.00000000	-14.27165000	-9.43036400
-4.39999957	0.00000000	-14.60384000	-9.09817800
-4.19999958	0.00000000	-14.97293000	-8.72908400
-3.99999959	0.00000000	-14.60384000	-9.09817800
-3.79999960	0.00000000	-14.27165000	-9.43036400
-3.59999962	0.00000000	-14.22859000	-9.47342500
-3.39999963	0.00000000	-14.22859000	-9.47342500
-3.19999964	0.00000000	-14.22859000	-9.43036400
-2.99999965	0.00000000	-14.22859000	-9.09817800
-2.79999966	0.00000000	-14.22859000	-8.72908400
-2.59999968	0.00000000	-14.22859000	-9.09817800
-2.39999969	0.00000000	-14.22859000	-9.43036400
-2.19999970	0.00000000	-14.22859000	-9.51648500
-1.99999971	0.00000000	-14.22859000	-9.84867000
-1.79999972	0.00000000	-14.22859000	-10.21161000
-1.59999973	0.00000000	-14.22859000	-9.84867000
-1.39999975	0.00000000	-14.22859000	-9.51648500
-1.19999976	0.00000000	-14.22859000	-9.47342500
-0.99999977	0.00000000	-14.22859000	-9.47342500
-0.79999978	0.00000000	-14.18553000	-9.43036400
-0.59999979	0.00000000	-13.81028000	-9.09817800
-0.39999981	0.00000000	-13.15822000	-8.72908400
-0.19999982	0.47736220	-13.48425000	-9.09817800
0.00000017	0.79601380	-14.54847000	-9.43036400
0.20000016	0.95533960	-14.56078000	-9.47342500
0.40000015	0.95533960	-14.27165000	-9.47342500
0.60000013	0.79601380	-14.22859000	-9.47342500
0.80000012	0.00000000	-14.22859000	-9.47342500
1.00000011	-0.79601380	-14.22859000	-9.47342500
1.20000010	-1.75196900	-14.22859000	-9.47342500
1.40000009	-2.54859700	-14.22859000	-9.47342500
1.60000008	-2.70792300	-14.22859000	-9.43036400
1.80000006	-2.22994600	-14.22859000	-9.09817800
2.00000005	-0.79601380	-14.22859000	-8.72908400
2.20000004	1.11466500	-14.22859000	-9.09817800
2.40000003	3.18590100	-14.22859000	-9.43036400
2.60000002	4.77854300	-14.22859000	-9.47342500
2.80000000	5.41584600	-14.22859000	-9.47342500
2.99999999	4.45989200	-14.22859000	-9.47342500
3.19999998	2.22994600	-14.22859000	-9.47342500
3.39999997	-1.11466500	-14.22859000	-9.47342500
3.59999996	-4.45989200	-14.22859000	-9.47342500
3.79999994	-7.00848900	-14.22859000	-9.43036400
3.99999993	-7.96444400	-14.22859000	-9.05511800
4.19999992	-6.84916400	-14.22859000	-8.31077700
4.39999991	-3.98191400	-14.22859000	-7.93553100
4.59999990	0.31803640	-14.22859000	-7.93553100
4.79999989	4.61921700	-14.22859000	-8.31077700
4.99999987	7.96444400	-14.22859000	-9.05511800
5.19999986	9.39837600	-14.22859000	-9.43036400
5.39999985	8.60174700	-14.22859000	-9.47342500
5.59999984	5.41584600	-14.22859000	-9.47342500
5.79999983	0.95533960	-14.22859000	-9.47342500
5.99999981	-3.82258900	-14.22859000	-9.47342500
6.19999980	-7.48646600	-14.22859000	-9.47342500
6.39999979	-9.39837600	-14.22859000	-9.43036400
6.59999978	-8.92039900	-14.22859000	-9.05511800
6.79999977	-6.05315000	-14.22859000	-8.35998900
6.99999975	-2.07062000	-14.22859000	-8.35998900
7.19999974	2.22994600	-14.22859000	-9.05511800
7.39999973	5.73449800	-14.22859000	-9.43036400
7.59999972	7.64579200	-14.22859000	-9.47342500
7.79999971	7.32714100	-14.22859000	-9.47342500
7.99999970	5.41584600	-14.22859000	-9.47342500
8.19999968	2.54859700	-14.22859000	-9.47342500
8.39999967	-0.79601380	-14.22859000	-9.47342500
8.59999966	-3.50393700	-14.22859000	-9.47342500
8.79999965	-4.93786900	-14.22859000	-9.47342500
8.99999964	-5.09719500	-14.22859000	-9.47342500
9.19999962	-3.98191400	-14.22859000	-9.47342500
9.39999961	-2.07062000	-14.22859000	-9.47342500
9.59999960	0.00000000	-14.22859000	-9.47342500
9.79999959	1.43331700	-14.22859000	-9.47342500
9.99999958	2.38927200	-14.22859000	-9.47342500
10.19999956	2.54859700	-14.22859000	-9.47342500
10.39999955	2.07062000	-14.22859000	-9.47342500
10.59999954	1.11466500	-14.22859000	-9.47342500
10.79999953	0.31803640	-14.22859000	-9.47342500
10.99999952	-0.47736220	-14.22859000	-9.47342500
11.19999951	-0.79601380	-14.27165000	-9.47342500
11.39999949	-0.95533960	-14.60384000	-9.47342500
11.59999948	-0.95533960	-14.97293000	-9.47342500
11.79999947	-0.63668800	-14.60384000	-9.47342500
11.99999946	-0.31803640	-14.27165000	-9.47342500
12.19999945	-0.15871060	-14.22859000	-9.47342500
12.39999943	-0.15871060	-14.22859000	-9.47342500
12.59999942	-0.15871060	-14.22859000	-9.47342500
12.79999941	0.00000000	-14.22859000	-9.47342500
12.99999940	0.00000000	-14.22859000	-9.47342500
13.19999939	0.00000000	-14.22859000	-9.47342500
13.39999937	0.00000000	-14.22859000	-9.47342500
13.59999936	0.00000000	-14.22859000	-9.47342500
13.79999935	0.00000000	-14.22859000	-9.47342500
13.99999934	0.00000000	-14.22859000	-9.47342500
14.19999933	-0.15871060	-14.22859000	-9.47342500
14.39999932	-0.15871060	-14.22859000	-9.47342500
14.59999930	-0.15871060	-14.22859000	-9.47342500
14.79999929	0.00000000	-14.22859000	-9.47342500
14.99999928	0.00000000	-14.22859000	-9.47342500
15.19999927	0.00000000	-14.22859000	-9.47342500
15.39999926	0.00000000	-14.22859000	-9.47342500
15.59999924	0.00000000	-14.22859000	-9.47342500
15.79999923	0.00000000	-14.22859000	-9.47342500
15.99999922	0.00000000	-14.22859000	-9.47342500
16.19999921	0.00000000	-14.22859000	-9.47342500
16.39999920	-0.15871060	-14.22859000	-9.47342500
16.59999919	0.00000000	-14.22859000	-9.47342500
16.79999917	-0.15871060	-14.18553000	-9.47342500
16.99999916	-0.15871060	-13.81028000	-9.47342500
17.19999915	0.00000000	-13.06594000	-9.47342500
17.39999914	0.00000000	-12.69070000	-9.47342500
17.59999913	0.00000000	-12.64764000	-9.47342500
17.79999911	0.00000000	-12.69070000	-9.47342500
17.99999910	0.00000000	-13.11516000	-9.47342500
18.19999909	0.00000000	-14.27165000	-9.47342500
18.39999908	0.00000000	-15.80955000	-9.47342500
18.59999907	0.00000000	-17.39050000	-9.47342500
18.79999905	-0.15871060	-18.92839000	-9.47342500
18.99999904	0.00000000	-19.99877000	-9.47342500
19.19999903	0.00000000	-19.58046000	-9.47342500
19.39999902	0.00000000	-17.29823000	-9.47342500
19.59999901	0.00000000	-14.18553000	-9.47342500
19.79999900	0.00000000	-10.64838000	-9.47342500
19.99999898	0.00000000	-6.79133800	-9.47342500
20.19999897	0.00000000	-3.75861200	-9.47342500
20.39999896	0.00000000	-2.64517700	-9.47342500
20.59999895	0.00000000	-4.26919300	-9.47342500
20.79999894	0.00000000	-8.92593500	-9.47342500
20.99999892	0.00000000	-15.90182000	-9.47342500
21.19999891	0.00000000	-23.62205000	-9.47342500
21.39999890	0.00000000	-30.60408000	-9.47342500
21.59999889	0.00000000	-35.11934000	-9.47342500
21.79999888	0.00000000	-35.40231000	-9.47342500
21.99999886	0.00000000	-29.95817000	-9.47342500
22.19999885	0.00000000	-19.90650000	-9.47342500
22.39999884	0.00000000	-7.52952700	-9.47342500
22.59999883	0.00000000	4.88435000	-9.47342500
22.79999882	0.00000000	14.38853000	-9.47342500
22.99999881	0.00000000	18.19021000	-9.43036400
23.19999879	0.00000000	13.87795000	-9.05511800
23.39999878	0.00000000	2.65748000	-8.31077700
23.59999877	0.00000000	-13.66880000	-7.89247000
23.79999876	0.00000000	-32.13582000	-7.51722400
23.99999875	0.00000000	-47.91462000	-7.14812900
24.19999873	0.00000000	-56.75443000	-7.56028500
24.39999872	0.00000000	-56.29306000	-8.31077700
24.59999871	0.00000000	-45.82308000	-9.51648500
24.79999870	0.00000000	-27.25763000	-11.04823000
24.99999869	0.00000000	-4.87819900	-12.58612000
25.19999867	0.00000000	16.38164000	-13.74262000
25.39999866	0.00000000	31.36688000	-14.11786000
25.59999865	0.00000000	36.34350000	-13.69956000
25.79999864	0.00000000	29.36762000	-12.07554000
25.99999863	0.00000000	12.00787000	-9.00590400
26.19999862	0.00000000	-11.53420000	-5.15501900
26.39999860	0.00000000	-35.90674000	-1.71013800
26.59999859	0.00000000	-55.59793000	0.64591530
26.79999858	0.00000000	-66.43085000	1.35334600
26.99999857	0.00000000	-65.60039000	0.14148620
27.19999856	0.00000000	-53.26648000	-3.84473400
27.39999854	0.00000000	-32.00049000	-10.35925000
27.59999853	0.00000000	-6.96973400	-18.06717000
27.79999852	0.00000000	15.82800000	-24.61860000
27.99999851	0.00000000	30.90551000	-28.84473000
28.19999850	0.00000000	35.27313000	-29.49680000
28.39999848	0.00000000	28.71555000	-25.17839000
28.59999847	0.00000000	13.30585000	-16.35089000
28.79999846	0.00000000	-7.57258800	-5.11195900
28.99999845	0.00000000	-28.79552000	6.09005900
29.19999844	0.00000000	-45.90920000	15.32972000
29.39999843	0.00000000	-55.54872000	19.88804000
29.59999841	0.00000000	-56.00393000	18.31324000
29.79999840	0.00000000	-47.17027000	10.50689000
29.99999839	0.00000000	-32.13582000	-2.59596400
30.19999838	0.00000000	-14.36393000	-18.01796000
30.39999837	0.00000000	2.28223400	-31.95743000
30.59999835	0.00000000	13.96407000	-41.99680000
30.79999834	0.00000000	19.45128000	-45.76156000
30.99999833	0.00000000	17.87033000	-41.48622000
31.19999832	0.00000000	9.44881800	-29.91511000
31.39999831	0.00000000	-3.29724400	-13.69956000
31.59999829	0.00000000	-17.21210000	3.67249000
31.79999828	0.00000000	-29.62598000	18.35630000
31.99999827	0.00000000	-37.77682000	27.27608000
32.19999826	0.00000000	-40.56348000	28.80782000
32.39999825	0.00000000	-37.86294000	22.58243000
32.59999824	0.00000000	-30.55487000	9.47957600
32.79999822	0.00000000	-20.50935000	-7.52337600
32.99999821	0.00000000	-10.03937000	-24.53248000
33.19999820	0.00000000	-1.15649600	-38.46580000
33.39999819	0.00000000	4.28764700	-46.17987000
33.59999818	0.00000000	5.08120100	-46.22293000
33.79999816	0.00000000	1.63016700	-38.84104000
33.99999815	0.00000000	-5.29650500	-25.35679000
34.19999814	0.00000000	-13.71801000	-8.72908400
34.39999813	0.00000000	-21.11220000	7.11737200
34.59999812	0.00000000	-26.14419000	19.46973000
34.79999810	0.00000000	-28.08809000	25.23376000
34.99999809	0.00000000	-26.18725000	22.95768000
35.19999808	0.00000000	-21.62278000	13.75492000
35.39999807	0.00000000	-15.80955000	-0.13533460
35.59999806	0.00000000	-10.03937000	-15.14518000
35.79999805	0.00000000	-5.85014700	-27.91584000
35.99999803	0.00000000	-4.64443900	-35.67913000
36.19999802	0.00000000	-6.50221400	-37.26009000
36.39999801	0.00000000	-9.99630800	-32.60949000
36.59999800	0.00000000	-14.64690000	-22.61934000
36.79999799	0.00000000	-19.58046000	-9.94094400
36.99999797	0.00000000	-22.65010000	1.95620100
37.19999796	0.00000000	-23.06841000	10.03937000
37.39999795	0.00000000	-21.16142000	11.99557000
37.59999794	0.00000000	-17.34744000	7.85556000
37.79999793	0.00000000	-13.06594000	-0.59670270
37.99999791	0.00000000	-9.20275500	-10.91289000
38.19999790	0.00000000	-6.13927100	-20.15871000
38.39999789	0.00000000	-5.38877900	-25.51058000
38.59999788	0.00000000	-6.83439900	-25.91658000
38.79999787	0.00000000	-9.62106200	-20.90305000
38.99999786	0.00000000	-13.48425000	-12.16781000
39.19999784	0.00000000	-18.08563000	-2.55290300
39.39999783	0.00000000	-21.57972000	5.06889700
39.59999782	0.00000000	-23.57899000	8.50147600
39.79999781	0.00000000	-24.27411000	6.23154500
39.99999780	0.00000000	-22.69316000	-0.64591530
40.19999778	0.00000000	-18.92839000	-9.89173200
40.39999777	0.00000000	-14.64690000	-19.46358000
40.59999776	0.00000000	-10.73450000	-26.34104000
40.79999775	0.00000000	-7.25270600	-28.29109000
40.99999774	0.00000000	-5.29650500	-25.17839000
41.19999772	0.00000000	-4.87819900	-17.55044000
41.39999771	0.00000000	-5.71481200	-7.57258800
41.59999770	0.00000000	-8.45841400	1.26107300
41.79999769	0.00000000	-12.64764000	7.48031400
41.99999768	0.00000000	-16.92298000	9.34424200
42.19999767	0.00000000	-20.41708000	6.32381900
42.39999765	0.00000000	-22.74237000	-0.59670270
42.59999764	0.00000000	-23.11762000	-9.38115100
42.79999763	0.00000000	-21.66585000	-17.50738000
42.99999762	0.00000000	-19.34670000	-22.90231000
43.19999761	0.00000000	-16.97219000	-24.85236000
43.39999759	0.00000000	-14.22859000	-22.57628000
43.59999758	0.00000000	-11.57726000	-17.27362000
43.79999757	0.00000000	-10.03937000	-11.09744000
43.99999756	0.00000000	-9.95324800	-5.29035400
44.19999755	0.00000000	-10.64838000	-1.02116100
44.39999753	0.00000000	-11.06668000	0.93503930
44.59999752	0.00000000	-11.48499000	0.55979330
44.79999751	0.00000000	-12.22933000	-2.12844500
44.99999750	0.00000000	-12.60458000	-6.31151500
45.19999749	0.00000000	-12.69070000	-10.53765000
45.39999748	0.00000000	-13.11516000	-13.65650000
45.59999746	0.00000000	-14.36393000	-15.23130000
45.79999745	0.00000000	-16.64616000	-15.27436000
45.99999744	0.00000000	-19.75886000	-14.11786000
46.19999743	0.00000000	-22.41634000	-12.16781000
46.39999742	0.00000000	-24.32333000	-9.47342500
46.59999740	0.00000000	-24.23105000	-6.77903500
46.79999739	0.00000000	-21.48745000	-4.87204700
46.99999738	0.00000000	-16.50467000	-4.08464600
47.19999737	0.00000000	-10.27928000	-4.82283400
47.39999736	0.00000000	-4.54601300	-6.36072800
47.59999734	0.00000000	-0.27682080	-8.31077700
47.79999733	0.00000000	0.79970470	-10.67298000
47.99999732	0.00000000	-1.48253000	-12.95522000
48.19999731	0.00000000	-6.96973400	-14.85605000
48.39999730	0.00000000	-14.69611000	-15.18824000
48.59999729	0.00000000	-23.16068000	-13.74262000
48.79999727	0.00000000	-30.09350000	-11.38041000
48.99999726	0.00000000	-33.53838000	-8.67987200
49.19999725	0.00000000	-32.70177000	-5.57332700
49.39999724	0.00000000	-26.93159000	-3.29109200
49.59999723	0.00000000	-17.72268000	-2.12844500
49.79999721	0.00000000	-8.08316900	-2.54675200
49.99999720	0.00000000	0.04921259	-4.87204700
50.19999719	0.00000000	4.61368100	-8.35998900
50.39999718	0.00000000	4.23843500	-12.58612000
50.59999717	0.00000000	-1.10728300	-16.39395000
50.79999715	0.00000000	-9.57800100	-18.30093000
50.99999714	0.00000000	-18.83612000	-17.97490000
51.19999713	0.00000000	-26.92544000	-15.64960000
51.39999712	0.00000000	-31.53912000	-12.16166000
51.59999711	0.00000000	-31.53912000	-7.89247000
51.79999710	0.00000000	-26.92544000	-3.70939900
51.99999708	0.00000000	-18.87918000	-1.01501000
52.19999707	0.00000000	-10.08243000	-0.55364170
52.39999706	0.00000000	-3.11269700	-1.71013800
52.59999705	0.00000000	0.33833660	-4.08464600
52.79999704	0.00000000	-0.41215550	-7.93553100
52.99999702	0.00000000	-5.38877900	-12.11860000
53.19999701	0.00000000	-12.60458000	-15.18824000
53.39999700	0.00000000	-19.58046000	-16.39395000
53.59999699	0.00000000	-24.64936000	-15.64960000
53.79999698	0.00000000	-27.30069000	-13.74262000
53.99999696	0.00000000	-26.46407000	-11.00517000
54.19999695	0.00000000	-21.53666000	-7.93553100
54.39999694	0.00000000	-14.69611000	-5.29035400
54.59999693	0.00000000	-8.55068800	-4.17691900
54.79999692	0.00000000	-4.60137700	-5.24729300
54.99999691	0.00000000	-3.47564000	-7.47416300
55.19999689	0.00000000	-4.97662400	-9.38115100
55.39999688	0.00000000	-9.24581600	-10.58686000
55.59999687	0.00000000	-14.60384000	-10.95595000
55.79999686	0.00000000	-19.99877000	-10.58686000
55.99999685	0.00000000	-23.81275000	-9.42421200
56.19999683	0.00000000	-24.60630000	-7.89247000
56.39999682	0.00000000	-22.74237000	-6.40378900
56.59999681	0.00000000	-18.87918000	-5.70866100
56.79999680	0.00000000	-14.27165000	-6.86515700
56.99999679	0.00000000	-9.99630800	-9.51648500
57.19999677	0.00000000	-6.92052100	-12.58612000
57.39999676	0.00000000	-5.76402500	-15.23130000
57.59999675	0.00000000	-6.92052100	-16.34473000
57.79999674	0.00000000	-9.99630800	-15.18824000
57.99999673	0.00000000	-14.18553000	-12.11860000
58.19999672	0.00000000	-18.04257000	-7.89247000
58.39999670	0.00000000	-20.37401000	-3.62327700
58.59999669	0.00000000	-21.16142000	-0.17839570
58.79999668	0.00000000	-19.99877000	1.67322800
58.99999667	0.00000000	-17.39050000	0.51673230
59.19999666	0.00000000	-14.69611000	-3.33415300
59.39999664	0.00000000	-12.73991000	-8.72908400
59.59999663	0.00000000	-11.53420000	-14.90526000
59.79999662	0.00000000	-11.15896000	-19.88189000
59.99999661	0.00000000	-11.53420000	-22.57628000
60.19999660	0.00000000	-12.69070000	-22.15797000
60.39999658	0.00000000	-14.18553000	-18.30093000
60.59999657	0.00000000	-15.34203000	-12.11860000
60.79999656	0.00000000	-15.76649000	-4.82898600
60.99999655	0.00000000	-15.76649000	1.67322800
61.19999654	0.00000000	-15.39124000	5.16117100
61.39999653	0.00000000	-14.64690000	5.16117100
61.59999651	0.00000000	-14.27165000	1.67322800
61.79999650	0.00000000	-14.22859000	-4.87204700
61.99999649	0.00000000	-14.27165000	-12.54306000
62.19999648	0.00000000	-14.64690000	-19.50664000
62.39999647	0.00000000	-15.43430000	-24.10802000
62.59999645	0.00000000	-16.14173000	-25.27067000
62.79999644	0.00000000	-16.55389000	-22.57628000
62.99999643	0.00000000	-16.14173000	-16.81225000
63.19999642	0.00000000	-15.39124000	-9.47342500
63.39999641	0.00000000	-14.22859000	-2.17765700
63.59999639	0.00000000	-13.11516000	3.25418300
63.79999638	0.00000000	-12.64764000	5.57947800
63.99999637	0.00000000	-12.31545000	4.82898600
64.19999636	0.00000000	-12.32775000	0.93503930
64.39999635	0.00000000	-13.47810000	-5.20423200
64.59999634	0.00000000	-14.60384000	-12.11860000
64.79999632	0.00000000	-15.80955000	-17.92569000
64.99999631	0.00000000	-16.87992000	-21.46284000
65.19999630	0.00000000	-16.92298000	-22.61934000
65.39999629	0.00000000	-16.18479000	-21.08760000
65.59999628	0.00000000	-15.39124000	-17.23056000
65.79999626	0.00000000	-14.22859000	-12.25394000
65.99999625	0.00000000	-13.11516000	-7.19734200
66.19999624	0.00000000	-12.73991000	-3.33415300
66.39999623	0.00000000	-13.11516000	-0.92888770
66.59999622	0.00000000	-14.27165000	-0.13533460
66.79999620	0.00000000	-15.76649000	-0.51058070
66.99999619	0.00000000	-16.92298000	-2.08538400
67.19999618	0.00000000	-17.29823000	-4.77977300
67.39999617	0.00000000	-16.87992000	-7.89247000
67.59999616	0.00000000	-15.34203000	-11.00517000
67.79999615	0.00000000	-13.02288000	-13.79183000
67.99999613	0.00000000	-10.73450000	-16.11712000
68.19999612	0.00000000	-8.83366100	-18.01796000
68.39999611	0.00000000	-8.50147600	-18.39321000
68.59999610	0.00000000	-9.99630800	-17.23056000
68.79999609	0.00000000	-12.73991000	-14.85605000
68.99999607	0.00000000	-16.22785000	-10.95595000
69.19999606	0.00000000	-20.08489000	-6.40378900
69.39999605	0.00000000	-23.11762000	-2.46063000
69.59999604	0.00000000	-24.27411000	0.23991140
69.79999603	0.00000000	-23.06841000	1.76550200
69.99999601	0.00000000	-19.62352000	0.93503930
70.19999600	0.00000000	-14.60384000	-2.12844500
70.39999599	0.00000000	-9.57800100	-6.77903500
70.59999598	0.00000000	-5.29650500	-12.16166000
70.79999597	0.00000000	-2.64517700	-16.81225000
70.99999596	0.00000000	-2.68823800	-19.92495000
71.19999594	0.00000000	-5.76402500	-21.04454000
71.39999593	0.00000000	-11.10974000	-19.50664000
71.59999592	0.00000000	-16.92298000	-15.64960000
71.79999591	0.00000000	-21.99803000	-10.67298000
71.99999590	0.00000000	-25.85507000	-5.66560000
72.19999588	0.00000000	-27.34990000	-2.17765700
72.39999587	0.00000000	-25.85507000	-0.59670270
72.59999586	0.00000000	-21.99803000	-0.97194880
72.79999585	0.00000000	-16.92298000	-3.24803100
72.99999584	0.00000000	-11.15896000	-6.31151500
73.19999582	0.00000000	-6.18233200	-9.42421200
73.39999581	0.00000000	-3.80782500	-12.11860000
73.59999580	0.00000000	-3.75861200	-13.69956000
73.79999579	0.00000000	-5.71481200	-14.07480000
73.99999578	0.00000000	-9.62106200	-13.32431000
74.19999577	0.00000000	-14.60384000	-11.42347000
74.39999575	0.00000000	-19.58046000	-9.55954600
74.59999574	0.00000000	-22.65010000	-8.40305000
74.79999573	0.00000000	-23.16068000	-8.40305000
74.99999572	0.00000000	-21.99803000	-9.51648500
75.19999571	0.00000000	-19.66658000	-10.96211000
75.39999569	0.00000000	-16.22785000	-11.74336000
75.59999568	0.00000000	-13.15822000	-11.33120000
75.79999567	0.00000000	-11.15896000	-10.16855000
75.99999566	0.00000000	-9.99630800	-7.84940900
76.19999565	0.00000000	-9.99630800	-5.19808000
76.39999563	0.00000000	-11.10974000	-3.29109200
76.59999562	0.00000000	-12.64764000	-2.54675200
76.79999561	0.00000000	-14.18553000	-3.75246000
76.99999560	0.00000000	-15.34203000	-6.82209600
77.19999559	0.00000000	-15.71727000	-11.04823000
77.39999558	0.00000000	-15.39124000	-15.27436000
77.59999556	0.00000000	-14.64690000	-18.35015000
77.79999555	0.00000000	-14.32087000	-19.50664000
77.99999554	0.00000000	-14.69611000	-18.35015000
78.19999553	0.00000000	-15.80955000	-15.23130000
78.39999552	0.00000000	-16.92298000	-10.62992000
78.59999550	0.00000000	-17.34744000	-5.61638700
78.79999549	0.00000000	-17.29823000	-1.71013800
78.99999548	0.00000000	-16.50467000	0.97810030
79.19999547	0.00000000	-14.60384000	1.67322800
79.39999546	0.00000000	-12.69070000	-0.59670270
79.59999544	0.00000000	-11.10974000	-4.77977300
79.79999543	0.00000000	-9.99630800	-9.43036400
79.99999542	0.00000000	-9.99630800	-13.69956000
80.19999541	0.00000000	-11.15896000	-16.81225000
80.39999540	0.00000000	-13.11516000	-18.35015000
80.59999539	0.00000000	-15.80955000	-17.97490000
80.79999537	0.00000000	-18.46087000	-15.69882000
80.99999536	0.00000000	-19.99877000	-12.62918000
81.19999535	0.00000000	-20.04183000	-9.47342500
81.39999534	0.00000000	-18.87918000	-6.36072800
81.59999533	0.00000000	-16.92298000	-3.66633800
81.79999531	0.00000000	-14.22859000	-2.12844500
81.99999530	0.00000000	-11.57726000	-2.08538400
82.19999529	0.00000000	-9.99630800	-3.24803100
82.39999528	0.00000000	-9.62106200	-5.15501900
82.59999527	0.00000000	-10.37155000	-7.51722400
82.79999525	0.00000000	-12.27239000	-9.89173200
82.99999524	0.00000000	-14.18553000	-12.62918000
83.19999523	0.00000000	-15.80955000	-15.27436000
83.39999522	0.00000000	-17.29823000	-16.85531000
83.59999521	0.00000000	-18.08563000	-17.23056000
83.79999520	0.00000000	-17.72268000	-16.43701000
83.99999518	0.00000000	-16.97219000	-14.11786000
84.19999517	0.00000000	-15.80955000	-11.00517000
84.39999516	0.00000000	-14.64690000	-7.51722400
84.59999515	0.00000000	-13.89641000	-4.03543200
84.79999514	0.00000000	-13.48425000	-1.71013800
84.99999512	0.00000000	-13.85334000	-0.55364170
85.19999511	0.00000000	-14.18553000	-1.01501000
85.39999510	0.00000000	-14.22859000	-3.70939900
85.59999509	0.00000000	-14.18553000	-7.93553100
85.79999508	0.00000000	-13.81028000	-12.53691000
85.99999506	0.00000000	-13.11516000	-16.43701000
86.19999505	0.00000000	-13.11516000	-18.71924000
86.39999504	0.00000000	-13.85334000	-19.13140000
86.59999503	0.00000000	-14.64690000	-17.14444000
86.79999502	0.00000000	-15.76649000	-13.32431000
86.99999501	0.00000000	-16.55389000	-8.31077700
87.19999499	0.00000000	-16.56004000	-3.70939900
87.39999498	0.00000000	-16.55389000	-0.59670270
87.59999497	0.00000000	-15.76649000	0.55979330
87.79999496	0.00000000	-14.64690000	-0.64591530
87.99999495	0.00000000	-13.81028000	-4.08464600
88.19999493	0.00000000	-12.64764000	-9.09817800
88.39999492	0.00000000	-11.57726000	-14.07480000
88.59999491	0.00000000	-11.57726000	-17.93184000
88.79999490	0.00000000	-12.64764000	-19.46358000
88.99999489	0.00000000	-13.81028000	-18.30093000
89.19999487	0.00000000	-14.60384000	-14.85605000
89.39999486	0.00000000	-15.43430000	-9.84867000
89.59999485	0.00000000	-16.18479000	-4.87204700
89.79999484	0.00000000	-16.92298000	-1.02116100
89.99999483	0.00000000	-16.87992000	0.51673230
90.19999482	0.00000000	-15.80955000	-0.64591530
90.39999480	0.00000000	-14.69611000	-4.08464600
90.59999479	0.00000000	-14.27165000	-9.09817800
90.79999478	0.00000000	-14.18553000	-14.07480000
90.99999477	0.00000000	-13.85334000	-17.93184000
91.19999476	0.00000000	-13.48425000	-19.42052000
91.39999474	0.00000000	-13.85334000	-17.93184000
91.59999473	0.00000000	-14.18553000	-14.07480000
91.79999472	0.00000000	-14.22859000	-9.09817800
91.99999471	0.00000000	-14.22859000	-4.08464600
92.19999470	0.00000000	-14.22859000	-0.64591530
92.39999468	0.00000000	-14.22859000	0.51673230
92.59999467	0.00000000	-14.27165000	-1.02116100
92.79999466	0.00000000	-14.64690000	-4.87204700
92.99999465	0.00000000	-15.43430000	-9.84867000
93.19999464	0.00000000	-16.22785000	-14.81299000
93.39999463	0.00000000	-17.34744000	-17.88263000
93.59999461	0.00000000	-18.04257000	-18.35015000
93.79999460	0.00000000	-17.34744000	-16.76919000
93.99999459	0.00000000	-16.18479000	-13.28125000
94.19999458	0.00000000	-14.92372000	-8.35998900
94.39999457	0.00000000	-12.64764000	-4.17076700
94.59999455	0.00000000	-10.41462000	-2.17150600
94.79999454	0.00000000	-9.57800100	-2.12844500
94.99999453	0.00000000	-9.57800100	-3.70939900
95.19999452	0.00000000	-10.41462000	-6.77903500
95.39999451	0.00000000	-12.73991000	-10.58686000
95.59999449	0.00000000	-15.80955000	-13.69956000
95.79999448	0.00000000	-18.87918000	-15.60654000
95.99999447	0.00000000	-21.20448000	-15.97564000
96.19999446	0.00000000	-21.99803000	-14.07480000
96.39999445	0.00000000	-21.57972000	-11.04823000
96.59999444	0.00000000	-19.58046000	-7.93553100
96.79999442	0.00000000	-15.76649000	-5.24729300
96.99999441	0.00000000	-11.57726000	-3.75246000
97.19999440	0.00000000	-8.41535400	-4.08464600
97.39999439	0.00000000	-6.45915300	-5.93626900
97.59999438	0.00000000	-5.71481200	-7.89247000
97.79999436	0.00000000	-6.92052100	-9.84867000
97.99999435	0.00000000	-9.99630800	-11.74951000
98.19999434	0.00000000	-14.22859000	-12.53691000
98.39999433	0.00000000	-18.46087000	-12.58612000
98.59999432	0.00000000	-21.57972000	-12.16166000
98.79999430	0.00000000	-23.16068000	-11.00517000
98.99999429	0.00000000	-23.11762000	-9.51648500
99.19999428	0.00000000	-21.20448000	-8.35998900
99.39999427	0.00000000	-17.72268000	-7.93553100
99.59999426	0.00000000	-13.89641000	-7.89247000
99.79999425	0.00000000	-10.37155000	-7.89247000
99.99999423	0.00000000	-8.04010800	-7.84940900
100.19999422	0.00000000	-6.87746000	-7.47416300
100.39999421	0.00000000	-7.29576700	-6.77903500
100.59999420	0.00000000	-9.57800100	-6.77903500
100.79999419	0.00000000	-12.64764000	-7.51722400
100.99999417	0.00000000	-15.76649000	-8.35998900
101.19999416	0.00000000	-18.50394000	-9.89173200
101.39999415	0.00000000	-20.41708000	-11.79257000
101.59999414	0.00000000	-21.20448000	-12.96137000
101.79999413	0.00000000	-20.46014000	-13.69956000
101.99999411	0.00000000	-18.92839000	-13.28125000
102.19999410	0.00000000	-16.92298000	-11.38041000
102.39999409	0.00000000	-14.22859000	-9.09817800
102.59999408	0.00000000	-11.57726000	-6.72982200
102.79999407	0.00000000	-9.99630800	-4.82283400
102.99999406	0.00000000	-9.57800100	-3.66633800
103.19999404	0.00000000	-9.95324800	-3.70939900
103.39999403	0.00000000	-11.15896000	-5.24729300
103.59999402	0.00000000	-13.06594000	-7.93553100
103.79999401	0.00000000	-15.39124000	-11.00517000
103.99999400	0.00000000	-17.29823000	-13.69956000
104.19999398	0.00000000	-18.50394000	-15.27436000
104.39999397	0.00000000	-18.87918000	-15.64960000
104.59999396	0.00000000	-18.50394000	-14.85605000
104.79999395	0.00000000	-17.29823000	-12.49385000
104.99999394	0.00000000	-15.43430000	-9.14124000
105.19999392	0.00000000	-13.48425000	-6.04084600
105.39999391	0.00000000	-12.31545000	-4.49680100
105.59999390	0.00000000	-11.53420000	-4.04158400
105.79999389	0.00000000	-11.57726000	-4.87204700
105.99999388	0.00000000	-12.69070000	-6.77903500
106.19999387	0.00000000	-14.18553000	-9.47342500
106.39999385	0.00000000	-15.39124000	-12.11860000
106.59999384	0.00000000	-16.18479000	-13.65650000
106.79999383	0.00000000	-16.92298000	-13.69956000
106.99999382	0.00000000	-16.87992000	-12.58612000
107.19999381	0.00000000	-15.80955000	-11.00517000
107.39999379	0.00000000	-14.64690000	-9.09817800
107.59999378	0.00000000	-13.85334000	-7.14812900
107.79999377	0.00000000	-13.06594000	-6.02854300
107.99999376	0.00000000	-12.73991000	-5.66560000
108.19999375	0.00000000	-13.11516000	-6.82209600
108.39999374	0.00000000	-14.27165000	-9.05511800
108.59999372	0.00000000	-15.76649000	-10.96211000
108.79999371	0.00000000	-16.92298000	-12.16166000
108.99999370	0.00000000	-17.29823000	-12.53691000
109.19999369	0.00000000	-16.97219000	-12.16166000
109.39999368	0.00000000	-16.18479000	-11.00517000
109.59999366	0.00000000	-15.39124000	-9.47342500
109.79999365	0.00000000	-14.22859000	-7.93553100
109.99999364	0.00000000	-13.11516000	-6.77903500
110.19999363	0.00000000	-12.69070000	-6.35457700
110.39999362	0.00000000	-12.69070000	-6.35457700
110.59999360	0.00000000	-13.06594000	-6.77903500
110.79999359	0.00000000	-13.85334000	-7.93553100
110.99999358	0.00000000	-14.60384000	-9.47342500
111.19999357	0.00000000	-15.43430000	-11.00517000
111.39999356	0.00000000	-16.14173000	-12.16166000
111.59999355	0.00000000	-16.55389000	-12.53691000
111.79999353	0.00000000	-16.14173000	-12.16166000
111.99999352	0.00000000	-15.43430000	-11.04823000
112.19999351	0.00000000	-14.64690000	-9.89173200
112.39999350	0.00000000	-14.27165000	-9.09817800
112.59999349	0.00000000	-14.22859000	-8.31077700
112.79999347	0.00000000	-14.22859000	-7.93553100
112.99999346	0.00000000	-14.22859000	-7.89247000
113.19999345	0.00000000	-14.22859000	-7.93553100
113.39999344	0.00000000	-14.22859000	-8.31077700
113.59999343	0.00000000	-14.22859000	-9.05511800
113.79999341	0.00000000	-14.22859000	-9.47342500
113.99999340	0.00000000	-14.22859000	-9.89173200
114.19999339	0.00000000	-14.27165000	-10.62992000
114.39999338	0.00000000	-14.64690000	-11.00517000
114.59999337	0.00000000	-15.34203000	-11.04823000
114.79999336	0.00000000	-15.34203000	-11.04823000
114.99999334	0.00000000	-14.64690000	-11.04823000
115.19999333	0.00000000	-14.27165000	-11.04823000
115.39999332	0.00000000	-14.22859000	-11.04823000
115.59999331	0.00000000	-14.22859000	-10.95595000
115.79999330	0.00000000	-14.22859000	-10.21161000
115.99999328	0.00000000	-14.22859000	-8.72908400
116.19999327	0.00000000	-14.27165000	-7.98474400
116.39999326	0.00000000	-14.64690000	-7.89247000
116.59999325	0.00000000	-15.39124000	-7.89247000
116.79999324	0.00000000	-15.76649000	-7.93553100
116.99999322	0.00000000	-15.76649000	-8.31077700
117.19999321	0.00000000	-15.39124000	-9.09817800
117.39999320	0.00000000	-14.64690000	-9.84867000
117.59999319	0.00000000	-14.22859000	-10.67298000
117.79999318	0.00000000	-13.81028000	-11.38041000
117.99999317	0.00000000	-13.11516000	-11.79257000
118.19999315	0.00000000	-13.11516000	-11.38041000
118.39999314	0.00000000	-13.81028000	-10.67298000
118.59999313	0.00000000	-14.27165000	-9.89173200
118.79999312	0.00000000	-15.02214000	-9.47342500
118.99999311	0.00000000	-16.17864000	-9.00590400
119.19999309	0.00000000	-16.56004000	-7.89247000
119.39999308	0.00000000	-16.97219000	-6.82209600
119.59999307	0.00000000	-16.92298000	-6.77903500
119.79999306	0.00000000	-16.18479000	-7.51722400
119.99999305	0.00000000	-15.39124000	-8.26771600
120.19999303	0.00000000	-14.18553000	-9.05511800
120.39999302	0.00000000	-12.69070000	-9.47342500
120.59999301	0.00000000	-11.53420000	-9.89173200
120.79999300	0.00000000	-11.15896000	-10.62992000
120.99999299	0.00000000	-11.53420000	-11.00517000
121.19999298	0.00000000	-12.64764000	-11.00517000
121.39999296	0.00000000	-13.81028000	-10.62992000
121.59999295	0.00000000	-14.64690000	-9.89173200
121.79999294	0.00000000	-15.80955000	-9.51648500
121.99999293	0.00000000	-16.92298000	-9.43036400
122.19999292	0.00000000	-17.34744000	-9.05511800
122.39999290	0.00000000	-17.34744000	-8.31077700
122.59999289	0.00000000	-16.92298000	-7.93553100
122.79999288	0.00000000	-15.76649000	-7.89247000
122.99999287	0.00000000	-14.27165000	-7.89247000
123.19999286	0.00000000	-13.11516000	-7.93553100
123.39999284	0.00000000	-12.69070000	-8.31077700
123.59999283	0.00000000	-12.64764000	-9.05511800
123.79999282	0.00000000	-12.64764000	-9.47342500
123.99999281	0.00000000	-12.69070000	-9.89173200
124.19999280	0.00000000	-13.11516000	-10.62992000
124.39999279	0.00000000	-14.22859000	-11.00517000
124.59999277	0.00000000	-15.39124000	-11.00517000
124.79999276	0.00000000	-16.18479000	-10.62992000
124.99999275	0.00000000	-16.97219000	-9.89173200
125.19999274	0.00000000	-17.29823000	-9.47342500
125.39999273	0.00000000	-16.97219000	-9.05511800
125.59999271	0.00000000	-16.18479000	-8.31077700
125.79999270	0.00000000	-15.39124000	-7.93553100
125.99999269	0.00000000	-14.22859000	-7.89247000
126.19999268	0.00000000	-13.11516000	-7.93553100
126.39999267	0.00000000	-12.69070000	-8.31077700
126.59999265	0.00000000	-12.64764000	-9.05511800
126.79999264	0.00000000	-12.69070000	-9.47342500
126.99999263	0.00000000	-13.11516000	-9.89173200
127.19999262	0.00000000	-14.22859000	-10.62992000
127.39999261	0.00000000	-15.39124000	-11.00517000
127.59999260	0.00000000	-16.22785000	-11.04823000
127.79999258	0.00000000	-17.29823000	-11.00517000
127.99999257	0.00000000	-17.66732000	-10.62992000
128.19999256	0.00000000	-16.56004000	-9.89173200
128.39999255	0.00000000	-15.43430000	-9.47342500
128.59999254	0.00000000	-14.22859000	-9.05511800
128.79999252	0.00000000	-13.11516000	-8.35998900
128.99999251	0.00000000	-12.69070000	-8.35998900
129.19999250	0.00000000	-12.69070000	-9.05511800
129.39999249	0.00000000	-13.06594000	-9.43036400
129.59999248	0.00000000	-13.85334000	-9.47342500
129.79999246	0.00000000	-14.60384000	-9.47342500
129.99999245	0.00000000	-15.43430000	-9.47342500
130.19999244	0.00000000	-16.18479000	-9.47342500
130.39999243	0.00000000	-16.92298000	-9.47342500
130.59999242	0.00000000	-16.92298000	-9.43036400
130.79999241	0.00000000	-16.18479000	-9.05511800
130.99999239	0.00000000	-15.43430000	-8.35998900
131.19999238	0.00000000	-14.60384000	-8.35998900
131.39999237	0.00000000	-13.85334000	-9.05511800
131.59999236	0.00000000	-13.11516000	-9.47342500
131.79999235	0.00000000	-13.11516000	-9.89173200
131.99999233	0.00000000	-13.81028000	-10.62992000
132.19999232	0.00000000	-14.22859000	-11.00517000
132.39999231	0.00000000	-14.64690000	-11.00517000
132.59999230	0.00000000	-15.39124000	-10.62992000
132.79999229	0.00000000	-15.76649000	-9.89173200
132.99999227	0.00000000	-15.76649000	-9.47342500
133.19999226	0.00000000	-15.39124000	-9.05511800
133.39999225	0.00000000	-14.64690000	-8.31077700
133.59999224	0.00000000	-14.27165000	-7.93553100
133.79999223	0.00000000	-14.22859000	-7.89247000
133.99999222	0.00000000	-14.22859000	-7.93553100
134.19999220	0.00000000	-14.22859000	-8.31077700
134.39999219	0.00000000	-14.22859000	-9.09817800
134.59999218	0.00000000	-14.22859000	-9.84867000
134.79999217	0.00000000	-14.22859000	-10.62992000
134.99999216	0.00000000	-14.22859000	-11.00517000
135.19999214	0.00000000	-14.22859000	-11.04823000
135.39999213	0.00000000	-14.22859000	-11.00517000
135.59999212	0.00000000	-14.22859000	-10.62992000
135.79999211	0.00000000	-14.27165000	-9.84867000
135.99999210	0.00000000	-14.64690000	-9.09817800
136.19999208	0.00000000	-15.39124000	-8.31077700
136.39999207	0.00000000	-15.76649000	-7.93553100
136.59999206	0.00000000	-15.80955000	-7.89247000
136.79999205	0.00000000	-15.80955000	-7.93553100
136.99999204	0.00000000	-15.76649000	-8.31077700
137.19999203	0.00000000	-15.39124000	-9.09817800
137.39999201	0.00000000	-14.60384000	-9.84867000
137.59999200	0.00000000	-13.85334000	-10.62992000
137.79999199	0.00000000	-13.11516000	-11.00517000
137.99999198	0.00000000	-13.11516000	-11.04823000
138.19999197	0.00000000	-13.81028000	-11.04823000
138.39999195	0.00000000	-14.22859000	-11.00517000
138.59999194	0.00000000	-14.64690000	-10.62992000
138.79999193	0.00000000	-15.39124000	-9.84867000
138.99999192	0.00000000	-15.76649000	-9.09817800
139.19999191	0.00000000	-15.80955000	-8.31077700
139.39999189	0.00000000	-15.76649000	-7.93553100
139.59999188	0.00000000	-15.39124000	-7.89247000
139.79999187	0.00000000	-14.64690000	-7.93553100
139.99999186	0.00000000	-14.27165000	-8.31077700
140.19999185	0.00000000	-14.22859000	-9.05511800
140.39999184	0.00000000	-14.22859000	-9.47342500
140.59999182	0.00000000	-14.22859000	-9.89173200
140.79999181	0.00000000	-14.27165000	-10.62992000
140.99999180	0.00000000	-14.64690000	-11.00517000
141.19999179	0.00000000	-15.34203000	-11.00517000
141.39999178	0.00000000	-15.39124000	-10.62992000
141.59999176	0.00000000	-15.02214000	-9.84867000
141.79999175	0.00000000	-15.01599000	-9.09817800
141.99999174	0.00000000	-14.60384000	-8.31077700
142.19999173	0.00000000	-14.27165000	-7.93553100
142.39999172	0.00000000	-14.22859000	-7.89247000
142.59999170	0.00000000	-14.22859000	-7.93553100
142.79999169	0.00000000	-14.22859000	-8.31077700
142.99999168	0.00000000	-14.22859000	-9.09817800
143.19999167	0.00000000	-14.27165000	-9.84867000
143.39999166	0.00000000	-14.64690000	-10.62992000
143.59999165	0.00000000	-15.39124000	-11.00517000
143.79999163	0.00000000	-15.71727000	-11.04823000
143.99999162	0.00000000	-15.39124000	-11.00517000
144.19999161	0.00000000	-14.64690000	-10.62992000
144.39999160	0.00000000	-14.27165000	-9.84867000
144.59999159	0.00000000	-14.22859000	-9.09817800
144.79999157	0.00000000	-14.22859000	-8.31077700
144.99999156	0.00000000	-14.22859000	-7.93553100
145.19999155	0.00000000	-14.27165000	-7.93553100
145.39999154	0.00000000	-14.64690000	-8.31077700
145.59999153	0.00000000	-15.39124000	-9.05511800
145.79999151	0.00000000	-15.71727000	-9.47342500
145.99999150	0.00000000	-15.43430000	-9.89173200
146.19999149	0.00000000	-15.06521000	-10.62992000
146.39999148	0.00000000	-15.39124000	-11.00517000
146.59999147	0.00000000	-15.34203000	-11.04823000
146.79999146	0.00000000	-14.64690000	-11.00517000
146.99999144	0.00000000	-14.27165000	-10.62992000
147.19999143	0.00000000	-14.22859000	-9.89173200
147.39999142	0.00000000	-14.22859000	-9.47342500
147.59999141	0.00000000	-14.22859000	-9.05511800
147.79999140	0.00000000	-14.27165000	-8.31077700
147.99999138	0.00000000	-14.64690000	-7.98474400
148.19999137	0.00000000	-15.39124000	-8.31077700
148.39999136	0.00000000	-15.76649000	-9.05511800
148.59999135	0.00000000	-15.80955000	-9.47342500
148.79999134	0.00000000	-15.76649000	-9.89173200
148.99999132	0.00000000	-15.39124000	-10.62992000
149.19999131	0.00000000	-14.64690000	-10.95595000
149.39999130	0.00000000	-14.27165000	-10.67298000
149.59999129	0.00000000	-14.22859000	-10.26698000
149.79999128	0.00000000	-14.18553000	-10.21161000
149.99999127	0.00000000	-13.85334000	-9.47342500
150.19999125	0.00000000	-13.48425000	-8.77829600
150.39999124	0.00000000	-13.85334000	-9.05511800
150.59999123	0.00000000	-14.18553000	-9.00590400
150.79999122	0.00000000	-14.27165000	-8.35998900
150.99999121	0.00000000	-14.60384000	-8.35998900
151.19999119	0.00000000	-15.01599000	-9.05511800
151.39999118	0.00000000	-15.02214000	-9.43036400
151.59999117	0.00000000	-15.39124000	-9.47342500
151.79999116	0.00000000	-15.34203000	-9.47342500
151.99999115	0.00000000	-14.64690000	-9.47342500
152.19999113	0.00000000	-14.27165000	-9.47342500
152.39999112	0.00000000	-14.22859000	-9.47342500
152.59999111	0.00000000	-14.22859000	-9.47342500
152.79999110	0.00000000	-14.22859000	-9.47342500
152.99999109	0.00000000	-14.22859000	-9.47342500
153.19999108	0.00000000	-14.22859000	-9.43036400
153.39999106	0.00000000	-14.27165000	-9.09817800
153.59999105	0.00000000	-14.64690000	-8.72908400
153.79999104	0.00000000	-15.39124000	-9.09817800
153.99999103	0.00000000	-15.76649000	-9.38115100
154.19999102	0.00000000	-15.80955000	-9.09817800
154.39999100	0.00000000	-15.80955000	-8.72908400
154.59999099	0.00000000	-15.80955000	-9.09817800
154.79999098	0.00000000	-15.76649000	-9.43036400
154.99999097	0.00000000	-15.39124000	-9.47342500
155.19999096	0.00000000	-14.64690000	-9.47342500
155.39999094	0.00000000	-14.27165000	-9.47342500
155.59999093	0.00000000	-14.22859000	-9.47342500
155.79999092	0.00000000	-14.22859000	-9.47342500
155.99999091	0.00000000	-14.22859000	-9.47342500
156.19999090	0.00000000	-14.22859000	-9.43036400
156.39999089	0.00000000	-14.27165000	-9.05511800
156.59999087	0.00000000	-14.64690000	-8.31077700
156.79999086	0.00000000	-15.39124000	-7.93553100
156.99999085	0.00000000	-15.76649000	-7.89247000
157.19999084	0.00000000	-15.80955000	-7.93553100
157.39999083	0.00000000	-15.80955000	-8.31077700
157.59999081	0.00000000	-15.76649000	-9.05511800
157.79999080	0.00000000	-15.39124000	-9.47342500
157.99999079	0.00000000	-14.64690000	-9.84867000
158.19999078	0.00000000	-14.27165000	-10.25467000
158.39999077	0.00000000	-14.22859000	-10.21776000
158.59999075	0.00000000	-14.22859000	-10.25467000
158.79999074	0.00000000	-14.22859000	-9.84867000
158.99999073	0.00000000	-14.22859000	-9.51648500
159.19999072	0.00000000	-14.22859000	-9.43036400
159.39999071	0.00000000	-14.27165000	-9.05511800
159.59999070	0.00000000	-14.64690000	-8.31077700
159.79999068	0.00000000	-15.39124000	-7.93553100
159.99999067	0.00000000	-15.76649000	-7.89247000
160.19999066	0.00000000	-15.80955000	-7.89247000
160.39999065	0.00000000	-15.80955000	-7.93553100
160.59999064	0.00000000	-15.76649000	-8.31077700
160.79999062	0.00000000	-15.39124000	-9.05511800
160.99999061	0.00000000	-14.64690000	-9.47342500
161.19999060	0.00000000	-14.27165000	-9.84867000
161.39999059	0.00000000	-14.22859000	-10.21161000
161.59999058	0.00000000	-14.22859000	-9.84867000
161.79999056	0.00000000	-14.22859000	-9.51648500
161.99999055	0.00000000	-14.22859000	-9.47342500
162.19999054	0.00000000	-14.22859000	-9.47342500
162.39999053	0.00000000	-14.22859000	-9.47342500
162.59999052	0.00000000	-14.22859000	-9.43036400
162.79999051	0.00000000	-14.27165000	-9.09817800
162.99999049	0.00000000	-14.64690000	-8.72908400
163.19999048	0.00000000	-15.39124000	-9.09817800
163.39999047	0.00000000	-15.76649000	-9.43036400
163.59999046	0.00000000	-15.80955000	-9.51648500
163.79999045	0.00000000	-15.76649000	-9.84867000
163.99999043	0.00000000	-15.39124000	-10.21161000
164.19999042	0.00000000	-14.64690000	-9.84867000
164.39999041	0.00000000	-14.27165000	-9.51648500
164.59999040	0.00000000	-14.18553000	-9.47342500
164.79999039	0.00000000	-13.85334000	-9.47342500
164.99999037	0.00000000	-13.48425000	-9.47342500
165.19999036	0.00000000	-13.85334000	-9.47342500
165.39999035	0.00000000	-14.18553000	-9.47342500
165.59999034	0.00000000	-14.22859000	-9.47342500
165.79999033	0.00000000	-14.27165000	-9.47342500
165.99999032	0.00000000	-14.64690000	-9.47342500
166.19999030	0.00000000	-15.39124000	-9.47342500
166.39999029	0.00000000	-15.76649000	-9.47342500
166.59999028	0.00000000	-15.80955000	-9.47342500
166.79999027	0.00000000	-15.80955000	-9.47342500
166.99999026	0.00000000	-15.80955000	-9.51648500
167.19999024	0.00000000	-15.76649000	-9.84867000
167.39999023	0.00000000	-15.39124000	-10.21161000
167.59999022	0.00000000	-14.64690000	-9.84867000
167.79999021	0.00000000	-14.27165000	-9.51648500
167.99999020	0.00000000	-14.22859000	-9.47342500
168.19999018	0.00000000	-14.22859000	-9.47342500
168.39999017	0.00000000	-14.22859000	-9.47342500
168.59999016	0.00000000	-14.22859000	-9.47342500
168.79999015	0.00000000	-14.22859000	-9.47342500
168.99999014	0.00000000	-14.22859000	-9.47342500
169.19999013	0.00000000	-14.27165000	-9.47342500
169.39999011	0.00000000	-14.64690000	-9.47342500
169.59999010	0.00000000	-15.39124000	-9.47342500
169.79999009	0.00000000	-15.76649000	-9.47342500
169.99999008	0.00000000	-15.76649000	-9.47342500
170.19999007	0.00000000	-15.39124000	-9.47342500
170.39999005	0.00000000	-14.64690000	-9.47342500
170.59999004	0.00000000	-14.27165000	-9.47342500
170.79999003	0.00000000	-14.22859000	-9.47342500
170.99999002	0.00000000	-14.22859000	-9.47342500
171.19999001	0.00000000	-14.22859000	-9.47342500
171.39998999	0.00000000	-14.22859000	-9.47342500
171.59998998	0.00000000	-14.22859000	-9.47342500
171.79998997	0.00000000	-14.27165000	-9.47342500
171.99998996	0.00000000	-14.60384000	-9.47342500
172.19998995	0.00000000	-14.97293000	-9.47342500
172.39998994	0.00000000	-14.60384000	-9.47342500
172.59998992	0.00000000	-14.27165000	-9.47342500
172.79998991	0.00000000	-14.22859000	-9.47342500
172.99998990	0.00000000	-14.22859000	-9.47342500
173.19998989	0.00000000	-14.22859000	-9.47342500
173.39998988	0.00000000	-14.22859000	-9.47342500
173.59998986	0.00000000	-14.22859000	-9.47342500
173.79998985	0.00000000	-14.22859000	-9.47342500
173.99998984	0.00000000	-14.22859000	-9.47342500
174.19998983	0.00000000	-14.22859000	-9.47342500
174.39998982	0.00000000	-14.27165000	-9.47342500
174.59998980	0.00000000	-14.60384000	-9.47342500
174.79998979	0.00000000	-14.97293000	-9.47342500
174.99998978	0.00000000	-14.60384000	-9.47342500
175.19998977	0.00000000	-14.32087000	-9.47342500
175.39998976	0.00000000	-14.60384000	-9.47342500
175.59998975	0.00000000	-14.97293000	-9.47342500
175.79998973	0.00000000	-14.64690000	-9.47342500
175.99998972	0.00000000	-14.69611000	-9.47342500
176.19998971	0.00000000	-15.34203000	-9.47342500
176.39998970	0.00000000	-15.34203000	-9.47342500
176.59998969	0.00000000	-14.64690000	-9.47342500
176.79998967	0.00000000	-14.27165000	-9.47342500
176.99998966	0.00000000	-14.22859000	-9.47342500
177.19998965	0.00000000	-14.27165000	-9.47342500
177.39998964	0.00000000	-14.60384000	-9.47342500
177.59998963	0.00000000	-15.01599000	-9.47342500
177.79998961	0.00000000	-15.02214000	-9.47342500
177.99998960	0.00000000	-15.43430000	-9.47342500
178.19998959	0.00000000	-15.76649000	-9.47342500
178.39998958	0.00000000	-15.76649000	-9.47342500
178.59998957	0.00000000	-15.43430000	-9.47342500
178.79998956	0.00000000	-15.02214000	-9.47342500
178.99998954	0.00000000	-15.01599000	-9.47342500
179.19998953	0.00000000	-14.60384000	-9.47342500
179.39998952	0.00000000	-14.27165000	-9.47342500
179.59998951	0.00000000	-14.22859000	-9.47342500
179.79998950	0.00000000	-14.22859000	-9.47342500
179.99998948	0.00000000	-14.22859000	-9.47342500
180.19998947	0.00000000	-14.27165000	-9.47342500
180.39998946	0.00000000	-14.60384000	-9.47342500
180.59998945	0.00000000	-14.97293000	-9.47342500
180.79998944	0.00000000	-14.64690000	-9.47342500
180.99998942	0.00000000	-14.69611000	-9.47342500
181.19998941	0.00000000	-15.39124000	-9.47342500
181.39998940	0.00000000	-15.76649000	-9.47342500
181.59998939	0.00000000	-15.76649000	-9.47342500
181.79998938	0.00000000	-15.39124000	-9.47342500
181.99998937	0.00000000	-14.69611000	-9.47342500
182.19998935	0.00000000	-14.64690000	-9.47342500
182.39998934	0.00000000	-14.97293000	-9.47342500
182.59998933	0.00000000	-14.60384000	-9.47342500
182.79998932	0.00000000	-14.32087000	-9.47342500
182.99998931	0.00000000	-14.60384000	-9.47342500
183.19998929	0.00000000	-14.97293000	-9.47342500
183.39998928	0.00000000	-14.64690000	-9.47342500
183.59998927	0.00000000	-14.64690000	-9.47342500
183.79998926	0.00000000	-15.01599000	-9.47342500
183.99998925	0.00000000	-15.02214000	-9.47342500
184.19998923	0.00000000	-15.43430000	-9.47342500
184.39998922	0.00000000	-15.76649000	-9.43036400
184.59998921	0.00000000	-15.76649000	-9.05511800
184.79998920	0.00000000	-15.39124000	-8.35998900
184.99998919	0.00000000	-14.64690000	-8.35998900
185.19998918	0.00000000	-14.27165000	-9.05511800
185.39998916	0.00000000	-14.22859000	-9.43036400
185.59998915	0.00000000	-14.22859000	-9.47342500
185.79998914	0.00000000	-14.22859000	-9.47342500
185.99998913	0.00000000	-14.27165000	-9.47342500
186.19998912	0.00000000	-14.60384000	-9.47342500
186.39998910	0.00000000	-15.01599000	-9.47342500
186.59998909	0.00000000	-14.97908000	-9.47342500
186.79998908	0.00000000	-15.01599000	-9.47342500
186.99998907	0.00000000	-14.64690000	-9.43036400
187.19998906	0.00000000	-14.64690000	-9.05511800
187.39998904	0.00000000	-15.01599000	-8.31077700
187.59998903	0.00000000	-15.02214000	-7.93553100
187.79998902	0.00000000	-15.43430000	-7.89247000
187.99998901	0.00000000	-15.71727000	-7.93553100
188.19998900	0.00000000	-15.39124000	-8.31077700
188.39998899	0.00000000	-14.64690000	-9.09817800
188.59998897	0.00000000	-14.27165000	-9.84867000
188.79998896	0.00000000	-14.22859000	-10.62992000
188.99998895	0.00000000	-14.22859000	-10.95595000
189.19998894	0.00000000	-14.22859000	-10.62992000
189.39998893	0.00000000	-14.27165000	-9.89173200
189.59998891	0.00000000	-14.64690000	-9.51648500
189.79998890	0.00000000	-15.39124000	-9.47342500
189.99998889	0.00000000	-15.76649000	-9.47342500
190.19998888	0.00000000	-15.80955000	-9.47342500
190.39998887	0.00000000	-15.76649000	-9.47342500
190.59998885	0.00000000	-15.43430000	-9.47342500
190.79998884	0.00000000	-15.02214000	-9.47342500
190.99998883	0.00000000	-15.01599000	-9.47342500
191.19998882	0.00000000	-14.60384000	-9.47342500
191.39998881	0.00000000	-14.27165000	-9.47342500
191.59998880	0.00000000	-14.18553000	-9.47342500
191.79998878	0.00000000	-13.85334000	-9.47342500
191.99998877	0.00000000	-13.53346000	-9.43036400
192.19998876	0.00000000	-14.27165000	-9.09817800
192.39998875	0.00000000	-15.34203000	-8.72908400
192.59998874	0.00000000	-15.71727000	-9.09817800
192.79998872	0.00000000	-15.43430000	-9.43036400
192.99998871	0.00000000	-15.06521000	-9.47342500
193.19998870	0.00000000	-15.43430000	-9.47342500
193.39998869	0.00000000	-15.76649000	-9.47342500
193.59998868	0.00000000	-15.80955000	-9.47342500
193.79998866	0.00000000	-15.76649000	-9.47342500
193.99998865	0.00000000	-15.39124000	-9.47342500
194.19998864	0.00000000	-14.64690000	-9.47342500
194.39998863	0.00000000	-14.27165000	-9.47342500
194.59998862	0.00000000	-14.22859000	-9.47342500
194.79998861	0.00000000	-14.22859000	-9.47342500
194.99998859	0.00000000	-14.22859000	-9.47342500
195.19998858	0.00000000	-14.27165000	-9.47342500
195.39998857	0.00000000	-14.64690000	-9.47342500
195.59998856	0.00000000	-15.39124000	-9.47342500
195.79998855	0.00000000	-15.71727000	-9.47342500
195.99998853	0.00000000	-15.43430000	-9.47342500
