Time	Channel A	Channel B	Channel C
(us)	(V)	(mV)	(mV)

-4.49999956	0.00000000	-15.06521000	-9.47342500
-4.29999957	0.00000000	-15.43430000	-9.47342500
-4.09999958	0.00000000	-15.76649000	-9.47342500
-3.89999959	0.00000000	-15.80955000	-9.47342500
-3.69999960	0.00000000	-15.80955000	-9.47342500
-3.49999962	0.00000000	-15.76649000	-9.47342500
-3.29999963	0.00000000	-15.43430000	-9.47342500
-3.09999964	0.00000000	-15.06521000	-9.47342500
-2.89999965	0.00000000	-15.43430000	-9.47342500
-2.69999966	0.00000000	-15.76649000	-9.47342500
-2.49999968	0.00000000	-15.80955000	-9.47342500
-2.29999969	0.00000000	-15.80955000	-9.47342500
-2.09999970	0.00000000	-15.76649000	-9.47342500
-1.89999971	0.00000000	-15.43430000	-9.47342500
-1.69999972	0.00000000	-15.06521000	-9.47342500
-1.49999973	0.00000000	-15.43430000	-9.47342500
-1.29999975	0.00000000	-15.76649000	-9.47342500
-1.09999976	0.00000000	-15.80955000	-9.47342500
-0.89999977	0.00000000	-15.80955000	-9.47342500
-0.69999978	0.00000000	-15.80955000	-9.47342500
-0.49999979	0.00000000	-15.76649000	-9.47342500
-0.29999981	0.31803640	-15.43430000	-9.47342500
-0.09999982	0.63668800	-15.06521000	-9.47342500
0.10000017	0.95533960	-15.43430000	-9.47342500
0.30000016	0.95533960	-15.76649000	-9.47342500
0.50000015	0.79601380	-15.80955000	-9.47342500
0.70000013	0.31803640	-15.80955000	-9.47342500
0.90000012	-0.47736220	-15.80955000	-9.47342500
1.10000011	-1.43331700	-15.80955000	-9.47342500
1.30000010	-2.38927200	-15.80955000	-9.47342500
1.50000009	-2.70792300	-15.80955000	-9.47342500
1.70000008	-2.54859700	-15.76649000	-9.47342500
1.90000006	-1.27399100	-15.43430000	-9.47342500
2.10000005	0.47736220	-15.06521000	-9.47342500
2.30000004	2.70792300	-15.43430000	-9.47342500
2.50000003	4.45989200	-15.76649000	-9.47342500
2.70000002	5.41584600	-15.80955000	-9.51648500
2.90000000	4.93786900	-15.80955000	-9.89173200
3.09999999	3.02657500	-15.80955000	-10.62992000
3.29999998	0.00000000	-15.80955000	-10.95595000
3.49999997	-3.50393700	-15.80955000	-10.62992000
3.69999996	-6.37180100	-15.80955000	-9.89173200
3.89999994	-7.96444400	-15.80955000	-9.51648500
4.09999993	-7.48646600	-15.76649000	-9.43036400
4.29999992	-5.09719500	-15.43430000	-9.05511800
4.49999991	-1.11466500	-15.06521000	-8.35998900
4.69999990	3.34522600	-15.43430000	-8.35998900
4.89999989	7.16781500	-15.76649000	-9.05511800
5.09999987	9.23905000	-15.80955000	-9.47342500
5.29999986	9.07972400	-15.80955000	-9.89173200
5.49999985	6.69045300	-15.76649000	-10.62992000
5.69999984	2.38927200	-15.43430000	-11.00517000
5.89999983	-2.22994600	-15.06521000	-11.00517000
6.09999981	-6.53112700	-15.43430000	-10.62992000
6.29999980	-9.07972400	-15.76649000	-9.89173200
6.49999979	-9.23905000	-15.80955000	-9.51648500
6.69999978	-7.16781500	-15.80955000	-9.47342500
6.89999977	-3.50393700	-15.76649000	-9.47342500
7.09999975	0.95533960	-15.39124000	-9.43036400
7.29999974	4.77854300	-14.69611000	-9.09817800
7.49999973	7.16781500	-14.69611000	-8.72908400
7.69999972	7.64579200	-15.39124000	-9.09817800
7.89999971	6.37180100	-15.76649000	-9.43036400
8.09999970	3.50393700	-15.80955000	-9.47342500
8.29999968	0.15871060	-15.80955000	-9.47342500
8.49999967	-2.86724900	-15.80955000	-9.47342500
8.69999966	-4.61921700	-15.80955000	-9.47342500
8.89999965	-5.25652100	-15.80955000	-9.47342500
9.09999964	-4.45989200	-15.80955000	-9.47342500
9.29999962	-2.70792300	-15.80955000	-9.47342500
9.49999961	-0.63668800	-15.76649000	-9.47342500
9.69999960	1.11466500	-15.43430000	-9.47342500
9.89999959	2.22994600	-15.02214000	-9.47342500
10.09999958	2.54859700	-15.05905000	-9.47342500
10.29999956	2.22994600	-15.02214000	-9.47342500
10.49999955	1.43331700	-15.43430000	-9.47342500
10.69999954	0.63668800	-15.76649000	-9.47342500
10.89999953	-0.15871060	-15.80955000	-9.47342500
11.09999952	-0.79601380	-15.80955000	-9.47342500
11.29999951	-0.95533960	-15.80955000	-9.47342500
11.49999949	-0.95533960	-15.80955000	-9.47342500
11.69999948	-0.79601380	-15.80955000	-9.47342500
11.89999947	-0.47736220	-15.80955000	-9.47342500
12.09999946	-0.15871060	-15.80955000	-9.47342500
12.29999945	-0.15871060	-15.80955000	-9.47342500
12.49999943	0.00000000	-15.80955000	-9.47342500
12.69999942	0.00000000	-15.76649000	-9.47342500
12.89999941	0.00000000	-15.43430000	-9.47342500
13.09999940	0.15871060	-15.06521000	-9.47342500
13.29999939	0.15871060	-15.43430000	-9.47342500
13.49999937	0.00000000	-15.76649000	-9.47342500
13.69999936	0.00000000	-15.80955000	-9.47342500
13.89999935	0.00000000	-15.80955000	-9.47342500
14.09999934	-0.15871060	-15.76649000	-9.47342500
14.29999933	-0.15871060	-15.43430000	-9.47342500
14.49999932	-0.15871060	-15.06521000	-9.47342500
14.69999930	0.00000000	-15.43430000	-9.47342500
14.89999929	0.00000000	-15.76649000	-9.47342500
15.09999928	0.00000000	-15.80955000	-9.47342500
15.29999927	0.00000000	-15.80955000	-9.47342500
15.49999926	0.00000000	-15.80955000	-9.47342500
15.69999924	0.00000000	-15.80955000	-9.47342500
15.89999923	0.00000000	-15.80955000	-9.47342500
16.09999922	0.00000000	-15.80955000	-9.47342500
16.29999921	0.00000000	-15.80955000	-9.47342500
16.49999920	-0.15871060	-15.76649000	-9.47342500
16.69999919	0.00000000	-15.39124000	-9.47342500
16.89999917	-0.15871060	-14.64690000	-9.47342500
17.09999916	0.00000000	-14.22859000	-9.47342500
17.29999915	0.00000000	-13.81028000	-9.47342500
17.49999914	0.00000000	-13.11516000	-9.47342500
17.69999913	0.00000000	-13.11516000	-9.47342500
17.89999911	0.00000000	-13.85334000	-9.47342500
18.09999910	0.00000000	-14.64690000	-9.47342500
18.29999909	0.00000000	-15.85261000	-9.47342500
18.49999908	0.00000000	-17.39050000	-9.47342500
18.69999907	0.00000000	-18.92839000	-9.47342500
18.89999905	0.00000000	-20.04183000	-9.47342500
19.09999904	0.00000000	-20.04183000	-9.51648500
19.29999903	0.00000000	-18.83612000	-9.84867000
19.49999902	0.00000000	-16.46161000	-10.21161000
19.69999901	0.00000000	-12.60458000	-9.84867000
19.89999900	0.00000000	-8.41535400	-9.51648500
20.09999898	0.00000000	-5.29650500	-9.47342500
20.29999897	0.00000000	-3.80782500	-9.47342500
20.49999896	0.00000000	-4.64443900	-9.47342500
20.69999895	0.00000000	-8.59375000	-9.51648500
20.89999894	0.00000000	-15.11442000	-9.84867000
21.09999892	0.00000000	-22.87770000	-10.25467000
21.29999891	0.00000000	-29.81668000	-10.21776000
21.49999890	0.00000000	-34.79330000	-10.25467000
21.69999889	0.00000000	-35.86368000	-9.84867000
21.89999888	0.00000000	-31.95743000	-9.56569900
22.09999886	0.00000000	-23.76968000	-9.89173200
22.29999885	0.00000000	-12.13706000	-10.58686000
22.49999884	0.00000000	0.55979330	-10.58686000
22.69999883	0.00000000	10.93750000	-9.89173200
22.89999882	0.00000000	16.33243000	-9.47342500
23.09999881	0.00000000	15.03445000	-9.05511800
23.29999879	-0.15871060	6.42839500	-8.31077700
23.49999878	0.00000000	-9.01205700	-7.93553100
23.69999877	0.00000000	-27.48524000	-7.89247000
23.89999876	0.00000000	-44.10064000	-7.89247000
24.09999875	0.00000000	-55.26574000	-7.93553100
24.29999873	0.00000000	-57.91707000	-8.35998900
24.49999872	0.00000000	-50.89813000	-9.51648500
24.69999871	0.00000000	-35.35310000	-11.04823000
24.89999870	0.00000000	-13.71801000	-12.62918000
25.09999869	0.00000000	8.98129900	-14.16092000
25.29999867	0.00000000	26.71014000	-15.27436000
25.49999866	0.00000000	35.18085000	-15.23130000
25.69999865	0.00000000	32.06201000	-13.65650000
25.89999864	0.00000000	17.78420000	-10.58686000
26.09999863	0.00000000	-4.22613100	-6.72982200
26.29999862	0.00000000	-28.97392000	-3.19881900
26.49999860	0.00000000	-50.98425000	-0.13533460
26.69999859	0.00000000	-65.22514000	1.71628900
26.89999858	0.00000000	-67.96874000	0.89197830
27.09999857	0.00000000	-58.71063000	-2.59596400
27.29999856	0.00000000	-40.14518000	-8.44611200
27.49999854	0.00000000	-15.80955000	-15.78494000
27.69999853	0.00000000	8.42765700	-23.08686000
27.89999852	0.00000000	26.24877000	-28.42643000
28.09999851	0.00000000	34.06742000	-29.91511000
28.29999850	0.00000000	30.99163000	-26.80241000
28.49999848	0.00000000	17.87033000	-19.46358000
28.69999847	0.00000000	-2.17765700	-9.33809000
28.89999846	0.00000000	-24.18799000	1.86392700
29.09999845	0.00000000	-43.17175000	12.26624000
29.29999844	0.00000000	-55.21653000	18.68233000
29.49999843	0.00000000	-58.33538000	19.09449000
29.69999841	0.00000000	-52.18996000	12.87525000
29.89999840	0.00000000	-38.37352000	1.63016700
30.09999839	0.00000000	-20.97072000	-13.09670000
30.29999838	0.00000000	-3.89394600	-28.47564000
30.49999837	0.00000000	10.05167000	-40.37278000
30.69999835	0.00000000	17.77805000	-45.80462000
30.89999834	0.00000000	17.87033000	-43.48548000
31.09999833	0.00000000	10.98671000	-34.19045000
31.29999832	0.00000000	-0.59670270	-19.46358000
31.49999831	0.00000000	-14.13632000	-2.13459600
31.69999829	0.00000000	-26.93159000	13.74877000
31.89999828	0.00000000	-36.28199000	24.95079000
32.09999827	0.00000000	-40.98179000	29.54601000
32.29999826	0.00000000	-40.56348000	25.65207000
32.49999825	0.00000000	-34.79330000	14.12401000
32.69999824	0.00000000	-25.15994000	-2.13459600
32.89999822	0.00000000	-14.36393000	-19.88189000
33.09999821	0.00000000	-4.69365100	-35.34695000
33.29999820	0.00000000	1.54404500	-45.01722000
33.49999819	0.00000000	3.54330700	-47.38558000
33.69999818	0.00000000	1.63016700	-41.94759000
33.89999816	0.00000000	-3.80782500	-30.00738000
34.09999815	0.00000000	-11.48499000	-14.16708000
34.29999814	0.00000000	-19.58046000	2.09153500
34.49999813	0.00000000	-25.71973000	15.61270000
34.69999812	0.00000000	-28.50640000	23.69586000
34.89999810	0.00000000	-27.76821000	24.11417000
35.09999809	0.00000000	-24.32333000	17.19365000
35.29999808	0.00000000	-18.92839000	4.83513700
35.49999807	0.00000000	-13.15822000	-10.54380000
35.69999806	0.00000000	-8.50147600	-24.80315000
35.89999805	0.00000000	-5.85014700	-34.47342000
36.09999803	0.00000000	-6.22539300	-37.99828000
36.29999802	0.00000000	-9.62106200	-34.56570000
36.49999801	0.00000000	-14.22859000	-25.73203000
36.69999800	0.00000000	-18.87918000	-13.79183000
36.89999799	0.00000000	-22.74237000	-1.48253000
37.09999797	0.00000000	-24.60630000	7.72022600
37.29999796	0.00000000	-23.85581000	11.62032000
37.49999795	0.00000000	-20.41708000	9.34424200
37.69999794	0.00000000	-15.85261000	2.09153500
37.89999793	0.00000000	-11.53420000	-7.89247000
38.09999791	0.00000000	-8.08316900	-17.83957000
38.29999790	0.00000000	-6.18233200	-24.76009000
38.49999789	0.00000000	-6.92052100	-26.66708000
38.69999788	0.00000000	-9.57800100	-23.22835000
38.89999787	0.00000000	-13.11516000	-15.18824000
39.09999786	0.00000000	-17.39050000	-5.29035400
39.29999784	0.00000000	-21.57972000	3.11884800
39.49999783	0.00000000	-24.32333000	7.34498000
39.69999782	0.00000000	-25.11688000	6.23154500
39.89999781	0.00000000	-24.32333000	0.46751960
40.09999780	0.00000000	-21.57972000	-8.35998900
40.29999778	0.00000000	-17.34744000	-17.92569000
40.49999777	0.00000000	-12.73991000	-25.22145000
40.69999776	0.00000000	-8.83366100	-28.34030000
40.89999775	0.00000000	-6.45915300	-26.75935000
41.09999774	0.00000000	-5.33956700	-20.57702000
41.29999772	0.00000000	-6.13927100	-11.00517000
41.49999771	0.00000000	-9.20275500	-1.06422200
41.69999770	0.00000000	-13.02288000	6.23154500
41.89999769	0.00000000	-16.97219000	8.96899500
42.09999768	0.00000000	-20.46014000	6.74212600
42.29999767	0.00000000	-23.16068000	0.97810030
42.49999765	0.00000000	-24.32333000	-6.77903500
42.69999764	0.00000000	-23.57899000	-15.23130000
42.89999763	0.00000000	-21.66585000	-22.10876000
43.09999762	0.00000000	-18.92839000	-25.22145000
43.29999761	0.00000000	-15.85261000	-24.15723000
43.49999759	0.00000000	-13.15822000	-19.97416000
43.69999758	0.00000000	-11.57726000	-14.16708000
43.89999757	0.00000000	-11.15896000	-7.98474400
44.09999756	0.00000000	-11.48499000	-2.59596400
44.29999755	0.00000000	-12.22933000	0.46751960
44.49999753	0.00000000	-12.60458000	0.55979330
44.69999752	0.00000000	-12.69070000	-1.71013800
44.89999751	0.00000000	-13.06594000	-5.19808000
45.09999750	0.00000000	-13.81028000	-9.43036400
45.29999749	0.00000000	-14.27165000	-13.28125000
45.49999748	0.00000000	-15.11442000	-15.60654000
45.69999746	0.00000000	-17.05832000	-16.39395000
45.89999745	0.00000000	-19.38976000	-15.23130000
46.09999744	0.00000000	-22.09030000	-12.62918000
46.29999743	0.00000000	-24.32333000	-9.93479300
46.49999742	0.00000000	-24.64936000	-7.93553100
46.69999740	0.00000000	-22.74237000	-6.36072800
46.89999739	0.00000000	-18.83612000	-5.24729300
47.09999738	0.00000000	-13.76107000	-5.24729300
47.29999737	0.00000000	-7.94783400	-6.40378900
47.49999736	0.00000000	-2.64517700	-8.31077700
47.69999734	0.00000000	0.00615157	-10.62992000
47.89999733	0.00000000	-1.15649600	-12.58612000
48.09999732	0.00000000	-5.80708600	-14.11786000
48.29999731	0.00000000	-13.15822000	-14.85605000
48.49999730	0.00000000	-21.66585000	-14.07480000
48.69999729	0.00000000	-29.34916000	-12.16781000
48.89999727	0.00000000	-34.32578000	-9.42421200
49.09999726	0.00000000	-34.65797000	-6.36072800
49.29999725	0.00000000	-30.04429000	-3.70939900
49.49999724	0.00000000	-21.57972000	-2.54675200
49.69999723	0.00000000	-11.57726000	-3.29109200
49.89999721	0.00000000	-2.68823800	-5.19808000
50.09999720	0.00000000	3.08193900	-7.98474400
50.29999719	0.00000000	4.19537400	-11.46653000
50.49999718	0.00000000	0.00615157	-15.27436000
50.69999717	0.00000000	-8.04010800	-17.92569000
50.89999715	0.00000000	-17.29823000	-18.35015000
51.09999714	0.00000000	-25.81201000	-16.81225000
51.29999713	0.00000000	-31.58218000	-13.69956000
51.49999712	0.00000000	-33.12008000	-9.47342500
51.69999711	0.00000000	-30.04429000	-5.24729300
51.89999710	0.00000000	-23.11762000	-2.12844500
52.09999708	0.00000000	-14.32087000	-0.59670270
52.29999707	0.00000000	-6.22539300	-0.97194880
52.49999706	0.00000000	-1.24261800	-3.29109200
52.69999705	0.00000000	-0.41215550	-6.77903500
52.89999704	0.00000000	-3.89394600	-11.00517000
53.09999702	0.00000000	-10.37155000	-14.81299000
53.29999701	0.00000000	-18.08563000	-16.76919000
53.49999700	0.00000000	-24.60630000	-16.81225000
53.69999699	0.00000000	-28.46333000	-15.27436000
53.89999698	0.00000000	-28.46333000	-12.58612000
54.09999696	0.00000000	-24.64936000	-9.51648500
54.29999695	0.00000000	-18.50394000	-6.82209600
54.49999694	0.00000000	-11.62032000	-5.29035400
54.69999693	0.00000000	-6.22539300	-5.24729300
54.89999692	0.00000000	-3.89394600	-6.40378900
55.09999691	0.00000000	-4.64443900	-8.31077700
55.29999689	0.00000000	-8.50147600	-10.58686000
55.49999688	0.00000000	-14.22859000	-12.07554000
55.69999687	0.00000000	-19.99877000	-12.07554000
55.89999686	0.00000000	-24.23105000	-10.58686000
56.09999685	0.00000000	-25.81201000	-8.35383800
56.29999683	0.00000000	-24.64936000	-6.82209600
56.49999682	0.00000000	-21.24754000	-6.44685000
56.69999681	0.00000000	-16.60310000	-7.24040300
56.89999680	0.00000000	-12.36466000	-9.55954600
57.09999679	0.00000000	-8.83366100	-12.58612000
57.29999677	0.00000000	-6.96973400	-15.27436000
57.49999676	0.00000000	-7.34498000	-16.76919000
57.69999675	0.00000000	-10.03937000	-16.39395000
57.89999674	0.00000000	-14.18553000	-14.07480000
58.09999673	0.00000000	-18.04257000	-10.58686000
58.29999672	0.00000000	-20.41708000	-6.31151500
58.49999670	0.00000000	-21.57972000	-2.12844500
58.69999669	0.00000000	-21.16142000	0.51673230
58.89999668	0.00000000	-18.92839000	0.51673230
59.09999667	0.00000000	-16.27707000	-2.22071800
59.29999666	0.00000000	-14.27165000	-7.24040300
59.49999664	0.00000000	-12.73991000	-13.74262000
59.69999663	0.00000000	-11.99557000	-19.50664000
59.89999662	0.00000000	-12.69070000	-22.95152000
60.09999661	0.00000000	-13.81028000	-23.36368000
60.29999660	0.00000000	-14.64690000	-20.25714000
60.49999658	0.00000000	-15.80955000	-14.85605000
60.69999657	0.00000000	-16.92298000	-7.89247000
60.89999656	0.00000000	-17.29823000	-1.01501000
61.09999655	0.00000000	-16.97219000	3.58021600
61.29999654	0.00000000	-16.18479000	4.74286400
61.49999653	0.00000000	-15.43430000	2.04847400
61.69999651	0.00000000	-14.69611000	-3.70939900
61.89999650	0.00000000	-14.69611000	-11.04823000
62.09999649	0.00000000	-15.43430000	-18.39321000
62.29999648	0.00000000	-16.18479000	-24.15723000
62.49999647	0.00000000	-16.97219000	-26.80241000
62.69999645	0.00000000	-17.34744000	-25.27067000
62.89999644	0.00000000	-17.34744000	-19.92495000
63.09999643	0.00000000	-16.92298000	-12.62918000
63.29999642	0.00000000	-15.76649000	-5.24729300
63.49999641	0.00000000	-14.27165000	0.93503930
63.69999639	0.00000000	-13.11516000	4.78592500
63.89999638	0.00000000	-12.73991000	5.11195900
64.09999637	0.00000000	-13.06594000	1.71628900
64.29999636	0.00000000	-13.89641000	-4.40452700
64.49999635	0.00000000	-15.02214000	-10.96211000
64.69999634	0.00000000	-16.59695000	-16.85531000
64.89999632	0.00000000	-17.72268000	-21.46284000
65.09999631	0.00000000	-18.50394000	-23.73892000
65.29999630	0.00000000	-18.46087000	-22.61934000
65.49999629	0.00000000	-17.34744000	-18.85458000
65.69999628	0.00000000	-15.85261000	-14.21014000
65.89999626	0.00000000	-14.69611000	-9.51648500
66.09999625	0.00000000	-14.32087000	-5.24729300
66.29999624	0.00000000	-14.64690000	-2.12844500
66.49999623	0.00000000	-15.47736000	-0.55364170
66.69999622	0.00000000	-16.60310000	-0.55364170
66.89999620	0.00000000	-18.13484000	-2.08538400
67.09999619	0.00000000	-18.83612000	-4.77977300
67.29999618	0.00000000	-18.50394000	-7.89247000
67.49999617	0.00000000	-17.29823000	-11.04823000
67.69999616	0.00000000	-15.39124000	-14.16092000
67.89999615	0.00000000	-13.06594000	-16.85531000
68.09999613	0.00000000	-11.15896000	-18.43627000
68.29999612	0.00000000	-10.03937000	-18.85458000
68.49999611	0.00000000	-10.45768000	-18.43627000
68.69999610	0.00000000	-12.78297000	-16.81225000
68.89999609	0.00000000	-16.22785000	-13.69956000
69.09999607	0.00000000	-20.08489000	-9.47342500
69.29999606	0.00000000	-23.16068000	-5.19808000
69.49999605	0.00000000	-24.69857000	-1.71013800
69.69999604	0.00000000	-24.32333000	0.55979330
69.89999603	0.00000000	-21.95497000	0.55979330
70.09999601	0.00000000	-18.08563000	-1.75935000
70.29999600	0.00000000	-13.06594000	-5.66560000
70.49999599	0.00000000	-8.45841400	-11.04823000
70.69999598	0.00000000	-5.33956700	-16.39395000
70.89999597	0.00000000	-4.26919300	-19.92495000
71.09999596	0.00000000	-6.18233200	-21.50590000
71.29999594	0.00000000	-10.78371000	-21.08760000
71.49999593	0.00000000	-16.18479000	-18.35015000
71.69999592	0.00000000	-21.66585000	-13.79183000
71.89999591	0.00000000	-26.27953000	-8.77829600
72.09999590	0.00000000	-28.97392000	-4.91510800
72.29999588	0.00000000	-28.93085000	-2.50369100
72.49999587	0.00000000	-25.85507000	-1.80241100
72.69999586	0.00000000	-20.46014000	-2.92199800
72.89999585	0.00000000	-14.32087000	-5.98548200
73.09999584	0.00000000	-8.92593500	-9.42421200
73.29999582	0.00000000	-5.80708600	-12.53691000
73.49999581	0.00000000	-5.38877900	-14.81299000
73.69999580	0.00000000	-7.29576700	-15.23130000
73.89999579	0.00000000	-11.15896000	-14.16092000
74.09999578	0.00000000	-15.76649000	-12.62918000
74.29999577	0.00000000	-20.04183000	-11.09744000
74.49999575	0.00000000	-23.16068000	-9.98400600
74.69999574	0.00000000	-24.69857000	-9.93479300
74.89999573	0.00000000	-24.36639000	-10.67298000
75.09999572	0.00000000	-22.41634000	-11.42347000
75.29999571	0.00000000	-19.71580000	-12.21087000
75.49999569	0.00000000	-16.22785000	-12.49385000
75.69999568	0.00000000	-13.20128000	-11.74951000
75.89999567	0.00000000	-11.62032000	-9.79945900
76.09999566	0.00000000	-11.57726000	-7.51722400
76.29999565	0.00000000	-12.69070000	-5.24729300
76.49999563	0.00000000	-14.22859000	-4.12770700
76.69999562	0.00000000	-15.76649000	-4.91510800
76.89999561	0.00000000	-16.92298000	-7.24040300
77.09999560	0.00000000	-17.34744000	-11.09129000
77.29999559	0.00000000	-17.34744000	-15.27436000
77.49999558	0.00000000	-16.97219000	-18.39321000
77.69999556	0.00000000	-16.27707000	-19.97416000
77.89999555	0.00000000	-16.32013000	-19.93110000
78.09999554	0.00000000	-17.39050000	-17.93184000
78.29999553	0.00000000	-18.55315000	-13.69956000
78.49999552	0.00000000	-19.30364000	-8.35998900
78.69999550	0.00000000	-19.66658000	-3.70939900
78.89999549	0.00000000	-18.87918000	-0.59670270
79.09999548	0.00000000	-17.34744000	0.51673230
79.29999547	0.00000000	-15.39124000	-1.02116100
79.49999546	0.00000000	-13.11516000	-4.82898600
79.69999544	0.00000000	-11.62032000	-9.47342500
79.89999543	0.00000000	-11.57726000	-14.11786000
80.09999542	0.00000000	-12.69070000	-17.97490000
80.29999541	0.00000000	-14.27165000	-19.93110000
80.49999540	0.00000000	-16.27707000	-19.97416000
80.69999539	0.00000000	-18.92839000	-18.39321000
80.89999537	0.00000000	-21.20448000	-15.32357000
81.09999536	0.00000000	-21.99803000	-11.46653000
81.29999535	0.00000000	-21.62278000	-7.98474400
81.49999534	0.00000000	-20.04183000	-5.24729300
81.69999533	0.00000000	-17.34744000	-3.66633800
81.89999531	0.00000000	-14.32087000	-3.24803100
82.09999530	0.00000000	-11.99557000	-3.66633800
82.29999529	0.00000000	-11.20202000	-5.19808000
82.49999528	0.00000000	-11.57726000	-7.51722400
82.69999527	0.00000000	-13.11516000	-9.89173200
82.89999525	0.00000000	-15.39124000	-12.62918000
83.09999524	0.00000000	-17.34744000	-15.32357000
83.29999523	0.00000000	-18.92839000	-17.23056000
83.49999522	0.00000000	-20.04183000	-18.01796000
83.69999521	0.00000000	-20.04183000	-17.23056000
83.89999520	0.00000000	-18.97145000	-15.32357000
84.09999518	0.00000000	-17.80881000	-12.58612000
84.29999517	0.00000000	-17.01525000	-9.47342500
84.49999516	0.00000000	-16.22785000	-6.36072800
84.69999515	0.00000000	-15.85261000	-3.66633800
84.89999514	0.00000000	-15.80955000	-2.17150600
85.09999512	0.00000000	-15.80955000	-2.54675200
85.29999511	0.00000000	-15.80955000	-4.87204700
85.49999510	0.00000000	-15.80955000	-8.35998900
85.69999509	0.00000000	-15.80955000	-12.62918000
85.89999508	0.00000000	-15.80955000	-16.85531000
86.09999506	0.00000000	-15.80955000	-19.92495000
86.29999505	0.00000000	-15.85261000	-21.08760000
86.49999504	0.00000000	-16.27707000	-19.92495000
86.69999503	0.00000000	-17.43356000	-16.81225000
86.89999502	0.00000000	-18.87918000	-12.16166000
87.09999501	0.00000000	-19.66658000	-6.82209600
87.29999499	0.00000000	-19.34670000	-2.63902500
87.49999498	0.00000000	-18.92839000	-1.05807100
87.69999497	0.00000000	-18.08563000	-2.17765700
87.89999496	0.00000000	-16.22785000	-5.24729300
88.09999495	0.00000000	-14.73917000	-9.51648500
88.29999493	0.00000000	-14.27165000	-14.16708000
88.49999492	0.00000000	-14.27165000	-18.39321000
88.69999491	0.00000000	-14.69611000	-21.03838000
88.89999490	0.00000000	-15.85261000	-20.99532000
89.09999489	0.00000000	-17.39050000	-17.97490000
89.29999487	0.00000000	-18.87918000	-13.00443000
89.49999486	0.00000000	-19.66658000	-7.98474400
89.69999485	0.00000000	-19.34670000	-3.75246000
89.89999484	0.00000000	-18.97145000	-1.48253000
90.09999483	0.00000000	-18.55315000	-2.22071800
90.29999482	0.00000000	-17.76575000	-5.29035400
90.49999480	0.00000000	-17.01525000	-9.93479300
90.69999479	0.00000000	-16.22785000	-15.28051000
90.89999478	0.00000000	-15.85261000	-19.50664000
91.09999477	0.00000000	-15.80955000	-21.46284000
91.29999476	0.00000000	-15.85261000	-21.03838000
91.49999474	0.00000000	-16.22785000	-17.92569000
91.69999473	0.00000000	-16.92298000	-12.58612000
91.89999472	0.00000000	-16.92298000	-6.86515700
92.09999471	0.00000000	-16.22785000	-2.63902500
92.29999470	0.00000000	-15.90182000	-1.05807100
92.49999468	0.00000000	-16.22785000	-2.22071800
92.69999467	0.00000000	-17.01525000	-5.66560000
92.89999466	0.00000000	-17.76575000	-10.62992000
93.09999465	0.00000000	-18.59621000	-15.23130000
93.29999464	0.00000000	-19.34670000	-18.39321000
93.49999463	0.00000000	-20.08489000	-19.88189000
93.69999461	0.00000000	-20.04183000	-19.08834000
93.89999460	0.00000000	-18.92839000	-15.64960000
94.09999459	0.00000000	-17.39050000	-11.14050000
94.29999458	0.00000000	-15.76649000	-7.24040300
94.49999457	0.00000000	-13.85334000	-4.91510800
94.69999455	0.00000000	-11.99557000	-4.12770700
94.89999454	0.00000000	-11.62032000	-5.33341500
95.09999453	0.00000000	-12.73991000	-8.35998900
95.29999452	0.00000000	-14.69611000	-12.21087000
95.49999451	0.00000000	-17.43356000	-15.64960000
95.69999449	0.00000000	-20.50935000	-17.97490000
95.89999448	0.00000000	-23.20374000	-18.35015000
96.09999447	0.00000000	-24.74163000	-16.85531000
96.29999446	0.00000000	-24.69857000	-14.16092000
96.49999445	0.00000000	-22.78543000	-11.09744000
96.69999444	0.00000000	-19.30364000	-8.35383800
96.89999442	0.00000000	-15.43430000	-6.44685000
97.09999441	0.00000000	-11.57726000	-5.70866100
97.29999440	0.00000000	-8.92593500	-6.82209600
97.49999439	0.00000000	-8.45841400	-9.09817800
97.69999438	0.00000000	-9.62106200	-11.38041000
97.89999436	0.00000000	-11.99557000	-13.32431000
98.09999435	0.00000000	-15.85261000	-14.11786000
98.29999434	0.00000000	-20.04183000	-14.16708000
98.49999433	0.00000000	-23.20374000	-13.74262000
98.69999432	0.00000000	-25.15994000	-12.58612000
98.89999430	0.00000000	-25.90428000	-11.09744000
99.09999429	0.00000000	-24.69857000	-9.93479300
99.29999428	0.00000000	-21.66585000	-9.51648500
99.49999427	0.00000000	-17.80881000	-9.47342500
99.69999426	0.00000000	-14.32087000	-9.47342500
99.89999425	0.00000000	-11.57726000	-9.43036400
100.09999423	0.00000000	-10.03937000	-9.05511800
100.29999422	0.00000000	-10.03937000	-8.31077700
100.49999421	0.00000000	-11.57726000	-7.98474400
100.69999420	0.00000000	-14.27165000	-8.35998900
100.89999419	0.00000000	-17.34744000	-9.51648500
101.09999417	0.00000000	-20.08489000	-11.04823000
101.29999416	0.00000000	-22.04109000	-12.62918000
101.49999415	0.00000000	-23.20374000	-14.16092000
101.69999414	0.00000000	-23.20374000	-15.32357000
101.89999413	0.00000000	-22.04109000	-15.64960000
102.09999411	0.00000000	-20.13410000	-14.85605000
102.29999410	0.00000000	-17.80881000	-12.58612000
102.49999409	0.00000000	-15.85261000	-9.89173200
102.69999408	0.00000000	-14.27165000	-7.56643700
102.89999407	0.00000000	-13.11516000	-5.66560000
103.09999406	0.00000000	-12.73991000	-5.33341500
103.29999404	0.00000000	-13.15822000	-6.77903500
103.49999403	0.00000000	-14.73917000	-9.14124000
103.69999402	0.00000000	-17.34744000	-11.84178000
103.89999401	0.00000000	-19.66658000	-14.94833000
104.09999400	0.00000000	-20.88459000	-17.23056000
104.29999398	0.00000000	-21.66585000	-18.39321000
104.49999397	0.00000000	-21.62278000	-17.97490000
104.69999396	0.00000000	-20.50935000	-15.69882000
104.89999395	0.00000000	-18.97145000	-12.62918000
105.09999394	0.00000000	-17.39050000	-9.55954600
105.29999392	0.00000000	-15.85261000	-7.24040300
105.49999391	0.00000000	-14.73917000	-6.44685000
105.69999390	0.00000000	-14.73917000	-6.82209600
105.89999389	0.00000000	-15.85261000	-8.40305000
106.09999388	0.00000000	-17.39050000	-11.04823000
106.29999387	0.00000000	-18.92839000	-13.74262000
106.49999385	0.00000000	-20.08489000	-15.64960000
106.69999384	0.00000000	-20.46014000	-16.43701000
106.89999383	0.00000000	-20.13410000	-15.69882000
107.09999382	0.00000000	-19.34670000	-14.16092000
107.29999381	0.00000000	-18.55315000	-12.21087000
107.49999379	0.00000000	-17.39050000	-9.93479300
107.69999378	0.00000000	-16.27707000	-8.44611200
107.89999377	0.00000000	-15.90182000	-8.40305000
108.09999376	0.00000000	-16.27707000	-9.51648500
108.29999375	0.00000000	-17.43356000	-11.04823000
108.49999374	0.00000000	-18.92839000	-12.62918000
108.69999372	0.00000000	-20.08489000	-14.16092000
108.89999371	0.00000000	-20.50935000	-15.27436000
109.09999370	0.00000000	-20.50935000	-15.27436000
109.29999369	0.00000000	-20.08489000	-14.16092000
109.49999368	0.00000000	-18.92839000	-12.58612000
109.69999366	0.00000000	-17.43356000	-10.67298000
109.89999365	0.00000000	-16.27707000	-8.77214500
110.09999364	0.00000000	-15.85261000	-7.98474400
110.29999363	0.00000000	-15.85261000	-7.93553100
110.49999362	0.00000000	-16.27707000	-8.35998900
110.69999360	0.00000000	-17.39050000	-9.51648500
110.89999359	0.00000000	-18.55315000	-11.04823000
111.09999358	0.00000000	-19.30364000	-12.58612000
111.29999357	0.00000000	-19.75886000	-13.74262000
111.49999356	0.00000000	-19.72195000	-14.11786000
111.69999355	0.00000000	-19.75886000	-13.79183000
111.89999353	0.00000000	-19.30364000	-13.00443000
112.09999352	0.00000000	-18.59621000	-12.21087000
112.29999351	0.00000000	-17.80881000	-11.04823000
112.49999350	0.00000000	-17.43356000	-9.93479300
112.69999349	0.00000000	-17.39050000	-9.51648500
112.89999347	0.00000000	-17.39050000	-9.47342500
113.09999346	0.00000000	-17.39050000	-9.47342500
113.29999345	0.00000000	-17.43356000	-9.51648500
113.49999344	0.00000000	-17.76575000	-9.89173200
113.69999343	0.00000000	-18.13484000	-10.62992000
113.89999341	0.00000000	-17.80881000	-11.04823000
114.09999340	0.00000000	-17.85802000	-11.46653000
114.29999339	0.00000000	-18.55315000	-12.21087000
114.49999338	0.00000000	-18.92839000	-12.58612000
114.69999337	0.00000000	-18.97145000	-12.62918000
114.89999336	0.00000000	-18.97145000	-12.62918000
115.09999334	0.00000000	-18.92839000	-12.62918000
115.29999333	0.00000000	-18.55315000	-12.62918000
115.49999332	0.00000000	-17.80881000	-12.58612000
115.69999331	0.00000000	-17.43356000	-12.21087000
115.89999330	0.00000000	-17.43356000	-11.42347000
116.09999328	0.00000000	-17.80881000	-10.67298000
116.29999327	0.00000000	-18.55315000	-9.89173200
116.49999326	0.00000000	-18.92839000	-9.51648500
116.69999325	0.00000000	-18.97145000	-9.51648500
116.89999324	0.00000000	-18.97145000	-9.93479300
117.09999322	0.00000000	-18.97145000	-11.09744000
117.29999321	0.00000000	-18.92839000	-12.58612000
117.49999320	0.00000000	-18.55315000	-13.74262000
117.69999319	0.00000000	-17.76575000	-14.16708000
117.89999318	0.00000000	-17.01525000	-14.21014000
118.09999317	0.00000000	-16.27707000	-14.16708000
118.29999315	0.00000000	-16.32013000	-13.79183000
118.49999314	0.00000000	-17.39050000	-13.00443000
118.69999313	0.00000000	-18.59621000	-12.25394000
118.89999312	0.00000000	-19.72195000	-11.46653000
119.09999311	0.00000000	-20.87229000	-11.04823000
119.29999309	0.00000000	-20.92766000	-10.67298000
119.49999308	0.00000000	-20.97072000	-10.31004000
119.69999307	0.00000000	-21.24754000	-10.67298000
119.89999306	0.00000000	-20.46014000	-11.04823000
120.09999305	0.00000000	-18.97145000	-11.46653000
120.29999303	0.00000000	-17.43356000	-12.21087000
120.49999302	0.00000000	-16.27707000	-12.58612000
120.69999301	0.00000000	-15.85261000	-12.62918000
120.89999300	0.00000000	-15.85261000	-12.67224000
121.09999299	0.00000000	-16.27707000	-13.00443000
121.29999298	0.00000000	-17.43356000	-13.37352000
121.49999296	0.00000000	-18.92839000	-13.00443000
121.69999295	0.00000000	-20.13410000	-12.62918000
121.89999294	0.00000000	-20.92766000	-12.21087000
122.09999293	0.00000000	-21.66585000	-11.46653000
122.29999292	0.00000000	-21.66585000	-11.09129000
122.49999290	0.00000000	-20.92766000	-11.04823000
122.69999289	0.00000000	-20.13410000	-11.04823000
122.89999288	0.00000000	-18.97145000	-11.04823000
123.09999287	0.00000000	-17.80881000	-11.04823000
123.29999286	0.00000000	-17.01525000	-11.04823000
123.49999284	0.00000000	-16.27707000	-11.09129000
123.69999283	0.00000000	-16.27707000	-11.46653000
123.89999282	0.00000000	-17.01525000	-12.21087000
124.09999281	0.00000000	-17.76575000	-12.58612000
124.29999280	0.00000000	-18.59621000	-12.62918000
124.49999279	0.00000000	-19.34670000	-12.62918000
124.69999277	0.00000000	-20.13410000	-12.62918000
124.89999276	0.00000000	-20.50935000	-12.58612000
125.09999275	0.00000000	-20.55241000	-12.21087000
125.29999274	0.00000000	-20.50935000	-11.46653000
125.49999273	0.00000000	-20.13410000	-11.09129000
125.69999271	0.00000000	-19.34670000	-11.04823000
125.89999270	0.00000000	-18.59621000	-11.04823000
126.09999269	0.00000000	-17.76575000	-11.04823000
126.29999268	0.00000000	-17.01525000	-11.04823000
126.49999267	0.00000000	-16.27707000	-11.09129000
126.69999265	0.00000000	-16.27707000	-11.46653000
126.89999264	0.00000000	-17.01525000	-12.21087000
127.09999263	0.00000000	-17.80881000	-12.58612000
127.29999262	0.00000000	-18.97145000	-12.62918000
127.49999261	0.00000000	-20.13410000	-12.62918000
127.69999260	0.00000000	-20.88459000	-12.62918000
127.89999258	0.00000000	-21.29675000	-12.58612000
128.09999257	0.00000000	-20.88459000	-12.21087000
128.29999256	0.00000000	-20.13410000	-11.46653000
128.49999255	0.00000000	-18.97145000	-11.09129000
128.69999254	0.00000000	-17.80881000	-11.04823000
128.89999252	0.00000000	-17.05832000	-11.04823000
129.09999251	0.00000000	-16.64616000	-11.09129000
129.29999250	0.00000000	-17.05832000	-11.46653000
129.49999249	0.00000000	-17.76575000	-12.21087000
129.69999248	0.00000000	-18.59621000	-12.58612000
129.89999246	0.00000000	-19.34670000	-12.62918000
130.09999245	0.00000000	-20.13410000	-12.62918000
130.29999244	0.00000000	-20.50935000	-12.62918000
130.49999243	0.00000000	-20.55241000	-12.58612000
130.69999242	0.00000000	-20.50935000	-12.21087000
130.89999241	0.00000000	-20.08489000	-11.46653000
131.09999239	0.00000000	-18.97145000	-11.09129000
131.29999238	0.00000000	-17.85802000	-11.09129000
131.49999237	0.00000000	-17.43356000	-11.46653000
131.69999236	0.00000000	-17.43356000	-12.25394000
131.89999235	0.00000000	-17.80881000	-13.00443000
132.09999233	0.00000000	-18.55315000	-13.79183000
132.29999232	0.00000000	-18.97145000	-14.16708000
132.49999231	0.00000000	-19.38976000	-14.16708000
132.69999230	0.00000000	-20.13410000	-13.79183000
132.89999229	0.00000000	-20.46014000	-13.00443000
133.09999227	0.00000000	-20.13410000	-12.25394000
133.29999226	0.00000000	-19.38976000	-11.46653000
133.49999225	0.00000000	-19.01451000	-11.09129000
133.69999224	0.00000000	-18.97145000	-11.04823000
133.89999223	0.00000000	-19.01451000	-11.09129000
134.09999222	0.00000000	-19.34670000	-11.46653000
134.29999220	0.00000000	-19.71580000	-12.25394000
134.49999219	0.00000000	-19.34670000	-13.00443000
134.69999218	0.00000000	-19.01451000	-13.79183000
134.89999217	0.00000000	-18.97145000	-14.16708000
135.09999216	0.00000000	-18.97145000	-14.21014000
135.29999214	0.00000000	-18.97145000	-14.21014000
135.49999213	0.00000000	-18.97145000	-14.16708000
135.69999212	0.00000000	-19.01451000	-13.79183000
135.89999211	0.00000000	-19.38976000	-13.00443000
136.09999210	0.00000000	-20.13410000	-12.25394000
136.29999208	0.00000000	-20.55241000	-11.46653000
136.49999207	0.00000000	-20.92766000	-11.14050000
136.69999206	0.00000000	-21.29675000	-11.46653000
136.89999205	-0.15871060	-20.88459000	-12.21087000
137.09999204	0.00000000	-20.17716000	-12.58612000
137.29999203	0.00000000	-19.38976000	-12.67224000
137.49999201	0.00000000	-18.97145000	-13.04749000
137.69999200	0.00000000	-18.55315000	-13.79183000
137.89999199	0.00000000	-17.85802000	-14.16708000
138.09999198	0.00000000	-17.85802000	-14.21014000
138.29999197	0.00000000	-18.59621000	-14.16708000
138.49999195	0.00000000	-19.34670000	-13.79183000
138.69999194	0.00000000	-20.13410000	-13.04749000
138.89999193	0.00000000	-20.50935000	-12.62918000
139.09999192	0.00000000	-20.55241000	-12.21087000
139.29999191	0.00000000	-20.55241000	-11.46653000
139.49999189	0.00000000	-20.50935000	-11.09129000
139.69999188	0.00000000	-20.13410000	-11.04823000
139.89999187	0.00000000	-19.38976000	-11.09129000
140.09999186	0.00000000	-19.01451000	-11.46653000
140.29999185	0.00000000	-18.97145000	-12.25394000
140.49999184	0.00000000	-18.97145000	-13.00443000
140.69999182	0.00000000	-18.97145000	-13.79183000
140.89999181	0.00000000	-19.01451000	-14.16708000
141.09999180	0.00000000	-19.38976000	-14.21014000
141.29999179	0.00000000	-20.13410000	-14.16708000
141.49999178	0.00000000	-20.50935000	-13.74262000
141.69999176	0.00000000	-20.50935000	-12.62918000
141.89999175	0.00000000	-20.13410000	-11.51575000
142.09999174	0.00000000	-19.38976000	-11.04823000
142.29999173	0.00000000	-19.01451000	-10.67298000
142.49999172	0.00000000	-18.97145000	-10.31004000
142.69999170	0.00000000	-18.97145000	-10.72219000
142.89999169	0.00000000	-19.01451000	-11.42347000
143.09999168	0.00000000	-19.38976000	-12.25394000
143.29999167	0.00000000	-20.13410000	-13.00443000
143.49999166	0.00000000	-20.50935000	-13.79183000
143.69999165	0.00000000	-20.55241000	-14.16708000
143.89999163	0.00000000	-20.50935000	-14.16708000
144.09999162	0.00000000	-20.13410000	-13.79183000
144.29999161	0.00000000	-19.38976000	-13.00443000
144.49999160	0.00000000	-19.01451000	-12.25394000
144.69999159	0.00000000	-18.97145000	-11.46653000
144.89999157	0.00000000	-18.97145000	-11.09129000
145.09999156	0.00000000	-19.01451000	-11.04823000
145.29999155	0.00000000	-19.38976000	-11.09129000
145.49999154	0.00000000	-20.13410000	-11.46653000
145.69999153	0.00000000	-20.50935000	-12.25394000
145.89999151	0.00000000	-20.55241000	-13.00443000
146.09999150	0.00000000	-20.55241000	-13.79183000
146.29999149	0.00000000	-20.50935000	-14.16708000
146.49999148	0.00000000	-20.13410000	-14.21014000
146.69999147	0.00000000	-19.38976000	-14.16708000
146.89999146	0.00000000	-19.01451000	-13.79183000
147.09999144	0.00000000	-18.97145000	-13.04749000
147.29999143	0.00000000	-18.97145000	-12.62918000
147.49999142	0.00000000	-18.97145000	-12.21087000
147.69999141	0.00000000	-19.01451000	-11.46653000
147.89999140	0.00000000	-19.38976000	-11.14050000
148.09999138	0.00000000	-20.13410000	-11.46653000
148.29999137	0.00000000	-20.50935000	-12.21087000
148.49999136	0.00000000	-20.55241000	-12.62918000
148.69999135	0.00000000	-20.55241000	-13.04749000
148.89999134	0.00000000	-20.55241000	-13.79183000
149.09999132	0.00000000	-20.55241000	-14.11786000
149.29999131	0.00000000	-20.50935000	-13.79183000
149.49999130	0.00000000	-20.13410000	-13.04749000
149.69999129	0.00000000	-19.38976000	-12.67224000
149.89999128	0.00000000	-19.01451000	-12.58612000
150.09999127	0.00000000	-18.97145000	-12.25394000
150.29999125	0.00000000	-19.01451000	-11.84178000
150.49999124	0.00000000	-19.38976000	-11.87869000
150.69999123	0.00000000	-20.13410000	-11.84178000
150.89999122	0.00000000	-20.50935000	-12.25394000
151.09999121	0.00000000	-20.59547000	-12.62918000
151.29999119	0.00000000	-20.92766000	-13.00443000
151.49999118	0.00000000	-21.29675000	-13.37352000
151.69999117	0.00000000	-20.92766000	-13.00443000
151.89999116	0.00000000	-20.59547000	-12.67224000
152.09999115	0.00000000	-20.55241000	-12.67224000
152.29999113	0.00000000	-20.50935000	-13.00443000
152.49999112	0.00000000	-20.13410000	-13.37352000
152.69999111	0.00000000	-19.38976000	-13.00443000
152.89999110	0.00000000	-19.06373000	-12.67224000
153.09999109	0.00000000	-19.38976000	-12.62918000
153.29999108	0.00000000	-20.13410000	-12.62918000
153.49999106	0.00000000	-20.50935000	-12.62918000
153.69999105	0.00000000	-20.59547000	-12.62918000
153.89999104	0.00000000	-20.97072000	-12.62918000
154.09999103	0.00000000	-21.71506000	-12.62918000
154.29999102	0.00000000	-22.04109000	-12.62918000
154.49999100	0.00000000	-21.71506000	-12.62918000
154.69999099	0.00000000	-20.97072000	-12.62918000
154.89999098	0.00000000	-20.59547000	-12.62918000
155.09999097	0.00000000	-20.50935000	-12.62918000
155.29999096	0.00000000	-20.13410000	-12.62918000
155.49999094	0.00000000	-19.38976000	-12.62918000
155.69999093	0.00000000	-19.06373000	-12.62918000
155.89999092	0.00000000	-19.38976000	-12.62918000
156.09999091	0.00000000	-20.13410000	-12.62918000
156.29999090	0.00000000	-20.50935000	-12.58612000
156.49999089	0.00000000	-20.59547000	-12.21087000
156.69999087	0.00000000	-20.97072000	-11.46653000
156.89999086	0.00000000	-21.71506000	-11.09129000
157.09999085	0.00000000	-22.09030000	-11.09129000
157.29999084	0.00000000	-22.09030000	-11.46653000
157.49999083	0.00000000	-21.71506000	-12.21087000
157.69999081	0.00000000	-20.97072000	-12.58612000
157.89999080	0.00000000	-20.59547000	-12.67224000
158.09999079	0.00000000	-20.50935000	-13.04749000
158.29999078	0.00000000	-20.13410000	-13.79183000
158.49999077	0.00000000	-19.38976000	-14.11786000
158.69999075	0.00000000	-19.01451000	-13.79183000
158.89999074	0.00000000	-18.97145000	-13.00443000
159.09999073	0.00000000	-19.01451000	-12.25394000
159.29999072	0.00000000	-19.38976000	-11.46653000
159.49999071	0.00000000	-20.13410000	-11.09129000
159.69999070	0.00000000	-20.50935000	-11.04823000
159.89999068	0.00000000	-20.59547000	-11.09129000
160.09999067	0.00000000	-20.92766000	-11.46653000
160.29999066	0.00000000	-21.29675000	-12.21087000
160.49999065	0.00000000	-20.92766000	-12.62918000
160.69999064	0.00000000	-20.59547000	-13.04749000
160.89999062	0.00000000	-20.55241000	-13.79183000
161.09999061	0.00000000	-20.55241000	-14.16708000
161.29999060	0.00000000	-20.55241000	-14.21014000
161.49999059	0.00000000	-20.55241000	-14.21014000
161.69999058	0.00000000	-20.55241000	-14.16708000
161.89999056	0.00000000	-20.55241000	-13.79183000
162.09999055	0.00000000	-20.55241000	-13.04749000
162.29999054	0.00000000	-20.55241000	-12.67224000
162.49999053	0.00000000	-20.55241000	-12.62918000
162.69999052	0.00000000	-20.55241000	-12.62918000
162.89999051	0.00000000	-20.55241000	-12.62918000
163.09999049	0.00000000	-20.59547000	-12.62918000
163.29999048	0.00000000	-20.97072000	-12.62918000
163.49999047	0.00000000	-21.71506000	-12.62918000
163.69999046	0.00000000	-22.09030000	-12.62918000
163.89999045	0.00000000	-22.09030000	-12.67224000
164.09999043	0.00000000	-21.71506000	-13.00443000
164.29999042	0.00000000	-20.97072000	-13.41658000
164.49999041	0.00000000	-20.59547000	-13.37967000
164.69999040	0.00000000	-20.55241000	-13.41658000
164.89999039	0.00000000	-20.55241000	-13.00443000
165.09999037	0.00000000	-20.55241000	-12.67224000
165.29999036	0.00000000	-20.55241000	-12.62918000
165.49999035	0.00000000	-20.55241000	-12.62918000
165.69999034	0.00000000	-20.59547000	-12.62918000
165.89999033	0.00000000	-20.92766000	-12.62918000
166.09999032	0.00000000	-21.33981000	-12.62918000
166.29999030	0.00000000	-21.34596000	-12.62918000
166.49999029	0.00000000	-21.75812000	-12.62918000
166.69999028	0.00000000	-22.04109000	-12.62918000
166.89999027	0.00000000	-21.71506000	-12.62918000
167.09999026	0.00000000	-20.97072000	-12.62918000
167.29999024	0.00000000	-20.59547000	-12.67224000
167.49999023	0.00000000	-20.55241000	-13.04749000
167.69999022	0.00000000	-20.55241000	-13.74262000
167.89999021	0.00000000	-20.55241000	-13.74262000
168.09999020	0.00000000	-20.55241000	-13.09670000
168.29999018	0.00000000	-20.55241000	-13.09670000
168.49999017	0.00000000	-20.55241000	-13.74262000
168.69999016	0.00000000	-20.55241000	-13.74262000
168.89999015	0.00000000	-20.59547000	-13.04749000
169.09999014	0.00000000	-20.97072000	-12.72146000
169.29999013	0.00000000	-21.71506000	-13.04749000
169.49999011	0.00000000	-22.04109000	-13.74262000
169.69999010	0.00000000	-21.75812000	-13.79183000
169.89999009	0.00000000	-21.38902000	-13.46580000
170.09999008	0.00000000	-21.71506000	-13.83489000
170.29999007	0.00000000	-21.71506000	-14.16708000
170.49999005	0.00000000	-21.34596000	-14.16708000
170.69999004	0.00000000	-21.33981000	-13.83489000
170.89999003	0.00000000	-20.92766000	-13.46580000
171.09999002	0.00000000	-20.59547000	-13.83489000
171.29999001	0.00000000	-20.55241000	-14.11786000
171.49998999	0.00000000	-20.55241000	-13.83489000
171.69998998	0.00000000	-20.55241000	-13.42274000
171.89998997	0.00000000	-20.59547000	-13.45964000
172.09998996	0.00000000	-20.97072000	-13.42274000
172.29998995	0.00000000	-21.66585000	-13.83489000
172.49998994	0.00000000	-21.71506000	-14.11786000
172.69998992	0.00000000	-21.34596000	-13.79183000
172.89998991	0.00000000	-21.33981000	-13.04749000
173.09998990	0.00000000	-20.97072000	-12.67224000
173.29998989	0.00000000	-21.01993000	-12.62918000
173.49998988	0.00000000	-21.66585000	-12.62918000
173.69998986	0.00000000	-21.66585000	-12.62918000
173.89998985	0.00000000	-20.97072000	-12.62918000
174.09998984	0.00000000	-20.59547000	-12.62918000
174.29998983	0.00000000	-20.59547000	-12.62918000
174.49998982	0.00000000	-20.97072000	-12.62918000
174.69998980	0.00000000	-21.66585000	-12.62918000
174.89998979	0.00000000	-21.66585000	-12.62918000
175.09998978	0.00000000	-20.97072000	-12.62918000
175.29998977	0.00000000	-20.64468000	-12.62918000
175.49998976	0.00000000	-20.92766000	-12.62918000
175.69998975	0.00000000	-21.29675000	-12.62918000
175.89998973	0.00000000	-20.97072000	-12.62918000
176.09998972	0.00000000	-20.97072000	-12.62918000
176.29998971	0.00000000	-21.33981000	-12.62918000
176.49998970	0.00000000	-21.30290000	-12.62918000
176.69998969	0.00000000	-21.38287000	-12.62918000
176.89998967	0.00000000	-21.30290000	-12.62918000
177.09998966	0.00000000	-21.33981000	-12.62918000
177.29998965	0.00000000	-20.92766000	-12.62918000
177.49998964	0.00000000	-20.64468000	-12.62918000
177.69998963	0.00000000	-20.92766000	-12.62918000
177.89998961	0.00000000	-21.33981000	-12.62918000
178.09998960	0.00000000	-21.34596000	-12.62918000
178.29998959	0.00000000	-21.75812000	-12.62918000
178.49998958	0.00000000	-22.09030000	-12.62918000
178.69998957	0.00000000	-22.13336000	-12.62918000
178.89998956	0.00000000	-22.09030000	-12.62918000
179.09998954	0.00000000	-21.71506000	-12.62918000
179.29998953	0.00000000	-20.97072000	-12.67224000
179.49998952	0.00000000	-20.64468000	-13.04749000
179.69998951	0.00000000	-20.97072000	-13.79183000
179.89998950	0.00000000	-21.71506000	-14.16708000
180.09998948	0.00000000	-22.09030000	-14.21014000
180.29998947	0.00000000	-22.13336000	-14.21014000
180.49998946	0.00000000	-22.13336000	-14.21014000
180.69998945	0.00000000	-22.13336000	-14.21014000
180.89998944	0.00000000	-22.13336000	-14.21014000
181.09998942	0.00000000	-22.13336000	-14.21014000
181.29998941	0.00000000	-22.13336000	-14.16708000
181.49998940	0.00000000	-22.13336000	-13.83489000
181.69998939	0.00000000	-22.13336000	-13.42274000
181.89998938	0.00000000	-22.09030000	-13.45964000
182.09998937	0.00000000	-21.75812000	-13.42274000
182.29998935	0.00000000	-21.38902000	-13.83489000
182.49998934	0.00000000	-21.75812000	-14.16708000
182.69998933	0.00000000	-22.09030000	-14.21014000
182.89998932	0.00000000	-22.13336000	-14.21014000
183.09998931	0.00000000	-22.13336000	-14.21014000
183.29998929	0.00000000	-22.09030000	-14.21014000
183.49998928	0.00000000	-21.75812000	-14.21014000
183.69998927	0.00000000	-21.38902000	-14.21014000
183.89998926	0.00000000	-21.75812000	-14.21014000
184.09998925	0.00000000	-22.09030000	-14.21014000
184.29998923	0.00000000	-22.13336000	-14.16708000
184.49998922	0.00000000	-22.13336000	-13.79183000
184.69998921	0.00000000	-22.13336000	-13.04749000
184.89998920	0.00000000	-22.13336000	-12.72146000
185.09998919	0.00000000	-22.13336000	-13.04749000
185.29998918	0.00000000	-22.13336000	-13.79183000
185.49998916	0.00000000	-22.13336000	-14.16708000
185.69998915	0.00000000	-22.13336000	-14.21014000
185.89998914	0.00000000	-22.13336000	-14.21014000
186.09998913	0.00000000	-22.13336000	-14.21014000
186.29998912	0.00000000	-22.13336000	-14.21014000
186.49998910	0.00000000	-22.13336000	-14.21014000
186.69998909	0.00000000	-22.13336000	-14.21014000
186.89998908	0.00000000	-22.13336000	-14.16708000
187.09998907	0.00000000	-22.13336000	-13.79183000
187.29998906	0.00000000	-22.13336000	-13.04749000
187.49998904	0.00000000	-22.13336000	-12.67224000
187.69998903	0.00000000	-22.13336000	-12.62918000
187.89998902	0.00000000	-22.13336000	-12.62918000
188.09998901	0.00000000	-22.13336000	-12.62918000
188.29998900	0.00000000	-22.13336000	-12.67224000
188.49998899	0.00000000	-22.13336000	-13.04749000
188.69998897	0.00000000	-22.13336000	-13.79183000
188.89998896	0.00000000	-22.13336000	-14.16708000
189.09998895	0.00000000	-22.13336000	-14.21014000
189.29998894	0.00000000	-22.13336000	-14.21014000
189.49998893	0.00000000	-22.13336000	-14.21014000
189.69998891	0.00000000	-22.13336000	-14.21014000
189.89998890	0.00000000	-22.13336000	-14.16708000
190.09998889	0.00000000	-22.13336000	-13.79183000
190.29998888	0.00000000	-22.13336000	-13.04749000
190.49998887	0.00000000	-22.13336000	-12.67224000
190.69998885	0.00000000	-22.13336000	-12.62918000
190.89998884	0.00000000	-22.13336000	-12.62918000
191.09998883	0.00000000	-22.13336000	-12.67224000
191.29998882	0.00000000	-22.13336000	-13.04749000
191.49998881	0.00000000	-22.13336000	-13.79183000
191.69998880	0.00000000	-22.13336000	-14.16708000
191.89998878	0.00000000	-22.13336000	-14.21014000
192.09998877	0.00000000	-22.13336000	-14.21014000
192.29998876	0.00000000	-22.13336000	-14.16708000
192.49998875	0.00000000	-22.13336000	-13.83489000
192.69998874	0.00000000	-22.13336000	-13.46580000
192.89998872	0.00000000	-22.17643000	-13.83489000
193.09998871	0.00000000	-22.55167000	-14.16708000
193.29998870	0.00000000	-23.24680000	-14.16708000
193.49998869	0.00000000	-23.29601000	-13.79183000
193.69998868	0.00000000	-22.92692000	-13.09670000
193.89998866	0.00000000	-22.92076000	-13.09670000
194.09998865	0.00000000	-22.50861000	-13.79183000
194.29998864	0.00000000	-22.17643000	-14.16708000
194.49998863	0.00000000	-22.13336000	-14.21014000
194.69998862	0.00000000	-22.13336000	-14.21014000
194.89998861	0.00000000	-22.13336000	-14.21014000
195.09998859	0.00000000	-22.13336000	-14.21014000
195.29998858	0.00000000	-22.13336000	-14.21014000
195.49998857	0.00000000	-22.13336000	-14.21014000
195.69998856	0.00000000	-22.17643000	-14.21014000
195.89998855	0.00000000	-22.50861000	-14.21014000
196.09998853	0.00000000	-22.92076000	-14.21014000
