Time	Channel A	Channel B	Channel C
(us)	(V)	(mV)	(mV)

-4.59999956	0.00000000	39.48696000	13.37352000
-4.39999957	0.00000000	39.53002000	13.00443000
-4.19999958	0.00000000	39.53002000	12.67224000
-3.99999959	0.00000000	39.53002000	12.62918000
-3.79999960	0.00000000	39.53002000	12.62918000
-3.59999962	0.00000000	39.53002000	12.62918000
-3.39999963	0.00000000	39.53002000	12.62918000
-3.19999964	-0.15871060	39.53002000	12.62918000
-2.99999965	0.00000000	39.53002000	12.67224000
-2.79999966	0.00000000	39.53002000	13.00443000
-2.59999968	0.00000000	39.53002000	13.37352000
-2.39999969	0.00000000	39.53002000	13.00443000
-2.19999970	0.00000000	39.53002000	12.72146000
-1.99999971	0.00000000	39.53002000	13.00443000
-1.79999972	0.00000000	39.53002000	13.37352000
-1.59999973	0.00000000	39.53002000	13.00443000
-1.39999975	0.00000000	39.53002000	12.67224000
-1.19999976	0.00000000	39.53002000	12.67224000
-0.99999977	0.00000000	39.53002000	13.00443000
-0.79999978	0.00000000	39.53002000	13.37352000
-0.59999979	0.00000000	39.53002000	13.00443000
-0.39999981	0.15871060	39.53002000	12.67224000
-0.19999982	0.47736220	39.53002000	12.62918000
0.00000017	0.79601380	39.53002000	12.62918000
0.20000016	0.95533960	39.53002000	12.62918000
0.40000015	0.95533960	39.53002000	12.62918000
0.60000013	0.63668800	39.53002000	12.62918000
0.80000012	0.00000000	39.53002000	12.62918000
1.00000011	-0.95533960	39.53002000	12.62918000
1.20000010	-1.91129400	39.53002000	12.62918000
1.40000009	-2.70792300	39.53002000	12.62918000
1.60000008	-2.70792300	39.53002000	12.62918000
1.80000006	-2.07062000	39.53002000	12.67224000
2.00000005	-0.63668800	39.53002000	13.04749000
2.20000004	1.43331700	39.53002000	13.74262000
2.40000003	3.50393700	39.53002000	13.74262000
2.60000002	4.93786900	39.53002000	13.04749000
2.80000000	5.25652100	39.53002000	12.67224000
2.99999999	4.14124000	39.53002000	12.62918000
3.19999998	1.75196900	39.53002000	12.62918000
3.39999997	-1.59264300	39.53002000	12.62918000
3.59999996	-4.93786900	39.48696000	12.67224000
3.79999994	-7.32714100	39.19783000	13.04749000
3.99999993	-7.96444400	39.16092000	13.79183000
4.19999992	-6.69045300	39.89911000	14.16708000
4.39999991	-3.50393700	39.86220000	14.21014000
4.59999990	0.79601380	39.57308000	14.16708000
4.79999989	5.25652100	39.53002000	13.79183000
4.99999987	8.28309500	39.53002000	13.04749000
5.19999986	9.39837600	39.53002000	12.67224000
5.39999985	8.28309500	39.53002000	12.62918000
5.59999984	4.77854300	39.53002000	12.62918000
5.79999983	0.15871060	39.53002000	12.62918000
5.99999981	-4.45989200	39.53002000	12.67224000
6.19999980	-7.96444400	39.53002000	13.00443000
6.39999979	-9.55770200	39.53002000	13.37352000
6.59999978	-8.60174700	39.53002000	13.04749000
6.79999977	-5.57517200	39.53002000	13.09670000
6.99999975	-1.59264300	39.53002000	13.79183000
7.19999974	2.70792300	39.53002000	14.11786000
7.39999973	6.05315000	39.53002000	13.79183000
7.59999972	7.64579200	39.53002000	13.04749000
7.79999971	7.32714100	39.53002000	12.67224000
7.99999970	5.09719500	39.53002000	12.62918000
8.19999968	1.91129400	39.53002000	12.62918000
8.39999967	-1.27399100	39.53002000	12.62918000
8.59999966	-3.82258900	39.53002000	12.62918000
8.79999965	-5.09719500	39.53002000	12.62918000
8.99999964	-4.93786900	39.53002000	12.62918000
9.19999962	-3.82258900	39.53002000	12.67224000
9.39999961	-1.75196900	39.53002000	13.00443000
9.59999960	0.15871060	39.53002000	13.37352000
9.79999959	1.59264300	39.53002000	13.00443000
9.99999958	2.38927200	39.53002000	12.67224000
10.19999956	2.54859700	39.53002000	12.62918000
10.39999955	1.91129400	39.48696000	12.62918000
10.59999954	0.95533960	39.15477000	12.62918000
10.79999953	0.15871060	38.78568000	12.62918000
10.99999952	-0.47736220	39.15477000	12.62918000
11.19999951	-0.95533960	39.48696000	12.62918000
11.39999949	-0.95533960	39.53002000	12.62918000
11.59999948	-0.95533960	39.53002000	12.62918000
11.79999947	-0.63668800	39.53002000	12.62918000
11.99999946	-0.31803640	39.53002000	12.62918000
12.19999945	-0.15871060	39.53002000	12.62918000
12.39999943	-0.15871060	39.53002000	12.62918000
12.59999942	0.00000000	39.53002000	12.62918000
12.79999941	0.00000000	39.53002000	12.62918000
12.99999940	0.00000000	39.53002000	12.62918000
13.19999939	0.00000000	39.53002000	12.62918000
13.39999937	0.00000000	39.53002000	12.62918000
13.59999936	0.00000000	39.53002000	12.62918000
13.79999935	0.00000000	39.53002000	12.62918000
13.99999934	-0.15871060	39.53002000	12.62918000
14.19999933	-0.15871060	39.53002000	12.62918000
14.39999932	-0.15871060	39.53002000	12.62918000
14.59999930	-0.15871060	39.53002000	12.62918000
14.79999929	0.00000000	39.53002000	12.62918000
14.99999928	0.00000000	39.53002000	12.62918000
15.19999927	0.00000000	39.53002000	12.62918000
15.39999926	0.00000000	39.48696000	12.62918000
15.59999924	0.00000000	39.15477000	12.62918000
15.79999923	0.00000000	38.78568000	12.62918000
15.99999922	0.00000000	39.11171000	12.62918000
16.19999921	0.00000000	39.11171000	12.62918000
16.39999920	-0.15871060	38.78568000	12.62918000
16.59999919	-0.15871060	39.15477000	12.62918000
16.79999917	-0.15871060	39.53002000	12.62918000
16.99999916	0.00000000	39.94832000	12.62918000
17.19999915	0.00000000	40.69267000	12.62918000
17.39999914	0.00000000	41.06791000	12.62918000
17.59999913	0.00000000	41.06791000	12.62918000
17.79999911	0.00000000	40.69267000	12.62918000
17.99999910	0.00000000	39.90526000	12.67224000
18.19999909	0.00000000	39.11171000	13.04749000
18.39999908	0.00000000	37.90600000	13.74262000
18.59999907	0.00000000	36.36811000	13.74262000
18.79999905	0.00000000	34.87328000	13.04749000
18.99999904	0.00000000	34.13509000	12.67224000
19.19999903	0.00000000	34.92249000	12.62918000
19.39999902	0.00000000	36.83563000	12.62918000
19.59999901	0.00000000	39.62229000	12.62918000
19.79999900	0.00000000	43.11023000	12.62918000
19.99999898	0.00000000	46.92421000	12.62918000
20.19999897	0.00000000	49.57554000	12.62918000
20.39999896	0.00000000	49.95078000	12.62918000
20.59999895	0.00000000	47.95152000	12.62918000
20.79999894	0.00000000	43.25172000	12.62918000
20.99999892	0.00000000	36.27584000	12.72146000
21.19999891	0.00000000	28.54946000	13.37967000
21.39999890	0.00000000	21.65969000	14.11171000
21.59999889	0.00000000	17.89493000	13.37967000
21.79999888	0.00000000	19.05143000	12.72146000
21.99999886	0.00000000	24.91388000	12.62918000
22.19999885	0.00000000	34.68258000	12.62918000
22.39999884	0.00000000	47.43479000	12.62918000
22.59999883	0.00000000	60.08858000	12.62918000
22.79999882	0.00000000	68.93454000	12.62918000
22.99999881	0.00000000	71.59202000	12.67224000
23.19999879	0.00000000	66.84301000	13.04749000
23.39999878	0.00000000	54.84129000	13.79183000
23.59999877	0.00000000	37.81373000	14.21014000
23.79999876	0.00000000	19.70964000	14.62844000
23.99999875	0.00000000	4.68134800	15.32357000
24.19999873	0.00000000	-2.99581700	15.27436000
24.39999872	0.00000000	-1.41486200	14.16092000
24.59999871	0.00000000	9.47342500	12.62918000
24.79999870	0.00000000	28.07579000	11.04823000
24.99999869	0.00000000	50.46136000	9.51648500
25.19999867	0.00000000	71.67814000	8.35998900
25.39999866	0.00000000	86.24507000	8.02780400
25.59999865	0.00000000	90.10211000	8.82135800
25.79999864	0.00000000	81.96358000	11.14050000
25.99999863	0.00000000	63.81643000	14.25320000
26.19999862	0.00000000	39.48080000	17.78420000
26.39999860	0.00000000	14.77608000	21.59203000
26.59999859	0.00000000	-4.53371000	24.24335000
26.79999858	0.00000000	-14.20399000	24.61860000
26.99999857	0.00000000	-11.83563000	22.61934000
27.19999856	0.00000000	2.03002000	17.92569000
27.39999854	0.00000000	24.40330000	10.96211000
27.59999853	0.00000000	49.48942000	3.24803100
27.79999852	0.00000000	71.54281000	-3.62942900
27.99999851	0.00000000	85.86983000	-7.43725300
28.19999850	0.00000000	89.36392000	-6.64985200
28.39999848	0.00000000	81.68060000	-1.63016700
28.59999847	0.00000000	64.69611000	6.95743000
28.79999846	0.00000000	42.73499000	17.83341000
28.99999845	0.00000000	21.05684000	29.35531000
29.19999844	0.00000000	4.39837600	38.55192000
29.39999843	0.00000000	-4.15846400	42.37204000
29.59999841	0.00000000	-3.03887800	40.04060000
29.79999840	0.00000000	6.96358300	31.45300000
29.99999839	0.00000000	23.15453000	17.92569000
30.19999838	0.00000000	41.71383000	2.12844500
30.39999837	0.00000000	58.37229000	-12.13091000
30.59999835	0.00000000	70.05413000	-21.37672000
30.79999834	0.00000000	74.70472000	-23.69586000
30.99999833	0.00000000	71.63509000	-18.22096000
31.19999832	0.00000000	61.62647000	-5.90551100
31.39999831	0.00000000	47.38558000	10.72219000
31.59999829	0.00000000	32.68332000	27.73130000
31.79999828	0.00000000	20.63238000	42.03986000
31.99999827	0.00000000	13.23819000	50.49828000
32.19999826	0.00000000	11.65723000	50.87352000
32.39999825	0.00000000	15.84646000	43.20251000
32.59999824	0.00000000	24.36024000	29.21998000
32.79999822	0.00000000	35.16240000	11.83563000
32.99999821	0.00000000	45.99532000	-5.90551100
33.19999820	0.00000000	54.14001000	-19.37746000
33.39999819	0.00000000	58.42150000	-25.65207000
33.59999818	0.00000000	57.99704000	-24.11417000
33.79999816	0.00000000	52.69439000	-15.23745000
33.99999815	0.00000000	44.64813000	-0.88582670
34.19999814	0.00000000	36.50344000	16.07406000
34.39999813	0.00000000	29.52141000	32.23425000
34.59999812	0.00000000	25.28912000	43.06717000
34.79999810	0.00000000	24.87082000	46.69045000
34.99999809	0.00000000	27.89739000	43.52854000
35.19999808	0.00000000	33.29232000	33.90748000
35.39999807	0.00000000	39.48080000	19.69734000
35.59999806	0.00000000	45.20792000	5.42568800
35.79999805	0.00000000	48.69586000	-6.27460600
35.99999803	0.00000000	48.70201000	-13.57037000
36.19999802	0.00000000	46.08759000	-14.68381000
36.39999801	0.00000000	41.44316000	-8.92593500
36.59999800	0.00000000	36.45423000	2.12844500
36.79999799	0.00000000	32.17273000	14.81299000
36.99999797	0.00000000	29.56447000	25.63976000
37.19999796	0.00000000	29.89665000	32.56643000
37.39999795	0.00000000	32.96014000	33.72293000
37.59999794	0.00000000	37.16166000	28.80167000
37.79999793	0.00000000	41.85531000	20.01722000
37.99999791	0.00000000	45.67544000	10.02707000
38.19999790	0.00000000	47.99458000	1.57480300
38.39999789	0.00000000	47.99458000	-2.98351400
38.59999788	0.00000000	45.71850000	-2.23917300
38.79999787	0.00000000	42.22441000	3.84473400
38.99999786	0.00000000	37.94907000	12.62918000
39.19999784	0.00000000	33.71063000	21.46284000
39.39999783	0.00000000	30.63484000	27.96506000
39.59999782	0.00000000	29.42913000	29.82899000
39.79999781	0.00000000	30.17347000	26.42716000
39.99999780	0.00000000	32.12967000	18.72539000
40.19999778	0.00000000	35.24852000	9.14739100
40.39999777	0.00000000	39.11171000	-0.04921259
40.59999776	0.00000000	42.59965000	-5.72096400
40.79999775	0.00000000	45.38631000	-5.76402500
40.99999774	0.00000000	47.29946000	-0.46751960
41.19999772	0.00000000	48.04380000	7.98474400
41.39999771	0.00000000	46.83809000	17.27362000
41.59999770	0.00000000	43.80536000	25.73203000
41.79999769	0.00000000	39.94832000	31.07775000
41.99999768	0.00000000	36.45423000	31.45300000
42.19999767	0.00000000	33.66756000	26.89468000
42.39999765	0.00000000	31.75443000	18.85458000
42.59999764	0.00000000	30.96703000	10.02707000
42.79999763	0.00000000	31.75443000	2.63902500
42.99999762	0.00000000	33.66756000	-1.96235200
43.19999761	0.00000000	36.36811000	-2.79281500
43.39999759	0.00000000	39.06250000	0.27066930
43.59999758	0.00000000	41.01870000	5.61638700
43.79999757	0.00000000	42.22441000	12.21087000
43.99999756	0.00000000	42.64886000	18.35015000
44.19999755	0.00000000	42.64886000	22.61934000
44.39999753	0.00000000	42.27362000	24.15723000
44.59999752	0.00000000	41.52928000	22.66855000
44.79999751	0.00000000	41.15403000	18.90379000
44.99999750	0.00000000	41.06791000	14.62844000
45.19999749	0.00000000	40.64345000	10.76525000
45.39999748	0.00000000	39.43774000	7.65871000
45.59999746	0.00000000	37.48154000	6.48991100
45.79999745	0.00000000	34.78716000	6.82209600
45.99999744	0.00000000	32.08661000	8.40305000
46.19999743	0.00000000	30.13041000	11.04823000
46.39999742	0.00000000	29.01082000	13.74262000
46.59999740	0.00000000	29.47835000	15.69882000
46.79999739	0.00000000	32.26501000	16.89837000
46.99999738	0.00000000	37.29700000	17.27362000
47.19999737	0.00000000	43.85457000	16.85531000
47.39999736	0.00000000	49.95078000	15.32357000
47.59999734	0.00000000	53.85703000	13.00443000
47.79999733	0.00000000	54.55832000	10.72219000
47.99999732	0.00000000	51.80856000	8.77214500
48.19999731	0.00000000	45.25713000	7.98474400
48.39999730	0.00000000	36.78642000	7.98474400
48.59999729	0.00000000	28.59252000	8.82135800
48.79999727	0.00000000	21.70891000	11.14050000
48.99999726	0.00000000	18.31324000	14.11786000
49.19999725	0.00000000	20.21407000	16.48622000
49.39999724	0.00000000	26.35950000	17.74114000
49.59999723	0.00000000	35.34079000	18.85458000
49.79999721	0.00000000	45.67544000	19.08834000
49.99999720	0.00000000	54.45989000	16.76919000
50.19999719	0.00000000	58.37229000	12.62918000
50.39999718	0.00000000	57.25885000	8.44611200
50.59999717	0.00000000	51.80856000	5.66560000
50.79999715	0.00000000	42.59965000	4.49680100
50.99999714	0.00000000	32.64025000	4.54601300
51.19999713	0.00000000	24.87082000	6.86515700
51.39999712	0.00000000	20.63238000	10.67298000
51.59999711	0.00000000	21.05684000	14.58538000
51.79999710	0.00000000	26.40871000	18.43627000
51.99999708	0.00000000	34.83022000	21.08760000
52.19999707	0.00000000	43.67618000	21.50590000
52.39999706	0.00000000	50.60285000	19.97416000
52.59999705	0.00000000	53.72170000	16.90453000
52.79999704	0.00000000	52.55905000	13.04749000
52.99999702	0.00000000	47.57627000	9.55954600
53.19999701	0.00000000	39.94832000	6.86515700
53.39999700	0.00000000	32.64025000	5.75172200
53.59999699	0.00000000	27.60827000	6.86515700
53.79999698	0.00000000	25.66437000	9.47342500
53.99999696	0.00000000	27.56521000	12.16781000
54.19999695	0.00000000	32.17273000	14.11786000
54.39999694	0.00000000	38.36737000	15.32357000
54.59999693	0.00000000	44.83267000	15.69267000
54.79999692	0.00000000	49.06496000	15.27436000
54.99999691	0.00000000	49.86466000	13.74262000
55.19999689	0.00000000	47.53321000	11.51575000
55.39999688	0.00000000	42.18134000	10.02707000
55.59999687	0.00000000	35.71604000	10.02707000
55.79999686	0.00000000	30.68405000	11.51575000
55.99999685	0.00000000	27.94045000	13.79183000
56.19999683	0.00000000	27.94045000	15.69882000
56.39999682	0.00000000	30.64099000	16.85531000
56.59999681	0.00000000	35.24852000	16.81225000
56.79999680	0.00000000	40.64345000	15.23130000
56.99999679	0.00000000	45.20792000	12.16166000
57.19999677	0.00000000	47.57627000	8.35998900
57.39999676	0.00000000	47.20718000	5.33341500
57.59999675	0.00000000	44.92495000	4.21998000
57.79999674	0.00000000	41.06791000	5.75172200
57.99999673	0.00000000	36.87869000	9.60875900
58.19999672	0.00000000	33.71063000	14.58538000
58.39999670	0.00000000	31.79749000	19.59892000
58.59999669	0.00000000	31.43455000	23.04380000
58.79999668	0.00000000	33.29232000	24.20029000
58.99999667	0.00000000	35.99286000	22.61934000
59.19999666	0.00000000	38.69955000	18.35015000
59.39999664	0.00000000	41.38779000	12.21087000
59.59999663	0.00000000	42.51353000	5.66560000
59.79999662	0.00000000	42.22441000	0.68897630
59.99999661	0.00000000	41.06791000	-1.58710600
60.19999660	0.00000000	39.53002000	-0.04921259
60.39999658	0.00000000	37.94907000	4.96432100
60.59999657	0.00000000	36.46038000	11.89099000
60.79999656	0.00000000	35.71604000	19.59892000
60.99999655	0.00000000	36.46038000	25.68897000
61.19999654	0.00000000	37.90600000	28.42643000
61.39999653	0.00000000	39.11171000	27.26993000
61.59999651	0.00000000	39.90526000	22.66240000
61.79999650	0.00000000	40.64345000	15.69882000
61.99999649	0.00000000	40.60039000	8.02780400
62.19999648	0.00000000	39.43774000	1.43946800
62.39999647	0.00000000	37.57381000	-2.42372000
62.59999645	0.00000000	35.67298000	-3.16190900
62.79999644	0.00000000	34.92249000	-0.04921259
62.99999643	0.00000000	35.25467000	6.44685000
63.19999642	0.00000000	36.41117000	14.11786000
63.39999641	0.00000000	37.94907000	21.08760000
63.59999639	0.00000000	39.53002000	25.73203000
63.79999638	0.00000000	41.06791000	27.26378000
63.99999637	0.00000000	42.18134000	25.35679000
64.19999636	0.00000000	42.18134000	20.39247000
64.39999635	0.00000000	41.01870000	14.25320000
64.59999634	0.00000000	39.11171000	8.35998900
64.79999632	0.00000000	36.83563000	3.38336600
64.99999631	0.00000000	35.29773000	0.27682080
65.19999630	0.00000000	34.87943000	0.27066930
65.39999629	0.00000000	35.25467000	2.50369100
65.59999628	0.00000000	36.41117000	6.40378900
65.79999626	0.00000000	37.94907000	11.00517000
65.99999625	0.00000000	39.43774000	15.32357000
66.19999624	0.00000000	40.22515000	18.81152000
66.39999623	0.00000000	39.86220000	21.17372000
66.59999622	0.00000000	39.11171000	21.96727000
66.79999620	0.00000000	37.90600000	21.59203000
66.99999619	0.00000000	36.41117000	20.01722000
67.19999618	0.00000000	35.29773000	17.32283000
67.39999617	0.00000000	35.34079000	14.21014000
67.59999616	0.00000000	36.83563000	11.04823000
67.79999615	0.00000000	39.15477000	7.93553100
67.99999613	0.00000000	41.44316000	5.24729300
68.19999612	0.00000000	43.34399000	3.66633800
68.39999611	0.00000000	43.71924000	3.33415300
68.59999610	0.00000000	42.55659000	4.50295200
68.79999609	0.00000000	40.18209000	7.65255800
68.99999607	0.00000000	36.36811000	11.88484000
69.19999606	0.00000000	32.50492000	16.89837000
69.39999605	0.00000000	29.79823000	21.13066000
69.59999604	0.00000000	28.31570000	23.50517000
69.79999603	0.00000000	29.52141000	24.24335000
69.99999601	0.00000000	33.33538000	22.66855000
70.19999600	0.00000000	38.36737000	18.81152000
70.39999599	0.00000000	43.76230000	13.79183000
70.59999598	0.00000000	47.99458000	8.35998900
70.79999597	0.00000000	49.95078000	3.75246000
70.99999596	0.00000000	49.53248000	1.06422200
71.19999594	0.00000000	46.41363000	1.06422200
71.39999593	0.00000000	41.01870000	3.70939900
71.59999592	0.00000000	34.87328000	7.98474400
71.79999591	0.00000000	29.43528000	13.00443000
71.99999590	0.00000000	25.94119000	18.01796000
72.19999588	0.00000000	24.82160000	21.41363000
72.39999587	0.00000000	26.77780000	22.29331000
72.59999586	0.00000000	31.75443000	20.76772000
72.79999585	0.00000000	37.89985000	18.06717000
72.99999584	0.00000000	43.71924000	14.21014000
73.19999582	0.00000000	47.99458000	10.44537000
73.39999581	0.00000000	49.95078000	8.48917200
73.59999580	0.00000000	49.53248000	8.40305000
73.79999579	0.00000000	46.46284000	9.51648500
73.99999578	0.00000000	41.48622000	11.04823000
74.19999577	0.00000000	36.45423000	12.58612000
74.39999575	0.00000000	32.17273000	13.69956000
74.59999574	0.00000000	29.47835000	13.69956000
74.79999573	0.00000000	29.05389000	12.58612000
74.99999572	0.00000000	30.59178000	11.09744000
75.19999571	0.00000000	33.66756000	9.98400600
75.39999569	0.00000000	37.53075000	9.98400600
75.59999568	0.00000000	40.97564000	11.14050000
75.79999567	0.00000000	43.34399000	13.09055000
75.99999566	0.00000000	44.09449000	15.83415000
76.19999565	0.00000000	43.38705000	18.81152000
76.39999563	0.00000000	41.48622000	20.71235000
76.59999562	0.00000000	39.57308000	20.30020000
76.79999561	0.00000000	37.99213000	18.01796000
76.99999560	0.00000000	36.87869000	14.11786000
77.19999559	0.00000000	36.83563000	9.51648500
77.39999558	0.00000000	37.53075000	5.29035400
77.59999556	0.00000000	37.90600000	2.59596400
77.79999555	0.00000000	37.94907000	2.22071800
77.99999554	0.00000000	37.90600000	4.12770700
78.19999553	0.00000000	37.48154000	8.02780400
78.39999552	0.00000000	36.36811000	13.04749000
78.59999550	0.00000000	35.29773000	18.43627000
78.79999549	0.00000000	35.29773000	22.61934000
78.99999548	0.00000000	36.41117000	24.20029000
79.19999547	0.00000000	37.99213000	23.08686000
79.39999546	0.00000000	39.90526000	19.97416000
79.59999544	0.00000000	41.85531000	15.32357000
79.79999543	0.00000000	42.93184000	9.93479300
79.99999542	0.00000000	42.96875000	5.33341500
80.19999541	0.00000000	41.39394000	2.59596400
80.39999540	0.00000000	39.11171000	2.17150600
80.59999539	0.00000000	36.36811000	3.70939900
80.79999537	0.00000000	33.71063000	6.72982200
80.99999536	0.00000000	32.17273000	10.21161000
81.19999535	0.00000000	32.12967000	13.00443000
81.39999534	0.00000000	33.33538000	15.74188000
81.59999533	0.00000000	35.62377000	18.01796000
81.79999531	0.00000000	38.73647000	18.85458000
81.99999530	0.00000000	41.39394000	18.90379000
82.19999529	0.00000000	43.34399000	18.43627000
82.39999528	0.00000000	43.71924000	16.85531000
82.59999527	0.00000000	42.59965000	14.21014000
82.79999525	0.00000000	40.69267000	11.46653000
82.99999524	0.00000000	38.36737000	9.09817800
83.19999523	0.00000000	36.46038000	6.77903500
83.39999522	0.00000000	35.25467000	5.24729300
83.59999521	0.00000000	34.83022000	4.87204700
83.79999520	0.00000000	34.83022000	5.66560000
83.99999518	0.00000000	35.25467000	8.02780400
84.19999517	0.00000000	36.36811000	11.46653000
84.39999516	0.00000000	37.53075000	15.36663000
84.59999515	0.00000000	38.32431000	18.81152000
84.79999514	0.00000000	39.11171000	21.13066000
84.99999512	0.00000000	39.48696000	21.50590000
85.19999511	0.00000000	39.53002000	19.97416000
85.39999510	0.00000000	39.53002000	16.85531000
85.59999509	0.00000000	39.53002000	12.62918000
85.79999508	0.00000000	39.53002000	8.35998900
85.99999506	0.00000000	39.53002000	4.87204700
86.19999505	0.00000000	39.48696000	2.59596400
86.39999504	0.00000000	39.06250000	2.63902500
86.59999503	0.00000000	37.90600000	5.29035400
86.79999502	0.00000000	36.41117000	9.51648500
86.99999501	0.00000000	35.25467000	14.16708000
87.19999499	0.00000000	34.87943000	18.39321000
87.39999498	0.00000000	35.25467000	21.08760000
87.59999497	0.00000000	36.41117000	21.46284000
87.79999496	0.00000000	37.94907000	19.54970000
87.99999495	0.00000000	39.48696000	15.69882000
88.19999493	0.00000000	40.64345000	11.09129000
88.39999492	0.00000000	41.01870000	6.86515700
88.59999491	0.00000000	40.69267000	4.17076700
88.79999490	0.00000000	39.90526000	3.80167300
88.99999489	0.00000000	39.11171000	5.70866100
89.19999487	0.00000000	37.90600000	9.56569900
89.39999486	0.00000000	36.41117000	14.16708000
89.59999485	0.00000000	35.25467000	18.39321000
89.79999484	0.00000000	34.87943000	21.08760000
89.99999483	0.00000000	35.25467000	21.46284000
90.19999482	0.00000000	36.36811000	19.50664000
90.39999480	0.00000000	37.53075000	15.32357000
90.59999479	0.00000000	38.32431000	10.35310000
90.79999478	-0.15871060	39.11171000	6.44685000
90.99999477	0.00000000	39.43774000	3.75246000
91.19999476	0.00000000	39.15477000	3.05733300
91.39999474	0.00000000	38.74261000	5.33341500
91.59999473	0.00000000	38.73647000	9.51648500
91.79999472	0.00000000	38.32431000	14.16708000
91.99999471	0.00000000	37.99213000	18.39321000
92.19999470	0.00000000	37.94907000	21.03838000
92.39999468	0.00000000	37.94907000	21.03838000
92.59999467	0.00000000	37.90600000	18.39321000
92.79999466	0.00000000	37.53075000	14.16708000
92.99999465	0.00000000	36.74335000	9.51648500
93.19999464	0.00000000	35.99286000	5.33341500
93.39999463	0.00000000	35.20546000	3.05733300
93.59999461	0.00000000	34.87943000	3.79552100
93.79999460	0.00000000	35.25467000	6.82209600
93.99999459	0.00000000	36.46038000	11.09129000
94.19999458	0.00000000	38.36737000	15.64960000
94.39999457	0.00000000	40.64345000	19.08834000
94.59999455	0.00000000	42.22441000	19.93110000
94.79999454	0.00000000	43.02411000	18.81152000
94.99999453	0.00000000	43.34399000	16.43701000
95.19999452	0.00000000	42.09522000	12.58612000
95.39999451	0.00000000	39.06250000	8.44611200
95.59999449	0.00000000	35.24852000	5.75172200
95.79999448	0.00000000	32.17273000	5.29035400
95.99999447	0.00000000	30.54872000	6.44685000
96.19999446	0.00000000	30.17347000	8.77214500
96.39999445	0.00000000	31.01009000	12.25394000
96.59999444	0.00000000	33.75369000	15.64960000
96.79999442	0.00000000	37.89985000	17.92569000
96.99999441	0.00000000	41.80610000	17.97490000
97.19999440	0.00000000	44.55585000	16.11712000
97.39999439	0.00000000	46.46284000	13.83489000
97.59999438	0.00000000	46.41363000	11.46653000
97.79999436	0.00000000	44.13755000	9.60875900
97.99999435	0.00000000	40.64345000	8.77829600
98.19999434	0.00000000	36.36811000	9.14124000
98.39999433	0.00000000	32.17273000	9.89173200
98.59999432	0.00000000	29.47835000	11.04823000
98.79999430	0.00000000	29.01082000	12.21087000
98.99999429	0.00000000	30.17347000	13.00443000
99.19999428	0.00000000	32.50492000	13.74262000
99.39999427	0.00000000	35.99286000	13.79183000
99.59999426	0.00000000	39.48696000	13.46580000
99.79999425	0.00000000	42.59965000	13.83489000
99.99999423	0.00000000	44.92495000	14.21014000
100.19999422	0.00000000	45.67544000	14.62844000
100.39999421	0.00000000	44.92495000	15.32357000
100.59999420	0.00000000	42.59965000	15.32357000
100.79999419	0.00000000	39.53002000	14.53617000
100.99999417	0.00000000	36.41117000	13.37352000
101.19999416	0.00000000	33.71063000	11.42347000
101.39999415	0.00000000	32.12967000	9.55954600
101.59999414	0.00000000	31.71137000	8.35998900
101.79999413	0.00000000	32.12967000	7.98474400
101.99999411	0.00000000	33.66756000	8.40305000
102.19999410	0.00000000	35.99286000	9.98400600
102.39999409	0.00000000	38.32431000	12.67224000
102.59999408	0.00000000	40.64345000	15.69882000
102.79999407	0.00000000	42.18134000	18.01796000
102.99999406	0.00000000	42.59965000	18.81152000
103.19999404	0.00000000	42.22441000	18.43627000
103.39999403	0.00000000	41.01870000	16.81225000
103.59999402	0.00000000	39.11171000	13.79183000
103.79999401	0.00000000	36.78642000	10.35310000
103.99999400	0.00000000	34.87328000	8.02780400
104.19999398	0.00000000	33.66756000	6.77903500
104.39999397	0.00000000	33.29232000	6.44685000
104.59999396	0.00000000	33.66756000	7.28346400
104.79999395	0.00000000	34.83022000	9.93479300
104.99999394	0.00000000	36.36811000	13.32431000
105.19999392	0.00000000	37.94907000	15.69882000
105.39999391	0.00000000	39.43774000	17.23056000
105.59999390	0.00000000	40.22515000	17.59966000
105.79999389	0.00000000	39.86220000	16.07406000
105.99999388	0.00000000	39.11171000	13.83489000
106.19999387	0.00000000	37.94907000	11.46653000
106.39999385	0.00000000	36.83563000	9.55954600
106.59999384	0.00000000	36.41117000	8.40305000
106.79999383	0.00000000	36.36811000	8.40305000
106.99999382	0.00000000	36.41117000	9.51648500
107.19999381	0.00000000	36.78642000	11.04823000
107.39999379	0.00000000	37.57381000	12.62918000
107.59999378	0.00000000	38.28125000	14.16092000
107.79999377	0.00000000	38.69341000	15.27436000
107.99999376	0.00000000	38.28125000	15.27436000
108.19999375	0.00000000	37.57381000	14.16092000
108.39999374	0.00000000	36.74335000	12.62918000
108.59999372	0.00000000	35.99286000	11.04823000
108.79999371	0.00000000	35.25467000	9.55954600
108.99999370	0.00000000	35.25467000	8.82135800
109.19999369	0.00000000	35.99286000	9.55954600
109.39999368	0.00000000	36.78642000	11.04823000
109.59999366	0.00000000	37.94907000	12.62918000
109.79999365	0.00000000	39.06250000	14.16092000
109.99999364	0.00000000	39.48696000	15.32357000
110.19999363	0.00000000	39.48696000	15.69267000
110.39999362	0.00000000	39.11171000	15.32357000
110.59999360	0.00000000	38.32431000	14.11786000
110.79999359	0.00000000	37.57381000	12.25394000
110.99999358	0.00000000	36.74335000	10.35310000
111.19999357	0.00000000	35.99286000	9.56569900
111.39999356	0.00000000	35.25467000	9.47342500
111.59999355	0.00000000	35.29773000	9.51648500
111.79999353	0.00000000	36.36811000	9.93479300
111.99999352	0.00000000	37.48154000	11.04823000
112.19999351	0.00000000	37.90600000	12.21087000
112.39999350	0.00000000	37.94907000	13.00443000
112.59999349	0.00000000	37.94907000	13.79183000
112.79999347	0.00000000	37.94907000	14.11786000
112.99999346	0.00000000	37.94907000	13.79183000
113.19999345	0.00000000	37.90600000	13.04749000
113.39999344	0.00000000	37.53075000	12.67224000
113.59999343	0.00000000	36.78642000	12.58612000
113.79999341	0.00000000	36.41117000	12.21087000
113.99999340	0.00000000	36.41117000	11.46653000
114.19999339	0.00000000	36.74335000	11.09129000
114.39999338	0.00000000	37.15551000	11.04823000
114.59999337	0.00000000	37.16166000	11.04823000
114.79999336	0.00000000	37.57381000	11.04823000
114.99999334	0.00000000	37.90600000	11.04823000
115.19999333	0.00000000	37.94907000	11.04823000
115.39999332	0.00000000	37.94907000	11.09129000
115.59999331	0.00000000	37.94907000	11.46653000
115.79999330	0.00000000	37.90600000	12.21087000
115.99999328	0.00000000	37.53075000	12.62918000
116.19999327	0.00000000	36.78642000	13.04749000
116.39999326	0.00000000	36.41117000	13.79183000
116.59999325	0.00000000	36.36811000	14.11786000
116.79999324	0.00000000	36.36811000	13.79183000
116.99999322	0.00000000	36.41117000	13.00443000
117.19999321	0.00000000	36.78642000	12.25394000
117.39999320	0.00000000	37.57381000	11.42347000
117.59999319	0.00000000	38.32431000	10.67298000
117.79999318	0.00000000	39.11171000	9.93479300
117.99999317	-0.15871060	39.48696000	9.93479300
118.19999315	0.00000000	39.48696000	10.67298000
118.39999314	0.00000000	39.06250000	11.42347000
118.59999313	0.00000000	37.94907000	12.25394000
118.79999312	0.00000000	36.78642000	13.00443000
118.99999311	0.00000000	35.99286000	13.79183000
119.19999309	0.00000000	35.20546000	14.16708000
119.39999308	0.00000000	34.87943000	14.16708000
119.59999307	0.00000000	35.20546000	13.79183000
119.79999306	0.00000000	35.99286000	13.00443000
119.99999305	0.00000000	36.78642000	12.25394000
120.19999303	0.00000000	37.99213000	11.46653000
120.39999302	0.00000000	39.48696000	11.09129000
120.59999301	0.00000000	40.60039000	11.04823000
120.79999300	0.00000000	40.64345000	11.04823000
120.99999299	0.00000000	39.90526000	11.04823000
121.19999298	0.00000000	39.11171000	11.04823000
121.39999296	0.00000000	37.90600000	11.09129000
121.59999295	0.00000000	36.41117000	11.46653000
121.79999294	0.00000000	35.25467000	12.21087000
121.99999293	0.00000000	34.83022000	12.58612000
122.19999292	0.00000000	34.83022000	12.62918000
122.39999290	0.00000000	35.20546000	12.62918000
122.59999289	0.00000000	35.99286000	12.62918000
122.79999288	0.00000000	36.74335000	12.67224000
122.99999287	0.00000000	37.61687000	13.00443000
123.19999286	0.00000000	38.69955000	13.37352000
123.39999284	0.00000000	39.84990000	13.00443000
123.59999283	0.00000000	39.86220000	12.67224000
123.79999282	0.00000000	39.53002000	12.62918000
123.99999281	0.00000000	39.11171000	12.58612000
124.19999280	0.00000000	38.32431000	12.21087000
124.39999279	0.00000000	37.53075000	11.46653000
124.59999277	0.00000000	36.36811000	11.09129000
124.79999276	0.00000000	35.25467000	11.09129000
124.99999275	0.00000000	34.83022000	11.46653000
125.19999274	0.00000000	34.83022000	12.21087000
125.39999273	0.00000000	35.20546000	12.62918000
125.59999271	0.00000000	35.99286000	13.04749000
125.79999270	0.00000000	36.78642000	13.79183000
125.99999269	0.00000000	37.94907000	14.16708000
126.19999268	0.00000000	39.06250000	14.16708000
126.39999267	0.00000000	39.48696000	13.79183000
126.59999265	0.00000000	39.53002000	13.00443000
126.79999264	0.00000000	39.48696000	12.25394000
126.99999263	0.00000000	39.06250000	11.46653000
127.19999262	0.00000000	37.90600000	11.09129000
127.39999261	0.00000000	36.41117000	11.09129000
127.59999260	0.00000000	35.25467000	11.42347000
127.79999258	0.00000000	34.83022000	11.79257000
127.99999257	0.00000000	34.83022000	11.46653000
128.19999256	0.00000000	35.25467000	11.51575000
128.39999255	0.00000000	36.36811000	12.21087000
128.59999254	0.00000000	37.53075000	12.58612000
128.79999252	0.00000000	38.28125000	12.58612000
128.99999251	0.00000000	38.73647000	12.25394000
129.19999250	0.00000000	38.69955000	11.84178000
129.39999249	0.00000000	38.69341000	11.83563000
129.59999248	0.00000000	37.85679000	11.42347000
129.79999246	0.00000000	36.41117000	11.09129000
129.99999245	0.00000000	35.25467000	11.04823000
130.19999244	0.00000000	34.83022000	11.09129000
130.39999243	0.00000000	34.83022000	11.46653000
130.59999242	0.00000000	35.20546000	12.21087000
130.79999241	0.00000000	35.99286000	12.58612000
130.99999239	0.00000000	36.74335000	12.62918000
131.19999238	0.00000000	37.53075000	12.62918000
131.39999237	0.00000000	37.90600000	12.58612000
131.59999236	0.00000000	37.90600000	12.21087000
131.79999235	0.00000000	37.53075000	11.46653000
131.99999233	0.00000000	36.78642000	11.09129000
132.19999232	0.00000000	36.46038000	11.04823000
132.39999231	0.00000000	36.70029000	11.04823000
132.59999230	0.00000000	36.73720000	11.09129000
132.79999229	0.00000000	35.99901000	11.46653000
132.99999227	0.00000000	36.03592000	12.21087000
133.19999226	0.00000000	36.32505000	12.62918000
133.39999225	0.00000000	36.36811000	13.04749000
133.59999224	0.00000000	36.36811000	13.74262000
133.79999223	0.00000000	36.36811000	13.74262000
133.99999222	0.00000000	36.36811000	13.00443000
134.19999220	0.00000000	36.36811000	12.25394000
134.39999219	0.00000000	36.41117000	11.46653000
134.59999218	0.00000000	36.78642000	11.04823000
134.79999217	0.00000000	37.53075000	10.67298000
134.99999216	0.00000000	37.90600000	10.31004000
135.19999214	0.00000000	37.94907000	10.67298000
135.39999213	0.00000000	37.94907000	11.04823000
135.59999212	0.00000000	37.90600000	11.46653000
135.79999211	0.00000000	37.53075000	12.21087000
135.99999210	0.00000000	36.78642000	12.62918000
136.19999208	0.00000000	36.41117000	13.04749000
136.39999207	0.00000000	36.32505000	13.74262000
136.59999206	0.00000000	35.99286000	13.74262000
136.79999205	0.00000000	35.62377000	13.04749000
136.99999204	0.00000000	36.03592000	12.62918000
137.19999203	0.00000000	36.74335000	12.21087000
137.39999201	0.00000000	37.53075000	11.46653000
137.59999200	0.00000000	37.94907000	11.09129000
137.79999199	0.00000000	38.32431000	11.04823000
137.99999198	0.00000000	38.64419000	11.04823000
138.19999197	0.00000000	37.90600000	11.04823000
138.39999195	0.00000000	36.83563000	11.09129000
138.59999194	0.00000000	36.36811000	11.46653000
138.79999193	0.00000000	35.99286000	12.21087000
138.99999192	0.00000000	35.62377000	12.58612000
139.19999191	0.00000000	35.99286000	12.67224000
139.39999189	0.00000000	36.32505000	13.00443000
139.59999188	0.00000000	36.41117000	13.37352000
139.79999187	0.00000000	36.78642000	13.00443000
139.99999186	0.00000000	37.53075000	12.67224000
140.19999185	0.00000000	37.90600000	12.58612000
140.39999184	0.00000000	37.94907000	12.21087000
140.59999182	0.00000000	37.90600000	11.42347000
140.79999181	0.00000000	37.53075000	10.72219000
140.99999180	0.00000000	36.78642000	10.31004000
141.19999179	0.00000000	36.41117000	10.67298000
141.39999178	0.00000000	36.36811000	11.04823000
141.59999176	0.00000000	36.36811000	11.46653000
141.79999175	0.00000000	36.41117000	12.25394000
141.99999174	0.00000000	36.78642000	13.00443000
142.19999173	0.00000000	37.53075000	13.79183000
142.39999172	0.00000000	37.90600000	14.11786000
142.59999170	0.00000000	37.94907000	13.79183000
142.79999169	0.00000000	37.90600000	13.00443000
142.99999168	0.00000000	37.53075000	12.25394000
143.19999167	0.00000000	36.78642000	11.42347000
143.39999166	0.00000000	36.41117000	10.67298000
143.59999165	0.00000000	36.36811000	9.93479300
143.79999163	0.00000000	36.36811000	9.93479300
143.99999162	0.00000000	36.41117000	10.62992000
144.19999161	0.00000000	36.78642000	11.04823000
144.39999160	0.00000000	37.53075000	11.46653000
144.59999159	0.00000000	37.90600000	12.21087000
144.79999157	0.00000000	37.90600000	12.58612000
144.99999156	0.00000000	37.57381000	12.62918000
145.19999155	0.00000000	37.16166000	12.62918000
145.39999154	0.00000000	37.15551000	12.58612000
145.59999153	0.00000000	36.74335000	12.21087000
145.79999151	0.00000000	36.41117000	11.46653000
145.99999150	0.00000000	36.36811000	11.09129000
146.19999149	0.00000000	36.36811000	11.04823000
146.39999148	0.00000000	36.41117000	11.04823000
146.59999147	0.00000000	36.78642000	11.04823000
146.79999146	0.00000000	37.53075000	11.09129000
146.99999144	0.00000000	37.90600000	11.46653000
147.19999143	0.00000000	37.94907000	12.21087000
147.39999142	0.00000000	37.90600000	12.58612000
147.59999141	0.00000000	37.53075000	12.62918000
147.79999140	0.00000000	36.74335000	12.62918000
147.99999138	0.00000000	36.03592000	12.62918000
148.19999137	0.00000000	35.62377000	12.62918000
148.39999136	0.00000000	35.99286000	12.62918000
148.59999135	0.00000000	36.32505000	12.58612000
148.79999134	0.00000000	36.36811000	12.21087000
148.99999132	0.00000000	36.41117000	11.46653000
149.19999131	0.00000000	36.78642000	11.09129000
149.39999130	0.00000000	37.53075000	11.09129000
149.59999129	0.00000000	37.90600000	11.46653000
149.79999128	0.00000000	37.94907000	12.21087000
149.99999127	0.00000000	37.90600000	12.58612000
150.19999125	0.00000000	37.53075000	12.62918000
150.39999124	0.00000000	36.78642000	12.62918000
150.59999123	0.00000000	36.41117000	12.62918000
150.79999122	0.00000000	36.36811000	12.62918000
150.99999121	0.00000000	36.36811000	12.62918000
151.19999119	0.00000000	36.36811000	12.62918000
151.39999118	0.00000000	36.36811000	12.58612000
151.59999117	0.00000000	36.36811000	12.21087000
151.79999116	0.00000000	36.41117000	11.46653000
151.99999115	0.00000000	36.78642000	11.09129000
152.19999113	0.00000000	37.53075000	11.04823000
152.39999112	0.00000000	37.90600000	11.09129000
152.59999111	0.00000000	37.94907000	11.46653000
152.79999110	0.00000000	37.94907000	12.21087000
152.99999109	0.00000000	37.90600000	12.58612000
153.19999108	0.00000000	37.53075000	12.62918000
153.39999106	0.00000000	36.78642000	12.62918000
153.59999105	0.00000000	36.41117000	12.62918000
153.79999104	0.00000000	36.36811000	12.62918000
153.99999103	0.00000000	36.36811000	12.62918000
154.19999102	0.00000000	36.36811000	12.58612000
154.39999100	0.00000000	36.36811000	12.25394000
154.59999099	0.00000000	36.36811000	11.84178000
154.79999098	0.00000000	36.41117000	11.83563000
154.99999097	0.00000000	36.78642000	11.42347000
155.19999096	0.00000000	37.53075000	11.09129000
155.39999094	0.00000000	37.90600000	11.04823000
155.59999093	0.00000000	37.90600000	11.04823000
155.79999092	0.00000000	37.57381000	11.04823000
155.99999091	0.00000000	37.16166000	11.09129000
156.19999090	0.00000000	37.15551000	11.46653000
156.39999089	0.00000000	36.70029000	12.21087000
156.59999087	0.00000000	36.03592000	12.58612000
156.79999086	0.00000000	35.58071000	12.62918000
156.99999085	0.00000000	35.61762000	12.62918000
157.19999084	0.00000000	35.58071000	12.62918000
157.39999083	0.00000000	35.99286000	12.58612000
157.59999081	0.00000000	36.32505000	12.21087000
157.79999080	0.00000000	36.41117000	11.46653000
157.99999079	0.00000000	36.78642000	11.09129000
158.19999078	0.00000000	37.53075000	11.04823000
158.39999077	0.00000000	37.90600000	11.04823000
158.59999075	0.00000000	37.90600000	11.04823000
158.79999074	0.00000000	37.53075000	11.09129000
158.99999073	0.00000000	36.78642000	11.46653000
159.19999072	0.00000000	36.41117000	12.21087000
159.39999071	0.00000000	36.36811000	12.58612000
159.59999070	0.00000000	36.36811000	12.62918000
159.79999068	0.00000000	36.36811000	12.62918000
159.99999067	0.00000000	36.36811000	12.62918000
160.19999066	0.00000000	36.36811000	12.58612000
160.39999065	0.00000000	36.36811000	12.21087000
160.59999064	0.00000000	36.36811000	11.46653000
160.79999062	0.00000000	36.36811000	11.09129000
160.99999061	0.00000000	36.36811000	11.04823000
161.19999060	0.00000000	36.36811000	11.09129000
161.39999059	0.00000000	36.36811000	11.42347000
161.59999058	0.00000000	36.41117000	11.79257000
161.79999056	0.00000000	36.78642000	11.46653000
161.99999055	0.00000000	37.53075000	11.51575000
162.19999054	0.00000000	37.85679000	12.21087000
162.39999053	0.00000000	37.53075000	12.58612000
162.59999052	0.00000000	36.78642000	12.62918000
162.79999051	0.00000000	36.41117000	12.62918000
162.99999049	0.00000000	36.36811000	12.62918000
163.19999048	0.00000000	36.32505000	12.58612000
163.39999047	0.00000000	35.94980000	12.21087000
163.59999046	0.00000000	35.25467000	11.46653000
163.79999045	0.00000000	35.25467000	11.09129000
163.99999043	0.00000000	35.94980000	11.04823000
164.19999042	0.00000000	36.36811000	11.09129000
164.39999041	0.00000000	36.74335000	11.42347000
164.59999040	0.00000000	37.15551000	11.79257000
164.79999039	0.00000000	37.16166000	11.42347000
164.99999037	0.00000000	37.53075000	11.09129000
165.19999036	0.00000000	37.48154000	11.09129000
165.39999035	0.00000000	36.78642000	11.46653000
165.59999034	0.00000000	36.41117000	12.21087000
165.79999033	0.00000000	36.36811000	12.58612000
165.99999032	0.00000000	36.36811000	12.58612000
166.19999030	0.00000000	36.32505000	12.25394000
166.39999029	0.00000000	35.94980000	11.84178000
166.59999028	0.00000000	35.25467000	11.87869000
166.79999027	0.00000000	35.25467000	11.84178000
166.99999026	0.00000000	35.94980000	12.21087000
167.19999024	0.00000000	36.32505000	12.16166000
167.39999023	0.00000000	36.36811000	11.46653000
167.59999022	0.00000000	36.36811000	11.14050000
167.79999021	0.00000000	36.36811000	11.46653000
167.99999020	0.00000000	36.36811000	12.21087000
168.19999018	0.00000000	36.36811000	12.53691000
168.39999017	0.00000000	36.36811000	12.21087000
168.59999016	0.00000000	36.36811000	11.46653000
168.79999015	0.00000000	36.36811000	11.14050000
168.99999014	0.00000000	36.36811000	11.46653000
169.19999013	0.00000000	36.36811000	12.21087000
169.39999011	0.00000000	36.36811000	12.53691000
169.59999010	0.00000000	36.36811000	12.21087000
169.79999009	0.00000000	36.36811000	11.46653000
169.99999008	0.00000000	36.36811000	11.14050000
170.19999007	0.00000000	36.36811000	11.42347000
170.39999005	0.00000000	36.36811000	11.79257000
170.59999004	0.00000000	36.36811000	11.42347000
170.79999003	0.00000000	36.36811000	11.14050000
170.99999002	0.00000000	36.36811000	11.42347000
171.19999001	0.00000000	36.36811000	11.79257000
171.39998999	0.00000000	36.36811000	11.42347000
171.59998998	0.00000000	36.36811000	11.09129000
171.79998997	0.00000000	36.36811000	11.04823000
171.99998996	0.00000000	36.36811000	11.09129000
172.19998995	0.00000000	36.36811000	11.42347000
172.39998994	0.00000000	36.36811000	11.79257000
172.59998992	0.00000000	36.36811000	11.46653000
172.79998991	0.00000000	36.36811000	11.46653000
172.99998990	0.00000000	36.36811000	11.83563000
173.19998989	0.00000000	36.36811000	11.84178000
173.39998988	0.00000000	36.36811000	12.21087000
173.59998986	0.00000000	36.36811000	12.21087000
173.79998985	0.00000000	36.36811000	11.84178000
173.99998984	0.00000000	36.36811000	11.83563000
174.19998983	0.00000000	36.36811000	11.46653000
174.39998982	0.00000000	36.36811000	11.46653000
174.59998980	0.00000000	36.36811000	11.79257000
174.79998979	0.00000000	36.36811000	11.42347000
174.99998978	0.00000000	36.36811000	11.09129000
175.19998977	0.00000000	36.36811000	11.04823000
175.39998976	0.00000000	36.36811000	11.04823000
175.59998975	0.00000000	36.36811000	11.04823000
175.79998973	0.00000000	36.36811000	11.04823000
175.99998972	0.00000000	36.36811000	11.04823000
176.19998971	0.00000000	36.36811000	11.04823000
176.39998970	0.00000000	36.36811000	11.09129000
176.59998969	0.00000000	36.36811000	11.42347000
176.79998967	0.00000000	36.36811000	11.79257000
176.99998966	0.00000000	36.36811000	11.42347000
177.19998965	0.00000000	36.41117000	11.09129000
177.39998964	0.00000000	36.74335000	11.09129000
177.59998963	0.00000000	37.11245000	11.42347000
177.79998961	0.00000000	36.74335000	11.79257000
177.99998960	0.00000000	36.41117000	11.42347000
178.19998959	0.00000000	36.36811000	11.14050000
178.39998958	0.00000000	36.36811000	11.46653000
178.59998957	0.00000000	36.36811000	12.16166000
178.79998956	0.00000000	36.36811000	12.16166000
178.99998954	0.00000000	36.36811000	11.51575000
179.19998953	0.00000000	36.36811000	11.46653000
179.39998952	0.00000000	36.36811000	11.83563000
179.59998951	0.00000000	36.36811000	11.79872000
179.79998950	0.00000000	36.36811000	11.83563000
179.99998948	0.00000000	36.36811000	11.42347000
180.19998947	0.00000000	36.36811000	11.09129000
180.39998946	0.00000000	36.36811000	11.04823000
180.59998945	0.00000000	36.36811000	11.04823000
180.79998944	0.00000000	36.36811000	11.04823000
180.99998942	0.00000000	36.36811000	11.09129000
181.19998941	0.00000000	36.36811000	11.46653000
181.39998940	0.00000000	36.36811000	12.21087000
181.59998939	0.00000000	36.36811000	12.58612000
181.79998938	0.00000000	36.36811000	12.62918000
181.99998937	0.00000000	36.36811000	12.58612000
182.19998935	0.00000000	36.36811000	12.25394000
182.39998934	0.00000000	36.36811000	11.84178000
182.59998933	0.00000000	36.36811000	11.83563000
182.79998932	0.00000000	36.36811000	11.42347000
182.99998931	0.00000000	36.36811000	11.09129000
183.19998929	0.00000000	36.36811000	11.04823000
183.39998928	0.00000000	36.36811000	11.04823000
183.59998927	0.00000000	36.36811000	11.04823000
183.79998926	0.00000000	36.32505000	11.04823000
183.99998925	0.00000000	35.99286000	11.09129000
184.19998923	0.00000000	35.62377000	11.46653000
184.39998922	0.00000000	35.99286000	12.21087000
184.59998921	0.00000000	36.32505000	12.58612000
184.79998920	0.00000000	36.36811000	12.62918000
184.99998919	0.00000000	36.36811000	12.62918000
185.19998918	0.00000000	36.36811000	12.58612000
185.39998916	0.00000000	36.36811000	12.21087000
185.59998915	0.00000000	36.36811000	11.46653000
185.79998914	0.00000000	36.36811000	11.09129000
185.99998913	0.00000000	36.36811000	11.04823000
186.19998912	0.00000000	36.36811000	11.04823000
186.39998910	0.00000000	36.36811000	11.04823000
186.59998909	0.00000000	36.36811000	11.04823000
186.79998908	0.00000000	36.36811000	11.09129000
186.99998907	0.00000000	36.36811000	11.46653000
187.19998906	0.00000000	36.36811000	12.21087000
187.39998904	0.00000000	36.36811000	12.58612000
187.59998903	0.00000000	36.32505000	12.62918000
187.79998902	0.00000000	35.99286000	12.62918000
187.99998901	0.00000000	35.62377000	12.58612000
188.19998900	0.00000000	35.99286000	12.21087000
188.39998899	0.00000000	36.32505000	11.46653000
188.59998897	0.00000000	36.36811000	11.09129000
188.79998896	0.00000000	36.36811000	11.04823000
188.99998895	0.00000000	36.36811000	11.04823000
189.19998894	0.00000000	36.36811000	11.04823000
189.39998893	0.00000000	36.36811000	11.04823000
189.59998891	0.00000000	36.32505000	11.04823000
189.79998890	0.00000000	35.99286000	11.09129000
189.99998889	0.00000000	35.62377000	11.46653000
190.19998888	0.00000000	35.99286000	12.21087000
190.39998887	0.00000000	36.32505000	12.58612000
190.59998885	0.00000000	36.36811000	12.62918000
190.79998884	0.00000000	36.36811000	12.62918000
190.99998883	0.00000000	36.36811000	12.58612000
191.19998882	0.00000000	36.36811000	12.21087000
191.39998881	0.00000000	36.36811000	11.46653000
191.59998880	0.00000000	36.36811000	11.09129000
191.79998878	0.00000000	36.36811000	11.04823000
191.99998877	0.00000000	36.36811000	11.04823000
192.19998876	0.00000000	36.36811000	11.04823000
192.39998875	0.00000000	36.36811000	11.04823000
192.59998874	0.00000000	36.32505000	11.04823000
192.79998872	0.00000000	35.99286000	11.04823000
192.99998871	0.00000000	35.58071000	11.04823000
193.19998870	0.00000000	35.61762000	11.04823000
193.39998869	0.00000000	35.53765000	11.04823000
193.59998868	0.00000000	35.61762000	11.09129000
193.79998866	0.00000000	35.58071000	11.46653000
193.99998865	0.00000000	35.99286000	12.21087000
194.19998864	0.00000000	36.32505000	12.53691000
194.39998863	0.00000000	36.36811000	12.21087000
194.59998862	0.00000000	36.36811000	11.46653000
194.79998861	0.00000000	36.36811000	11.14050000
194.99998859	0.00000000	36.36811000	11.42347000
195.19998858	0.00000000	36.36811000	11.79257000
195.39998857	0.00000000	36.32505000	11.42347000
195.59998856	0.00000000	35.99286000	11.09129000
195.79998855	0.00000000	35.62377000	11.04823000
195.99998853	0.00000000	35.99286000	11.04823000
