Time	Channel A	Channel B	Channel C
(us)	(V)	(mV)	(mV)

-4.49999956	0.00000000	52.17765000	18.57160000
-4.29999957	0.00000000	52.17765000	18.90379000
-4.09999958	0.00000000	52.17765000	18.94685000
-3.89999959	0.00000000	52.17765000	18.94685000
-3.69999960	0.00000000	52.17765000	18.94685000
-3.49999962	0.00000000	52.17765000	18.94685000
-3.29999963	0.00000000	52.17765000	18.94685000
-3.09999964	0.00000000	52.17765000	18.94685000
-2.89999965	0.00000000	52.17765000	18.94685000
-2.69999966	0.00000000	52.17765000	18.94685000
-2.49999968	0.00000000	52.17765000	18.94685000
-2.29999969	0.00000000	52.17765000	18.94685000
-2.09999970	0.00000000	52.22071000	18.94685000
-1.89999971	0.00000000	52.55290000	18.94685000
-1.69999972	0.00000000	52.92200000	18.94685000
-1.49999973	0.00000000	52.55290000	18.94685000
-1.29999975	0.00000000	52.22071000	18.94685000
-1.09999976	0.00000000	52.17765000	18.94685000
-0.89999977	0.00000000	52.17765000	18.94685000
-0.69999978	0.00000000	52.17765000	18.94685000
-0.49999979	0.00000000	52.17765000	18.94685000
-0.29999981	0.31803640	52.17765000	18.94685000
-0.09999982	0.63668800	52.17765000	18.94685000
0.10000017	0.95533960	52.17765000	18.94685000
0.30000016	0.95533960	52.17765000	18.94685000
0.50000015	0.79601380	52.17765000	18.98991000
0.70000013	0.15871060	52.17765000	19.32210000
0.90000012	-0.79601380	52.17765000	19.69119000
1.10000011	-1.75196900	52.17765000	19.32210000
1.30000010	-2.54859700	52.17765000	18.98991000
1.50000009	-2.86724900	52.17765000	18.94685000
1.70000008	-2.38927200	52.17765000	18.94685000
1.90000006	-0.95533960	52.17765000	18.94685000
2.10000005	0.95533960	52.17765000	18.94685000
2.30000004	3.02657500	52.17765000	18.94685000
2.50000003	4.61921700	52.17765000	18.90379000
2.70000002	5.41584600	52.17765000	18.52854000
2.90000000	4.61921700	52.17765000	17.78420000
3.09999999	2.38927200	52.17765000	17.45817000
3.29999998	-0.79601380	52.17765000	17.74114000
3.49999997	-4.14124000	52.17765000	18.15330000
3.69999996	-6.84916400	52.17765000	18.15945000
3.89999994	-7.96444400	52.17765000	18.57160000
4.09999993	-7.16781500	52.17765000	18.90379000
4.29999992	-4.30056600	52.17765000	18.94685000
4.49999991	-0.15871060	52.17765000	18.94685000
4.69999990	4.14124000	52.17765000	18.94685000
4.89999989	7.64579200	52.17765000	18.90379000
5.09999987	9.39837600	52.17765000	18.52854000
5.29999986	8.76107300	52.17765000	17.78420000
5.49999985	5.89382400	52.17765000	17.40895000
5.69999984	1.43331700	52.13459000	17.36589000
5.89999983	-3.34522600	51.80241000	17.40895000
6.09999981	-7.32714100	51.43332000	17.78420000
6.29999980	-9.23905000	51.80241000	18.52854000
6.49999979	-9.07972400	52.13459000	18.90379000
6.69999978	-6.53112700	52.17765000	18.94685000
6.89999977	-2.54859700	52.17765000	18.94685000
7.09999975	1.75196900	52.17765000	18.94685000
7.29999974	5.41584600	52.17765000	18.94685000
7.49999973	7.48646600	52.17765000	18.90379000
7.69999972	7.48646600	52.13459000	18.52854000
7.89999971	5.73449800	51.80241000	17.78420000
8.09999970	2.70792300	51.43332000	17.40895000
8.29999968	-0.63668800	51.80241000	17.40895000
8.49999967	-3.34522600	52.13459000	17.78420000
8.69999966	-4.93786900	52.17765000	18.52854000
8.89999965	-5.09719500	52.17765000	18.90379000
9.09999964	-4.14124000	52.17765000	18.98991000
9.29999962	-2.22994600	52.17765000	19.32210000
9.49999961	-0.31803640	52.17765000	19.69119000
9.69999960	1.27399100	52.13459000	19.32210000
9.89999959	2.22994600	51.80241000	18.94685000
10.09999958	2.54859700	51.43332000	18.57160000
10.29999956	2.07062000	51.80241000	18.20251000
10.49999955	1.27399100	52.08538000	18.57160000
10.69999954	0.31803640	51.80241000	18.90379000
10.89999953	-0.31803640	51.43332000	18.90379000
11.09999952	-0.79601380	51.80241000	18.57160000
11.29999951	-0.95533960	52.13459000	18.20251000
11.49999949	-0.95533960	52.17765000	18.57160000
11.69999948	-0.79601380	52.17765000	18.90379000
11.89999947	-0.31803640	52.17765000	18.94685000
12.09999946	-0.15871060	52.17765000	18.94685000
12.29999945	-0.15871060	52.17765000	18.94685000
12.49999943	-0.15871060	52.17765000	18.94685000
12.69999942	0.00000000	52.17765000	18.94685000
12.89999941	0.00000000	52.17765000	18.94685000
13.09999940	0.00000000	52.17765000	18.94685000
13.29999939	0.00000000	52.17765000	18.94685000
13.49999937	0.00000000	52.17765000	18.94685000
13.69999936	0.00000000	52.17765000	18.94685000
13.89999935	-0.15871060	52.17765000	18.94685000
14.09999934	-0.15871060	52.17765000	18.94685000
14.29999933	-0.15871060	52.17765000	18.94685000
14.49999932	-0.15871060	52.13459000	18.94685000
14.69999930	0.00000000	51.80241000	18.94685000
14.89999929	0.00000000	51.43332000	18.94685000
15.09999928	0.00000000	51.80241000	18.94685000
15.29999927	0.00000000	52.08538000	18.94685000
15.49999926	0.00000000	51.75935000	18.94685000
15.69999924	0.00000000	51.06422000	18.94685000
15.89999923	0.00000000	51.01501000	18.94685000
16.09999922	-0.15871060	51.34104000	18.94685000
16.29999921	-0.15871060	51.01501000	18.94685000
16.49999920	-0.15871060	51.06422000	18.94685000
16.69999919	-0.15871060	51.75935000	18.94685000
16.89999917	-0.15871060	52.17765000	18.94685000
17.09999916	-0.15871060	52.59596000	18.90379000
17.29999915	0.00000000	53.34030000	18.57160000
17.49999914	0.00000000	53.66634000	18.20251000
17.69999913	0.00000000	53.34030000	18.57160000
17.89999911	0.00000000	52.55290000	18.90379000
18.09999910	0.00000000	51.75935000	18.94685000
18.29999909	0.00000000	50.55364000	18.94685000
18.49999908	-0.15871060	49.01575000	18.94685000
18.69999907	-0.15871060	47.47785000	18.94685000
18.89999905	0.00000000	46.36442000	18.94685000
19.09999904	0.00000000	46.40748000	18.94685000
19.29999903	0.00000000	47.94537000	18.94685000
19.49999902	0.00000000	50.73204000	18.94685000
19.69999901	0.00000000	54.59522000	18.94685000
19.89999900	0.00000000	59.15354000	18.94685000
20.09999898	0.00000000	62.22318000	18.94685000
20.29999897	0.00000000	63.01673000	18.94685000
20.49999896	0.00000000	61.76181000	18.94685000
20.69999895	0.00000000	57.43725000	18.94685000
20.89999894	0.00000000	50.50443000	18.94685000
21.09999892	0.00000000	42.78420000	18.94685000
21.29999891	0.00000000	35.80217000	18.94685000
21.49999890	0.00000000	31.23770000	18.94685000
21.69999889	0.00000000	30.58563000	18.94685000
21.89999888	0.00000000	35.28543000	18.94685000
22.09999886	0.00000000	44.91880000	18.94685000
22.29999885	0.00000000	56.92052000	18.90379000
22.49999884	0.00000000	68.92839000	18.57160000
22.69999883	0.00000000	78.55560000	18.20251000
22.89999882	0.00000000	83.07702000	18.57160000
23.09999881	0.00000000	80.65329000	18.94685000
23.29999879	0.00000000	70.55856000	19.36516000
23.49999878	0.00000000	54.69365000	20.10950000
23.69999877	0.00000000	36.58957000	20.48474000
23.89999876	0.00000000	20.36171000	20.52780000
24.09999875	0.00000000	10.39001000	20.48474000
24.29999873	0.00000000	8.90747900	20.06029000
24.49999872	0.00000000	17.51353000	18.85458000
24.69999871	0.00000000	34.91019000	16.99065000
24.89999870	0.00000000	57.29576000	15.08981000
25.09999869	0.00000000	79.62598000	14.25320000
25.29999867	0.00000000	95.82307000	13.87795000
25.49999866	0.00000000	102.01160000	13.93332000
25.69999865	-0.15871060	96.94267000	15.54503000
25.89999864	-0.15871060	81.07775000	18.20251000
26.09999863	0.00000000	57.90477000	21.77658000
26.29999862	0.00000000	32.81865000	25.59055000
26.49999860	0.00000000	11.56496000	29.02928000
26.69999859	0.00000000	-0.76894680	30.46875000
26.89999858	0.00000000	-1.55634800	28.93701000
27.09999857	0.00000000	9.69488100	24.66781000
27.29999856	0.00000000	30.49951000	18.43627000
27.49999854	0.00000000	55.94857000	11.09744000
27.69999853	0.00000000	79.53986000	4.17691900
27.89999852	0.00000000	96.19832000	-0.42445860
28.09999851	0.00000000	102.79900000	-1.49483300
28.29999850	0.00000000	97.77927000	2.03617100
28.49999848	0.00000000	82.74483000	10.16240000
28.69999847	0.00000000	61.15280000	20.98917000
28.89999846	0.00000000	38.40428000	32.60334000
29.09999845	0.00000000	20.16486000	42.55044000
29.29999844	0.00000000	9.60875900	47.89616000
29.49999843	0.00000000	8.07086500	46.73351000
29.69999841	0.00000000	15.74803000	39.34547000
29.89999840	0.00000000	30.77633000	26.93774000
30.09999839	0.00000000	48.92347000	11.51575000
30.29999838	0.00000000	66.37549000	-3.16190900
30.49999837	0.00000000	79.53986000	-13.94562000
30.69999835	0.00000000	85.82062000	-18.54085000
30.89999834	0.00000000	84.70103000	-15.01599000
31.09999833	0.00000000	76.97465000	-4.23228400
31.29999832	0.00000000	64.22859000	11.65108000
31.49999831	0.00000000	49.56939000	29.39837000
31.69999829	0.00000000	36.36196000	45.24483000
31.89999828	0.00000000	27.04847000	55.65329000
32.09999827	0.00000000	23.19143000	58.34768000
32.29999826	0.00000000	25.84276000	52.54060000
32.49999825	0.00000000	33.88902000	39.43774000
32.69999824	0.00000000	44.69119000	22.05955000
32.89999822	0.00000000	55.94857000	4.26304100
33.09999821	0.00000000	65.20669000	-10.41462000
33.29999820	0.00000000	70.65083000	-18.91609000
33.49999819	0.00000000	71.07529000	-19.33440000
33.69999818	0.00000000	66.92913000	-12.03863000
33.89999816	0.00000000	59.94709000	1.10728300
34.09999815	0.00000000	51.84547000	17.36589000
34.29999814	0.00000000	44.13140000	33.58144000
34.49999813	0.00000000	39.10556000	46.31520000
34.69999812	0.00000000	37.52460000	52.49754000
34.89999810	0.00000000	39.43159000	51.00885000
35.09999809	0.00000000	44.40821000	42.55044000
35.29999808	0.00000000	50.55364000	29.44759000
35.49999807	0.00000000	56.27460000	14.72072000
35.69999806	0.00000000	59.80561000	1.28567900
35.89999805	0.00000000	60.23006000	-7.57874000
36.09999803	0.00000000	58.68602000	-9.15969400
36.29999802	0.00000000	54.78592000	-4.27534400
36.49999801	0.00000000	49.48326000	5.38262700
36.69999800	0.00000000	44.86958000	17.32283000
36.89999799	0.00000000	42.17519000	28.84473000
37.09999797	0.00000000	42.13213000	36.92790000
37.29999796	0.00000000	44.45127000	39.25935000
37.49999795	0.00000000	48.32062000	35.85752000
37.69999794	0.00000000	53.29109000	27.82357000
37.89999793	0.00000000	57.52953000	17.83341000
38.09999791	0.00000000	59.90403000	8.62450800
38.29999790	0.00000000	60.64222000	2.54675200
38.49999789	0.00000000	59.11048000	2.17150600
38.69999788	0.00000000	55.67175000	7.41879900
38.89999787	0.00000000	51.75935000	15.83415000
39.09999786	0.00000000	47.47785000	24.71087000
39.29999784	0.00000000	43.66388000	31.95743000
39.49999783	0.00000000	41.70767000	35.34695000
39.69999782	0.00000000	41.66461000	33.07701000
39.89999781	0.00000000	43.24557000	26.19955000
40.09999780	0.00000000	46.32135000	16.99065000
40.29999778	0.00000000	50.22145000	7.75098400
40.49999777	0.00000000	54.09079000	1.28567900
40.69999776	0.00000000	57.57259000	-0.65821850
40.89999775	0.00000000	59.48573000	2.81742100
41.09999774	0.00000000	59.57185000	10.44537000
41.29999772	0.00000000	58.40920000	20.10950000
41.49999771	0.00000000	56.40993000	29.31225000
41.69999770	0.00000000	53.29109000	35.85752000
41.89999769	0.00000000	49.43405000	37.72145000
42.09999768	0.00000000	45.98917000	34.32578000
42.29999767	0.00000000	43.62082000	26.66092000
42.49999765	0.00000000	42.82726000	17.45817000
42.69999764	0.00000000	43.24557000	8.95669300
42.89999763	0.00000000	45.15871000	3.19266700
43.09999762	0.00000000	48.22219000	1.61786400
43.29999761	0.00000000	50.92888000	4.26304100
43.49999759	0.00000000	53.29109000	9.98400600
43.69999758	0.00000000	54.82898000	16.90453000
43.89999757	0.00000000	55.24729000	23.08686000
44.09999756	0.00000000	54.92125000	27.40526000
44.29999755	0.00000000	54.17691000	29.31225000
44.49999753	-0.15871060	53.80167000	28.61097000
44.69999752	0.00000000	53.75861000	25.54749000
44.89999751	0.00000000	53.71555000	21.68430000
45.09999750	0.00000000	53.29109000	17.40895000
45.29999749	0.00000000	52.08538000	13.60113000
45.49999748	0.00000000	50.17839000	11.64493000
45.69999746	0.00000000	47.81004000	11.60187000
45.89999745	0.00000000	45.43553000	13.13976000
46.09999744	0.00000000	42.78420000	15.78494000
46.29999743	0.00000000	40.92643000	18.47933000
46.49999742	-0.15871060	41.33858000	20.47859000
46.69999740	0.00000000	43.71309000	22.05955000
46.89999739	0.00000000	48.40674000	23.12992000
47.09999738	0.00000000	54.92125000	22.80389000
47.29999737	0.00000000	61.06668000	21.27830000
47.49999736	0.00000000	65.34202000	19.69119000
47.69999734	0.00000000	66.83685000	17.32283000
47.89999733	0.00000000	64.88066000	14.72072000
48.09999732	0.00000000	59.39345000	13.18282000
48.29999731	0.00000000	51.34104000	13.13976000
48.49999730	0.00000000	42.45817000	14.29626000
48.69999729	0.00000000	35.51919000	16.25246000
48.89999727	0.00000000	31.65600000	18.94685000
49.09999726	0.00000000	32.12352000	21.64124000
49.29999725	0.00000000	37.51845000	23.59129000
49.49999724	0.00000000	46.36442000	24.75394000
49.69999723	0.00000000	56.40993000	24.71087000
49.89999721	0.00000000	65.25590000	23.12992000
50.09999720	-0.15871060	70.60777000	20.01722000
50.29999719	0.00000000	70.65083000	15.83415000
50.49999718	0.00000000	65.67421000	12.02018000
50.69999717	0.00000000	57.57259000	10.07013000
50.89999715	-0.15871060	47.90231000	10.02707000
51.09999714	0.00000000	39.09941000	11.60187000
51.29999713	0.00000000	33.70448000	14.72072000
51.49999712	0.00000000	33.28617000	18.94685000
51.69999711	0.00000000	37.43233000	23.17298000
51.89999710	0.00000000	44.40821000	26.19955000
52.09999708	0.00000000	52.50984000	27.07308000
52.29999707	0.00000000	60.18085000	25.87967000
52.49999706	0.00000000	64.74532000	23.58514000
52.69999705	0.00000000	64.78838000	19.69734000
52.89999704	0.00000000	60.64222000	15.92027000
53.09999702	0.00000000	54.09079000	13.13976000
53.29999701	0.00000000	47.15182000	11.64493000
53.49999700	0.00000000	41.01255000	12.02018000
53.69999699	0.00000000	37.98597000	14.29626000
53.89999698	0.00000000	39.05635000	17.32283000
54.09999696	0.00000000	43.28863000	20.01722000
54.29999695	0.00000000	49.43405000	21.59203000
54.49999694	0.00000000	55.94857000	22.01033000
54.69999693	0.00000000	60.55610000	21.64124000
54.89999692	0.00000000	62.13705000	20.43553000
55.09999691	0.00000000	60.55610000	18.57160000
55.29999689	0.00000000	55.99163000	16.71383000
55.49999688	0.00000000	49.85236000	16.33858000
55.69999687	0.00000000	44.50049000	17.45817000
55.89999686	0.00000000	40.96949000	19.32210000
56.09999685	0.00000000	40.21899000	21.26599000
56.29999683	0.00000000	42.13213000	22.38558000
56.49999682	0.00000000	46.36442000	22.75467000
56.69999681	0.00000000	51.71013000	21.50590000
56.89999680	-0.15871060	56.32381000	18.47933000
57.09999679	0.00000000	59.06127000	14.67150000
57.29999677	0.00000000	59.48573000	11.60187000
57.49999676	0.00000000	57.94783000	10.07013000
57.69999675	0.00000000	54.82898000	10.53765000
57.89999674	0.00000000	50.63976000	13.65034000
58.09999673	0.00000000	46.78272000	18.94685000
58.29999672	0.00000000	44.45127000	24.33563000
58.49999670	0.00000000	43.66388000	28.19882000
58.69999669	0.00000000	44.82652000	30.09350000
58.89999668	0.00000000	47.47785000	28.89395000
59.09999667	0.00000000	50.55364000	24.71087000
59.29999666	0.00000000	53.24803000	18.90379000
59.49999664	0.00000000	54.78592000	12.72146000
59.69999663	0.00000000	54.82898000	7.33267600
59.89999662	0.00000000	53.71555000	4.30610200
60.09999661	0.00000000	52.17765000	4.72440900
60.29999660	0.00000000	50.59670000	8.95669300
60.49999658	0.00000000	49.05881000	15.83415000
60.69999657	0.00000000	47.94537000	23.17298000
60.89999656	0.00000000	47.94537000	29.35531000
61.09999655	0.00000000	49.05881000	33.16314000
61.29999654	0.00000000	50.55364000	33.16314000
61.49999653	0.00000000	51.71013000	29.31225000
61.69999651	0.00000000	52.13459000	22.75467000
61.89999650	0.00000000	52.13459000	14.67150000
62.09999649	0.00000000	51.66707000	7.37573800
62.29999648	0.00000000	50.17839000	2.73129900
62.49999647	0.00000000	48.27140000	1.56865100
62.69999645	0.00000000	47.15182000	4.26304100
62.89999644	0.00000000	46.73966000	10.02707000
63.09999643	0.00000000	47.52707000	17.36589000
63.29999642	0.00000000	49.05881000	24.71087000
63.49999641	0.00000000	50.97194000	30.46875000
63.69999639	0.00000000	52.87278000	33.16314000
63.89999638	0.00000000	53.66634000	32.04970000
64.09999637	0.00000000	53.71555000	27.86663000
64.29999636	0.00000000	53.29109000	22.05955000
64.49999635	0.00000000	52.08538000	15.87721000
64.69999634	0.00000000	50.22145000	10.44537000
64.89999632	0.00000000	48.32062000	6.95743000
65.09999631	0.00000000	47.52707000	5.79478300
65.29999630	0.00000000	47.52707000	7.33267600
65.49999629	0.00000000	48.32062000	11.14050000
65.69999628	0.00000000	50.17839000	15.74188000
65.89999626	0.00000000	51.71013000	20.06029000
66.09999625	0.00000000	52.50984000	23.59129000
66.29999624	0.00000000	52.87278000	26.32874000
66.49999623	0.00000000	52.08538000	27.86663000
66.69999622	0.00000000	50.59670000	27.86663000
66.89999620	0.00000000	49.05881000	26.32874000
67.09999619	0.00000000	47.94537000	23.64050000
67.29999618	0.00000000	47.94537000	20.52780000
67.49999617	0.00000000	49.10802000	17.36589000
67.69999616	0.00000000	51.01501000	14.25320000
67.89999615	0.00000000	53.34030000	11.55881000
68.09999613	0.00000000	55.20423000	9.93479300
68.29999612	0.00000000	55.99163000	9.19045200
68.49999611	0.00000000	55.16117000	9.28272600
68.69999610	0.00000000	52.87278000	11.64493000
68.89999609	0.00000000	49.34793000	15.83415000
69.09999607	0.00000000	45.52165000	20.52780000
69.29999606	0.00000000	42.08292000	25.17224000
69.49999605	0.00000000	40.59424000	28.98007000
69.69999604	0.00000000	41.70767000	30.51796000
69.89999603	0.00000000	44.78346000	29.35531000
70.09999601	0.00000000	49.10802000	25.86737000
70.29999600	0.00000000	54.13385000	20.47859000
70.49999599	0.00000000	59.11048000	14.67766000
70.69999598	0.00000000	62.13705000	9.65182000
70.89999597	0.00000000	62.18011000	6.17618100
71.09999596	0.00000000	59.43651000	5.42568800
71.29999594	0.00000000	54.45374000	7.33267600
71.49999593	0.00000000	48.27140000	11.55881000
71.69999592	0.00000000	42.87032000	16.94759000
71.89999591	0.00000000	38.97022000	21.96727000
72.09999590	0.00000000	37.43233000	25.82431000
72.29999588	0.00000000	38.59498000	27.35605000
72.49999587	0.00000000	42.08292000	26.28568000
72.69999586	0.00000000	47.52707000	23.59129000
72.89999585	0.00000000	53.62328000	20.10950000
73.09999584	0.00000000	58.68602000	16.29552000
73.29999582	0.00000000	61.39271000	13.60113000
73.49999581	0.00000000	61.80487000	12.76452000
73.69999580	0.00000000	59.43651000	13.13976000
73.89999579	0.00000000	54.87204000	14.67150000
74.09999578	0.00000000	49.48326000	16.90453000
74.29999577	0.00000000	44.82652000	18.43627000
74.49999575	0.00000000	41.70767000	18.85458000
74.69999574	0.00000000	40.55118000	18.43627000
74.89999573	0.00000000	41.70767000	16.94759000
75.09999572	0.00000000	44.74040000	15.08981000
75.29999571	0.00000000	48.59744000	14.38853000
75.49999569	0.00000000	52.08538000	15.13902000
75.69999568	0.00000000	54.78592000	17.45817000
75.89999567	0.00000000	55.94857000	20.47859000
76.09999566	0.00000000	55.24729000	23.22219000
76.29999565	0.00000000	53.75861000	25.12918000
76.49999563	0.00000000	52.17765000	25.82431000
76.69999562	0.00000000	50.63976000	24.24335000
76.89999561	0.00000000	49.48326000	20.43553000
77.09999560	0.00000000	49.05881000	15.83415000
77.29999559	0.00000000	49.05881000	11.55881000
77.49999558	0.00000000	49.43405000	8.48917200
77.69999556	0.00000000	50.12918000	7.33267600
77.89999555	0.00000000	50.12918000	8.53223400
78.09999554	0.00000000	49.39099000	12.02018000
78.29999553	0.00000000	48.64050000	17.36589000
78.49999552	0.00000000	47.85310000	22.75467000
78.69999550	0.00000000	47.52707000	26.66092000
78.89999549	0.00000000	47.90231000	28.98007000
79.09999548	0.00000000	49.10802000	28.93701000
79.29999547	0.00000000	51.01501000	26.28568000
79.49999546	0.00000000	53.34030000	22.05955000
79.69999544	0.00000000	55.20423000	17.40895000
79.89999543	0.00000000	55.94857000	13.13976000
80.09999542	0.00000000	54.78592000	10.02707000
80.29999541	0.00000000	52.13459000	8.48917200
80.49999540	0.00000000	49.05881000	8.86441900
80.69999539	0.00000000	46.36442000	11.18356000
80.89999537	0.00000000	44.78346000	14.62844000
81.09999536	0.00000000	44.40821000	18.47933000
81.29999535	0.00000000	45.20177000	21.59203000
81.49999534	0.00000000	47.52707000	23.59129000
81.69999533	0.00000000	50.55364000	24.79700000
81.89999531	0.00000000	53.29109000	25.17224000
82.09999530	0.00000000	55.20423000	24.75394000
82.29999529	0.00000000	55.99163000	23.17298000
82.49999528	0.00000000	55.20423000	20.47859000
82.69999527	0.00000000	53.29109000	17.41511000
82.89999525	0.00000000	50.59670000	14.67150000
83.09999524	0.00000000	47.94537000	12.67224000
83.29999523	0.00000000	46.36442000	11.14050000
83.49999522	-0.15871060	45.94611000	10.40231000
83.69999521	0.00000000	46.32135000	11.18356000
83.89999520	0.00000000	47.47785000	13.09055000
84.09999518	0.00000000	48.97269000	15.87721000
84.29999517	0.00000000	50.17839000	19.32210000
84.49999516	0.00000000	50.92888000	22.79773000
84.69999515	0.00000000	51.34104000	25.12918000
84.89999514	0.00000000	50.97194000	26.28568000
85.09999512	0.00000000	50.63976000	25.86737000
85.29999511	0.00000000	50.59670000	23.54823000
85.49999510	0.00000000	50.59670000	20.01722000
85.69999509	0.00000000	50.59670000	15.41585000
85.89999508	0.00000000	50.59670000	10.82062000
86.09999506	0.00000000	50.55364000	8.16313900
86.29999505	0.00000000	50.17839000	7.75098400
86.49999504	0.00000000	49.39099000	10.07013000
86.69999503	0.00000000	48.64050000	14.25320000
86.89999502	0.00000000	47.85310000	18.90379000
87.09999501	0.00000000	47.47785000	23.17298000
87.29999499	0.00000000	47.47785000	26.24262000
87.49999498	0.00000000	47.90231000	27.35605000
87.69999497	0.00000000	49.05881000	25.82431000
87.89999496	0.00000000	50.59670000	22.01033000
88.09999495	0.00000000	52.08538000	17.40895000
88.29999493	0.00000000	52.87278000	13.13976000
88.49999492	0.00000000	52.50984000	10.07013000
88.69999491	0.00000000	51.75935000	8.91363100
88.89999490	0.00000000	50.55364000	10.07013000
89.09999489	0.00000000	49.05881000	13.18282000
89.29999487	0.00000000	47.90231000	17.78420000
89.49999486	0.00000000	47.47785000	22.71161000
89.69999485	0.00000000	47.47785000	25.77510000
89.89999484	0.00000000	47.85310000	26.24262000
90.09999483	0.00000000	48.64050000	24.71087000
90.29999482	0.00000000	49.43405000	21.59203000
90.49999480	0.00000000	50.59670000	17.36589000
90.69999479	0.00000000	51.71013000	13.13976000
90.89999478	0.00000000	52.08538000	10.07013000
91.09999477	0.00000000	51.75935000	8.95669300
91.29999476	0.00000000	51.01501000	10.48843000
91.49999474	0.00000000	50.63976000	14.30241000
91.69999473	0.00000000	50.59670000	18.90379000
91.89999472	0.00000000	50.59670000	23.17298000
92.09999471	0.00000000	50.59670000	26.19955000
92.29999470	0.00000000	50.59670000	26.93774000
92.49999468	0.00000000	50.55364000	24.66781000
92.69999467	0.00000000	50.12918000	20.47859000
92.89999466	0.00000000	49.01575000	15.83415000
93.09999465	0.00000000	47.85310000	11.60187000
93.29999464	0.00000000	47.05954000	8.95669300
93.49999463	0.00000000	46.32135000	8.95669300
93.69999461	0.00000000	46.40748000	11.60187000
93.89999460	0.00000000	47.90231000	15.78494000
94.09999459	0.00000000	50.17839000	20.06029000
94.29999458	0.00000000	52.13459000	23.50517000
94.49999457	0.00000000	53.71555000	25.44906000
94.69999455	0.00000000	54.87204000	25.03691000
94.89999454	0.00000000	55.20423000	22.75467000
95.09999453	0.00000000	54.41068000	18.90379000
95.29999452	0.00000000	52.04232000	14.72072000
95.49999451	0.00000000	48.64050000	11.65108000
95.69999449	0.00000000	45.15871000	10.48843000
95.89999448	0.00000000	42.87032000	11.60187000
96.09999447	0.00000000	42.03986000	14.25320000
96.29999446	0.00000000	42.87032000	17.36589000
96.49999445	0.00000000	45.20177000	20.43553000
96.69999444	0.00000000	49.05881000	22.71161000
96.89999442	0.00000000	53.24803000	23.12992000
97.09999441	0.00000000	56.36687000	22.01649000
97.29999440	0.00000000	57.94783000	20.10950000
97.49999439	0.00000000	57.94783000	17.78420000
97.69999438	0.00000000	56.36687000	15.83415000
97.89999436	0.00000000	53.29109000	14.29626000
98.09999435	0.00000000	49.43405000	13.55807000
98.29999434	0.00000000	45.89690000	14.29626000
98.49999433	0.00000000	42.82726000	15.78494000
98.69999432	0.00000000	40.92643000	17.32283000
98.89999430	0.00000000	41.33858000	18.47933000
99.09999429	0.00000000	43.57775000	18.90379000
99.29999428	0.00000000	47.05954000	18.94685000
99.49999427	0.00000000	50.55364000	18.94685000
99.69999426	0.00000000	53.71555000	18.94685000
99.89999425	0.00000000	56.36687000	18.94685000
100.09999423	0.00000000	57.48031000	18.94685000
100.29999422	0.00000000	56.40993000	18.98991000
100.49999421	0.00000000	54.13385000	19.32210000
100.69999420	0.00000000	51.75935000	19.64198000
100.89999419	0.00000000	49.01575000	18.85458000
101.09999417	0.00000000	46.32135000	17.36589000
101.29999416	0.00000000	44.36515000	15.78494000
101.49999415	0.00000000	43.20251000	14.25320000
101.69999414	0.00000000	43.24557000	13.13976000
101.89999413	0.00000000	44.74040000	13.18282000
102.09999411	0.00000000	47.05954000	14.72072000
102.29999410	0.00000000	49.39099000	17.36589000
102.49999409	0.00000000	51.75935000	20.06029000
102.69999408	0.00000000	53.66634000	22.01649000
102.89999407	0.00000000	54.82898000	23.21604000
103.09999406	0.00000000	54.82898000	23.50517000
103.29999404	0.00000000	53.66634000	22.33637000
103.49999403	0.00000000	51.75935000	19.27288000
103.69999402	0.00000000	49.43405000	15.87721000
103.89999401	0.00000000	47.47785000	13.13976000
104.09999400	0.00000000	45.94611000	11.60187000
104.29999398	0.00000000	45.20177000	11.55881000
104.49999397	0.00000000	45.94611000	12.76452000
104.69999396	0.00000000	47.43479000	15.04675000
104.89999395	0.00000000	48.97269000	18.15330000
105.09999394	0.00000000	50.17839000	20.81078000
105.29999392	0.00000000	50.97194000	22.75467000
105.49999391	0.00000000	51.75935000	23.12992000
105.69999390	0.00000000	52.08538000	22.01649000
105.89999389	0.00000000	51.71013000	20.06029000
106.09999388	0.00000000	50.55364000	17.41511000
106.29999387	0.00000000	49.05881000	15.08981000
106.49999385	0.00000000	47.90231000	13.92717000
106.69999384	0.00000000	47.47785000	13.51501000
106.89999383	0.00000000	47.52707000	14.34547000
107.09999382	0.00000000	48.27140000	16.20325000
107.29999381	0.00000000	49.76009000	18.47933000
107.49999379	0.00000000	50.50443000	20.01722000
107.69999378	0.00000000	50.59670000	20.43553000
107.89999377	0.00000000	50.55364000	20.06029000
108.09999376	0.00000000	50.12918000	18.90379000
108.29999375	0.00000000	49.01575000	17.36589000
108.49999374	0.00000000	47.85310000	15.83415000
108.69999372	0.00000000	47.10260000	14.72072000
108.89999371	0.00000000	46.69045000	14.67150000
109.09999370	0.00000000	47.10260000	15.40969000
109.29999369	0.00000000	47.85310000	16.25246000
109.49999368	0.00000000	49.01575000	17.78420000
109.69999366	0.00000000	50.17839000	19.64198000
109.89999365	0.00000000	50.97194000	20.43553000
110.09999364	0.00000000	51.71013000	20.48474000
110.29999363	0.00000000	51.66707000	20.06029000
110.49999362	0.00000000	50.59670000	18.90379000
110.69999360	0.00000000	49.43405000	17.40895000
110.89999359	0.00000000	48.64050000	16.20325000
111.09999358	0.00000000	47.85310000	15.40969000
111.29999357	0.00000000	47.47785000	14.62844000
111.49999356	0.00000000	47.47785000	14.34547000
111.69999355	0.00000000	47.85310000	15.04675000
111.89999353	0.00000000	48.64050000	16.57234000
112.09999352	0.00000000	49.39099000	17.69808000
112.29999351	0.00000000	50.17839000	18.52854000
112.49999350	0.00000000	50.55364000	18.90379000
112.69999349	0.00000000	50.59670000	18.94685000
112.89999347	0.00000000	50.55364000	18.94685000
113.09999346	0.00000000	50.17839000	18.90379000
113.29999345	0.00000000	49.43405000	18.52854000
113.49999344	0.00000000	49.05881000	17.78420000
113.69999343	0.00000000	49.01575000	17.40895000
113.89999341	0.00000000	49.01575000	17.32283000
114.09999340	0.00000000	49.01575000	16.99065000
114.29999339	0.00000000	49.01575000	16.57849000
114.49999338	0.00000000	49.01575000	16.57234000
114.69999337	0.00000000	49.01575000	16.16018000
114.89999336	0.00000000	49.01575000	15.82800000
115.09999334	0.00000000	49.01575000	15.82800000
115.29999333	0.00000000	49.01575000	16.20325000
115.49999332	0.00000000	49.01575000	16.99065000
115.69999331	0.00000000	49.01575000	17.74114000
115.89999330	0.00000000	49.01575000	18.52854000
116.09999328	0.00000000	49.01575000	18.94685000
116.29999327	0.00000000	49.01575000	19.32210000
116.49999326	0.00000000	48.97269000	19.69119000
116.69999325	0.00000000	48.64050000	19.27903000
116.89999324	0.00000000	48.27140000	18.57160000
117.09999322	0.00000000	48.68356000	17.74114000
117.29999321	0.00000000	49.39099000	16.99065000
117.49999320	0.00000000	50.17839000	16.20325000
117.69999319	0.00000000	50.55364000	15.82800000
117.89999318	0.00000000	50.59670000	15.78494000
118.09999317	0.00000000	50.55364000	15.82800000
118.29999315	0.00000000	50.17839000	16.20325000
118.49999314	0.00000000	49.39099000	16.99065000
118.69999313	0.00000000	48.64050000	17.74114000
118.89999312	0.00000000	47.81004000	18.52854000
119.09999311	0.00000000	47.10260000	18.90379000
119.29999309	0.00000000	46.69045000	18.94685000
119.49999308	0.00000000	47.10260000	18.94685000
119.69999307	0.00000000	47.85310000	18.90379000
119.89999306	0.00000000	49.01575000	18.52854000
120.09999305	0.00000000	50.17839000	17.78420000
120.29999303	0.00000000	50.97194000	17.40895000
120.49999302	0.00000000	51.75935000	17.36589000
120.69999301	0.00000000	52.08538000	17.36589000
120.89999300	0.00000000	51.71013000	17.36589000
121.09999299	0.00000000	50.59670000	17.36589000
121.29999298	0.00000000	49.43405000	17.36589000
121.49999296	0.00000000	48.59744000	17.36589000
121.69999295	0.00000000	47.43479000	17.40895000
121.89999294	0.00000000	46.32135000	17.74114000
122.09999293	0.00000000	45.94611000	18.11024000
122.29999292	0.00000000	46.32135000	17.74114000
122.49999290	0.00000000	47.43479000	17.45817000
122.69999289	0.00000000	48.59744000	17.74114000
122.89999288	0.00000000	49.39099000	18.11024000
123.09999287	0.00000000	50.17839000	17.74114000
123.29999286	0.00000000	50.55364000	17.40895000
123.49999284	0.00000000	50.59670000	17.36589000
123.69999283	0.00000000	50.59670000	17.36589000
123.89999282	0.00000000	50.55364000	17.32283000
124.09999281	0.00000000	50.12918000	16.94759000
124.29999280	0.00000000	49.01575000	16.20325000
124.49999279	0.00000000	47.90231000	15.87721000
124.69999277	0.00000000	47.43479000	16.20325000
124.89999276	0.00000000	47.05954000	16.94759000
125.09999275	0.00000000	46.69045000	17.32283000
125.29999274	0.00000000	47.05954000	17.40895000
125.49999273	0.00000000	47.43479000	17.78420000
125.69999271	0.00000000	47.90231000	18.52854000
125.89999270	0.00000000	49.01575000	18.90379000
126.09999269	0.00000000	50.17839000	18.94685000
126.29999268	0.00000000	50.92888000	18.90379000
126.49999267	0.00000000	51.34104000	18.52854000
126.69999265	0.00000000	50.97194000	17.78420000
126.89999264	0.00000000	50.59670000	17.36589000
127.09999263	0.00000000	50.12918000	16.94759000
127.29999262	0.00000000	49.01575000	16.25246000
127.49999261	0.00000000	47.90231000	16.25246000
127.69999260	0.00000000	47.47785000	16.94759000
127.89999258	0.00000000	47.43479000	17.32283000
128.09999257	0.00000000	47.47785000	17.40895000
128.29999256	0.00000000	47.90231000	17.78420000
128.49999255	0.00000000	49.01575000	18.52854000
128.69999254	0.00000000	50.17839000	18.90379000
128.89999252	0.00000000	50.92888000	18.94685000
129.09999251	0.00000000	51.34104000	18.90379000
129.29999250	0.00000000	50.92888000	18.52854000
129.49999249	0.00000000	50.17839000	17.78420000
129.69999248	0.00000000	49.01575000	17.40895000
129.89999246	0.00000000	47.90231000	17.36589000
130.09999245	0.00000000	47.43479000	17.36589000
130.29999244	0.00000000	47.05954000	17.36589000
130.49999243	0.00000000	46.73966000	17.40895000
130.69999242	0.00000000	47.52707000	17.74114000
130.89999241	0.00000000	48.97269000	18.11024000
131.09999239	0.00000000	50.12918000	17.74114000
131.29999238	0.00000000	50.55364000	17.40895000
131.49999237	0.00000000	50.59670000	17.32283000
131.69999236	0.00000000	50.55364000	16.94759000
131.89999235	0.00000000	50.17839000	16.20325000
132.09999233	0.00000000	49.39099000	15.82800000
132.29999232	0.00000000	48.68356000	15.78494000
132.49999231	0.00000000	48.22834000	15.78494000
132.69999230	0.00000000	48.22219000	15.82800000
132.89999229	0.00000000	47.81004000	16.20325000
133.09999227	0.00000000	47.52707000	16.99065000
133.29999226	0.00000000	47.85310000	17.74114000
133.49999225	0.00000000	48.59744000	18.52854000
133.69999224	0.00000000	48.97269000	18.85458000
133.89999223	0.00000000	49.01575000	18.52854000
134.09999222	0.00000000	49.01575000	17.74114000
134.29999220	0.00000000	49.01575000	16.99065000
134.49999219	0.00000000	49.01575000	16.20325000
134.69999218	0.00000000	49.01575000	15.82800000
134.89999217	0.00000000	49.01575000	15.78494000
135.09999216	0.00000000	49.01575000	15.78494000
135.29999214	0.00000000	49.01575000	15.82800000
135.49999213	0.00000000	49.01575000	16.20325000
135.69999212	0.00000000	48.97269000	16.99065000
135.89999211	0.00000000	48.59744000	17.74114000
136.09999210	0.00000000	47.85310000	18.52854000
136.29999208	0.00000000	47.47785000	18.90379000
136.49999207	0.00000000	47.43479000	18.90379000
136.69999206	0.00000000	47.47785000	18.52854000
136.89999205	0.00000000	47.85310000	17.78420000
137.09999204	0.00000000	48.64050000	17.36589000
137.29999203	0.00000000	49.39099000	16.94759000
137.49999201	0.00000000	50.17839000	16.20325000
137.69999200	0.00000000	50.55364000	15.82800000
137.89999199	0.00000000	50.55364000	15.78494000
138.09999198	0.00000000	50.17839000	15.82800000
138.29999197	0.00000000	49.39099000	16.20325000
138.49999195	0.00000000	48.64050000	16.94759000
138.69999194	0.00000000	47.85310000	17.32283000
138.89999193	0.00000000	47.52707000	17.40895000
139.09999192	0.00000000	47.81004000	17.78420000
139.29999191	0.00000000	48.22219000	18.52854000
139.49999189	0.00000000	48.22834000	18.90379000
139.69999188	0.00000000	48.68356000	18.94685000
139.89999187	0.00000000	49.39099000	18.90379000
140.09999186	0.00000000	50.12918000	18.52854000
140.29999185	0.00000000	50.12918000	17.74114000
140.49999184	0.00000000	49.43405000	16.99065000
140.69999182	0.00000000	49.05881000	16.20325000
140.89999181	0.00000000	48.97269000	15.82800000
141.09999180	0.00000000	48.59744000	15.82800000
141.29999179	0.00000000	47.90231000	16.20325000
141.49999178	0.00000000	47.90231000	16.99065000
141.69999176	0.00000000	48.59744000	17.74114000
141.89999175	0.00000000	48.97269000	18.52854000
142.09999174	0.00000000	49.01575000	18.90379000
142.29999173	0.00000000	49.01575000	18.94685000
142.49999172	0.00000000	48.97269000	18.90379000
142.69999170	0.00000000	48.64050000	18.52854000
142.89999169	0.00000000	48.27140000	17.74114000
143.09999168	0.00000000	48.59744000	16.99065000
143.29999167	0.00000000	48.54823000	16.20325000
143.49999166	0.00000000	47.85310000	15.82800000
143.69999165	0.00000000	47.52707000	15.78494000
143.89999163	0.00000000	47.85310000	15.82800000
144.09999162	0.00000000	48.59744000	16.20325000
144.29999161	0.00000000	48.97269000	16.99065000
144.49999160	0.00000000	49.01575000	17.74114000
144.69999159	0.00000000	49.01575000	18.52854000
144.89999157	0.00000000	49.01575000	18.85458000
145.09999156	0.00000000	48.97269000	18.52854000
145.29999155	0.00000000	48.59744000	17.78420000
145.49999154	0.00000000	47.85310000	17.36589000
145.69999153	0.00000000	47.47785000	16.94759000
145.89999151	0.00000000	47.43479000	16.20325000
146.09999150	0.00000000	47.47785000	15.82800000
146.29999149	0.00000000	47.85310000	15.78494000
146.49999148	0.00000000	48.59744000	15.82800000
146.69999147	0.00000000	48.97269000	16.20325000
146.89999146	0.00000000	49.01575000	16.94759000
147.09999144	0.00000000	49.01575000	17.32283000
147.29999143	0.00000000	49.01575000	17.40895000
147.49999142	0.00000000	49.01575000	17.78420000
147.69999141	0.00000000	48.97269000	18.47933000
147.89999140	0.00000000	48.59744000	18.47933000
148.09999138	0.00000000	47.85310000	17.78420000
148.29999137	0.00000000	47.52707000	17.36589000
148.49999136	0.00000000	47.81004000	16.99065000
148.69999135	0.00000000	48.22219000	16.62155000
148.89999134	0.00000000	48.22834000	16.94759000
149.09999132	0.00000000	48.64050000	16.89837000
149.29999131	0.00000000	48.97269000	16.25246000
149.49999130	0.00000000	49.01575000	16.25246000
149.69999129	0.00000000	49.01575000	16.94759000
149.89999128	0.00000000	49.01575000	17.32283000
150.09999127	0.00000000	49.01575000	17.36589000
150.29999125	0.00000000	48.97269000	17.36589000
150.49999124	0.00000000	48.59744000	17.36589000
150.69999123	0.00000000	47.85310000	17.36589000
150.89999122	0.00000000	47.47785000	17.36589000
151.09999121	0.00000000	47.43479000	17.36589000
151.29999119	0.00000000	47.43479000	17.36589000
151.49999118	0.00000000	47.43479000	17.32283000
151.69999117	0.00000000	47.47785000	16.99065000
151.89999116	0.00000000	47.85310000	16.57849000
152.09999115	0.00000000	48.59744000	16.61540000
152.29999113	0.00000000	48.97269000	16.57849000
152.49999112	0.00000000	49.01575000	16.99065000
152.69999111	0.00000000	49.01575000	17.32283000
152.89999110	0.00000000	49.01575000	17.36589000
153.09999109	0.00000000	49.01575000	17.36589000
153.29999108	0.00000000	48.97269000	17.36589000
153.49999106	0.00000000	48.59744000	17.36589000
153.69999105	0.00000000	47.85310000	17.36589000
153.89999104	0.00000000	47.47785000	17.36589000
154.09999103	0.00000000	47.43479000	17.36589000
154.29999102	0.00000000	47.43479000	17.36589000
154.49999100	0.00000000	47.47785000	17.36589000
154.69999099	0.00000000	47.85310000	17.36589000
154.89999098	0.00000000	48.59744000	17.36589000
155.09999097	0.00000000	48.97269000	17.32283000
155.29999096	0.00000000	49.01575000	16.99065000
155.49999094	0.00000000	49.01575000	16.62155000
155.69999093	0.00000000	49.01575000	16.99065000
155.89999092	0.00000000	49.01575000	17.32283000
156.09999091	0.00000000	48.97269000	17.36589000
156.29999090	0.00000000	48.59744000	17.36589000
156.49999089	0.00000000	47.85310000	17.40895000
156.69999087	0.00000000	47.47785000	17.74114000
156.89999086	0.00000000	47.43479000	18.15330000
157.09999085	0.00000000	47.43479000	18.11639000
157.29999084	0.00000000	47.43479000	18.15330000
157.49999083	0.00000000	47.47785000	17.74114000
157.69999081	0.00000000	47.85310000	17.36589000
157.89999080	0.00000000	48.59744000	16.94759000
158.09999079	0.00000000	48.97269000	16.20325000
158.29999078	0.00000000	49.01575000	15.82800000
158.49999077	0.00000000	49.01575000	15.82800000
158.69999075	0.00000000	49.01575000	16.20325000
158.89999074	0.00000000	49.01575000	16.94759000
159.09999073	0.00000000	49.01575000	17.36589000
159.29999072	0.00000000	48.97269000	17.78420000
159.49999071	0.00000000	48.59744000	18.47933000
159.69999070	0.00000000	47.85310000	18.52854000
159.89999068	0.00000000	47.47785000	18.15945000
160.09999067	0.00000000	47.43479000	18.15330000
160.29999066	0.00000000	47.43479000	17.74114000
160.49999065	0.00000000	47.43479000	17.40895000
160.69999064	0.00000000	47.43479000	17.32283000
160.89999062	0.00000000	47.43479000	16.94759000
161.09999061	0.00000000	47.47785000	16.20325000
161.29999060	0.00000000	47.85310000	15.87721000
161.49999059	0.00000000	48.54823000	16.16018000
161.69999058	0.00000000	48.59744000	16.57234000
161.89999056	0.00000000	48.27140000	16.57849000
162.09999055	0.00000000	48.64050000	16.99065000
162.29999054	0.00000000	48.97269000	17.32283000
162.49999053	0.00000000	48.97269000	17.36589000
162.69999052	0.00000000	48.59744000	17.36589000
162.89999051	0.00000000	47.85310000	17.36589000
163.09999049	0.00000000	47.47785000	17.36589000
163.29999048	0.00000000	47.43479000	17.36589000
163.49999047	0.00000000	47.43479000	17.36589000
163.69999046	0.00000000	47.43479000	17.36589000
163.89999045	0.00000000	47.43479000	17.36589000
164.09999043	0.00000000	47.43479000	17.32283000
164.29999042	0.00000000	47.52707000	16.99065000
164.49999041	0.00000000	48.22834000	16.57849000
164.69999040	0.00000000	49.33562000	16.61540000
164.89999039	0.00000000	49.34793000	16.57849000
165.09999037	0.00000000	49.05881000	16.99065000
165.29999036	0.00000000	48.97269000	17.32283000
165.49999035	0.00000000	48.59744000	17.36589000
165.69999034	0.00000000	47.85310000	17.36589000
165.89999033	0.00000000	47.47785000	17.36589000
166.09999032	0.00000000	47.43479000	17.36589000
166.29999030	0.00000000	47.43479000	17.36589000
166.49999029	0.00000000	47.43479000	17.36589000
166.69999028	0.00000000	47.43479000	17.36589000
166.89999027	0.00000000	47.43479000	17.36589000
167.09999026	0.00000000	47.43479000	17.36589000
167.29999024	0.00000000	47.47785000	17.32283000
167.49999023	0.00000000	47.81004000	16.94759000
167.69999022	0.00000000	48.22219000	16.25246000
167.89999021	0.00000000	48.22834000	16.25246000
168.09999020	0.00000000	48.64050000	16.94759000
168.29999018	0.00000000	48.92347000	17.32283000
168.49999017	0.00000000	48.59744000	17.36589000
168.69999016	0.00000000	47.85310000	17.36589000
168.89999015	0.00000000	47.47785000	17.36589000
169.09999014	0.00000000	47.43479000	17.36589000
169.29999013	0.00000000	47.43479000	17.36589000
169.49999011	0.00000000	47.43479000	17.36589000
169.69999010	0.00000000	47.43479000	17.36589000
169.89999009	0.00000000	47.43479000	17.36589000
170.09999008	0.00000000	47.43479000	17.36589000
170.29999007	0.00000000	47.43479000	17.36589000
170.49999005	0.00000000	47.47785000	17.36589000
170.69999004	0.00000000	47.81004000	17.32283000
170.89999003	0.00000000	48.17913000	16.94759000
171.09999002	0.00000000	47.85310000	16.25246000
171.29999001	0.00000000	47.85310000	16.20325000
171.49998999	0.00000000	48.17913000	16.57234000
171.69998998	0.00000000	47.81004000	16.57849000
171.89998997	0.00000000	47.47785000	16.99065000
172.09998996	0.00000000	47.43479000	17.32283000
172.29998995	0.00000000	47.43479000	17.36589000
172.49998994	0.00000000	47.43479000	17.36589000
172.69998992	0.00000000	47.43479000	17.36589000
172.89998991	0.00000000	47.43479000	17.36589000
173.09998990	0.00000000	47.43479000	17.36589000
173.29998989	0.00000000	47.43479000	17.36589000
173.49998988	0.00000000	47.43479000	17.36589000
173.69998986	0.00000000	47.43479000	17.36589000
173.89998985	0.00000000	47.43479000	17.36589000
174.09998984	0.00000000	47.43479000	17.36589000
174.29998983	0.00000000	47.43479000	17.36589000
174.49998982	0.00000000	47.43479000	17.36589000
174.69998980	0.00000000	47.43479000	17.36589000
174.89998979	0.00000000	47.43479000	17.36589000
175.09998978	0.00000000	47.43479000	17.36589000
175.29998977	0.00000000	47.43479000	17.36589000
175.49998976	0.00000000	47.43479000	17.36589000
175.69998975	0.00000000	47.43479000	17.36589000
175.89998973	0.00000000	47.47785000	17.40895000
176.09998972	0.00000000	47.81004000	17.69808000
176.29998971	0.00000000	48.17913000	17.73499000
176.49998970	0.00000000	47.85310000	16.99680000
176.69998969	0.00000000	47.85310000	17.03371000
176.89998967	0.00000000	48.17913000	17.27362000
177.09998966	0.00000000	47.81004000	16.99065000
177.29998965	0.00000000	47.47785000	16.62155000
177.49998964	0.00000000	47.43479000	16.94759000
177.69998963	0.00000000	47.43479000	16.94759000
177.89998961	0.00000000	47.43479000	16.62155000
178.09998960	0.00000000	47.43479000	16.99065000
178.29998959	0.00000000	47.43479000	17.32283000
178.49998958	0.00000000	47.43479000	17.36589000
178.69998957	0.00000000	47.43479000	17.36589000
178.89998956	0.00000000	47.43479000	17.36589000
179.09998954	0.00000000	47.43479000	17.36589000
179.29998953	0.00000000	47.43479000	17.36589000
179.49998952	0.00000000	47.43479000	17.36589000
179.69998951	0.00000000	47.43479000	17.32283000
179.89998950	0.00000000	47.43479000	16.94759000
180.09998948	0.00000000	47.43479000	16.20325000
180.29998947	0.00000000	47.43479000	15.87721000
180.49998946	0.00000000	47.43479000	16.20325000
180.69998945	0.00000000	47.43479000	16.94759000
180.89998944	0.00000000	47.43479000	17.32283000
181.09998942	0.00000000	47.43479000	17.36589000
181.29998941	0.00000000	47.43479000	17.36589000
181.49998940	0.00000000	47.43479000	17.36589000
181.69998939	0.00000000	47.43479000	17.36589000
181.89998938	0.00000000	47.43479000	17.36589000
182.09998937	0.00000000	47.43479000	17.32283000
182.29998935	0.00000000	47.43479000	16.99065000
182.49998934	0.00000000	47.43479000	16.62155000
182.69998933	0.00000000	47.43479000	16.94759000
182.89998932	0.00000000	47.43479000	16.89837000
183.09998931	0.00000000	47.43479000	16.20325000
183.29998929	0.00000000	47.43479000	15.82800000
183.49998928	0.00000000	47.43479000	15.78494000
183.69998927	0.00000000	47.43479000	15.82800000
183.89998926	0.00000000	47.43479000	16.20325000
184.09998925	0.00000000	47.43479000	16.94759000
184.29998923	0.00000000	47.43479000	17.32283000
184.49998922	0.00000000	47.43479000	17.36589000
184.69998921	0.00000000	47.47785000	17.36589000
184.89998920	0.00000000	47.81004000	17.36589000
185.09998919	0.00000000	48.17913000	17.36589000
185.29998918	0.00000000	47.81004000	17.36589000
185.49998916	0.00000000	47.47785000	17.32283000
185.69998915	0.00000000	47.43479000	16.94759000
185.89998914	0.00000000	47.43479000	16.20325000
186.09998913	0.00000000	47.43479000	15.82800000
186.29998912	0.00000000	47.43479000	15.78494000
186.49998910	0.00000000	47.43479000	15.78494000
186.69998909	0.00000000	47.43479000	15.82800000
186.89998908	0.00000000	47.43479000	16.20325000
187.09998907	0.00000000	47.43479000	16.94759000
187.29998906	0.00000000	47.39173000	17.32283000
187.49998904	0.00000000	47.05954000	17.36589000
187.69998903	0.00000000	46.69045000	17.36589000
187.89998902	0.00000000	47.05954000	17.36589000
188.09998901	0.00000000	47.39173000	17.36589000
188.29998900	0.00000000	47.43479000	17.32283000
188.49998899	0.00000000	47.43479000	16.94759000
188.69998897	0.00000000	47.43479000	16.20325000
188.89998896	0.00000000	47.43479000	15.82800000
189.09998895	0.00000000	47.43479000	15.78494000
189.29998894	0.00000000	47.43479000	15.82800000
189.49998893	0.00000000	47.43479000	16.20325000
189.69998891	0.00000000	47.43479000	16.94759000
189.89998890	0.00000000	47.43479000	17.32283000
190.09998889	0.00000000	47.43479000	17.36589000
190.29998888	0.00000000	47.43479000	17.36589000
190.49998887	0.00000000	47.39173000	17.36589000
190.69998885	0.00000000	47.05954000	17.36589000
190.89998884	0.00000000	46.73966000	17.36589000
191.09998883	0.00000000	47.43479000	17.36589000
191.29998882	0.00000000	48.12992000	17.36589000
191.49998881	0.00000000	47.81004000	17.32283000
191.69998880	0.00000000	47.47785000	16.99065000
191.89998878	0.00000000	47.43479000	16.62155000
192.09998877	0.00000000	47.43479000	16.94759000
192.29998876	0.00000000	47.43479000	16.94759000
192.49998875	0.00000000	47.43479000	16.62155000
192.69998874	0.00000000	47.43479000	16.99065000
192.89998872	0.00000000	47.43479000	17.32283000
193.09998871	0.00000000	47.43479000	17.36589000
193.29998870	0.00000000	47.43479000	17.36589000
193.49998869	0.00000000	47.43479000	17.36589000
193.69998868	0.00000000	47.43479000	17.36589000
193.89998866	0.00000000	47.43479000	17.36589000
194.09998865	0.00000000	47.43479000	17.36589000
194.29998864	0.00000000	47.43479000	17.36589000
194.49998863	0.00000000	47.43479000	17.36589000
194.69998862	0.00000000	47.43479000	17.36589000
194.89998861	0.00000000	47.43479000	17.36589000
195.09998859	0.00000000	47.43479000	17.32283000
195.29998858	0.00000000	47.43479000	16.94759000
195.49998857	0.00000000	47.43479000	16.25246000
195.69998856	0.00000000	47.43479000	16.20325000
195.89998855	0.00000000	47.39173000	16.52928000
196.09998853	0.00000000	47.05954000	16.20325000
