Time	Channel A	Channel B	Channel C
(us)	(V)	(mV)	(mV)

-4.49999956	0.00000000	18.97145000	3.57406500
-4.29999957	0.00000000	18.97145000	3.19881900
-4.09999958	0.00000000	18.97145000	3.15575800
-3.89999959	0.00000000	18.97145000	3.15575800
-3.69999960	0.00000000	18.97145000	3.15575800
-3.49999962	0.00000000	18.97145000	3.15575800
-3.29999963	0.00000000	18.97145000	3.15575800
-3.09999964	0.00000000	18.97145000	3.15575800
-2.89999965	0.00000000	18.97145000	3.15575800
-2.69999966	0.00000000	18.97145000	3.15575800
-2.49999968	0.00000000	18.97145000	3.15575800
-2.29999969	0.00000000	18.97145000	3.15575800
-2.09999970	0.00000000	18.97145000	3.15575800
-1.89999971	0.00000000	18.97145000	3.15575800
-1.69999972	0.00000000	18.97145000	3.19881900
-1.49999973	0.00000000	18.97145000	3.57406500
-1.29999975	0.00000000	18.97145000	4.31840500
-1.09999976	0.00000000	18.97145000	4.69365100
-0.89999977	0.00000000	18.97145000	4.73671200
-0.69999978	0.00000000	18.97145000	4.73671200
-0.49999979	0.00000000	18.97145000	4.73671200
-0.29999981	0.31803640	18.97145000	4.69365100
-0.09999982	0.63668800	18.97145000	4.31840500
0.10000017	0.95533960	18.97145000	3.57406500
0.30000016	0.95533960	18.97145000	3.19881900
0.50000015	0.79601380	18.97145000	3.15575800
0.70000013	0.15871060	18.97145000	3.15575800
0.90000012	-0.63668800	18.97145000	3.15575800
1.10000011	-1.59264300	18.97145000	3.15575800
1.30000010	-2.54859700	18.97145000	3.15575800
1.50000009	-2.86724900	18.97145000	3.19881900
1.70000008	-2.38927200	18.97145000	3.57406500
1.90000006	-1.11466500	18.97145000	4.26919300
2.10000005	0.79601380	18.97145000	4.26919300
2.30000004	3.02657500	18.97145000	3.57406500
2.50000003	4.61921700	18.97145000	3.19881900
2.70000002	5.41584600	18.97145000	3.15575800
2.90000000	4.61921700	18.97145000	3.15575800
3.09999999	2.54859700	18.97145000	3.15575800
3.29999998	-0.63668800	18.97145000	3.15575800
3.49999997	-3.98191400	18.97145000	3.15575800
3.69999996	-6.69045300	18.92839000	3.19881900
3.89999994	-7.96444400	18.59621000	3.53100400
4.09999993	-7.16781500	18.22711000	3.94315900
4.29999992	-4.45989200	18.59621000	3.94931100
4.49999991	-0.47736220	18.92839000	4.36146600
4.69999990	3.82258900	18.97145000	4.64443900
4.89999989	7.64579200	18.97145000	4.31840500
5.09999987	9.39837600	18.97145000	3.57406500
5.29999986	8.92039900	18.92839000	3.19881900
5.49999985	6.05315000	18.55315000	3.15575800
5.69999984	1.75196900	17.85802000	3.15575800
5.89999983	-3.18590100	17.85802000	3.15575800
6.09999981	-7.16781500	18.55315000	3.15575800
6.29999980	-9.23905000	18.92839000	3.19881900
6.49999979	-9.07972400	18.97145000	3.57406500
6.69999978	-6.69045300	18.97145000	4.31840500
6.89999977	-2.86724900	18.97145000	4.69365100
7.09999975	1.59264300	18.97145000	4.69365100
7.29999974	5.25652100	18.97145000	4.31840500
7.49999973	7.48646600	18.97145000	3.57406500
7.69999972	7.64579200	18.92839000	3.19881900
7.89999971	5.89382400	18.55315000	3.15575800
8.09999970	2.86724900	17.80881000	3.15575800
8.29999968	-0.31803640	17.48277000	3.15575800
8.49999967	-3.18590100	17.80881000	3.15575800
8.69999966	-4.93786900	18.55315000	3.19881900
8.89999965	-5.09719500	18.92839000	3.53100400
9.09999964	-4.14124000	18.97145000	3.90009800
9.29999962	-2.38927200	18.97145000	3.57406500
9.49999961	-0.47736220	18.97145000	3.57406500
9.69999960	1.27399100	18.97145000	3.90009800
9.89999959	2.22994600	18.97145000	3.53100400
10.09999958	2.54859700	18.97145000	3.19881900
10.29999956	2.07062000	18.92839000	3.15575800
10.49999955	1.27399100	18.59621000	3.15575800
10.69999954	0.31803640	18.22711000	3.15575800
10.89999953	-0.31803640	18.59621000	3.15575800
11.09999952	-0.79601380	18.92839000	3.15575800
11.29999951	-0.95533960	18.97145000	3.15575800
11.49999949	-0.95533960	18.97145000	3.15575800
11.69999948	-0.63668800	18.97145000	3.15575800
11.89999947	-0.47736220	18.97145000	3.15575800
12.09999946	-0.15871060	18.97145000	3.15575800
12.29999945	-0.15871060	18.97145000	3.15575800
12.49999943	0.00000000	18.97145000	3.15575800
12.69999942	0.00000000	18.97145000	3.15575800
12.89999941	0.00000000	18.97145000	3.15575800
13.09999940	0.00000000	18.97145000	3.15575800
13.29999939	0.00000000	18.97145000	3.15575800
13.49999937	0.00000000	18.97145000	3.15575800
13.69999936	0.00000000	18.97145000	3.15575800
13.89999935	-0.15871060	18.92839000	3.15575800
14.09999934	-0.15871060	18.59621000	3.15575800
14.29999933	-0.15871060	18.22711000	3.15575800
14.49999932	-0.15871060	18.59621000	3.15575800
14.69999930	-0.15871060	18.92839000	3.15575800
14.89999929	0.00000000	18.97145000	3.15575800
15.09999928	0.00000000	18.97145000	3.15575800
15.29999927	0.00000000	18.92839000	3.15575800
15.49999926	0.00000000	18.59621000	3.15575800
15.69999924	0.00000000	18.18405000	3.15575800
15.89999923	0.00000000	18.17790000	3.15575800
16.09999922	0.00000000	17.80881000	3.15575800
16.29999921	-0.15871060	17.85802000	3.15575800
16.49999920	-0.15871060	18.55315000	3.15575800
16.69999919	-0.15871060	18.92839000	3.15575800
16.89999917	-0.15871060	19.01451000	3.15575800
17.09999916	0.00000000	19.38976000	3.15575800
17.29999915	0.00000000	20.13410000	3.15575800
17.49999914	0.00000000	20.46014000	3.15575800
17.69999913	0.00000000	20.13410000	3.15575800
17.89999911	0.00000000	19.34670000	3.15575800
18.09999910	0.00000000	18.55315000	3.15575800
18.29999909	0.00000000	17.34744000	3.15575800
18.49999908	0.00000000	15.80955000	3.15575800
18.69999907	0.00000000	14.27165000	3.15575800
18.89999905	-0.15871060	13.15822000	3.15575800
19.09999904	-0.15871060	13.20128000	3.15575800
19.29999903	0.00000000	14.78223000	3.15575800
19.49999902	0.00000000	17.85802000	3.15575800
19.69999901	0.00000000	21.75812000	3.15575800
19.89999900	0.00000000	25.57825000	3.15575800
20.09999898	0.00000000	28.69094000	3.15575800
20.29999897	0.00000000	29.76747000	3.15575800
20.49999896	0.00000000	28.59867000	3.15575800
20.69999895	0.00000000	24.60630000	3.15575800
20.89999894	0.00000000	18.04257000	3.15575800
21.09999892	0.00000000	9.95324800	3.15575800
21.29999891	0.00000000	2.64517700	3.15575800
21.49999890	0.00000000	-1.96235200	3.15575800
21.69999889	0.00000000	-2.65748000	3.15575800
21.89999888	0.00000000	1.71013800	3.15575800
22.09999886	0.00000000	10.96826000	3.15575800
22.29999885	0.00000000	23.33907000	3.15575800
22.49999884	0.00000000	35.72219000	3.15575800
22.69999883	0.00000000	45.72466000	3.19881900
22.89999882	0.00000000	50.60900000	3.57406500
23.09999881	0.00000000	47.87155000	4.31840500
23.29999879	0.00000000	37.77682000	4.69365100
23.49999878	0.00000000	22.27485000	4.77977300
23.69999877	0.00000000	4.13385800	5.11195900
23.89999876	0.00000000	-12.05709000	5.47490100
24.09999875	0.00000000	-22.43479000	5.06274600
24.29999873	0.00000000	-24.24335000	4.31840500
24.49999872	0.00000000	-15.68651000	3.11269700
24.69999871	0.00000000	1.66092500	1.57480300
24.89999870	0.00000000	23.67126000	0.04306102
25.09999869	0.00000000	45.30634000	-1.11343500
25.29999867	0.00000000	61.54650000	-1.48253000
25.49999866	-0.15871060	68.80536000	-1.06422200
25.69999865	0.00000000	64.84989000	0.51058070
25.89999864	0.00000000	49.40330000	3.24803100
26.09999863	0.00000000	26.27953000	6.72982200
26.29999862	0.00000000	1.15649600	10.58686000
26.49999860	0.00000000	-20.47859000	13.65650000
26.69999859	0.00000000	-33.55684000	15.14518000
26.89999858	0.00000000	-34.71949000	14.25935000
27.09999857	0.00000000	-23.54823000	9.98400600
27.29999856	0.00000000	-3.12500000	3.11269700
27.49999854	0.00000000	21.62278000	-4.26919300
27.69999853	0.00000000	45.21407000	-10.86983000
27.89999852	-0.15871060	62.57382000	-15.84030000
28.09999851	0.00000000	69.54970000	-17.23671000
28.29999850	0.00000000	64.57307000	-13.74877000
28.49999848	0.00000000	49.58169000	-5.62253900
28.69999847	0.00000000	28.32185000	5.20423200
28.89999846	0.00000000	5.94242000	16.81225000
29.09999845	0.00000000	-12.65994000	26.80241000
29.29999844	0.00000000	-23.54823000	32.52337000
29.49999843	0.00000000	-25.17224000	32.10507000
29.69999841	0.00000000	-17.82726000	25.09227000
29.89999840	0.00000000	-3.16806100	12.72761000
30.09999839	0.00000000	15.34818000	-2.73745100
30.29999838	0.00000000	33.12008000	-17.74729000
30.49999837	0.00000000	46.37672000	-28.94316000
30.69999835	0.00000000	52.98351000	-33.54453000
30.89999834	0.00000000	52.23917000	-30.43184000
31.09999833	0.00000000	44.14370000	-19.98031000
31.29999832	0.00000000	31.06545000	-4.14000900
31.49999831	0.00000000	16.36319000	13.65650000
31.69999829	0.00000000	3.19881900	29.82899000
31.89999828	0.00000000	-5.73326700	40.64960000
32.09999827	0.00000000	-8.89517700	43.35015000
32.29999826	0.00000000	-6.24384800	37.95522000
32.49999825	0.00000000	1.10728300	25.17839000
32.69999824	0.00000000	11.53420000	7.84940900
32.89999822	0.00000000	22.74237000	-9.94094400
33.09999821	0.00000000	32.00049000	-24.66781000
33.29999820	0.00000000	37.48769000	-33.54453000
33.49999819	0.00000000	38.28740000	-34.65797000
33.69999818	0.00000000	34.79330000	-27.41142000
33.89999816	0.00000000	27.48524000	-13.93947000
34.09999815	0.00000000	18.31939000	1.95004900
34.29999814	0.00000000	10.54995000	17.88263000
34.49999813	0.00000000	5.47490100	30.89936000
34.69999812	0.00000000	3.57406500	37.49385000
34.89999810	0.00000000	5.85014700	36.01132000
35.09999809	0.00000000	11.15896000	27.96506000
35.29999808	0.00000000	17.34744000	15.14518000
35.49999807	0.00000000	23.11762000	0.13533460
35.69999806	0.00000000	26.97465000	-13.70571000
35.89999805	0.00000000	27.76821000	-22.58243000
36.09999803	0.00000000	25.90428000	-24.58169000
36.29999802	0.00000000	21.99803000	-20.02337000
36.49999801	0.00000000	17.01525000	-10.40846000
36.69999800	0.00000000	12.03863000	1.53174200
36.89999799	0.00000000	9.01205700	13.10285000
37.09999797	0.00000000	8.92593500	21.51206000
37.29999796	0.00000000	11.24508000	24.24951000
37.49999795	0.00000000	15.06521000	20.85999000
37.69999794	0.00000000	19.71580000	13.18898000
37.89999793	0.00000000	23.57899000	3.20497000
38.09999791	0.00000000	26.32259000	-6.32381900
38.29999790	0.00000000	27.39296000	-12.08169000
38.49999789	0.00000000	25.90428000	-12.50615000
38.69999788	0.00000000	22.46555000	-7.90477300
38.89999787	0.00000000	18.59621000	0.51058070
39.09999786	0.00000000	14.64690000	10.03322000
39.29999784	0.00000000	11.20202000	17.32899000
39.49999783	0.00000000	8.87672100	20.39862000
39.69999782	0.00000000	8.50147600	18.44242000
39.89999781	0.00000000	10.03937000	11.56496000
40.09999780	0.00000000	13.11516000	1.99926200
40.29999778	0.00000000	17.01525000	-7.20349400
40.49999777	0.00000000	20.88459000	-13.74877000
40.69999776	0.00000000	24.36639000	-15.61270000
40.89999775	0.00000000	26.32259000	-12.21703000
41.09999774	0.00000000	26.74089000	-4.51525500
41.29999772	0.00000000	25.94734000	5.06274600
41.49999771	0.00000000	23.57899000	14.35162000
41.69999770	0.00000000	20.13410000	20.81693000
41.89999769	0.00000000	16.27707000	22.76083000
42.09999768	0.00000000	13.15822000	19.32825000
42.29999767	0.00000000	11.15896000	12.07554000
42.49999765	0.00000000	9.99630800	3.20497000
42.69999764	0.00000000	10.08243000	-5.25344500
42.89999763	0.00000000	11.95251000	-11.01132000
43.09999762	0.00000000	15.01599000	-12.63533000
43.29999761	0.00000000	17.72268000	-10.35925000
43.49999759	0.00000000	20.08489000	-5.38262700
43.69999758	0.00000000	21.62278000	1.15649600
43.89999757	0.00000000	22.09030000	7.33882900
44.09999756	0.00000000	22.09030000	11.98327000
44.29999755	0.00000000	21.71506000	14.30241000
44.49999753	0.00000000	20.97072000	13.56422000
44.69999752	0.00000000	20.59547000	10.53765000
44.89999751	0.00000000	20.50935000	6.31151500
45.09999750	0.00000000	20.13410000	2.08538400
45.29999749	0.00000000	19.30364000	-1.02116100
45.49999748	0.00000000	18.08563000	-2.60211600
45.69999746	0.00000000	15.71727000	-2.64517700
45.89999745	0.00000000	12.69070000	-1.48868100
46.09999744	0.00000000	9.99630800	0.46751960
46.29999743	0.00000000	8.45841400	3.15575800
46.49999742	0.00000000	8.50147600	5.85014700
46.69999740	0.00000000	10.50689000	7.75713500
46.89999739	0.00000000	14.82529000	8.54453700
47.09999738	0.00000000	20.97072000	7.80019600
47.29999737	0.00000000	27.48524000	6.26845500
47.49999736	0.00000000	32.09276000	4.31840500
47.69999734	0.00000000	33.67372000	1.99311000
47.89999733	0.00000000	32.04970000	0.04306102
48.09999732	0.00000000	26.97465000	-1.48868100
48.29999731	0.00000000	18.87918000	-2.22687000
48.49999730	0.00000000	10.03937000	-1.43946800
48.69999729	0.00000000	2.68823800	0.46751960
48.89999727	0.00000000	-1.50098400	3.19881900
49.09999726	0.00000000	-1.07652500	6.26845500
49.29999725	0.00000000	4.31840500	8.96284400
49.49999724	0.00000000	13.15822000	10.45152000
49.69999723	0.00000000	23.20374000	10.07628000
49.89999721	0.00000000	32.04970000	7.80019600
50.09999720	0.00000000	37.48769000	4.68750000
50.29999719	0.00000000	38.19513000	1.20570900
50.49999718	0.00000000	33.95054000	-2.27608300
50.69999717	0.00000000	25.11688000	-4.55831700
50.89999715	0.00000000	14.78223000	-5.29650500
51.09999714	0.00000000	5.89936000	-3.76476400
51.29999713	0.00000000	0.50442900	-0.33218500
51.49999712	0.00000000	0.07997046	3.53100400
51.69999711	0.00000000	4.26919300	7.42495000
51.89999710	0.00000000	11.57726000	10.49459000
52.09999708	0.00000000	20.04183000	12.03248000
52.29999707	0.00000000	27.39296000	11.61417000
52.49999706	0.00000000	32.00049000	8.91978400
52.69999705	0.00000000	32.74483000	4.73671200
52.89999704	0.00000000	28.93085000	0.51058070
53.09999702	0.00000000	22.04109000	-2.55905500
53.29999701	0.00000000	14.36393000	-3.76476400
53.49999700	0.00000000	7.85556000	-3.02042300
53.69999699	0.00000000	4.77977300	-1.11343500
53.89999698	0.00000000	5.85014700	1.58095500
54.09999696	0.00000000	10.08243000	4.26919300
54.29999695	0.00000000	16.22785000	6.17618100
54.49999694	0.00000000	22.74237000	6.96358300
54.69999693	0.00000000	27.34990000	6.22539300
54.89999692	0.00000000	28.93085000	4.73671200
55.09999691	0.00000000	27.39296000	3.19881900
55.29999689	0.00000000	23.16068000	2.04232300
55.49999688	0.00000000	17.43356000	1.66707700
55.69999687	0.00000000	12.03863000	2.08538400
55.89999686	0.00000000	8.55068800	3.61712600
56.09999685	0.00000000	7.38804100	5.85014700
56.29999683	0.00000000	8.96899500	7.33882900
56.49999682	0.00000000	13.15822000	7.33882900
56.69999681	0.00000000	18.50394000	5.80093500
56.89999680	0.00000000	23.16068000	3.11269700
57.09999679	0.00000000	26.23031000	0.00000000
57.29999677	0.00000000	27.01772000	-3.02042300
57.49999676	0.00000000	25.11688000	-4.87819900
57.69999675	0.00000000	21.66585000	-4.09079700
57.89999674	0.00000000	17.43356000	-1.02116100
58.09999673	0.00000000	13.57652000	3.62327700
58.29999672	0.00000000	11.24508000	8.96284400
58.49999670	0.00000000	10.45768000	13.18898000
58.69999669	0.00000000	11.62032000	15.09596000
58.89999668	0.00000000	14.27165000	14.30241000
59.09999667	0.00000000	17.34744000	10.45152000
59.29999666	0.00000000	20.04183000	4.64443900
59.49999664	0.00000000	21.57972000	-1.90698800
59.69999663	0.00000000	21.62278000	-7.99089500
59.89999662	0.00000000	20.50935000	-11.05438000
60.09999661	0.00000000	18.97145000	-10.31619000
60.29999660	0.00000000	17.43356000	-6.45300100
60.49999658	0.00000000	16.22785000	0.13533460
60.69999657	0.00000000	15.47736000	7.80019600
60.89999656	0.00000000	15.11442000	14.72687000
61.09999655	0.00000000	15.90182000	18.90994000
61.29999654	0.00000000	17.39050000	18.95300000
61.49999653	0.00000000	18.92839000	15.10212000
61.69999651	0.00000000	20.08489000	8.54453700
61.89999650	0.00000000	20.41708000	0.46751960
62.09999649	0.00000000	19.66658000	-6.82824800
62.29999648	0.00000000	17.76575000	-11.47884000
62.49999647	0.00000000	15.90182000	-12.63533000
62.69999645	0.00000000	14.69611000	-9.94094400
62.89999644	0.00000000	14.32087000	-4.18307100
63.09999643	0.00000000	14.73917000	3.15575800
63.29999642	0.00000000	16.27707000	10.45152000
63.49999641	0.00000000	18.50394000	15.88336000
63.69999639	0.00000000	20.08489000	18.21481000
63.89999638	0.00000000	20.88459000	17.46432000
64.09999637	0.00000000	21.24754000	13.56422000
64.29999636	0.00000000	20.46014000	7.47416300
64.49999635	0.00000000	18.97145000	0.87967510
64.69999634	0.00000000	17.39050000	-4.55831700
64.89999632	0.00000000	15.85261000	-8.40920300
65.09999631	0.00000000	14.73917000	-9.56569900
65.29999630	0.00000000	14.73917000	-7.71407400
65.49999629	0.00000000	15.80955000	-4.31840500
65.69999628	0.00000000	16.97219000	-0.37524600
65.89999626	0.00000000	17.80881000	3.57406500
66.09999625	0.00000000	18.92839000	7.80019600
66.29999624	0.00000000	19.62352000	11.23893000
66.49999623	0.00000000	18.87918000	12.45079000
66.69999622	0.00000000	17.39050000	12.16166000
66.89999620	0.00000000	15.85261000	10.96211000
67.09999619	0.00000000	14.73917000	9.00590400
67.29999618	0.00000000	14.73917000	6.26845500
67.49999617	0.00000000	15.85261000	3.15575800
67.69999616	0.00000000	17.43356000	0.00000000
67.89999615	0.00000000	19.38976000	-3.11269700
68.09999613	0.00000000	21.66585000	-5.75787400
68.29999612	0.00000000	23.11762000	-6.87130900
68.49999611	0.00000000	22.74237000	-5.75787400
68.69999610	0.00000000	20.41708000	-3.06348400
68.89999609	0.00000000	16.97219000	0.51058070
69.09999607	0.00000000	13.11516000	5.15501900
69.29999606	0.00000000	10.03937000	10.11934000
69.49999605	0.00000000	8.50147600	13.60728000
69.69999604	0.00000000	8.92593500	15.18824000
69.89999603	0.00000000	11.66339000	14.72072000
70.09999601	0.00000000	16.27707000	11.60802000
70.29999600	0.00000000	21.62278000	6.22539300
70.49999599	0.00000000	25.90428000	0.09227362
70.69999598	0.00000000	28.27879000	-5.29650500
70.89999597	0.00000000	28.97392000	-8.40920300
71.09999596	0.00000000	26.97465000	-8.82750900
71.29999594	0.00000000	21.99803000	-6.87746000
71.49999593	0.00000000	15.85261000	-2.64517700
71.69999592	0.00000000	10.03937000	2.73745100
71.89999591	0.00000000	5.80708600	7.75713500
72.09999590	0.00000000	4.26919300	11.61417000
72.29999588	0.00000000	5.76402500	13.14591000
72.49999587	0.00000000	9.66412400	12.07554000
72.69999586	0.00000000	15.06521000	9.38115100
72.89999585	0.00000000	21.24754000	5.89320800
73.09999584	0.00000000	26.23031000	2.08538400
73.29999582	0.00000000	28.97392000	-0.60285430
73.49999581	0.00000000	28.97392000	-1.43946800
73.69999580	0.00000000	26.32259000	-1.11343500
73.89999579	0.00000000	22.04109000	0.04306102
74.09999578	0.00000000	17.01525000	1.57480300
74.29999577	0.00000000	12.03863000	3.06348400
74.49999575	0.00000000	8.92593500	3.80782500
74.69999574	0.00000000	8.08316900	3.06348400
74.89999573	0.00000000	8.87672100	1.62401600
75.09999572	0.00000000	11.57726000	0.46136810
75.29999571	0.00000000	15.39124000	0.09227362
75.49999569	0.00000000	18.87918000	0.51058070
75.69999568	0.00000000	21.62278000	2.08538400
75.89999567	0.00000000	23.16068000	4.77977300
76.09999566	0.00000000	23.16068000	7.80019600
76.29999565	0.00000000	21.66585000	10.07628000
76.49999563	0.00000000	19.38976000	10.45152000
76.69999562	0.00000000	17.48277000	8.91978400
76.89999561	0.00000000	16.27707000	5.80093500
77.09999560	0.00000000	15.90182000	1.53174200
77.29999559	0.00000000	16.22785000	-3.06963600
77.49999558	0.00000000	16.97219000	-6.87746000
77.69999556	0.00000000	17.29823000	-8.36614100
77.89999555	0.00000000	16.97219000	-6.87746000
78.09999554	0.00000000	16.18479000	-3.02042300
78.29999553	0.00000000	15.43430000	1.99311000
78.49999552	0.00000000	14.64690000	7.38188900
78.69999550	0.00000000	14.36393000	11.65723000
78.89999549	0.00000000	15.11442000	13.98253000
79.09999548	0.00000000	17.01525000	14.35162000
79.29999547	0.00000000	18.92839000	11.98327000
79.49999546	0.00000000	20.55241000	7.42495000
79.69999544	0.00000000	22.04109000	2.04232300
79.89999543	0.00000000	22.78543000	-2.60211600
80.09999542	0.00000000	21.95497000	-5.71481200
80.29999541	0.00000000	19.66658000	-6.87130900
80.49999540	0.00000000	16.22785000	-5.75787400
80.69999539	0.00000000	13.20128000	-3.11269700
80.89999537	0.00000000	11.62032000	0.00000000
81.09999536	0.00000000	11.57726000	3.15575800
81.29999535	0.00000000	12.73991000	6.26845500
81.49999534	0.00000000	14.69611000	8.96284400
81.69999533	0.00000000	17.43356000	10.49459000
81.89999531	0.00000000	20.46014000	10.53765000
82.09999530	0.00000000	22.74237000	9.42421200
82.29999529	0.00000000	23.16068000	7.84940900
82.49999528	0.00000000	22.04109000	5.85014700
82.69999527	0.00000000	20.13410000	3.15575800
82.89999525	0.00000000	17.80881000	0.41830710
83.09999524	0.00000000	15.85261000	-1.90698800
83.29999523	0.00000000	14.32087000	-3.85088600
83.49999522	0.00000000	13.53346000	-4.55831700
83.69999521	0.00000000	13.89641000	-3.85088600
83.89999520	0.00000000	14.64690000	-1.86392700
84.09999518	0.00000000	15.85261000	0.88582670
84.29999517	0.00000000	17.34744000	4.73671200
84.49999516	0.00000000	18.50394000	8.54453700
84.69999515	0.00000000	18.87918000	10.91289000
84.89999514	0.00000000	18.59621000	12.07554000
85.09999512	0.00000000	18.18405000	11.61417000
85.29999511	0.00000000	18.22096000	8.91978400
85.49999510	0.00000000	18.14099000	4.69365100
85.69999509	0.00000000	18.22096000	0.09227362
85.89999508	0.00000000	18.14099000	-3.80782500
86.09999506	0.00000000	18.17790000	-6.13312000
86.29999505	0.00000000	17.72268000	-6.87130900
86.49999504	0.00000000	17.01525000	-5.29650500
86.69999503	0.00000000	16.18479000	-1.48868100
86.89999502	0.00000000	15.43430000	3.11269700
87.09999501	0.00000000	14.64690000	7.43110200
87.29999499	0.00000000	14.32087000	10.82677000
87.49999498	0.00000000	14.69611000	12.35236000
87.69999497	0.00000000	15.85261000	10.82677000
87.89999496	0.00000000	17.39050000	7.43110200
88.09999495	0.00000000	18.92839000	3.15575800
88.29999493	0.00000000	20.04183000	-1.07037400
88.49999492	0.00000000	20.08489000	-4.13385800
88.69999491	0.00000000	19.34670000	-5.29650500
88.89999490	0.00000000	18.55315000	-4.13385800
89.09999489	0.00000000	17.34744000	-1.07037400
89.29999487	0.00000000	15.85261000	3.15575800
89.49999486	0.00000000	14.69611000	7.38188900
89.69999485	0.00000000	14.32087000	10.45152000
89.89999484	0.00000000	14.69611000	11.60802000
90.09999483	0.00000000	15.80955000	10.45152000
90.29999482	0.00000000	16.97219000	7.38188900
90.49999480	0.00000000	17.76575000	3.15575800
90.69999479	0.00000000	18.55315000	-1.07037400
90.89999478	0.00000000	18.87918000	-4.13385800
91.09999477	0.00000000	18.55315000	-5.29650500
91.29999476	0.00000000	17.80881000	-4.09079700
91.49999474	0.00000000	17.43356000	-0.64591530
91.69999473	0.00000000	17.39050000	4.31840500
91.89999472	0.00000000	17.39050000	8.87672100
92.09999471	0.00000000	17.43356000	11.61417000
92.29999470	0.00000000	17.76575000	11.98327000
92.49999468	0.00000000	18.13484000	10.07628000
92.69999467	0.00000000	17.72268000	6.21924200
92.89999466	0.00000000	16.97219000	1.62401600
93.09999465	0.00000000	15.76649000	-2.60211600
93.29999464	0.00000000	14.32087000	-5.29650500
93.49999463	0.00000000	13.53346000	-5.67175200
93.69999461	0.00000000	13.89641000	-3.76476400
93.89999460	0.00000000	14.69611000	0.09227362
94.09999459	0.00000000	16.32013000	4.64443900
94.29999458	0.00000000	18.92839000	8.50147600
94.49999457	0.00000000	21.24754000	10.40846000
94.69999455	0.00000000	22.41634000	10.07628000
94.89999454	0.00000000	22.78543000	7.75713500
95.09999453	0.00000000	21.57972000	4.31840500
95.29999452	0.00000000	18.92839000	0.46751960
95.49999451	0.00000000	15.80955000	-2.55905500
95.69999449	0.00000000	12.73991000	-3.76476400
95.89999448	0.00000000	10.41462000	-3.02042300
96.09999447	0.00000000	9.66412400	-1.11343500
96.29999446	0.00000000	10.41462000	1.62401600
96.49999445	0.00000000	12.78297000	4.68750000
96.69999444	0.00000000	16.22785000	7.33882900
96.89999442	0.00000000	20.13410000	8.50147600
97.09999441	0.00000000	23.57899000	7.75713500
97.29999440	0.00000000	25.90428000	5.89320800
97.49999439	0.00000000	26.27953000	3.57406500
97.69999438	0.00000000	24.69857000	1.66707700
97.89999436	0.00000000	21.24754000	0.46136810
98.09999435	0.00000000	16.64616000	0.04306102
98.29999434	0.00000000	12.78297000	0.04306102
98.49999433	0.00000000	9.99630800	0.46136810
98.69999432	0.00000000	8.45841400	1.62401600
98.89999430	0.00000000	8.50147600	3.11269700
99.09999429	0.00000000	10.41462000	4.26919300
99.29999428	0.00000000	13.85334000	4.69365100
99.49999427	0.00000000	17.34744000	4.73671200
99.69999426	0.00000000	20.50935000	4.73671200
99.89999425	0.00000000	23.16068000	4.73671200
100.09999423	0.00000000	24.32333000	4.73671200
100.29999422	0.00000000	23.57899000	4.73671200
100.49999421	0.00000000	21.66585000	4.73671200
100.69999420	0.00000000	18.92839000	4.69365100
100.89999419	0.00000000	15.85261000	4.22613100
101.09999417	0.00000000	13.15822000	2.73745100
101.29999416	0.00000000	11.57726000	0.83661410
101.49999415	0.00000000	11.15896000	-0.32603340
101.69999414	0.00000000	11.53420000	-1.11343500
101.89999413	0.00000000	12.73991000	-1.02116100
102.09999411	0.00000000	14.64690000	0.46751960
102.29999410	0.00000000	17.01525000	2.78051200
102.49999409	0.00000000	19.30364000	5.11195900
102.69999408	0.00000000	21.24754000	7.43110200
102.89999407	0.00000000	21.99803000	8.91978400
103.09999406	0.00000000	21.66585000	8.91978400
103.29999404	0.00000000	20.50935000	7.38188900
103.49999403	0.00000000	18.92839000	4.68750000
103.69999402	0.00000000	17.01525000	1.62401600
103.89999401	0.00000000	15.06521000	-1.07037400
104.09999400	0.00000000	13.89641000	-2.64517700
104.29999398	0.00000000	13.11516000	-3.02042300
104.49999397	0.00000000	13.15822000	-2.22687000
104.69999396	0.00000000	14.27165000	0.09227362
104.89999395	0.00000000	15.80955000	3.11269700
105.09999394	0.00000000	17.39050000	5.80093500
105.29999392	0.00000000	18.87918000	7.38188900
105.49999391	0.00000000	19.66658000	7.75713500
105.69999390	0.00000000	19.30364000	7.01279500
105.89999389	0.00000000	18.55315000	5.06274600
106.09999388	0.00000000	17.39050000	2.82972400
106.29999387	0.00000000	16.22785000	0.83661410
106.49999385	0.00000000	15.47736000	-0.28297240
106.69999384	0.00000000	15.06521000	-0.69512790
106.89999383	0.00000000	15.47736000	0.09227362
107.09999382	0.00000000	16.22785000	1.57480300
107.29999381	0.00000000	17.39050000	3.15575800
107.49999379	0.00000000	18.50394000	4.68750000
107.69999378	0.00000000	18.87918000	5.80093500
107.89999377	0.00000000	18.55315000	5.80093500
108.09999376	0.00000000	17.76575000	4.68750000
108.29999375	0.00000000	16.97219000	3.15575800
108.49999374	0.00000000	15.80955000	1.62401600
108.69999372	0.00000000	14.69611000	0.46136810
108.89999371	0.00000000	14.32087000	0.09227362
109.09999370	0.00000000	14.69611000	0.46136810
109.29999369	0.00000000	15.85261000	1.62401600
109.49999368	0.00000000	17.34744000	3.15575800
109.69999366	0.00000000	18.50394000	4.68750000
109.89999365	0.00000000	18.92839000	5.85014700
110.09999364	0.00000000	18.97145000	6.21924200
110.29999363	0.00000000	18.92839000	5.85014700
110.49999362	0.00000000	18.50394000	4.68750000
110.69999360	0.00000000	17.34744000	3.15575800
110.89999359	0.00000000	15.85261000	1.62401600
111.09999358	0.00000000	14.69611000	0.46136810
111.29999357	0.00000000	14.32087000	0.04306102
111.49999356	0.00000000	14.64690000	0.04306102
111.69999355	0.00000000	15.43430000	0.46136810
111.89999353	0.00000000	16.18479000	1.57480300
112.09999352	0.00000000	16.97219000	2.73745100
112.29999351	0.00000000	17.34744000	3.53100400
112.49999350	0.00000000	17.39050000	4.31840500
112.69999349	0.00000000	17.39050000	4.69365100
112.89999347	0.00000000	17.39050000	4.69365100
113.09999346	0.00000000	17.34744000	4.31840500
113.29999345	0.00000000	17.01525000	3.57406500
113.49999344	0.00000000	16.60310000	3.19881900
113.69999343	0.00000000	16.59695000	3.11269700
113.89999341	0.00000000	16.18479000	2.73745100
114.09999340	0.00000000	15.85261000	1.99311000
114.29999339	0.00000000	15.80955000	1.61786400
114.49999338	0.00000000	15.85261000	1.57480300
114.69999337	0.00000000	16.22785000	1.57480300
114.89999336	0.00000000	16.97219000	1.57480300
115.09999334	0.00000000	17.34744000	1.57480300
115.29999333	0.00000000	17.39050000	1.61786400
115.49999332	0.00000000	17.39050000	1.99311000
115.69999331	0.00000000	17.39050000	2.78051200
115.89999330	0.00000000	17.34744000	3.53100400
116.09999328	0.00000000	16.97219000	4.31840500
116.29999327	0.00000000	16.22785000	4.69365100
116.49999326	0.00000000	15.85261000	4.73671200
116.69999325	0.00000000	15.80955000	4.69365100
116.89999324	0.00000000	15.85261000	4.31840500
117.09999322	0.00000000	16.22785000	3.53100400
117.29999321	0.00000000	17.01525000	2.73745100
117.49999320	0.00000000	17.76575000	1.57480300
117.69999319	0.00000000	18.55315000	0.51058070
117.89999318	0.00000000	18.87918000	0.46136810
118.09999317	0.00000000	18.55315000	1.19955700
118.29999315	0.00000000	17.76575000	1.95004900
118.49999314	0.00000000	16.97219000	2.73745100
118.69999313	0.00000000	15.80955000	3.15575800
118.89999312	0.00000000	14.69611000	3.57406500
119.09999311	0.00000000	14.27165000	4.31840500
119.29999309	0.00000000	14.22859000	4.69365100
119.49999308	0.00000000	14.27165000	4.69365100
119.69999307	0.00000000	14.69611000	4.31840500
119.89999306	0.00000000	15.85261000	3.57406500
120.09999305	0.00000000	17.34744000	3.15575800
120.29999303	0.00000000	18.55315000	2.73745100
120.49999302	0.00000000	19.30364000	1.99311000
120.69999301	0.00000000	19.71580000	1.61786400
120.89999300	0.00000000	19.30364000	1.57480300
121.09999299	0.00000000	18.55315000	1.57480300
121.29999298	0.00000000	17.34744000	1.57480300
121.49999296	0.00000000	15.85261000	1.61786400
121.69999295	0.00000000	14.69611000	1.99311000
121.89999294	0.00000000	14.27165000	2.73745100
122.09999293	0.00000000	14.22859000	3.11269700
122.29999292	0.00000000	14.27165000	3.19881900
122.49999290	0.00000000	14.69611000	3.53100400
122.69999289	0.00000000	15.85261000	3.94315900
122.89999288	0.00000000	17.34744000	3.90625000
123.09999287	0.00000000	18.50394000	3.94315900
123.29999286	0.00000000	18.92839000	3.53100400
123.49999284	0.00000000	18.97145000	3.15575800
123.69999283	0.00000000	18.92839000	2.73745100
123.89999282	0.00000000	18.55315000	1.99311000
124.09999281	0.00000000	17.76575000	1.61786400
124.29999280	0.00000000	17.01525000	1.57480300
124.49999279	0.00000000	16.18479000	1.57480300
124.69999277	0.00000000	15.43430000	1.61786400
124.89999276	0.00000000	14.64690000	1.99311000
125.09999275	0.00000000	14.27165000	2.73745100
125.29999274	0.00000000	14.27165000	3.11269700
125.49999273	0.00000000	14.69611000	3.19881900
125.69999271	0.00000000	15.80955000	3.57406500
125.89999270	0.00000000	16.97219000	4.26919300
126.09999269	0.00000000	17.76575000	4.26919300
126.29999268	0.00000000	18.55315000	3.57406500
126.49999267	0.00000000	18.87918000	3.15575800
126.69999265	0.00000000	18.50394000	2.73745100
126.89999264	0.00000000	17.39050000	1.99311000
127.09999263	0.00000000	16.22785000	1.61786400
127.29999262	0.00000000	15.43430000	1.57480300
127.49999261	0.00000000	14.64690000	1.57480300
127.69999260	0.00000000	14.27165000	1.57480300
127.89999258	0.00000000	14.27165000	1.61786400
128.09999257	0.00000000	14.69611000	1.99311000
128.29999256	0.00000000	15.80955000	2.73745100
128.49999255	0.00000000	16.97219000	3.11269700
128.69999254	0.00000000	17.76575000	3.15575800
128.89999252	0.00000000	18.55315000	3.15575800
129.09999251	0.00000000	18.87918000	3.15575800
129.29999250	0.00000000	18.50394000	3.11269700
129.49999249	0.00000000	17.39050000	2.73745100
129.69999248	0.00000000	16.22785000	1.99311000
129.89999246	0.00000000	15.43430000	1.66707700
130.09999245	0.00000000	14.64690000	1.99311000
130.29999244	0.00000000	14.32087000	2.73745100
130.49999243	0.00000000	14.64690000	3.11269700
130.69999242	0.00000000	15.43430000	3.15575800
130.89999241	0.00000000	16.18479000	3.15575800
131.09999239	0.00000000	16.97219000	3.15575800
131.29999238	0.00000000	17.34744000	3.11269700
131.49999237	0.00000000	17.39050000	2.73745100
131.69999236	0.00000000	17.39050000	1.99311000
131.89999235	0.00000000	17.34744000	1.61786400
132.09999233	0.00000000	16.97219000	1.57480300
132.29999232	0.00000000	16.22785000	1.57480300
132.49999231	0.00000000	15.85261000	1.61786400
132.69999230	0.00000000	15.80955000	1.99311000
132.89999229	0.00000000	15.80955000	2.73745100
133.09999227	0.00000000	15.80955000	3.15575800
133.29999226	0.00000000	15.80955000	3.57406500
133.49999225	0.00000000	15.80955000	4.31840500
133.69999224	0.00000000	15.80955000	4.64443900
133.89999223	0.00000000	15.80955000	4.31840500
134.09999222	0.00000000	15.80955000	3.53100400
134.29999220	0.00000000	15.85261000	2.78051200
134.49999219	0.00000000	16.22785000	1.95004900
134.69999218	0.00000000	16.97219000	1.24877000
134.89999217	0.00000000	17.34744000	0.83661410
135.09999216	0.00000000	17.39050000	1.19955700
135.29999214	0.00000000	17.39050000	1.57480300
135.49999213	0.00000000	17.34744000	1.99311000
135.69999212	0.00000000	16.97219000	2.73745100
135.89999211	0.00000000	16.18479000	3.15575800
136.09999210	0.00000000	15.43430000	3.53100400
136.29999208	0.00000000	14.64690000	3.90009800
136.49999207	0.00000000	14.32087000	3.53100400
136.69999206	0.00000000	14.64690000	3.19881900
136.89999205	0.00000000	15.39124000	3.11269700
137.09999204	0.00000000	15.80955000	2.73745100
137.29999203	0.00000000	16.22785000	1.99311000
137.49999201	0.00000000	16.97219000	1.61786400
137.69999200	0.00000000	17.34744000	1.57480300
137.89999199	0.00000000	17.39050000	1.57480300
138.09999198	0.00000000	17.34744000	1.57480300
138.29999197	0.00000000	16.97219000	1.57480300
138.49999195	0.00000000	16.22785000	1.61786400
138.69999194	0.00000000	15.80955000	1.99311000
138.89999193	0.00000000	15.43430000	2.78051200
139.09999192	0.00000000	15.06521000	3.48794300
139.29999191	0.00000000	15.43430000	3.90009800
139.49999189	0.00000000	15.76649000	3.57406500
139.69999188	0.00000000	15.85261000	3.57406500
139.89999187	0.00000000	16.22785000	3.90009800
140.09999186	0.00000000	16.97219000	3.48794300
140.29999185	0.00000000	17.34744000	2.78051200
140.49999184	0.00000000	17.34744000	1.99311000
140.69999182	0.00000000	16.97219000	1.61786400
140.89999181	0.00000000	16.22785000	1.57480300
141.09999180	0.00000000	15.85261000	1.57480300
141.29999179	0.00000000	15.80955000	1.57480300
141.49999178	0.00000000	15.80955000	1.61786400
141.69999176	0.00000000	15.80955000	2.04232300
141.89999175	0.00000000	15.85261000	3.15575800
142.09999174	0.00000000	16.22785000	4.26919300
142.29999173	0.00000000	16.97219000	4.69365100
142.49999172	0.00000000	17.29823000	4.69365100
142.69999170	0.00000000	17.01525000	4.26919300
142.89999169	0.00000000	16.60310000	3.15575800
143.09999168	0.00000000	16.59695000	2.04232300
143.29999167	0.00000000	16.18479000	1.57480300
143.49999166	0.00000000	15.85261000	1.19955700
143.69999165	0.00000000	15.80955000	0.83661410
143.89999163	0.00000000	15.80955000	1.24877000
144.09999162	0.00000000	15.85261000	1.95004900
144.29999161	0.00000000	16.22785000	2.73745100
144.49999160	0.00000000	16.97219000	3.11269700
144.69999159	0.00000000	17.34744000	3.19881900
144.89999157	0.00000000	17.34744000	3.53100400
145.09999156	0.00000000	16.97219000	3.90009800
145.29999155	0.00000000	16.22785000	3.48794300
145.49999154	0.00000000	15.85261000	2.78051200
145.69999153	0.00000000	15.80955000	1.99311000
145.89999151	0.00000000	15.80955000	1.61786400
146.09999150	0.00000000	15.80955000	1.57480300
146.29999149	0.00000000	15.80955000	1.57480300
146.49999148	0.00000000	15.85261000	1.57480300
146.69999147	0.00000000	16.22785000	1.61786400
146.89999146	0.00000000	16.97219000	1.99311000
147.09999144	0.00000000	17.34744000	2.73745100
147.29999143	0.00000000	17.34744000	3.11269700
147.49999142	0.00000000	16.97219000	3.15575800
147.69999141	0.00000000	16.22785000	3.15575800
147.89999140	0.00000000	15.85261000	3.15575800
148.09999138	0.00000000	15.80955000	3.15575800
148.29999137	0.00000000	15.80955000	3.15575800
148.49999136	0.00000000	15.80955000	3.11269700
148.69999135	0.00000000	15.80955000	2.73745100
148.89999134	0.00000000	15.80955000	1.99311000
149.09999132	0.00000000	15.85261000	1.61786400
149.29999131	0.00000000	16.22785000	1.57480300
149.49999130	-0.15871060	16.97219000	1.57480300
149.69999129	0.00000000	17.34744000	1.61786400
149.89999128	0.00000000	17.34744000	1.99311000
150.09999127	0.00000000	16.97219000	2.73745100
150.29999125	0.00000000	16.22785000	3.11269700
150.49999124	0.00000000	15.85261000	3.15575800
150.69999123	0.00000000	15.80955000	3.15575800
150.89999122	0.00000000	15.80955000	3.15575800
151.09999121	0.00000000	15.80955000	3.15575800
151.29999119	0.00000000	15.80955000	3.15575800
151.49999118	0.00000000	15.80955000	3.11269700
151.69999117	0.00000000	15.80955000	2.73745100
151.89999116	0.00000000	15.85261000	1.99311000
152.09999115	0.00000000	16.22785000	1.61786400
152.29999113	0.00000000	16.97219000	1.61786400
152.49999112	0.00000000	17.34744000	1.99311000
152.69999111	0.00000000	17.39050000	2.73745100
152.89999110	0.00000000	17.39050000	3.11269700
153.09999109	0.00000000	17.34744000	3.15575800
153.29999108	0.00000000	16.97219000	3.15575800
153.49999106	0.00000000	16.18479000	3.15575800
153.69999105	0.00000000	15.43430000	3.15575800
153.89999104	0.00000000	14.64690000	3.15575800
154.09999103	0.00000000	14.27165000	3.15575800
154.29999102	0.00000000	14.27165000	3.15575800
154.49999100	0.00000000	14.64690000	3.11269700
154.69999099	0.00000000	15.39124000	2.73745100
154.89999098	0.00000000	15.76649000	2.04232300
155.09999097	0.00000000	15.85261000	1.99311000
155.29999096	0.00000000	16.22785000	2.31914400
155.49999094	0.00000000	16.97219000	1.95004900
155.69999093	0.00000000	17.34744000	1.61786400
155.89999092	0.00000000	17.34744000	1.61786400
156.09999091	0.00000000	16.97219000	1.99311000
156.29999090	0.00000000	16.22785000	2.73745100
156.49999089	0.00000000	15.80955000	3.11269700
156.69999087	0.00000000	15.39124000	3.15575800
156.89999086	0.00000000	14.64690000	3.15575800
157.09999085	0.00000000	14.32087000	3.15575800
157.29999084	0.00000000	14.64690000	3.15575800
157.49999083	0.00000000	15.39124000	3.15575800
157.69999081	0.00000000	15.76649000	3.11269700
157.89999080	0.00000000	15.85261000	2.73745100
158.09999079	0.00000000	16.22785000	1.99311000
158.29999078	0.00000000	16.92298000	1.61786400
158.49999077	0.00000000	16.97219000	1.61786400
158.69999075	0.00000000	16.60310000	1.95004900
158.89999074	0.00000000	16.59695000	2.36220500
159.09999073	0.00000000	16.18479000	2.36835600
159.29999072	0.00000000	15.85261000	2.78051200
159.49999071	0.00000000	15.80955000	3.11269700
159.69999070	0.00000000	15.80955000	3.15575800
159.89999068	0.00000000	15.80955000	3.15575800
160.09999067	0.00000000	15.80955000	3.15575800
160.29999066	0.00000000	15.80955000	3.15575800
160.49999065	0.00000000	15.80955000	3.11269700
160.69999064	0.00000000	15.80955000	2.73745100
160.89999062	0.00000000	15.80955000	1.99311000
161.09999061	0.00000000	15.80955000	1.61786400
161.29999060	0.00000000	15.80955000	1.57480300
161.49999059	0.00000000	15.80955000	1.57480300
161.69999058	0.00000000	15.85261000	1.57480300
161.89999056	0.00000000	16.18479000	1.61786400
162.09999055	0.00000000	16.59695000	1.99311000
162.29999054	0.00000000	16.56004000	2.73745100
162.49999053	0.00000000	16.59695000	3.11269700
162.69999052	0.00000000	16.18479000	3.15575800
162.89999051	0.00000000	15.85261000	3.15575800
163.09999049	0.00000000	15.76649000	3.15575800
163.29999048	0.00000000	15.39124000	3.11269700
163.49999047	0.00000000	14.64690000	2.73745100
163.69999046	0.00000000	14.27165000	1.99311000
163.89999045	0.00000000	14.27165000	1.61786400
164.09999043	0.00000000	14.64690000	1.57480300
164.29999042	0.00000000	15.39124000	1.57480300
164.49999041	0.00000000	15.76649000	1.57480300
164.69999040	0.00000000	15.85261000	1.61786400
164.89999039	0.00000000	16.22785000	1.99311000
165.09999037	0.00000000	16.92298000	2.73745100
165.29999036	0.00000000	16.92298000	3.11269700
165.49999035	0.00000000	16.22785000	3.11269700
165.69999034	0.00000000	15.85261000	2.78051200
165.89999033	0.00000000	15.80955000	2.41141700
166.09999032	0.00000000	15.80955000	2.78051200
166.29999030	0.00000000	15.76649000	3.11269700
166.49999029	0.00000000	15.43430000	3.15575800
166.69999028	0.00000000	15.06521000	3.15575800
166.89999027	0.00000000	15.43430000	3.11269700
167.09999026	0.00000000	15.76649000	2.73745100
167.29999024	0.00000000	15.85261000	1.99311000
167.49999023	0.00000000	16.18479000	1.61786400
167.69999022	0.00000000	16.55389000	1.57480300
167.89999021	0.00000000	16.18479000	1.61786400
168.09999020	0.00000000	15.85261000	1.95004900
168.29999018	0.00000000	15.80955000	2.31914400
168.49999017	0.00000000	15.80955000	1.99311000
168.69999016	0.00000000	15.80955000	2.04232300
168.89999015	0.00000000	15.80955000	2.73745100
169.09999014	0.00000000	15.80955000	3.06348400
169.29999013	0.00000000	15.80955000	2.78051200
169.49999011	0.00000000	15.80955000	2.36835600
169.69999010	0.00000000	15.80955000	2.36220500
169.89999009	0.00000000	15.80955000	1.95004900
170.09999008	0.00000000	15.80955000	1.66707700
170.29999007	0.00000000	15.80955000	1.95004900
170.49999005	0.00000000	15.80955000	2.31914400
170.69999004	0.00000000	15.80955000	1.95004900
170.89999003	0.00000000	15.85261000	1.61786400
171.09999002	0.00000000	16.18479000	1.61786400
171.29999001	0.00000000	16.55389000	1.95004900
171.49998999	0.00000000	16.18479000	2.36220500
171.69998998	0.00000000	15.85261000	2.32529500
171.89998997	0.00000000	15.80955000	2.36220500
172.09998996	0.00000000	15.80955000	1.95004900
172.29998995	0.00000000	15.80955000	1.61786400
172.49998994	0.00000000	15.80955000	1.57480300
172.69998992	0.00000000	15.80955000	1.61786400
172.89998991	0.00000000	15.80955000	1.99311000
173.09998990	0.00000000	15.80955000	2.73745100
173.29998989	0.00000000	15.80955000	3.06348400
173.49998988	0.00000000	15.80955000	2.78051200
173.69998986	0.00000000	15.80955000	2.36835600
173.89998985	0.00000000	15.80955000	2.40526600
174.09998984	0.00000000	15.80955000	2.32529500
174.29998983	0.00000000	15.80955000	2.40526600
174.49998982	0.00000000	15.80955000	2.32529500
174.69998980	0.00000000	15.80955000	2.36220500
174.89998979	0.00000000	15.80955000	1.95004900
175.09998978	0.00000000	15.80955000	1.66707700
175.29998977	0.00000000	15.80955000	1.95004900
175.49998976	0.00000000	15.80955000	2.36220500
175.69998975	0.00000000	15.80955000	2.36835600
175.89998973	0.00000000	15.80955000	2.78051200
176.09998972	0.00000000	15.80955000	3.11269700
176.29998971	0.00000000	15.80955000	3.15575800
176.49998970	0.00000000	15.80955000	3.15575800
176.69998969	0.00000000	15.80955000	3.15575800
176.89998967	0.00000000	15.80955000	3.15575800
177.09998966	0.00000000	15.80955000	3.15575800
177.29998965	0.00000000	15.80955000	3.11269700
177.49998964	0.00000000	15.80955000	2.73745100
177.69998963	0.00000000	15.80955000	1.99311000
177.89998961	0.00000000	15.80955000	1.61786400
178.09998960	0.00000000	15.80955000	1.57480300
178.29998959	0.00000000	15.80955000	1.57480300
178.49998958	0.00000000	15.80955000	1.57480300
178.69998957	0.00000000	15.80955000	1.57480300
178.89998956	0.00000000	15.80955000	1.61786400
179.09998954	0.00000000	15.80955000	1.95004900
179.29998953	0.00000000	15.80955000	2.31914400
179.49998952	0.00000000	15.80955000	1.95004900
179.69998951	0.00000000	15.80955000	1.61786400
179.89998950	0.00000000	15.80955000	1.57480300
180.09998948	0.00000000	15.80955000	1.57480300
180.29998947	0.00000000	15.80955000	1.57480300
180.49998946	0.00000000	15.80955000	1.57480300
180.69998945	0.00000000	15.80955000	1.57480300
180.89998944	0.00000000	15.80955000	1.61786400
181.09998942	0.00000000	15.80955000	1.99311000
181.29998941	0.00000000	15.80955000	2.73745100
181.49998940	0.00000000	15.76649000	3.11269700
181.69998939	0.00000000	15.43430000	3.15575800
181.89998938	0.00000000	15.06521000	3.15575800
182.09998937	0.00000000	15.43430000	3.11269700
182.29998935	0.00000000	15.76649000	2.73745100
182.49998934	0.00000000	15.80955000	1.99311000
182.69998933	0.00000000	15.80955000	1.61786400
182.89998932	0.00000000	15.80955000	1.57480300
183.09998931	0.00000000	15.80955000	1.57480300
183.29998929	0.00000000	15.80955000	1.57480300
183.49998928	0.00000000	15.80955000	1.57480300
183.69998927	0.00000000	15.80955000	1.57480300
183.89998926	0.00000000	15.80955000	1.61786400
184.09998925	0.00000000	15.80955000	1.99311000
184.29998923	0.00000000	15.80955000	2.73745100
184.49998922	0.00000000	15.80955000	3.11269700
184.69998921	0.00000000	15.80955000	3.15575800
184.89998920	0.00000000	15.80955000	3.15575800
185.09998919	0.00000000	15.80955000	3.11269700
185.29998918	0.00000000	15.80955000	2.73745100
185.49998916	0.00000000	15.80955000	1.99311000
185.69998915	0.00000000	15.80955000	1.61786400
185.89998914	0.00000000	15.80955000	1.57480300
186.09998913	0.00000000	15.80955000	1.57480300
186.29998912	0.00000000	15.80955000	1.57480300
186.49998910	0.00000000	15.80955000	1.57480300
186.69998909	0.00000000	15.80955000	1.61786400
186.89998908	0.00000000	15.80955000	1.99311000
187.09998907	0.00000000	15.80955000	2.73745100
187.29998906	0.00000000	15.76649000	3.11269700
187.49998904	0.00000000	15.43430000	3.15575800
187.69998903	0.00000000	15.06521000	3.15575800
187.89998902	0.00000000	15.43430000	3.15575800
188.09998901	0.00000000	15.76649000	3.11269700
188.29998900	0.00000000	15.80955000	2.73745100
188.49998899	0.00000000	15.80955000	1.99311000
188.69998897	0.00000000	15.80955000	1.61786400
188.89998896	0.00000000	15.80955000	1.57480300
189.09998895	0.00000000	15.80955000	1.57480300
189.29998894	0.00000000	15.80955000	1.57480300
189.49998893	0.00000000	15.80955000	1.57480300
189.69998891	0.00000000	15.76649000	1.57480300
189.89998890	0.00000000	15.43430000	1.61786400
190.09998889	0.00000000	15.06521000	1.99311000
190.29998888	0.00000000	15.43430000	2.73745100
190.49998887	0.00000000	15.76649000	3.11269700
190.69998885	0.00000000	15.80955000	3.15575800
190.89998884	0.00000000	15.80955000	3.15575800
191.09998883	0.00000000	15.80955000	3.15575800
191.29998882	0.00000000	15.80955000	3.11269700
191.49998881	0.00000000	15.80955000	2.73745100
191.69998880	0.00000000	15.80955000	1.99311000
191.89998878	0.00000000	15.76649000	1.61786400
192.09998877	0.00000000	15.43430000	1.57480300
192.29998876	0.00000000	15.06521000	1.57480300
192.49998875	0.00000000	15.39124000	1.57480300
192.69998874	0.00000000	15.34203000	1.57480300
192.89998872	0.00000000	14.64690000	1.57480300
193.09998871	0.00000000	14.32087000	1.57480300
193.29998870	0.00000000	14.60384000	1.61786400
193.49998869	0.00000000	14.97293000	1.99311000
193.69998868	0.00000000	14.64690000	2.73745100
193.89998866	0.00000000	14.64690000	3.06348400
194.09998865	0.00000000	15.01599000	2.73745100
194.29998864	0.00000000	15.02214000	2.04232300
194.49998863	0.00000000	15.43430000	2.04232300
194.69998862	0.00000000	15.76649000	2.73745100
194.89998861	0.00000000	15.80955000	3.06348400
195.09998859	0.00000000	15.76649000	2.73745100
195.29998858	0.00000000	15.39124000	1.99311000
195.49998857	0.00000000	14.64690000	1.66707700
195.69998856	0.00000000	14.27165000	1.95004900
195.89998855	0.00000000	14.27165000	2.31914400
196.09998853	0.00000000	14.64690000	1.95004900
