Time	Channel A	Channel B	Channel C
(us)	(V)	(mV)	(mV)

-4.49999956	0.00000000	6.32381900	6.35457700
-4.29999957	0.00000000	6.32381900	6.68676100
-4.09999958	0.00000000	6.32381900	7.05585600
-3.89999959	0.00000000	6.32381900	6.68676100
-3.69999960	0.00000000	6.32381900	6.40378900
-3.49999962	0.00000000	6.32381900	6.68676100
-3.29999963	0.00000000	6.32381900	7.05585600
-3.09999964	0.00000000	6.32381900	6.68676100
-2.89999965	0.00000000	6.32381900	6.35457700
-2.69999966	0.00000000	6.32381900	6.31151500
-2.49999968	0.00000000	6.32381900	6.35457700
-2.29999969	0.00000000	6.32381900	6.68676100
-2.09999970	0.00000000	6.32381900	7.05585600
-1.89999971	0.00000000	6.32381900	6.68676100
-1.69999972	0.00000000	6.32381900	6.40378900
-1.49999973	0.00000000	6.32381900	6.68676100
-1.29999975	0.00000000	6.32381900	7.09891700
-1.09999976	0.00000000	6.32381900	7.06200700
-0.89999977	0.00000000	6.32381900	7.14197800
-0.69999978	0.00000000	6.32381900	7.06200700
-0.49999979	0.00000000	6.32381900	7.09891700
-0.29999981	0.15871060	6.32381900	6.68676100
-0.09999982	0.63668800	6.32381900	6.35457700
0.10000017	0.95533960	6.32381900	6.31151500
0.30000016	0.95533960	6.32381900	6.31151500
0.50000015	0.95533960	6.32381900	6.31151500
0.70000013	0.47736220	6.32381900	6.31151500
0.90000012	-0.31803640	6.32381900	6.31151500
1.10000011	-1.43331700	6.32381900	6.31151500
1.30000010	-2.22994600	6.32381900	6.35457700
1.50000009	-2.70792300	6.32381900	6.72982200
1.70000008	-2.54859700	6.32381900	7.47416300
1.90000006	-1.59264300	6.32381900	7.80019600
2.10000005	0.15871060	6.32381900	7.51722400
2.30000004	2.38927200	6.28075700	7.14812900
2.50000003	4.30056600	5.94857300	7.47416300
2.70000002	5.25652100	5.57947800	7.42495000
2.90000000	5.09719500	5.94857300	6.72982200
3.09999999	3.18590100	6.28075700	6.35457700
3.29999998	0.31803640	6.32381900	6.31151500
3.49999997	-3.02657500	6.36687900	6.31151500
3.69999996	-6.05315000	6.74212600	6.35457700
3.89999994	-7.80511800	7.43725300	6.72982200
4.09999993	-7.64579200	7.43725300	7.47416300
4.29999992	-5.41584600	6.74212600	7.84940900
4.49999991	-1.59264300	6.36687900	7.89247000
4.69999990	2.70792300	6.32381900	7.89247000
4.89999989	6.69045300	6.32381900	7.84940900
5.09999987	9.07972400	6.32381900	7.47416300
5.29999986	9.23905000	6.32381900	6.72982200
5.49999985	7.00848900	6.32381900	6.35457700
5.69999984	3.02657500	6.32381900	6.31151500
5.89999983	-1.75196900	6.32381900	6.31151500
6.09999981	-6.05315000	6.32381900	6.31151500
6.29999980	-8.92039900	6.32381900	6.31151500
6.49999979	-9.39837600	6.36687900	6.35457700
6.69999978	-7.64579200	6.69906400	6.72982200
6.89999977	-3.98191400	7.06815900	7.47416300
7.09999975	0.31803640	6.69906400	7.84940900
7.29999974	4.45989200	6.36687900	7.84940900
7.49999973	7.00848900	6.32381900	7.47416300
7.69999972	7.80511800	6.32381900	6.72982200
7.89999971	6.53112700	6.32381900	6.35457700
8.09999970	3.82258900	6.32381900	6.31151500
8.29999968	0.47736220	6.32381900	6.31151500
8.49999967	-2.54859700	6.32381900	6.31151500
8.69999966	-4.45989200	6.32381900	6.31151500
8.89999965	-5.25652100	6.32381900	6.31151500
9.09999964	-4.61921700	6.32381900	6.35457700
9.29999962	-3.02657500	6.32381900	6.72982200
9.49999961	-0.95533960	6.32381900	7.42495000
9.69999960	0.79601380	6.32381900	7.42495000
9.89999959	2.07062000	6.32381900	6.72982200
10.09999958	2.54859700	6.32381900	6.35457700
10.29999956	2.22994600	6.32381900	6.31151500
10.49999955	1.59264300	6.32381900	6.31151500
10.69999954	0.63668800	6.32381900	6.31151500
10.89999953	-0.15871060	6.32381900	6.31151500
11.09999952	-0.63668800	6.32381900	6.31151500
11.29999951	-0.95533960	6.32381900	6.31151500
11.49999949	-0.95533960	6.32381900	6.31151500
11.69999948	-0.79601380	6.32381900	6.31151500
11.89999947	-0.47736220	6.32381900	6.31151500
12.09999946	-0.15871060	6.32381900	6.31151500
12.29999945	-0.15871060	6.32381900	6.35457700
12.49999943	-0.15871060	6.32381900	6.72982200
12.69999942	0.00000000	6.32381900	7.47416300
12.89999941	0.00000000	6.36687900	7.84940900
13.09999940	0.00000000	6.74212600	7.89247000
13.29999939	0.00000000	7.43725300	7.89247000
13.49999937	0.00000000	7.43725300	7.89247000
13.69999936	0.00000000	6.74212600	7.84940900
13.89999935	-0.15871060	6.36687900	7.47416300
14.09999934	-0.15871060	6.32381900	6.72982200
14.29999933	-0.15871060	6.32381900	6.35457700
14.49999932	-0.15871060	6.32381900	6.31151500
14.69999930	-0.15871060	6.32381900	6.35457700
14.89999929	0.00000000	6.32381900	6.68676100
15.09999928	0.00000000	6.32381900	7.05585600
15.29999927	0.00000000	6.32381900	6.68676100
15.49999926	0.00000000	6.32381900	6.35457700
15.69999924	0.00000000	6.32381900	6.31151500
15.89999923	0.00000000	6.32381900	6.31151500
16.09999922	0.00000000	6.32381900	6.31151500
16.29999921	0.00000000	6.32381900	6.31151500
16.49999920	0.00000000	6.36687900	6.31151500
16.69999919	-0.15871060	6.74212600	6.31151500
16.89999917	0.00000000	7.48646600	6.31151500
17.09999916	0.00000000	7.86171200	6.31151500
17.29999915	0.00000000	7.90477300	6.31151500
17.49999914	0.00000000	7.90477300	6.31151500
17.69999913	0.00000000	7.90477300	6.31151500
17.89999911	0.00000000	7.86171200	6.31151500
18.09999910	0.00000000	7.43725300	6.31151500
18.29999909	0.00000000	6.28075700	6.31151500
18.49999908	0.00000000	4.74286400	6.31151500
18.69999907	0.00000000	3.20497000	6.35457700
18.89999905	-0.15871060	2.04847400	6.68676100
19.09999904	-0.15871060	1.71628900	7.05585600
19.29999903	0.00000000	2.50984200	6.72982200
19.49999902	0.00000000	4.87819900	6.72982200
19.69999901	0.00000000	8.32308000	7.05585600
19.89999900	0.00000000	12.22933000	6.68676100
20.09999898	0.00000000	15.67421000	6.35457700
20.29999897	0.00000000	17.95029000	6.31151500
20.49999896	0.00000000	17.86417000	6.31151500
20.69999895	0.00000000	14.74532000	6.31151500
20.89999894	0.00000000	8.93208600	6.35457700
21.09999892	0.00000000	1.58095500	6.72982200
21.29999891	0.00000000	-5.77017700	7.42495000
21.49999890	0.00000000	-11.54035000	7.47416300
21.69999889	0.00000000	-14.14862000	7.10506800
21.89999888	0.00000000	-12.14321000	7.09891700
22.09999886	0.00000000	-5.12426100	6.68676100
22.29999885	0.00000000	5.71481200	6.35457700
22.49999884	0.00000000	18.46087000	6.31151500
22.69999883	0.00000000	30.00123000	6.31151500
22.89999882	0.00000000	37.26624000	6.35457700
23.09999881	0.00000000	37.96136000	6.72982200
23.29999879	0.00000000	30.93627000	7.47416300
23.49999878	0.00000000	17.44587000	7.89247000
23.69999877	0.00000000	0.37524600	8.31077700
23.89999876	0.00000000	-16.60925000	9.00590400
24.09999875	0.00000000	-30.09965000	9.00590400
24.29999873	0.00000000	-36.15895000	8.26771600
24.49999872	0.00000000	-32.62180000	7.47416300
24.69999871	0.00000000	-19.40822000	6.26845500
24.89999870	0.00000000	1.02116100	4.73671200
25.09999869	0.00000000	23.81275000	3.19881900
25.29999867	0.00000000	43.49778000	2.04232300
25.49999866	0.00000000	55.78247000	1.71013800
25.69999865	0.00000000	56.89591000	2.50369100
25.89999864	0.00000000	46.06299000	4.87204700
26.09999863	0.00000000	26.00270000	8.35998900
26.29999862	0.00000000	0.88582670	12.58612000
26.49999860	0.00000000	-23.03149000	16.39395000
26.69999859	0.00000000	-40.43430000	18.35015000
26.89999858	0.00000000	-47.36712000	18.30093000
27.09999857	0.00000000	-41.92298000	15.88336000
27.29999856	0.00000000	-25.35679000	10.45152000
27.49999854	0.00000000	-1.44562000	3.15575800
27.69999853	0.00000000	23.67741000	-4.22613100
27.89999852	0.00000000	44.56816000	-10.35925000
28.09999851	0.00000000	56.94512000	-13.74877000
28.29999850	0.00000000	57.73868000	-12.54921000
28.49999848	0.00000000	47.35482000	-6.69906400
28.69999847	0.00000000	28.42027000	2.97121000
28.89999846	0.00000000	5.29650500	14.94833000
29.09999845	0.00000000	-16.38164000	26.10728000
29.29999844	0.00000000	-31.87746000	34.23351000
29.49999843	0.00000000	-38.52731000	37.21087000
29.69999841	0.00000000	-35.03937000	33.67987000
29.89999840	0.00000000	-22.74852000	23.60359000
30.09999839	0.00000000	-4.60752900	8.91978400
30.29999838	0.00000000	14.70226000	-7.25270600
30.49999837	0.00000000	30.98548000	-21.13681000
30.69999835	0.00000000	41.08022000	-29.22613000
30.89999834	0.00000000	43.12869000	-29.97047000
31.09999833	0.00000000	37.72761000	-22.58243000
31.29999832	0.00000000	26.51329000	-8.32308000
31.49999831	0.00000000	11.44193000	9.43036400
31.69999829	0.00000000	-3.58636800	26.85162000
31.89999828	0.00000000	-15.26206000	40.37278000
32.09999827	0.00000000	-21.49360000	47.29330000
32.29999826	-0.15871060	-21.49360000	45.71235000
32.49999825	0.00000000	-15.35433000	35.72219000
32.69999824	0.00000000	-4.60752900	19.88189000
32.89999822	0.00000000	7.35113100	1.71013800
33.09999821	0.00000000	17.86417000	-15.28666000
33.29999820	0.00000000	25.21530000	-27.27608000
33.49999819	0.00000000	27.95275000	-31.96973000
33.69999818	0.00000000	25.67667000	-28.85088000
33.89999816	0.00000000	19.48819000	-18.39936000
34.09999815	0.00000000	10.64838000	-2.60211600
34.29999814	0.00000000	1.43946800	14.76993000
34.49999813	0.00000000	-5.12426100	29.82283000
34.69999812	0.00000000	-7.91092400	39.53002000
34.89999810	0.00000000	-6.74827700	41.86147000
35.09999809	0.00000000	-2.18996000	36.84178000
35.29999808	0.00000000	4.32455700	25.27067000
35.49999807	0.00000000	10.51304000	9.94094400
35.69999806	0.00000000	15.16363000	-4.74286400
35.89999805	0.00000000	17.43971000	-15.61270000
36.09999803	0.00000000	16.28322000	-21.05069000
36.29999802	0.00000000	12.13706000	-19.88804000
36.49999801	0.00000000	6.74212600	-12.59227000
36.69999800	0.00000000	1.75935000	-1.07037400
36.89999799	0.00000000	-1.72244100	11.61417000
37.09999797	0.00000000	-2.51599400	21.97957000
37.29999796	0.00000000	-0.98425190	27.41142000
37.49999795	0.00000000	2.50984200	26.66708000
37.69999794	0.00000000	7.48646600	20.57702000
37.89999793	0.00000000	12.09400000	11.00517000
38.09999791	0.00000000	15.21284000	1.06422200
38.29999790	0.00000000	16.36934000	-6.23154500
38.49999789	0.00000000	15.21284000	-8.96899500
38.69999788	0.00000000	12.13706000	-6.64985200
38.89999787	0.00000000	7.90477300	-0.14148620
39.09999786	0.00000000	3.67249000	9.05511800
39.29999784	0.00000000	0.51058070	17.79650000
39.49999783	0.00000000	-1.44562000	23.18528000
39.69999782	0.00000000	-2.18996000	23.56053000
39.89999781	0.00000000	-1.02731300	18.95300000
40.09999780	0.00000000	1.62401600	10.49459000
40.29999778	0.00000000	4.74286400	0.55364170
40.49999777	0.00000000	7.90477300	-7.85556000
40.69999776	0.00000000	10.97441000	-12.08169000
40.89999775	0.00000000	13.29970000	-10.92520000
41.09999774	0.00000000	14.09326000	-4.78592500
41.29999772	0.00000000	13.76107000	4.82898600
41.49999771	0.00000000	12.55536000	15.14518000
41.69999770	0.00000000	10.59916000	23.22835000
41.89999769	0.00000000	7.86171200	26.71629000
42.09999768	0.00000000	4.78592500	25.22145000
42.29999767	0.00000000	2.09153500	19.46358000
42.49999765	0.00000000	0.51058070	10.96211000
42.69999764	0.00000000	0.09227362	1.75319900
42.89999763	0.00000000	0.51058070	-5.90551100
43.09999762	0.00000000	2.04847400	-9.38730200
43.29999761	0.00000000	4.36761800	-8.36614100
43.49999759	0.00000000	6.69906400	-4.14000900
43.69999758	0.00000000	9.01820900	2.04232300
43.89999757	0.00000000	10.55610000	8.96284400
44.09999756	0.00000000	11.02362000	14.72687000
44.29999755	0.00000000	11.06668000	17.88263000
44.49999753	0.00000000	11.06668000	18.30093000
44.69999752	0.00000000	11.02362000	16.39395000
44.89999751	0.00000000	10.64838000	12.53691000
45.09999750	0.00000000	9.86097400	7.93553100
45.29999749	0.00000000	9.06742000	3.66633800
45.49999748	0.00000000	7.81250000	0.59670270
45.69999746	0.00000000	5.81323800	-0.60285430
45.89999745	0.00000000	2.74360200	0.13533460
46.09999744	0.00000000	-0.69512790	2.04232300
46.29999743	0.00000000	-2.98351400	4.77977300
46.49999742	0.00000000	-3.72170300	7.84940900
46.69999740	0.00000000	-2.09768700	10.53765000
46.89999739	0.00000000	2.13459600	12.11860000
47.09999738	0.00000000	7.94783400	12.49385000
47.29999737	0.00000000	14.13632000	11.74951000
47.49999736	0.00000000	19.53125000	9.79945900
47.69999734	0.00000000	22.60704000	7.47416300
47.89999733	0.00000000	22.55782000	4.77977300
48.09999732	0.00000000	19.02067000	2.50369100
48.29999731	0.00000000	12.05093000	1.71013800
48.49999730	0.00000000	3.20497000	2.04232300
48.69999729	0.00000000	-5.30265700	3.24803100
48.89999727	-0.15871060	-11.44808000	5.19808000
49.09999726	0.00000000	-13.72416000	7.93553100
49.29999725	0.00000000	-10.98671000	11.00517000
49.49999724	0.00000000	-3.67864200	13.65650000
49.69999723	0.00000000	6.32381900	14.76993000
49.89999721	0.00000000	16.36934000	13.65650000
50.09999720	0.00000000	24.09572000	10.96211000
50.29999719	0.00000000	27.90969000	7.47416300
50.49999718	0.00000000	26.37180000	3.62327700
50.69999717	0.00000000	19.86343000	0.55364170
50.89999715	0.00000000	10.59916000	-1.02116100
51.09999714	0.00000000	0.59670270	-0.97810030
51.29999713	0.00000000	-7.44955700	0.97194880
51.49999712	0.00000000	-10.98671000	4.82898600
51.69999711	0.00000000	-9.86712600	9.38115100
51.89999710	0.00000000	-4.84128900	13.23819000
52.09999708	0.00000000	3.25418300	15.18824000
52.29999707	0.00000000	12.05093000	15.23130000
52.49999706	0.00000000	18.97761000	13.65650000
52.69999705	0.00000000	22.05339000	10.53765000
52.89999704	0.00000000	20.55856000	6.35457700
53.09999702	-0.15871060	15.21284000	2.54675200
53.29999701	0.00000000	7.90477300	0.59670270
53.49999700	0.00000000	0.59670270	0.51058070
53.69999699	0.00000000	-4.74901600	1.66707700
53.89999698	0.00000000	-6.28690900	3.66633800
54.09999696	0.00000000	-3.67864200	6.68676100
54.29999695	0.00000000	1.67322800	9.70103300
54.49999694	0.00000000	7.86171200	10.86983000
54.69999693	0.00000000	13.63189000	10.53765000
54.89999692	0.00000000	17.43971000	9.00590400
55.09999691	0.00000000	17.81496000	6.77903500
55.29999689	0.00000000	14.78838000	5.24729300
55.49999688	0.00000000	9.44266700	4.82898600
55.69999687	0.00000000	3.67249000	5.24729300
55.89999686	0.00000000	-0.93503930	6.77903500
56.09999685	0.00000000	-3.26033400	9.05511800
56.29999683	0.00000000	-2.47293300	10.96211000
56.49999682	0.00000000	0.92888770	12.07554000
56.69999681	0.00000000	5.94857300	11.61417000
56.89999680	0.00000000	10.93135000	8.96284400
57.09999679	0.00000000	14.83760000	5.15501900
57.29999677	0.00000000	16.70152000	1.66707700
57.49999676	0.00000000	15.95103000	-0.97810030
57.69999675	0.00000000	12.51230000	-1.71628900
57.89999674	0.00000000	7.94783400	0.22760820
58.09999673	0.00000000	3.67249000	4.08464600
58.29999672	0.00000000	0.59670270	9.47342500
58.49999670	0.00000000	-0.55979330	14.81299000
58.69999669	0.00000000	0.55364170	18.30093000
58.89999668	0.00000000	3.20497000	19.42052000
59.09999667	0.00000000	6.32381900	17.42126000
59.29999666	0.00000000	9.39345400	12.07554000
59.49999664	0.00000000	11.71875000	5.15501900
59.69999663	0.00000000	12.46924000	-1.35334600
59.89999662	0.00000000	11.76181000	-5.99163300
60.09999661	0.00000000	9.81791200	-7.11122000
60.29999660	0.00000000	7.52952700	-4.82898600
60.49999658	0.00000000	5.21038300	0.59670270
60.69999657	0.00000000	3.71555100	7.89247000
60.89999656	0.00000000	3.67249000	15.23130000
61.09999655	0.00000000	4.78592500	20.95226000
61.29999654	0.00000000	6.32381900	23.27141000
61.49999653	0.00000000	7.90477300	21.32751000
61.69999651	0.00000000	9.44266700	15.97564000
61.89999650	0.00000000	10.51304000	8.26771600
62.09999649	0.00000000	10.13779000	0.55364170
62.29999648	0.00000000	8.28001900	-5.62253900
62.49999647	0.00000000	6.36687900	-9.06126900
62.69999645	0.00000000	4.74286400	-8.31692900
62.89999644	0.00000000	3.29724400	-4.14000900
63.09999643	0.00000000	2.88508800	2.12844500
63.29999642	0.00000000	4.03543200	9.79945900
63.49999641	0.00000000	5.57947800	17.08907000
63.69999639	0.00000000	7.90477300	21.32751000
63.89999638	0.00000000	10.13779000	22.15797000
64.09999637	0.00000000	10.97441000	19.46358000
64.29999636	0.00000000	10.97441000	14.11786000
64.49999635	0.00000000	10.18086000	7.93553100
64.69999634	0.00000000	8.23695900	2.12844500
64.89999632	0.00000000	5.99163300	-2.14074800
65.09999631	0.00000000	4.04773600	-4.09079700
65.29999630	0.00000000	3.29724400	-3.76476400
65.49999629	0.00000000	3.62942900	-1.44562000
65.69999628	0.00000000	4.78592500	1.99311000
65.89999626	0.00000000	6.32381900	5.89320800
66.09999625	0.00000000	7.86171200	9.42421200
66.29999624	0.00000000	9.01820900	12.53691000
66.49999623	0.00000000	9.35039300	14.85605000
66.69999622	0.00000000	8.59990100	15.64960000
66.89999620	0.00000000	6.74212600	15.32357000
67.09999619	0.00000000	5.21038300	14.11786000
67.29999618	0.00000000	4.41067900	12.16781000
67.49999617	0.00000000	4.09079700	9.42421200
67.69999616	0.00000000	5.29650500	6.31151500
67.89999615	0.00000000	7.90477300	3.15575800
68.09999613	0.00000000	10.59916000	0.09227362
68.29999612	0.00000000	12.51230000	-2.22687000
68.49999611	0.00000000	13.25664000	-2.93430100
68.69999610	0.00000000	12.05093000	-1.76550200
68.89999609	0.00000000	9.01820900	1.71013800
69.09999607	0.00000000	5.16117100	6.35457700
69.29999606	0.00000000	1.62401600	11.42347000
69.49999605	0.00000000	-1.40255900	16.39395000
69.69999604	0.00000000	-2.88508800	19.46358000
69.89999603	0.00000000	-1.31028500	19.88189000
70.09999601	0.00000000	2.46678100	17.93184000
70.29999600	0.00000000	7.57258800	13.65650000
70.49999599	0.00000000	12.93061000	7.89247000
70.69999598	0.00000000	17.57505000	2.08538400
70.89999597	0.00000000	19.82037000	-2.55905500
71.09999596	0.00000000	19.06988000	-5.20423200
71.29999594	0.00000000	15.21284000	-4.82898600
71.49999593	0.00000000	9.44266700	-1.39640700
71.69999592	0.00000000	3.25418300	3.57406500
71.89999591	0.00000000	-2.18996000	9.00590400
72.09999590	0.00000000	-5.63484200	13.61343000
72.29999588	0.00000000	-6.42224400	16.35089000
72.49999587	0.00000000	-4.09694900	16.76919000
72.69999586	0.00000000	0.55364170	15.23130000
72.89999585	0.00000000	6.74212600	12.16166000
73.09999584	0.00000000	13.29970000	8.35998900
73.29999582	0.00000000	18.28248000	5.29035400
73.49999581	0.00000000	20.60162000	3.70939900
73.69999580	0.00000000	19.48819000	3.66633800
73.89999579	0.00000000	15.67421000	4.77977300
74.09999578	0.00000000	10.59916000	6.26845500
74.29999577	0.00000000	4.83513700	7.42495000
74.49999575	0.00000000	-0.18454720	7.80019600
74.69999574	0.00000000	-2.89124000	7.42495000
74.89999573	0.00000000	-3.30339500	6.26845500
75.09999572	0.00000000	-0.98425190	4.77977300
75.29999571	0.00000000	3.16190900	3.66633800
75.49999569	0.00000000	7.43725300	3.70939900
75.69999568	0.00000000	10.93135000	5.24729300
75.89999567	0.00000000	13.25664000	7.93553100
76.09999566	0.00000000	13.67495000	11.00517000
76.29999565	0.00000000	12.55536000	13.69956000
76.49999563	0.00000000	10.64838000	15.18824000
76.69999562	0.00000000	8.32308000	14.76993000
76.89999561	0.00000000	6.41609200	12.03248000
77.09999560	0.00000000	5.21038300	7.42495000
77.29999559	0.00000000	4.83513700	2.08538400
77.49999558	0.00000000	5.16117100	-2.14074800
77.69999556	0.00000000	5.94857300	-4.14000900
77.89999555	0.00000000	6.65600300	-4.14000900
78.09999554	0.00000000	7.01894700	-2.09768700
78.29999553	0.00000000	6.28075700	2.50369100
78.49999552	0.00000000	5.21038300	8.63681000
78.69999550	0.00000000	4.78592500	14.03174000
78.89999549	0.00000000	4.83513700	17.93184000
79.09999548	0.00000000	5.62869100	19.42052000
79.29999547	0.00000000	7.52952700	17.93184000
79.49999546	0.00000000	9.44266700	14.07480000
79.69999544	0.00000000	11.02362000	9.09817800
79.89999543	0.00000000	12.13706000	4.04158400
80.09999542	0.00000000	12.09400000	0.17839570
80.29999541	0.00000000	10.55610000	-2.18380900
80.49999540	0.00000000	7.86171200	-2.55905500
80.69999539	0.00000000	4.83513700	-1.07037400
80.89999537	0.00000000	2.50984200	1.66707700
81.09999536	0.00000000	1.71628900	5.15501900
81.29999535	0.00000000	2.04847400	9.00590400
81.49999534	0.00000000	3.29724400	12.07554000
81.69999533	0.00000000	5.57947800	13.69956000
81.89999531	0.00000000	8.64911400	14.11786000
82.09999530	0.00000000	10.93135000	13.74262000
82.29999529	0.00000000	12.18012000	12.58612000
82.49999528	0.00000000	12.51230000	11.00517000
82.69999527	0.00000000	11.71875000	9.00590400
82.89999525	0.00000000	9.44266700	6.31151500
83.09999524	0.00000000	6.83439900	3.61712600
83.29999523	0.00000000	5.21038300	1.66707700
83.49999522	0.00000000	4.41067900	0.46136810
83.69999521	0.00000000	4.04773600	0.13533460
83.89999520	0.00000000	4.78592500	0.92888770
84.09999518	0.00000000	5.90551100	3.24803100
84.29999517	0.00000000	6.69906400	6.36072800
84.49999516	0.00000000	7.48646600	9.84867000
84.69999515	0.00000000	7.86171200	13.32431000
84.89999514	0.00000000	7.90477300	15.60654000
85.09999512	0.00000000	7.90477300	16.39395000
85.29999511	0.00000000	7.90477300	15.18824000
85.49999510	0.00000000	7.90477300	12.11860000
85.69999509	0.00000000	7.94783400	7.89247000
85.89999508	0.00000000	8.32308000	3.62327700
86.09999506	0.00000000	9.01820900	0.13533460
86.29999505	0.00000000	9.01820900	-2.14074800
86.49999504	0.00000000	8.28001900	-2.09153500
86.69999503	0.00000000	7.48646600	0.55364170
86.89999502	0.00000000	6.28075700	4.77977300
87.09999501	0.00000000	4.78592500	9.38115100
87.29999499	0.00000000	3.67249000	13.23819000
87.49999498	0.00000000	3.67249000	15.18824000
87.69999497	0.00000000	4.78592500	15.23130000
87.89999496	0.00000000	6.32381900	13.60728000
88.09999495	0.00000000	7.90477300	10.16855000
88.29999493	0.00000000	9.44266700	5.57332700
88.49999492	0.00000000	10.55610000	1.75935000
88.69999491	0.00000000	10.55610000	-0.60285430
88.89999490	0.00000000	9.44266700	-0.97810030
89.09999489	0.00000000	7.90477300	0.59670270
89.29999487	0.00000000	6.36687900	4.04158400
89.49999486	0.00000000	5.16117100	8.63681000
89.69999485	0.00000000	4.41067900	12.45079000
89.89999484	0.00000000	4.04773600	14.76993000
90.09999483	0.00000000	4.83513700	14.76993000
90.29999482	0.00000000	6.28075700	12.49385000
90.49999480	0.00000000	7.48646600	9.00590400
90.69999479	0.00000000	8.28001900	4.77977300
90.89999478	0.00000000	9.06742000	0.97194880
91.09999477	0.00000000	9.39345400	-0.93503930
91.29999476	0.00000000	9.06742000	-0.55979330
91.49999474	0.00000000	8.32308000	2.12844500
91.69999473	0.00000000	7.94783400	6.35457700
91.89999472	0.00000000	7.90477300	10.95595000
92.09999471	0.00000000	7.90477300	14.76993000
92.29999470	0.00000000	7.90477300	16.30167000
92.49999468	0.00000000	7.90477300	15.18824000
92.69999467	0.00000000	7.86171200	12.07554000
92.89999466	0.00000000	7.43725300	7.47416300
93.09999465	0.00000000	6.32381900	2.50369100
93.29999464	0.00000000	5.21038300	-0.97810030
93.49999463	0.00000000	4.78592500	-2.46678100
93.69999461	0.00000000	4.78592500	-1.29798200
93.89999460	0.00000000	5.21038300	2.87278500
94.09999459	0.00000000	6.41609200	7.80019600
94.29999458	0.00000000	8.32308000	12.07554000
94.49999457	0.00000000	10.64838000	14.76993000
94.69999455	0.00000000	12.55536000	15.18824000
94.89999454	0.00000000	13.63189000	13.65650000
95.09999453	0.00000000	12.88140000	10.53765000
95.29999452	0.00000000	10.23622000	6.31151500
95.49999451	0.00000000	7.52952700	2.12844500
95.69999449	0.00000000	4.74286400	-0.55979330
95.89999448	0.00000000	2.04847400	-0.93503930
96.09999447	0.00000000	0.13533460	0.92888770
96.29999446	0.00000000	-0.60900590	4.36146600
96.49999445	0.00000000	0.59670270	7.84940900
96.69999444	0.00000000	3.67249000	10.96211000
96.89999442	0.00000000	7.90477300	13.18898000
97.09999441	0.00000000	12.13706000	13.23819000
97.29999440	0.00000000	15.25591000	11.38041000
97.49999439	0.00000000	16.79380000	9.05511800
97.69999438	0.00000000	16.36934000	6.36072800
97.89999436	0.00000000	13.71801000	4.08464600
98.09999435	0.00000000	9.86097400	3.29109200
98.29999434	0.00000000	5.94857300	3.62327700
98.49999433	0.00000000	2.09153500	4.73671200
98.69999432	0.00000000	-0.60900590	5.89320800
98.89999430	0.00000000	-1.40255900	6.72982200
99.09999429	0.00000000	-0.60900590	7.84940900
99.29999428	0.00000000	2.09153500	8.58759800
99.49999427	0.00000000	5.90551100	8.26771600
99.69999426	0.00000000	9.44266700	7.93553100
99.89999425	0.00000000	12.55536000	7.93553100
100.09999423	0.00000000	14.83760000	8.31077700
100.29999422	0.00000000	15.25591000	9.05511800
100.49999421	0.00000000	14.09326000	9.43036400
100.69999420	0.00000000	11.81102000	9.43036400
100.89999419	0.00000000	8.69832600	9.00590400
101.09999417	0.00000000	5.99163300	7.84940900
101.29999416	0.00000000	3.58021600	6.31151500
101.49999415	0.00000000	1.71628900	4.77977300
101.69999414	0.00000000	0.92888770	3.62327700
101.89999413	0.00000000	1.71628900	3.24803100
102.09999411	0.00000000	3.62942900	3.66633800
102.29999410	0.00000000	6.32381900	5.24729300
102.49999409	0.00000000	8.97514600	7.89247000
102.69999408	0.00000000	10.59916000	10.58686000
102.89999407	0.00000000	11.44193000	12.53691000
103.09999406	0.00000000	12.13706000	13.65650000
103.29999404	0.00000000	11.71875000	13.23819000
103.49999403	0.00000000	9.86097400	10.96211000
103.69999402	0.00000000	7.94783400	7.89247000
103.89999401	0.00000000	6.32381900	4.77977300
104.09999400	0.00000000	4.78592500	2.12844500
104.29999398	0.00000000	3.62942900	0.97194880
104.49999397	0.00000000	3.25418300	1.71013800
104.69999396	0.00000000	3.62942900	3.61712600
104.89999395	0.00000000	4.78592500	6.31151500
105.09999394	0.00000000	6.32381900	9.00590400
105.29999392	0.00000000	7.86171200	10.96211000
105.49999391	0.00000000	9.01820900	12.11860000
105.69999390	0.00000000	9.44266700	12.07554000
105.89999389	0.00000000	9.44266700	10.58686000
106.09999388	0.00000000	9.01820900	8.31077700
106.29999387	0.00000000	7.90477300	6.36072800
106.49999385	0.00000000	6.79133800	4.77977300
106.69999384	0.00000000	6.36687900	3.66633800
106.89999383	0.00000000	6.32381900	3.66633800
107.09999382	0.00000000	6.36687900	4.82283400
107.29999381	0.00000000	6.79133800	6.68676100
107.49999379	0.00000000	7.90477300	8.63681000
107.69999378	0.00000000	9.01820900	9.75639700
107.89999377	0.00000000	9.39345400	10.16855000
108.09999376	0.00000000	9.01820900	9.38115100
108.29999375	0.00000000	7.86171200	7.89247000
108.49999374	0.00000000	6.36687900	6.36072800
108.69999372	0.00000000	5.21038300	5.19808000
108.89999371	0.00000000	4.83513700	4.77977300
109.09999370	0.00000000	5.16117100	4.77977300
109.29999369	0.00000000	5.94857300	5.19808000
109.49999368	0.00000000	6.74212600	6.36072800
109.69999366	0.00000000	7.90477300	7.89247000
109.89999365	0.00000000	9.01820900	9.42421200
110.09999364	0.00000000	9.44266700	10.53765000
110.29999363	0.00000000	9.44266700	10.53765000
110.49999362	0.00000000	9.01820900	9.38115100
110.69999360	0.00000000	7.90477300	7.51722400
110.89999359	0.00000000	6.74212600	5.61638700
111.09999358	0.00000000	5.94857300	4.82898600
111.29999357	0.00000000	5.21038300	4.73671200
111.49999356	0.00000000	5.21038300	4.77977300
111.69999355	0.00000000	5.94857300	5.15501900
111.89999353	0.00000000	6.69906400	5.93626900
112.09999352	0.00000000	7.52952700	6.68676100
112.29999351	0.00000000	8.28001900	7.51722400
112.49999350	0.00000000	9.06742000	8.26771600
112.69999349	0.00000000	9.39345400	9.00590400
112.89999347	0.00000000	9.06742000	9.00590400
113.09999346	0.00000000	8.28001900	8.31077700
113.29999345	0.00000000	7.52952700	7.89247000
113.49999344	0.00000000	6.74212600	7.51722400
113.69999343	0.00000000	6.36687900	7.10506800
113.89999341	0.00000000	6.32381900	7.09891700
114.09999340	0.00000000	6.36687900	6.68676100
114.29999339	0.00000000	6.74212600	6.35457700
114.49999338	0.00000000	7.48646600	6.31151500
114.69999337	0.00000000	7.86171200	6.31151500
114.89999336	0.00000000	7.90477300	6.26845500
115.09999334	0.00000000	7.90477300	5.93626900
115.29999333	0.00000000	7.90477300	5.57332700
115.49999332	0.00000000	7.90477300	5.98548200
115.69999331	0.00000000	7.90477300	6.68676100
115.89999330	0.00000000	7.86171200	7.51722400
116.09999328	0.00000000	7.48646600	8.26771600
116.29999327	0.00000000	6.74212600	9.05511800
116.49999326	0.00000000	6.36687900	9.43036400
116.69999325	0.00000000	6.32381900	9.43036400
116.89999324	0.00000000	6.36687900	9.05511800
117.09999322	0.00000000	6.74212600	8.26771600
117.29999321	0.00000000	7.52952700	7.47416300
117.49999320	0.00000000	8.28001900	6.31151500
117.69999319	0.00000000	9.06742000	5.19808000
117.89999318	0.00000000	9.44266700	4.77977300
118.09999317	0.00000000	9.44266700	4.77977300
118.29999315	0.00000000	9.06742000	5.15501900
118.49999314	0.00000000	8.28001900	5.93626900
118.69999313	0.00000000	7.52952700	6.72982200
118.89999312	0.00000000	6.69906400	7.89247000
119.09999311	0.00000000	5.94857300	9.00590400
119.29999309	0.00000000	5.16117100	9.43036400
119.49999308	0.00000000	4.83513700	9.43036400
119.69999307	0.00000000	5.21038300	9.05511800
119.89999306	0.00000000	6.36687900	8.31077700
120.09999305	0.00000000	7.86171200	7.89247000
120.29999303	0.00000000	9.06742000	7.47416300
120.49999302	0.00000000	9.81791200	6.72982200
120.69999301	0.00000000	10.23007000	6.35457700
120.89999300	0.00000000	9.81791200	6.31151500
121.09999299	0.00000000	9.11048200	6.31151500
121.29999298	0.00000000	8.28001900	6.31151500
121.49999296	0.00000000	7.48646600	6.31151500
121.69999295	0.00000000	6.32381900	6.35457700
121.89999294	0.00000000	5.21038300	6.72982200
122.09999293	0.00000000	4.78592500	7.47416300
122.29999292	0.00000000	4.78592500	7.84940900
122.49999290	0.00000000	5.21038300	7.89247000
122.69999289	0.00000000	6.32381900	7.89247000
122.89999288	0.00000000	7.48646600	7.89247000
123.09999287	0.00000000	8.28001900	7.89247000
123.29999286	0.00000000	9.06742000	7.89247000
123.49999284	0.00000000	9.44266700	7.89247000
123.69999283	0.00000000	9.48572700	7.84940900
123.89999282	0.00000000	9.44266700	7.47416300
124.09999281	0.00000000	9.06742000	6.72982200
124.29999280	0.00000000	8.28001900	6.35457700
124.49999279	0.00000000	7.52952700	6.31151500
124.69999277	0.00000000	6.69906400	6.35457700
124.89999276	0.00000000	5.99163300	6.68676100
125.09999275	0.00000000	5.57947800	7.09891700
125.29999274	0.00000000	5.94857300	7.10506800
125.49999273	0.00000000	6.28075700	7.51722400
125.69999271	0.00000000	6.36687900	7.84940900
125.89999270	0.00000000	6.74212600	7.89247000
126.09999269	0.00000000	7.52952700	7.89247000
126.29999268	0.00000000	8.28001900	7.89247000
126.49999267	0.00000000	9.06742000	7.89247000
126.69999265	0.00000000	9.44266700	7.84940900
126.89999264	0.00000000	9.44266700	7.47416300
127.09999263	0.00000000	9.01820900	6.72982200
127.29999262	0.00000000	7.90477300	6.35457700
127.49999261	0.00000000	6.74212600	6.31151500
127.69999260	0.00000000	5.94857300	6.31151500
127.89999258	0.00000000	5.21038300	6.35457700
128.09999257	0.00000000	5.25344500	6.72982200
128.29999256	0.00000000	6.32381900	7.47416300
128.49999255	0.00000000	7.48646600	7.84940900
128.69999254	0.00000000	8.28001900	7.89247000
128.89999252	0.00000000	9.06742000	7.89247000
129.09999251	0.00000000	9.44266700	7.89247000
129.29999250	0.00000000	9.44266700	7.89247000
129.49999249	0.00000000	9.01820900	7.84940900
129.69999248	0.00000000	7.90477300	7.47416300
129.89999246	0.00000000	6.74212600	6.72982200
130.09999245	0.00000000	5.99163300	6.40378900
130.29999244	0.00000000	5.57947800	6.72982200
130.49999243	0.00000000	5.99163300	7.47416300
130.69999242	0.00000000	6.69906400	7.84940900
130.89999241	0.00000000	7.52952700	7.89247000
131.09999239	0.00000000	8.28001900	7.89247000
131.29999238	0.00000000	9.06742000	7.89247000
131.49999237	0.00000000	9.44266700	7.84940900
131.69999236	0.00000000	9.44266700	7.47416300
131.89999235	0.00000000	9.06742000	6.72982200
132.09999233	0.00000000	8.28001900	6.35457700
132.29999232	0.00000000	7.52952700	6.31151500
132.49999231	0.00000000	6.74212600	6.31151500
132.69999230	0.00000000	6.36687900	6.35457700
132.89999229	0.00000000	6.36687900	6.72982200
133.09999227	0.00000000	6.74212600	7.51722400
133.29999226	0.00000000	7.48646600	8.26771600
133.49999225	0.00000000	7.86171200	9.05511800
133.69999224	0.00000000	7.90477300	9.38115100
133.89999223	0.00000000	7.90477300	9.05511800
134.09999222	0.00000000	7.90477300	8.26771600
134.29999220	0.00000000	7.90477300	7.51722400
134.49999219	0.00000000	7.90477300	6.72982200
134.69999218	0.00000000	7.90477300	6.35457700
134.89999217	0.00000000	7.90477300	6.26845500
135.09999216	0.00000000	7.90477300	5.93626900
135.29999214	0.00000000	7.90477300	5.57332700
135.49999213	0.00000000	7.90477300	5.98548200
135.69999212	0.00000000	7.90477300	6.68676100
135.89999211	0.00000000	7.86171200	7.47416300
136.09999210	0.00000000	7.48646600	7.84940900
136.29999208	0.00000000	6.74212600	7.89247000
136.49999207	0.00000000	6.36687900	7.89247000
136.69999206	0.00000000	6.32381900	7.89247000
136.89999205	0.00000000	6.36687900	7.89247000
137.09999204	0.00000000	6.74212600	7.84940900
137.29999203	0.00000000	7.52952700	7.47416300
137.49999201	0.00000000	8.28001900	6.72982200
137.69999200	0.00000000	9.06742000	6.35457700
137.89999199	0.00000000	9.39345400	6.31151500
138.09999198	0.00000000	9.06742000	6.31151500
138.29999197	0.00000000	8.32308000	6.31151500
138.49999195	0.00000000	7.90477300	6.31151500
138.69999194	0.00000000	7.48646600	6.35457700
138.89999193	0.00000000	6.74212600	6.68676100
139.09999192	0.00000000	6.36687900	7.09891700
139.29999191	0.00000000	6.36687900	7.10506800
139.49999189	0.00000000	6.74212600	7.56028500
139.69999188	0.00000000	7.48646600	8.22465500
139.89999187	0.00000000	7.86171200	8.63681000
140.09999186	0.00000000	7.94783400	8.26771600
140.29999185	0.00000000	8.28001900	7.89247000
140.49999184	0.00000000	8.64911400	7.42495000
140.69999182	0.00000000	8.28001900	6.31151500
140.89999181	0.00000000	7.90477300	5.19808000
141.09999180	0.00000000	7.48646600	4.82898600
141.29999179	0.00000000	6.74212600	5.15501900
141.49999178	0.00000000	6.41609200	5.93626900
141.69999176	0.00000000	6.74212600	6.68676100
141.89999175	0.00000000	7.48646600	7.51722400
142.09999174	0.00000000	7.90477300	8.26771600
142.29999173	0.00000000	8.28001900	9.05511800
142.49999172	0.00000000	8.64911400	9.38115100
142.69999170	0.00000000	8.28001900	9.05511800
142.89999169	0.00000000	7.94783400	8.26771600
143.09999168	0.00000000	7.86171200	7.51722400
143.29999167	0.00000000	7.48646600	6.68676100
143.49999166	0.00000000	6.79133800	5.98548200
143.69999165	0.00000000	6.79133800	5.57332700
143.89999163	0.00000000	7.48646600	5.93626900
144.09999162	0.00000000	7.86171200	6.31151500
144.29999161	0.00000000	7.90477300	6.72982200
144.49999160	0.00000000	7.90477300	7.51722400
144.69999159	0.00000000	7.90477300	8.22465500
144.89999157	0.00000000	7.90477300	8.63681000
145.09999156	0.00000000	7.90477300	8.26771600
145.29999155	0.00000000	7.90477300	7.93553100
145.49999154	0.00000000	7.86171200	7.84940900
145.69999153	0.00000000	7.48646600	7.47416300
145.89999151	0.00000000	6.74212600	6.72982200
146.09999150	0.00000000	6.36687900	6.35457700
146.29999149	0.00000000	6.36687900	6.31151500
146.49999148	0.00000000	6.74212600	6.31151500
146.69999147	0.00000000	7.48646600	6.31151500
146.89999146	0.00000000	7.86171200	6.35457700
147.09999144	0.00000000	7.90477300	6.72982200
147.29999143	0.00000000	7.90477300	7.47416300
147.49999142	0.00000000	7.90477300	7.84940900
147.69999141	0.00000000	7.90477300	7.89247000
147.89999140	0.00000000	7.90477300	7.89247000
148.09999138	0.00000000	7.90477300	7.89247000
148.29999137	0.00000000	7.86171200	7.89247000
148.49999136	0.00000000	7.52952700	7.89247000
148.69999135	0.00000000	7.16043300	7.84940900
148.89999134	0.00000000	7.52952700	7.47416300
149.09999132	0.00000000	7.86171200	6.72982200
149.29999131	0.00000000	7.90477300	6.35457700
149.49999130	0.00000000	7.90477300	6.31151500
149.69999129	0.00000000	7.90477300	6.35457700
149.89999128	0.00000000	7.90477300	6.72982200
150.09999127	0.00000000	7.90477300	7.47416300
150.29999125	0.00000000	7.90477300	7.84940900
150.49999124	0.00000000	7.90477300	7.89247000
150.69999123	0.00000000	7.90477300	7.89247000
150.89999122	0.00000000	7.86171200	7.89247000
151.09999121	0.00000000	7.48646600	7.89247000
151.29999119	0.00000000	6.79133800	7.89247000
151.49999118	0.00000000	6.79133800	7.84940900
151.69999117	0.00000000	7.48646600	7.47416300
151.89999116	0.00000000	7.86171200	6.72982200
152.09999115	0.00000000	7.90477300	6.35457700
152.29999113	0.00000000	7.90477300	6.31151500
152.49999112	0.00000000	7.90477300	6.31151500
152.69999111	0.00000000	7.90477300	6.35457700
152.89999110	0.00000000	7.90477300	6.72982200
153.09999109	0.00000000	7.90477300	7.47416300
153.29999108	0.00000000	7.90477300	7.84940900
153.49999106	0.00000000	7.90477300	7.89247000
153.69999105	0.00000000	7.86171200	7.89247000
153.89999104	0.00000000	7.48646600	7.89247000
154.09999103	0.00000000	6.74212600	7.89247000
154.29999102	0.00000000	6.36687900	7.89247000
154.49999100	0.00000000	6.36687900	7.89247000
154.69999099	0.00000000	6.74212600	7.89247000
154.89999098	0.00000000	7.48646600	7.84940900
155.09999097	0.00000000	7.86171200	7.47416300
155.29999096	0.00000000	7.90477300	6.72982200
155.49999094	0.00000000	7.94783400	6.35457700
155.69999093	0.00000000	8.28001900	6.35457700
155.89999092	0.00000000	8.64911400	6.72982200
156.09999091	0.00000000	8.28001900	7.47416300
156.29999090	0.00000000	7.90477300	7.84940900
156.49999089	0.00000000	7.48646600	7.89247000
156.69999087	0.00000000	6.74212600	7.89247000
156.89999086	0.00000000	6.36687900	7.89247000
157.09999085	0.00000000	6.32381900	7.89247000
157.29999084	0.00000000	6.36687900	7.89247000
157.49999083	0.00000000	6.74212600	7.89247000
157.69999081	0.00000000	7.48646600	7.84940900
157.89999080	0.00000000	7.86171200	7.47416300
158.09999079	0.00000000	7.90477300	6.72982200
158.29999078	0.00000000	7.94783400	6.35457700
158.49999077	0.00000000	8.28001900	6.31151500
158.69999075	0.00000000	8.69217500	6.35457700
158.89999074	0.00000000	8.69832600	6.72982200
159.09999073	0.00000000	9.06742000	7.47416300
159.29999072	0.00000000	9.01820900	7.84940900
159.49999071	0.00000000	8.32308000	7.89247000
159.69999070	0.00000000	7.94783400	7.89247000
159.89999068	0.00000000	7.90477300	7.89247000
160.09999067	0.00000000	7.90477300	7.89247000
160.29999066	0.00000000	7.90477300	7.89247000
160.49999065	0.00000000	7.90477300	7.84940900
160.69999064	0.00000000	7.90477300	7.47416300
160.89999062	0.00000000	7.90477300	6.72982200
161.09999061	0.00000000	7.90477300	6.35457700
161.29999060	0.00000000	7.90477300	6.31151500
161.49999059	0.00000000	7.90477300	6.31151500
161.69999058	0.00000000	7.90477300	6.35457700
161.89999056	0.00000000	7.90477300	6.72982200
162.09999055	0.00000000	7.90477300	7.47416300
162.29999054	0.00000000	7.90477300	7.84940900
162.49999053	0.00000000	7.90477300	7.89247000
162.69999052	0.00000000	7.90477300	7.89247000
162.89999051	0.00000000	7.90477300	7.89247000
163.09999049	0.00000000	7.86171200	7.89247000
163.29999048	0.00000000	7.48646600	7.89247000
163.49999047	0.00000000	6.74212600	7.89247000
163.69999046	0.00000000	6.41609200	7.89247000
163.89999045	0.00000000	6.74212600	7.84940900
164.09999043	0.00000000	7.48646600	7.51722400
164.29999042	0.00000000	7.86171200	7.10506800
164.49999041	0.00000000	7.90477300	7.09891700
164.69999040	0.00000000	7.90477300	6.68676100
164.89999039	0.00000000	7.90477300	6.40378900
165.09999037	0.00000000	7.90477300	6.68676100
165.29999036	0.00000000	7.90477300	7.09891700
165.49999035	0.00000000	7.90477300	7.10506800
165.69999034	0.00000000	7.90477300	7.51722400
165.89999033	0.00000000	7.90477300	7.84940900
166.09999032	0.00000000	7.86171200	7.89247000
166.29999030	0.00000000	7.48646600	7.89247000
166.49999029	0.00000000	6.74212600	7.89247000
166.69999028	0.00000000	6.41609200	7.89247000
166.89999027	0.00000000	6.74212600	7.84940900
167.09999026	0.00000000	7.48646600	7.47416300
167.29999024	0.00000000	7.86171200	6.77903500
167.49999023	0.00000000	7.90477300	6.72982200
167.69999022	0.00000000	7.90477300	7.09891700
167.89999021	0.00000000	7.90477300	7.06200700
168.09999020	0.00000000	7.90477300	7.09891700
168.29999018	0.00000000	7.90477300	6.68676100
168.49999017	0.00000000	7.90477300	6.40378900
168.69999016	0.00000000	7.90477300	6.72982200
168.89999015	0.00000000	7.90477300	7.47416300
169.09999014	0.00000000	7.90477300	7.84940900
169.29999013	0.00000000	7.90477300	7.89247000
169.49999011	0.00000000	7.90477300	7.89247000
169.69999010	0.00000000	7.90477300	7.89247000
169.89999009	0.00000000	7.90477300	7.89247000
170.09999008	0.00000000	7.90477300	7.84940900
170.29999007	0.00000000	7.90477300	7.51722400
170.49999005	0.00000000	7.90477300	7.14812900
170.69999004	0.00000000	7.90477300	7.51722400
170.89999003	0.00000000	7.90477300	7.80019600
171.09999002	0.00000000	7.90477300	7.51722400
171.29999001	0.00000000	7.90477300	7.14812900
171.49998999	0.00000000	7.90477300	7.51722400
171.69998998	0.00000000	7.90477300	7.80019600
171.89998997	0.00000000	7.90477300	7.51722400
172.09998996	0.00000000	7.90477300	7.10506800
172.29998995	0.00000000	7.90477300	7.14197800
172.49998994	0.00000000	7.90477300	7.10506800
172.69998992	0.00000000	7.90477300	7.51722400
172.89998991	0.00000000	7.90477300	7.84940900
173.09998990	0.00000000	7.90477300	7.89247000
173.29998989	0.00000000	7.90477300	7.89247000
173.49998988	0.00000000	7.90477300	7.89247000
173.69998986	0.00000000	7.90477300	7.89247000
173.89998985	0.00000000	7.90477300	7.89247000
174.09998984	0.00000000	7.86171200	7.84940900
174.29998983	0.00000000	7.52952700	7.51722400
174.49998982	0.00000000	7.16043300	7.14812900
174.69998980	0.00000000	7.52952700	7.47416300
174.89998979	0.00000000	7.86171200	7.47416300
175.09998978	0.00000000	7.90477300	7.14812900
175.29998977	0.00000000	7.90477300	7.51722400
175.49998976	0.00000000	7.90477300	7.84940900
175.69998975	0.00000000	7.90477300	7.89247000
175.89998973	0.00000000	7.90477300	7.89247000
176.09998972	0.00000000	7.90477300	7.89247000
176.29998971	0.00000000	7.90477300	7.89247000
176.49998970	0.00000000	7.90477300	7.89247000
176.69998969	0.00000000	7.90477300	7.89247000
176.89998967	0.00000000	7.90477300	7.84940900
177.09998966	0.00000000	7.90477300	7.51722400
177.29998965	0.00000000	7.90477300	7.10506800
177.49998964	0.00000000	7.90477300	7.09891700
177.69998963	0.00000000	7.90477300	6.68676100
177.89998961	0.00000000	7.90477300	6.35457700
178.09998960	0.00000000	7.90477300	6.35457700
178.29998959	0.00000000	7.90477300	6.72982200
178.49998958	0.00000000	7.90477300	7.47416300
178.69998957	0.00000000	7.90477300	7.84940900
178.89998956	0.00000000	7.90477300	7.89247000
179.09998954	0.00000000	7.90477300	7.89247000
179.29998953	0.00000000	7.90477300	7.89247000
179.49998952	0.00000000	7.90477300	7.89247000
179.69998951	0.00000000	7.90477300	7.89247000
179.89998950	0.00000000	7.90477300	7.89247000
180.09998948	0.00000000	7.90477300	7.84940900
180.29998947	0.00000000	7.90477300	7.51722400
180.49998946	0.00000000	7.90477300	7.10506800
180.69998945	0.00000000	7.90477300	7.14197800
180.89998944	0.00000000	7.90477300	7.10506800
181.09998942	0.00000000	7.90477300	7.51722400
181.29998941	0.00000000	7.86171200	7.84940900
181.49998940	0.00000000	7.52952700	7.89247000
181.69998939	0.00000000	7.16043300	7.89247000
181.89998938	0.00000000	7.52952700	7.89247000
182.09998937	0.00000000	7.86171200	7.89247000
182.29998935	0.00000000	7.90477300	7.89247000
182.49998934	0.00000000	7.90477300	7.84940900
182.69998933	0.00000000	7.90477300	7.47416300
182.89998932	0.00000000	7.90477300	6.72982200
183.09998931	0.00000000	7.90477300	6.35457700
183.29998929	0.00000000	7.90477300	6.31151500
183.49998928	0.00000000	7.90477300	6.31151500
183.69998927	0.00000000	7.90477300	6.35457700
183.89998926	0.00000000	7.90477300	6.72982200
184.09998925	0.00000000	7.90477300	7.47416300
184.29998923	0.00000000	7.94783400	7.84940900
184.49998922	0.00000000	8.28001900	7.89247000
184.69998921	0.00000000	8.64911400	7.93553100
184.89998920	0.00000000	8.28001900	8.26771600
185.09998919	0.00000000	7.94783400	8.63681000
185.29998918	0.00000000	7.90477300	8.22465500
185.49998916	0.00000000	7.90477300	7.51722400
185.69998915	0.00000000	7.90477300	6.72982200
185.89998914	0.00000000	7.90477300	6.35457700
186.09998913	0.00000000	7.90477300	6.31151500
186.29998912	0.00000000	7.90477300	6.31151500
186.49998910	0.00000000	7.90477300	6.31151500
186.69998909	0.00000000	7.90477300	6.35457700
186.89998908	0.00000000	7.90477300	6.72982200
187.09998907	0.00000000	7.90477300	7.47416300
187.29998906	0.00000000	7.90477300	7.84940900
187.49998904	0.00000000	7.90477300	7.89247000
187.69998903	0.00000000	7.90477300	7.89247000
187.89998902	0.00000000	7.90477300	7.89247000
188.09998901	0.00000000	7.90477300	7.89247000
188.29998900	0.00000000	7.90477300	7.89247000
188.49998899	0.00000000	7.94783400	7.84940900
188.69998897	0.00000000	8.28001900	7.47416300
188.89998896	0.00000000	8.64911400	6.72982200
189.09998895	0.00000000	8.28001900	6.35457700
189.29998894	0.00000000	7.94783400	6.31151500
189.49998893	0.00000000	7.90477300	6.31151500
189.69998891	0.00000000	7.90477300	6.31151500
189.89998890	0.00000000	7.90477300	6.35457700
190.09998889	0.00000000	7.90477300	6.72982200
190.29998888	0.00000000	7.90477300	7.47416300
190.49998887	0.00000000	7.90477300	7.84940900
190.69998885	0.00000000	7.90477300	7.89247000
190.89998884	0.00000000	7.86171200	7.84940900
191.09998883	0.00000000	7.52952700	7.51722400
191.29998882	0.00000000	7.16043300	7.14812900
191.49998881	0.00000000	7.52952700	7.47416300
191.69998880	0.00000000	7.86171200	7.47416300
191.89998878	0.00000000	7.90477300	7.10506800
192.09998877	0.00000000	7.90477300	7.09891700
192.29998876	0.00000000	7.90477300	6.72982200
192.49998875	0.00000000	7.90477300	6.77903500
192.69998874	0.00000000	7.90477300	7.47416300
192.89998872	0.00000000	7.86171200	7.84940900
193.09998871	0.00000000	7.52952700	7.89247000
193.29998870	0.00000000	7.16043300	7.89247000
193.49998869	0.00000000	7.52952700	7.89247000
193.69998868	0.00000000	7.86171200	7.89247000
193.89998866	0.00000000	7.90477300	7.89247000
194.09998865	0.00000000	7.90477300	7.89247000
194.29998864	0.00000000	7.94783400	7.89247000
194.49998863	0.00000000	8.28001900	7.89247000
194.69998862	0.00000000	8.69217500	7.89247000
194.89998861	0.00000000	8.65526600	7.89247000
195.09998859	0.00000000	8.69217500	7.84940900
195.29998858	0.00000000	8.28001900	7.47416300
195.49998857	0.00000000	7.94783400	6.77903500
195.69998856	0.00000000	7.90477300	6.77903500
195.89998855	0.00000000	7.90477300	7.47416300
196.09998853	0.00000000	7.90477300	7.84940900
