Time	Channel A	Channel B	Channel C
(us)	(V)	(mV)	(mV)

-4.49999956	0.00000000	22.13336000	3.99237200
-4.29999957	0.00000000	22.13336000	4.36146600
-4.09999958	0.00000000	22.13336000	4.69365100
-3.89999959	0.00000000	22.13336000	4.73671200
-3.69999960	0.00000000	22.09030000	4.73671200
-3.49999962	0.00000000	21.75812000	4.73671200
-3.29999963	0.00000000	21.38902000	4.73671200
-3.09999964	0.00000000	21.75812000	4.73671200
-2.89999965	0.00000000	22.09030000	4.73671200
-2.69999966	0.00000000	22.13336000	4.73671200
-2.49999968	0.00000000	22.13336000	4.73671200
-2.29999969	0.00000000	22.13336000	4.73671200
-2.09999970	0.00000000	22.13336000	4.73671200
-1.89999971	0.00000000	22.13336000	4.73671200
-1.69999972	0.00000000	22.13336000	4.73671200
-1.49999973	0.00000000	22.13336000	4.73671200
-1.29999975	0.00000000	22.13336000	4.73671200
-1.09999976	0.00000000	22.13336000	4.73671200
-0.89999977	0.00000000	22.13336000	4.69365100
-0.69999978	0.00000000	22.13336000	4.36146600
-0.49999979	0.00000000	22.13336000	3.99237200
-0.29999981	0.31803640	22.13336000	4.36146600
-0.09999982	0.63668800	22.13336000	4.64443900
0.10000017	0.95533960	22.13336000	4.36146600
0.30000016	0.95533960	22.13336000	3.99237200
0.50000015	0.63668800	22.13336000	4.31840500
0.70000013	0.15871060	22.13336000	4.26919300
0.90000012	-0.79601380	22.13336000	3.62327700
1.10000011	-1.75196900	22.13336000	3.62327700
1.30000010	-2.54859700	22.13336000	4.31840500
1.50000009	-2.70792300	22.13336000	4.69365100
1.70000008	-2.22994600	22.13336000	4.73671200
1.90000006	-0.95533960	22.13336000	4.73671200
2.10000005	1.11466500	22.09030000	4.73671200
2.30000004	3.18590100	21.71506000	4.73671200
2.50000003	4.77854300	21.01993000	4.69365100
2.70000002	5.41584600	20.97072000	4.31840500
2.90000000	4.45989200	21.33981000	3.57406500
3.09999999	2.22994600	21.34596000	3.19881900
3.29999998	-1.11466500	21.71506000	3.15575800
3.49999997	-4.45989200	21.71506000	3.19881900
3.69999996	-7.00848900	21.38902000	3.57406500
3.89999994	-7.96444400	21.75812000	4.31840500
4.09999993	-7.00848900	22.09030000	4.69365100
4.29999992	-4.14124000	22.13336000	4.73671200
4.49999991	0.00000000	22.13336000	4.73671200
4.69999990	4.45989200	22.13336000	4.73671200
4.89999989	7.80511800	22.09030000	4.69365100
5.09999987	9.39837600	21.75812000	4.31840500
5.29999986	8.60174700	21.34596000	3.57406500
5.49999985	5.57517200	21.33981000	3.19881900
5.69999984	1.11466500	20.97072000	3.19881900
5.89999983	-3.50393700	21.01993000	3.57406500
6.09999981	-7.48646600	21.71506000	4.31840500
6.29999980	-9.39837600	22.09030000	4.69365100
6.49999979	-8.92039900	22.13336000	4.73671200
6.69999978	-6.37180100	22.13336000	4.73671200
6.89999977	-2.38927200	22.13336000	4.73671200
7.09999975	2.07062000	22.13336000	4.69365100
7.29999974	5.57517200	22.09030000	4.31840500
7.49999973	7.48646600	21.71506000	3.57406500
7.69999972	7.48646600	21.01993000	3.19881900
7.89999971	5.57517200	20.97072000	3.15575800
8.09999970	2.54859700	21.29675000	3.15575800
8.29999968	-0.79601380	20.97072000	3.15575800
8.49999967	-3.50393700	21.01993000	3.19881900
8.69999966	-4.93786900	21.71506000	3.57406500
8.89999965	-5.09719500	22.09030000	4.31840500
9.09999964	-3.98191400	22.13336000	4.69365100
9.29999962	-2.22994600	22.13336000	4.73671200
9.49999961	-0.15871060	22.09030000	4.73671200
9.69999960	1.43331700	21.75812000	4.73671200
9.89999959	2.38927200	21.38902000	4.69365100
10.09999958	2.54859700	21.71506000	4.31840500
10.29999956	2.07062000	21.66585000	3.62327700
10.49999955	1.11466500	21.01993000	3.62327700
10.69999954	0.31803640	21.01993000	4.31840500
10.89999953	-0.47736220	21.71506000	4.64443900
11.09999952	-0.79601380	22.09030000	4.36146600
11.29999951	-0.95533960	22.09030000	3.94931100
11.49999949	-0.95533960	21.71506000	3.98622000
11.69999948	-0.63668800	21.01993000	3.90625000
11.89999947	-0.31803640	20.97072000	3.98622000
12.09999946	-0.15871060	21.29675000	3.94931100
12.29999945	-0.15871060	20.97072000	4.31840500
12.49999943	0.00000000	21.01993000	4.31840500
12.69999942	0.00000000	21.66585000	3.99237200
12.89999941	0.00000000	21.66585000	4.36146600
13.09999940	0.00000000	20.97072000	4.69365100
13.29999939	0.00000000	20.59547000	4.73671200
13.49999937	0.00000000	20.59547000	4.73671200
13.69999936	0.00000000	20.97072000	4.69365100
13.89999935	-0.15871060	21.71506000	4.36146600
14.09999934	-0.15871060	22.09030000	3.99237200
14.29999933	-0.15871060	22.09030000	4.31840500
14.49999932	-0.15871060	21.71506000	4.26919300
14.69999930	-0.15871060	20.97072000	3.57406500
14.89999929	0.00000000	20.59547000	3.24803100
15.09999928	0.00000000	20.59547000	3.57406500
15.29999927	0.00000000	20.92766000	4.31840500
15.49999926	0.00000000	21.29675000	4.69365100
15.69999924	0.00000000	20.92766000	4.73671200
15.89999923	0.00000000	20.59547000	4.73671200
16.09999922	-0.15871060	20.55241000	4.69365100
16.29999921	0.00000000	20.59547000	4.36146600
16.49999920	-0.15871060	20.97072000	3.99237200
16.69999919	-0.15871060	21.71506000	4.36146600
16.89999917	0.00000000	22.09030000	4.69365100
17.09999916	0.00000000	22.17643000	4.73671200
17.29999915	0.00000000	22.55167000	4.73671200
17.49999914	0.00000000	23.24680000	4.73671200
17.69999913	0.00000000	23.24680000	4.73671200
17.89999911	0.00000000	22.50861000	4.73671200
18.09999910	0.00000000	21.66585000	4.69365100
18.29999909	0.00000000	20.08489000	4.36146600
18.49999908	0.00000000	17.85802000	3.99237200
18.69999907	-0.15871060	16.32013000	4.31840500
18.89999905	-0.15871060	15.90182000	4.31840500
19.09999904	0.00000000	16.32013000	3.94931100
19.29999903	0.00000000	17.94414000	3.98622000
19.49999902	0.00000000	21.06299000	3.90625000
19.69999901	0.00000000	25.29527000	3.98622000
19.89999900	0.00000000	29.52756000	3.90625000
20.09999898	0.00000000	32.55413000	3.98622000
20.29999897	0.00000000	33.29847000	3.94931100
20.49999896	0.00000000	30.97318000	4.31840500
20.69999895	0.00000000	26.27953000	4.31840500
20.89999894	0.00000000	19.62352000	3.94931100
21.09999892	-0.15871060	11.53420000	3.94315900
21.29999891	0.00000000	4.26919300	3.53100400
21.49999890	0.00000000	0.07997046	3.19881900
21.69999889	0.00000000	0.54749010	3.15575800
21.89999888	0.00000000	6.36072800	3.15575800
22.09999886	0.00000000	16.45546000	3.15575800
22.29999885	0.00000000	28.83243000	3.19881900
22.49999884	0.00000000	41.16019000	3.53100400
22.69999883	0.00000000	50.00615000	3.94315900
22.89999882	0.00000000	53.03272000	3.94931100
23.09999881	0.00000000	49.07726000	4.36146600
23.29999879	-0.15871060	37.77682000	4.73671200
23.49999878	0.00000000	21.20448000	5.15501900
23.69999877	0.00000000	3.02042300	5.89320800
23.89999876	0.00000000	-12.34006000	6.21924200
24.09999875	0.00000000	-21.17372000	5.85014700
24.29999873	0.00000000	-20.30020000	4.73671200
24.49999872	0.00000000	-9.49803200	3.53100400
24.69999871	0.00000000	9.10433000	2.31914400
24.89999870	0.00000000	31.48376000	0.41830710
25.09999869	0.00000000	52.70054000	-1.06422200
25.29999867	0.00000000	67.35974000	-1.48253000
25.49999866	0.00000000	71.92420000	-1.02116100
25.69999865	0.00000000	64.94217000	0.97194880
25.89999864	0.00000000	47.17027000	4.77977300
26.09999863	0.00000000	23.25295000	9.00590400
26.29999862	0.00000000	-1.50098400	12.49385000
26.49999860	0.00000000	-21.50590000	14.81299000
26.69999859	0.00000000	-31.55143000	15.14518000
26.89999858	0.00000000	-29.27534000	13.18898000
27.09999857	0.00000000	-15.77879000	8.87672100
27.29999856	0.00000000	5.85014700	2.64517700
27.49999854	0.00000000	30.55487000	-4.69365100
27.69999853	0.00000000	52.61442000	-11.56496000
27.89999852	0.00000000	67.31667000	-15.74803000
28.09999851	0.00000000	71.59818000	-15.70497000
28.29999850	0.00000000	64.66535000	-11.06053000
28.49999848	0.00000000	48.46825000	-2.51599400
28.69999847	0.00000000	26.83317000	8.35998900
28.89999846	0.00000000	4.82283400	19.92495000
29.09999845	0.00000000	-12.57382000	29.45374000
29.29999844	0.00000000	-21.50590000	33.67987000
29.49999843	0.00000000	-20.47859000	31.36073000
29.69999841	0.00000000	-10.89444000	23.17913000
29.89999840	0.00000000	4.22613100	9.99015700
30.09999839	0.00000000	22.04724000	-5.75787400
30.29999838	0.00000000	39.02559000	-20.02337000
30.49999837	0.00000000	51.03346000	-29.31840000
30.69999835	0.00000000	55.77633000	-32.01279000
30.89999834	0.00000000	53.11884000	-27.31914000
31.09999833	0.00000000	44.23597000	-15.66191000
31.29999832	0.00000000	31.10851000	0.88582670
31.49999831	0.00000000	16.83071000	18.62697000
31.69999829	0.00000000	4.77977300	32.94168000
31.89999828	0.00000000	-2.98966500	41.48622000
32.09999827	0.00000000	-5.35802100	42.55659000
32.29999826	0.00000000	-1.91929100	35.26082000
32.49999825	0.00000000	5.76402500	21.37057000
32.69999824	0.00000000	15.85261000	4.36146600
32.89999822	0.00000000	26.27953000	-12.68455000
33.09999821	0.00000000	34.83636000	-26.16265000
33.29999820	0.00000000	39.86835000	-33.16929000
33.49999819	0.00000000	40.65575000	-32.38804000
33.69999818	0.00000000	36.79257000	-24.29257000
33.89999816	0.00000000	29.52756000	-10.36540000
34.09999815	0.00000000	21.06299000	6.18233200
34.29999814	-0.15871060	13.71186000	21.69045000
34.49999813	0.00000000	9.06126900	32.89862000
34.69999812	0.00000000	7.85556000	37.91216000
34.89999810	0.00000000	10.13164000	35.21776000
35.09999809	0.00000000	14.73917000	25.63976000
35.29999808	0.00000000	20.55241000	12.11860000
35.49999807	0.00000000	26.27953000	-2.55905500
35.69999806	0.00000000	30.13656000	-15.28666000
35.89999805	0.00000000	30.93012000	-22.95768000
36.09999803	0.00000000	29.01698000	-23.83120000
36.29999802	0.00000000	24.78469000	-18.03642000
36.49999801	0.00000000	19.43897000	-7.66486200
36.69999800	0.00000000	14.82529000	5.38262700
36.89999799	0.00000000	12.08784000	16.86762000
37.09999797	0.00000000	11.71260000	23.51132000
37.29999796	0.00000000	13.66880000	24.71703000
37.49999795	0.00000000	17.90108000	20.44168000
37.69999794	0.00000000	23.20374000	11.65723000
37.89999793	0.00000000	27.48524000	0.97194880
38.09999791	0.00000000	29.81053000	-7.81250000
38.29999790	0.00000000	30.22268000	-12.08169000
38.49999789	0.00000000	28.27879000	-10.96826000
38.69999788	0.00000000	24.87697000	-5.25344500
38.89999787	0.00000000	20.92766000	3.20497000
39.09999786	0.00000000	17.05832000	11.98942000
39.29999784	0.00000000	13.57652000	18.49163000
39.49999783	0.00000000	11.66339000	20.39862000
39.69999782	0.00000000	11.62032000	17.32899000
39.89999781	0.00000000	13.20128000	10.03322000
40.09999780	0.00000000	16.32013000	0.46136810
40.29999778	0.00000000	20.55241000	-8.31692900
40.49999777	0.00000000	24.78469000	-13.74877000
40.69999776	0.00000000	27.94660000	-14.49926000
40.89999775	0.00000000	29.90280000	-10.63607000
41.09999774	0.00000000	30.64714000	-2.55905500
41.29999772	0.00000000	29.44143000	7.38188900
41.49999771	0.00000000	26.36565000	16.21555000
41.69999770	0.00000000	22.13336000	21.60433000
41.89999769	0.00000000	17.90108000	22.02264000
42.09999768	0.00000000	14.78223000	17.83957000
42.29999767	0.00000000	13.15822000	10.53765000
42.49999765	0.00000000	12.78297000	2.04232300
42.69999764	0.00000000	13.57652000	-5.62869100
42.89999763	0.00000000	15.90182000	-10.63607000
43.09999762	0.00000000	18.92839000	-11.42962000
43.29999761	0.00000000	21.66585000	-8.45226300
43.49999759	0.00000000	23.57899000	-3.06963600
43.69999758	0.00000000	24.45866000	3.11269700
43.89999757	0.00000000	24.46481000	8.91978400
44.09999756	0.00000000	24.50172000	13.14591000
44.29999755	0.00000000	24.04650000	14.72687000
44.49999753	-0.15871060	23.38214000	13.60728000
44.69999752	0.00000000	22.96998000	10.53765000
44.89999751	0.00000000	23.29601000	6.31151500
45.09999750	0.00000000	23.20374000	2.08538400
45.29999749	0.00000000	22.09030000	-1.02116100
45.49999748	0.00000000	20.50935000	-2.55905500
45.69999746	0.00000000	18.46087000	-2.22687000
45.89999745	0.00000000	15.43430000	-0.33218500
46.09999744	0.00000000	12.41388000	1.95004900
46.29999743	0.00000000	11.29429000	4.31840500
46.49999742	0.00000000	12.03863000	6.26845500
46.69999740	0.00000000	14.82529000	7.80019600
46.89999739	0.00000000	19.48204000	8.54453700
47.09999738	0.00000000	25.29527000	7.80019600
47.29999737	0.00000000	31.06545000	6.26845500
47.49999736	0.00000000	35.25467000	4.31840500
47.69999734	0.00000000	36.37426000	1.99311000
47.89999733	0.00000000	33.63066000	0.09227362
48.09999732	0.00000000	27.44217000	-1.06422200
48.29999731	0.00000000	18.97145000	-1.06422200
48.49999730	0.00000000	10.50689000	0.09227362
48.69999729	0.00000000	4.31840500	2.04232300
48.89999727	0.00000000	1.61786400	4.77977300
49.09999726	0.00000000	3.24188000	7.80019600
49.29999725	0.00000000	9.43651600	10.11934000
49.49999724	0.00000000	19.01451000	10.86983000
49.69999723	0.00000000	29.02313000	10.07628000
49.89999721	0.00000000	36.74950000	7.38188900
50.09999720	0.00000000	40.60654000	3.57406500
50.29999719	0.00000000	39.45005000	0.09227362
50.49999718	0.00000000	33.67372000	-2.64517700
50.69999717	0.00000000	24.83391000	-4.18307100
50.89999715	0.00000000	15.20054000	-4.14000900
51.09999714	0.00000000	7.52337600	-2.18380900
51.29999713	0.00000000	3.61712600	1.62401600
51.49999712	0.00000000	4.40452700	5.85014700
51.69999711	0.00000000	9.38730200	9.33809000
51.89999710	0.00000000	17.48277000	11.65723000
52.09999708	0.00000000	26.23647000	12.03248000
52.29999707	0.00000000	32.79404000	10.49459000
52.49999706	0.00000000	35.16855000	7.42495000
52.69999705	0.00000000	33.67372000	3.57406500
52.89999704	0.00000000	28.97392000	0.09227362
53.09999702	0.00000000	21.71506000	-2.60211600
53.29999701	0.00000000	14.08710000	-3.71555100
53.49999700	0.00000000	9.06126900	-2.60211600
53.69999699	0.00000000	7.48031400	0.04306102
53.89999698	0.00000000	9.43651600	3.11269700
54.09999696	0.00000000	14.78223000	5.80093500
54.29999695	0.00000000	21.62278000	7.33882900
54.49999694	0.00000000	27.43602000	7.38188900
54.69999693	0.00000000	30.93012000	6.26845500
54.89999692	0.00000000	31.71752000	4.73671200
55.09999691	0.00000000	29.39222000	3.19881900
55.29999689	0.00000000	24.78469000	2.08538400
55.49999688	0.00000000	19.01451000	2.08538400
55.69999687	-0.15871060	13.66880000	3.19881900
55.89999686	0.00000000	10.59301000	4.73671200
56.09999685	0.00000000	10.54995000	6.26845500
56.29999683	0.00000000	13.20128000	7.38188900
56.49999682	0.00000000	17.43356000	7.29576700
56.69999681	0.00000000	22.09030000	5.43184000
56.89999680	0.00000000	26.32259000	2.36835600
57.09999679	0.00000000	28.97392000	-0.33218500
57.29999677	0.00000000	29.01698000	-2.64517700
57.49999676	0.00000000	26.74089000	-3.71555100
57.69999675	0.00000000	23.29601000	-2.55905500
57.89999674	0.00000000	19.43897000	0.55364170
58.09999673	0.00000000	16.36319000	5.15501900
58.29999672	0.00000000	14.78223000	10.11934000
58.49999670	0.00000000	14.78223000	13.56422000
58.69999669	0.00000000	16.27707000	14.72687000
58.89999668	0.00000000	18.59621000	13.14591000
59.09999667	0.00000000	20.92766000	8.91978400
59.29999666	0.00000000	23.24680000	3.11269700
59.49999664	0.00000000	24.74163000	-3.02042300
59.69999663	0.00000000	24.78469000	-7.99089500
59.89999662	0.00000000	23.67126000	-9.89788300
60.09999661	0.00000000	22.13336000	-8.36614100
60.29999660	0.00000000	20.59547000	-3.72170300
60.49999658	0.00000000	19.43897000	3.19881900
60.69999657	0.00000000	19.01451000	10.49459000
60.89999656	0.00000000	19.01451000	16.25861000
61.09999655	0.00000000	19.43897000	18.95300000
61.29999654	0.00000000	20.55241000	17.79650000
61.49999653	0.00000000	21.66585000	13.18898000
61.69999651	0.00000000	22.04109000	6.22539300
61.89999650	0.00000000	21.71506000	-1.44562000
62.09999649	-0.15871060	20.92766000	-8.03395600
62.29999648	0.00000000	20.13410000	-11.85408000
62.49999647	0.00000000	18.97145000	-12.26624000
62.69999645	0.00000000	17.90108000	-8.78444900
62.89999644	0.00000000	17.90108000	-2.64517700
63.09999643	0.00000000	19.01451000	4.73671200
63.29999642	0.00000000	20.55241000	12.03248000
63.49999641	0.00000000	22.09030000	17.42126000
63.69999639	0.00000000	23.24680000	19.37131000
63.89999638	0.00000000	23.62205000	17.83957000
64.09999637	0.00000000	23.24680000	13.23819000
64.29999636	0.00000000	22.09030000	6.68676100
64.49999635	0.00000000	20.55241000	0.13533460
64.69999634	0.00000000	19.01451000	-5.29650500
64.89999632	0.00000000	17.85802000	-8.36614100
65.09999631	0.00000000	17.48277000	-8.45226300
65.29999630	0.00000000	17.85802000	-6.17618100
65.49999629	0.00000000	19.01451000	-2.69439000
65.69999628	0.00000000	20.50935000	1.62401600
65.89999626	0.00000000	21.66585000	6.21924200
66.09999625	0.00000000	22.04109000	10.11934000
66.29999624	0.00000000	21.66585000	12.45079000
66.49999623	0.00000000	20.50935000	13.28125000
66.69999622	0.00000000	19.01451000	12.49385000
66.89999620	0.00000000	17.85802000	10.58686000
67.09999619	0.00000000	17.48277000	7.84940900
67.29999618	0.00000000	17.90108000	4.73671200
67.49999617	0.00000000	19.43897000	1.58095500
67.69999616	0.00000000	21.75812000	-1.53174200
67.89999615	0.00000000	24.04650000	-4.22613100
68.09999613	0.00000000	25.94734000	-5.75787400
68.29999612	0.00000000	26.27953000	-5.75787400
68.49999611	0.00000000	24.74163000	-4.18307100
68.69999610	0.00000000	21.66585000	-1.07037400
68.89999609	0.00000000	17.80881000	3.20497000
69.09999607	0.00000000	14.36393000	7.84940900
69.29999606	0.00000000	12.03863000	12.07554000
69.49999605	0.00000000	11.62032000	14.76993000
69.69999604	-0.15871060	12.82603000	15.14518000
69.89999603	0.00000000	15.62500000	13.23819000
70.09999601	0.00000000	20.59547000	9.33809000
70.29999600	0.00000000	25.94734000	4.31840500
70.49999599	0.00000000	29.81053000	-1.06422200
70.69999598	0.00000000	31.76058000	-5.29650500
70.89999597	0.00000000	30.93012000	-7.29576700
71.09999596	0.00000000	27.48524000	-7.29576700
71.29999594	0.00000000	22.09030000	-5.29650500
71.49999593	0.00000000	16.32013000	-1.06422200
71.69999592	0.00000000	11.62032000	4.27534400
71.89999591	0.00000000	8.55068800	8.91978400
72.09999590	0.00000000	7.80634800	12.03248000
72.29999588	0.00000000	10.13164000	13.18898000
72.49999587	0.00000000	14.69611000	12.03248000
72.69999586	0.00000000	20.13410000	9.00590400
72.89999585	0.00000000	25.15994000	5.19808000
73.09999584	0.00000000	29.06619000	2.08538400
73.29999582	0.00000000	30.97318000	0.09227362
73.49999581	0.00000000	30.59793000	-1.02116100
73.69999580	0.00000000	27.90354000	-0.64591530
73.89999579	0.00000000	23.67126000	1.20570900
74.09999578	0.00000000	19.01451000	3.06348400
74.29999577	0.00000000	14.78223000	4.22613100
74.49999575	0.00000000	12.08784000	4.26919300
74.69999574	0.00000000	11.66339000	3.53100400
74.89999573	0.00000000	13.15822000	2.73745100
75.09999572	0.00000000	15.90182000	1.62401600
75.29999571	0.00000000	19.34670000	0.92888770
75.49999569	0.00000000	22.78543000	1.71013800
75.69999568	0.00000000	24.74163000	3.61712600
75.89999567	0.00000000	25.15994000	6.31151500
76.09999566	0.00000000	24.45866000	8.96284400
76.29999565	0.00000000	22.92692000	10.49459000
76.49999563	0.00000000	21.75812000	10.45152000
76.69999562	0.00000000	20.55241000	8.50147600
76.89999561	0.00000000	19.43897000	4.69365100
77.09999560	0.00000000	19.06373000	0.46751960
77.29999559	0.00000000	19.34670000	-3.06348400
77.49999558	0.00000000	19.71580000	-5.71481200
77.69999556	0.00000000	19.34670000	-6.45300100
77.89999555	0.00000000	18.97145000	-4.50910400
78.09999554	0.00000000	18.55315000	-0.69512790
78.29999553	0.00000000	17.80881000	4.36146600
78.49999552	0.00000000	17.48277000	9.33809000
78.69999550	0.00000000	17.85802000	13.18898000
78.89999549	0.00000000	19.01451000	14.72687000
79.09999548	0.00000000	20.59547000	13.60728000
79.29999547	0.00000000	22.50861000	10.53765000
79.49999546	0.00000000	24.40945000	6.26845500
79.69999544	0.00000000	25.15994000	1.62401600
79.89999543	0.00000000	24.78469000	-2.60211600
80.09999542	0.00000000	23.20374000	-5.29650500
80.29999541	0.00000000	20.50935000	-5.75787400
80.49999540	0.00000000	17.48277000	-4.60137700
80.69999539	0.00000000	15.15748000	-2.27608300
80.89999537	0.00000000	14.36393000	1.20570900
81.09999536	0.00000000	14.73917000	4.64443900
81.29999535	0.00000000	16.27707000	7.43110200
81.49999534	0.00000000	18.63927000	9.38115100
81.69999533	0.00000000	21.30290000	10.53765000
81.89999531	0.00000000	23.99114000	10.53765000
82.09999530	0.00000000	25.15994000	9.38115100
82.29999529	0.00000000	25.20300000	7.47416300
82.49999528	0.00000000	24.36639000	5.11195900
82.69999527	0.00000000	22.09030000	2.78051200
82.89999525	0.00000000	19.43897000	0.37524600
83.09999524	0.00000000	17.48277000	-1.90698800
83.29999523	0.00000000	16.32013000	-3.80782500
83.49999522	0.00000000	16.32013000	-4.18307100
83.69999521	0.00000000	17.39050000	-3.02042300
83.89999520	0.00000000	18.55315000	-0.69512790
84.09999518	0.00000000	19.34670000	2.78051200
84.29999517	0.00000000	20.13410000	6.26845500
84.49999516	0.00000000	20.55241000	9.42421200
84.69999515	0.00000000	20.92766000	12.03248000
84.89999514	0.00000000	21.29675000	12.77067000
85.09999512	0.00000000	20.92766000	10.91289000
85.29999511	0.00000000	20.59547000	7.80019600
85.49999510	0.00000000	20.55241000	3.90009800
85.69999509	0.00000000	20.55241000	-0.69512790
85.89999508	0.00000000	20.50935000	-4.13385800
86.09999506	0.00000000	20.13410000	-5.71481200
86.29999505	0.00000000	19.38976000	-5.33956700
86.49999504	0.00000000	18.97145000	-2.97736200
86.69999503	0.00000000	18.55315000	0.87967510
86.89999502	0.00000000	17.80881000	5.85014700
87.09999501	0.00000000	17.48277000	10.03322000
87.29999499	0.00000000	17.85802000	12.03248000
87.49999498	0.00000000	18.97145000	12.03248000
87.69999497	0.00000000	20.13410000	10.07628000
87.89999496	0.00000000	20.97072000	6.21924200
88.09999495	0.00000000	22.09030000	1.62401600
88.29999493	0.00000000	22.82849000	-2.60211600
88.49999492	0.00000000	22.46555000	-5.29650500
88.69999491	0.00000000	21.71506000	-5.67175200
88.89999490	0.00000000	20.50935000	-3.76476400
89.09999489	0.00000000	19.01451000	0.09227362
89.29999487	0.00000000	17.85802000	4.69365100
89.49999486	0.00000000	17.43356000	8.96284400
89.69999485	0.00000000	17.43356000	11.98942000
89.89999484	0.00000000	17.85802000	12.77067000
90.09999483	0.00000000	18.97145000	10.82677000
90.29999482	0.00000000	20.13410000	7.00664300
90.49999480	0.00000000	20.88459000	1.99311000
90.69999479	0.00000000	21.29675000	-2.55905500
90.89999478	0.00000000	20.92766000	-5.29650500
91.09999477	0.00000000	20.59547000	-5.67175200
91.29999476	0.00000000	20.55241000	-3.71555100
91.49999474	0.00000000	20.55241000	0.51058070
91.69999473	0.00000000	20.55241000	5.80093500
91.89999472	0.00000000	20.55241000	10.03322000
92.09999471	0.00000000	20.55241000	12.03248000
92.29999470	0.00000000	20.55241000	12.03248000
92.49999468	0.00000000	20.50935000	10.03322000
92.69999467	0.00000000	20.08489000	5.80093500
92.89999466	0.00000000	18.97145000	0.51058070
93.09999465	0.00000000	17.80881000	-3.71555100
93.29999464	0.00000000	17.05832000	-5.67175200
93.49999463	0.00000000	16.69537000	-5.29650500
93.69999461	0.00000000	17.48277000	-2.60211600
93.89999460	0.00000000	19.01451000	1.62401600
94.09999459	0.00000000	20.97072000	6.21924200
94.29999458	0.00000000	23.29601000	10.03322000
94.49999457	0.00000000	25.15994000	11.56496000
94.69999455	0.00000000	25.94734000	10.45152000
94.89999454	0.00000000	25.15994000	7.42495000
95.09999453	0.00000000	23.24680000	3.57406500
95.29999452	0.00000000	20.50935000	0.13533460
95.49999451	0.00000000	17.43356000	-2.22687000
95.69999449	0.00000000	14.69611000	-2.97736200
95.89999448	0.00000000	12.78297000	-2.22687000
96.09999447	0.00000000	12.03863000	0.09227362
96.29999446	0.00000000	13.24434000	3.15575800
96.49999445	0.00000000	16.27707000	6.22539300
96.69999444	0.00000000	20.17716000	8.50147600
96.89999442	0.00000000	24.04650000	8.91978400
97.09999441	0.00000000	27.48524000	7.80019600
97.29999440	0.00000000	29.01698000	5.89320800
97.49999439	0.00000000	28.27879000	3.57406500
97.69999438	0.00000000	25.99040000	1.66707700
97.89999436	0.00000000	22.46555000	0.46136810
98.09999435	0.00000000	18.59621000	0.09227362
98.29999434	0.00000000	14.73917000	0.46136810
98.49999433	0.00000000	12.03863000	1.62401600
98.69999432	0.00000000	11.24508000	3.11269700
98.89999430	0.00000000	12.03863000	4.26919300
99.09999429	0.00000000	14.73917000	4.69365100
99.29999428	0.00000000	18.55315000	4.73671200
99.49999427	0.00000000	22.04109000	4.73671200
99.69999426	0.00000000	24.82775000	4.77977300
99.89999425	0.00000000	26.74089000	5.15501900
100.09999423	0.00000000	27.52830000	5.89320800
100.29999422	0.00000000	26.74089000	6.21924200
100.49999421	0.00000000	24.82775000	5.89320800
100.69999420	0.00000000	22.09030000	5.11195900
100.89999419	0.00000000	18.97145000	4.26919300
101.09999417	0.00000000	15.90182000	2.73745100
101.29999416	0.00000000	13.61959000	0.83661410
101.49999415	0.00000000	13.20128000	-0.32603340
101.69999414	0.00000000	14.32087000	-1.06422200
101.89999413	0.00000000	16.22785000	-0.60285430
102.09999411	0.00000000	18.59621000	1.62401600
102.29999410	0.00000000	20.92766000	4.31840500
102.49999409	0.00000000	23.24680000	6.68676100
102.69999408	0.00000000	24.74163000	8.96284400
102.89999407	0.00000000	24.78469000	10.07628000
103.09999406	0.00000000	23.67126000	9.33809000
103.29999404	0.00000000	22.13336000	7.38188900
103.49999403	0.00000000	20.50935000	4.31840500
103.69999402	0.00000000	18.59621000	0.88582670
103.89999401	0.00000000	16.69537000	-1.43946800
104.09999400	0.00000000	15.90182000	-2.64517700
104.29999398	0.00000000	15.85261000	-2.60211600
104.49999397	0.00000000	16.27707000	-1.07037400
104.69999396	0.00000000	17.43356000	1.62401600
104.89999395	0.00000000	18.97145000	4.68750000
105.09999394	0.00000000	20.50935000	7.38188900
105.29999392	0.00000000	21.66585000	8.91978400
105.49999391	0.00000000	22.09030000	8.91978400
105.69999390	0.00000000	22.04109000	7.43110200
105.89999389	0.00000000	21.29675000	5.11195900
106.09999388	-0.15871060	19.80807000	2.82972400
106.29999387	0.00000000	19.01451000	0.87967510
106.49999385	0.00000000	18.55315000	0.09227362
106.69999384	0.00000000	17.85802000	0.09227362
106.89999383	0.00000000	17.90108000	0.87967510
107.09999382	0.00000000	18.97145000	2.78051200
107.29999381	0.00000000	20.13410000	4.64443900
107.49999379	0.00000000	20.88459000	5.85014700
107.69999378	0.00000000	21.33981000	6.21924200
107.89999377	0.00000000	21.25984000	5.85014700
108.09999376	0.00000000	20.87229000	4.68750000
108.29999375	0.00000000	19.34670000	3.15575800
108.49999374	0.00000000	17.90108000	1.62401600
108.69999372	0.00000000	17.43356000	0.46136810
108.89999371	0.00000000	17.43356000	0.09227362
109.09999370	0.00000000	17.85802000	0.46136810
109.29999369	0.00000000	18.97145000	1.62401600
109.49999368	0.00000000	20.13410000	3.15575800
109.69999366	0.00000000	20.92766000	4.68750000
109.89999365	0.00000000	21.71506000	5.85014700
110.09999364	0.00000000	22.04109000	6.21924200
110.29999363	0.00000000	21.71506000	5.85014700
110.49999362	0.00000000	20.92766000	4.68750000
110.69999360	0.00000000	20.13410000	3.15575800
110.89999359	0.00000000	18.97145000	1.62401600
111.09999358	0.00000000	17.90108000	0.46136810
111.29999357	0.00000000	17.85802000	0.09227362
111.49999356	0.00000000	18.55315000	0.41830710
111.69999355	0.00000000	18.97145000	1.19955700
111.89999353	0.00000000	19.38976000	1.99311000
112.09999352	0.00000000	20.13410000	3.15575800
112.29999351	0.00000000	20.50935000	4.26919300
112.49999350	0.00000000	20.55241000	4.69365100
112.69999349	0.00000000	20.55241000	4.73671200
112.89999347	0.00000000	20.55241000	4.73671200
113.09999346	0.00000000	20.50935000	4.69365100
113.29999345	0.00000000	20.13410000	4.31840500
113.49999344	0.00000000	19.38976000	3.57406500
113.69999343	0.00000000	19.01451000	3.15575800
113.89999341	0.00000000	18.97145000	2.73745100
114.09999340	0.00000000	18.97145000	1.99311000
114.29999339	0.00000000	18.97145000	1.61786400
114.49999338	0.00000000	18.97145000	1.57480300
114.69999337	0.00000000	18.97145000	1.57480300
114.89999336	0.00000000	19.01451000	1.57480300
115.09999334	0.00000000	19.34670000	1.61786400
115.29999333	0.00000000	19.75886000	1.99311000
115.49999332	0.00000000	19.76501000	2.78051200
115.69999331	0.00000000	20.17716000	3.53100400
115.89999330	0.00000000	20.46014000	4.31840500
116.09999328	0.00000000	20.13410000	4.69365100
116.29999327	0.00000000	19.38976000	4.73671200
116.49999326	0.00000000	18.97145000	4.69365100
116.69999325	0.00000000	18.59621000	4.31840500
116.89999324	0.00000000	18.22711000	3.53100400
117.09999322	0.00000000	18.63927000	2.78051200
117.29999321	0.00000000	19.34670000	1.95004900
117.49999320	0.00000000	20.17716000	1.24877000
117.69999319	0.00000000	20.88459000	0.79355310
117.89999318	0.00000000	21.29675000	0.83046260
118.09999317	0.00000000	20.92766000	0.83661410
118.29999315	0.00000000	20.55241000	1.66707700
118.49999314	0.00000000	20.08489000	3.11269700
118.69999313	0.00000000	18.97145000	4.26919300
118.89999312	0.00000000	17.85802000	4.69365100
119.09999311	0.00000000	17.43356000	4.73671200
119.29999309	0.00000000	17.39050000	4.73671200
119.49999308	0.00000000	17.43356000	4.73671200
119.69999307	0.00000000	17.85802000	4.69365100
119.89999306	0.00000000	19.01451000	4.31840500
120.09999305	0.00000000	20.50935000	3.53100400
120.29999303	0.00000000	21.66585000	2.82357300
120.49999302	0.00000000	22.09030000	2.36835600
120.69999301	0.00000000	22.09030000	2.36220500
120.89999300	0.00000000	21.66585000	1.99311000
121.09999299	0.00000000	20.55241000	2.04232300
121.29999298	0.00000000	19.38976000	2.73745100
121.49999296	0.00000000	18.55315000	3.11269700
121.69999295	0.00000000	17.39050000	3.15575800
121.89999294	0.00000000	16.32013000	3.15575800
122.09999293	0.00000000	16.27707000	3.19881900
122.29999292	0.00000000	17.01525000	3.57406500
122.49999290	0.00000000	17.80881000	4.31840500
122.69999289	0.00000000	18.97145000	4.69365100
122.89999288	0.00000000	20.13410000	4.69365100
123.09999287	0.00000000	20.92766000	4.31840500
123.29999286	0.00000000	21.71506000	3.57406500
123.49999284	0.00000000	22.09030000	3.19881900
123.69999283	0.00000000	22.09030000	3.11269700
123.89999282	0.00000000	21.66585000	2.73745100
124.09999281	0.00000000	20.55241000	1.99311000
124.29999280	0.00000000	19.38976000	1.61786400
124.49999279	0.00000000	18.59621000	1.61786400
124.69999277	0.00000000	17.80881000	1.99311000
124.89999276	0.00000000	17.43356000	2.73745100
125.09999275	0.00000000	17.39050000	3.15575800
125.29999274	0.00000000	17.43356000	3.57406500
125.49999273	0.00000000	17.85802000	4.31840500
125.69999271	0.00000000	18.97145000	4.69365100
125.89999270	0.00000000	20.13410000	4.73671200
126.09999269	0.00000000	20.92766000	4.69365100
126.29999268	0.00000000	21.71506000	4.31840500
126.49999267	0.00000000	22.04109000	3.57406500
126.69999265	0.00000000	21.66585000	3.15575800
126.89999264	0.00000000	20.55241000	2.73745100
127.09999263	0.00000000	19.38976000	1.99311000
127.29999262	0.00000000	18.59621000	1.61786400
127.49999261	0.00000000	17.80881000	1.61786400
127.69999260	0.00000000	17.43356000	1.99311000
127.89999258	0.00000000	17.43356000	2.73745100
128.09999257	0.00000000	17.80881000	3.15575800
128.29999256	0.00000000	18.59621000	3.53100400
128.49999255	0.00000000	19.38976000	3.90009800
128.69999254	0.00000000	20.55241000	3.53100400
128.89999252	0.00000000	21.62278000	3.19881900
129.09999251	0.00000000	21.66585000	3.15575800
129.29999250	0.00000000	20.92766000	3.15575800
129.49999249	-0.15871060	20.13410000	3.11269700
129.69999248	0.00000000	18.97145000	2.78051200
129.89999246	0.00000000	17.85802000	2.41141700
130.09999245	-0.15871060	17.43356000	2.78051200
130.29999244	0.00000000	17.43356000	3.15575800
130.49999243	0.00000000	17.80881000	3.57406500
130.69999242	0.00000000	18.59621000	4.31840500
130.89999241	0.00000000	19.34670000	4.69365100
131.09999239	0.00000000	20.13410000	4.69365100
131.29999238	0.00000000	20.50935000	4.26919300
131.49999237	0.00000000	20.55241000	3.15575800
131.69999236	0.00000000	20.50935000	2.04232300
131.89999235	0.00000000	20.13410000	1.61786400
132.09999233	0.00000000	19.38976000	1.57480300
132.29999232	0.00000000	19.01451000	1.61786400
132.49999231	0.00000000	18.97145000	1.99311000
132.69999230	0.00000000	18.97145000	2.73745100
132.89999229	0.00000000	18.97145000	3.15575800
133.09999227	0.00000000	18.97145000	3.57406500
133.29999226	0.00000000	18.97145000	4.31840500
133.49999225	0.00000000	18.97145000	4.69365100
133.69999224	0.00000000	18.97145000	4.69365100
133.89999223	0.00000000	18.97145000	4.31840500
134.09999222	0.00000000	18.97145000	3.53100400
134.29999220	0.00000000	18.97145000	2.78051200
134.49999219	0.00000000	18.97145000	1.99311000
134.69999218	0.00000000	19.01451000	1.61786400
134.89999217	0.00000000	19.38976000	1.57480300
135.09999216	0.00000000	20.13410000	1.61786400
135.29999214	-0.15871060	20.46014000	1.99311000
135.49999213	0.00000000	20.13410000	2.73745100
135.69999212	0.00000000	19.38976000	3.15575800
135.89999211	0.00000000	18.97145000	3.57406500
136.09999210	0.00000000	18.55315000	4.31840500
136.29999208	0.00000000	17.80881000	4.64443900
136.49999207	0.00000000	17.48277000	4.31840500
136.69999206	0.00000000	17.80881000	3.57406500
136.89999205	0.00000000	18.55315000	3.19881900
137.09999204	0.00000000	18.97145000	3.15575800
137.29999203	0.00000000	19.38976000	3.11269700
137.49999201	0.00000000	20.13410000	2.73745100
137.69999200	0.00000000	20.50935000	1.99311000
137.89999199	0.00000000	20.55241000	1.61786400
138.09999198	0.00000000	20.50935000	1.57480300
138.29999197	0.00000000	20.08489000	1.61786400
138.49999195	0.00000000	18.97145000	1.99311000
138.69999194	0.00000000	17.85802000	2.73745100
138.89999193	0.00000000	17.43356000	3.15575800
139.09999192	0.00000000	17.43356000	3.57406500
139.29999191	0.00000000	17.80881000	4.31840500
139.49999189	0.00000000	18.55315000	4.69365100
139.69999188	0.00000000	18.97145000	4.69365100
139.89999187	0.00000000	19.38976000	4.31840500
140.09999186	0.00000000	20.13410000	3.53100400
140.29999185	0.00000000	20.46014000	2.78051200
140.49999184	0.00000000	20.13410000	1.99311000
140.69999182	0.00000000	19.38976000	1.61786400
140.89999181	0.00000000	19.01451000	1.57480300
141.09999180	0.00000000	18.97145000	1.61786400
141.29999179	0.00000000	18.97145000	1.99311000
141.49999178	0.00000000	18.97145000	2.78051200
141.69999176	0.00000000	18.97145000	3.53100400
141.89999175	0.00000000	19.01451000	4.31840500
142.09999174	0.00000000	19.34670000	4.69365100
142.29999173	0.00000000	19.71580000	4.73671200
142.49999172	0.00000000	19.34670000	4.69365100
142.69999170	0.00000000	19.01451000	4.26919300
142.89999169	0.00000000	18.97145000	3.15575800
143.09999168	0.00000000	18.97145000	2.04232300
143.29999167	0.00000000	18.97145000	1.61786400
143.49999166	0.00000000	18.97145000	1.57480300
143.69999165	0.00000000	18.97145000	1.61786400
143.89999163	0.00000000	18.97145000	1.99311000
144.09999162	0.00000000	18.97145000	2.73745100
144.29999161	0.00000000	19.01451000	3.15575800
144.49999160	0.00000000	19.34670000	3.57406500
144.69999159	0.00000000	19.71580000	4.31840500
144.89999157	0.00000000	19.34670000	4.64443900
145.09999156	0.00000000	19.01451000	4.31840500
145.29999155	0.00000000	18.97145000	3.57406500
145.49999154	0.00000000	18.92839000	3.15575800
145.69999153	0.00000000	18.59621000	2.73745100
145.89999151	0.00000000	18.22711000	1.99311000
146.09999150	0.00000000	18.59621000	1.61786400
146.29999149	0.00000000	18.92839000	1.57480300
146.49999148	-0.15871060	18.97145000	1.61786400
146.69999147	0.00000000	18.97145000	1.99311000
146.89999146	0.00000000	18.97145000	2.73745100
147.09999144	-0.15871060	18.97145000	3.15575800
147.29999143	0.00000000	18.97145000	3.57406500
147.49999142	0.00000000	18.97145000	4.31840500
147.69999141	0.00000000	18.97145000	4.64443900
147.89999140	0.00000000	18.92839000	4.31840500
148.09999138	0.00000000	18.55315000	3.57406500
148.29999137	0.00000000	17.85802000	3.19881900
148.49999136	0.00000000	17.85802000	3.11269700
148.69999135	0.00000000	18.50394000	2.73745100
148.89999134	0.00000000	18.55315000	1.99311000
149.09999132	0.00000000	18.22711000	1.66707700
149.29999131	0.00000000	18.59621000	1.99311000
149.49999130	0.00000000	18.92839000	2.73745100
149.69999129	0.00000000	18.97145000	3.11269700
149.89999128	0.00000000	18.97145000	3.15575800
150.09999127	0.00000000	18.97145000	3.19881900
150.29999125	0.00000000	18.97145000	3.53100400
150.49999124	0.00000000	18.97145000	3.90009800
150.69999123	0.00000000	18.97145000	3.53100400
150.89999122	-0.15871060	18.97145000	3.19881900
151.09999121	0.00000000	18.97145000	3.15575800
151.29999119	0.00000000	18.97145000	3.15575800
151.49999118	0.00000000	18.97145000	3.15575800
151.69999117	0.00000000	18.97145000	3.15575800
151.89999116	0.00000000	18.97145000	3.15575800
152.09999115	0.00000000	18.97145000	3.15575800
152.29999113	0.00000000	18.97145000	3.15575800
152.49999112	0.00000000	19.01451000	3.15575800
152.69999111	0.00000000	19.34670000	3.15575800
152.89999110	0.00000000	19.71580000	3.15575800
153.09999109	0.00000000	19.34670000	3.15575800
153.29999108	0.00000000	18.97145000	3.15575800
153.49999106	0.00000000	18.59621000	3.15575800
153.69999105	0.00000000	18.18405000	3.15575800
153.89999104	0.00000000	18.17790000	3.15575800
154.09999103	0.00000000	17.76575000	3.15575800
154.29999102	0.00000000	17.48277000	3.15575800
154.49999100	0.00000000	17.80881000	3.15575800
154.69999099	0.00000000	18.55315000	3.15575800
154.89999098	0.00000000	18.92839000	3.15575800
155.09999097	0.00000000	19.01451000	3.11269700
155.29999096	0.00000000	19.38976000	2.78051200
155.49999094	0.00000000	20.08489000	2.41141700
155.69999093	0.00000000	20.08489000	2.78051200
155.89999092	0.00000000	19.38976000	3.11269700
156.09999091	0.00000000	19.01451000	3.15575800
156.29999090	0.00000000	18.92839000	3.15575800
156.49999089	0.00000000	18.55315000	3.19881900
156.69999087	0.00000000	17.80881000	3.53100400
156.89999086	0.00000000	17.43356000	3.90009800
157.09999085	0.00000000	17.39050000	3.53100400
157.29999084	0.00000000	17.43356000	3.19881900
157.49999083	0.00000000	17.80881000	3.11269700
157.69999081	0.00000000	18.55315000	2.73745100
157.89999080	0.00000000	18.92839000	1.99311000
158.09999079	0.00000000	18.97145000	1.61786400
158.29999078	0.00000000	19.01451000	1.61786400
158.49999077	0.00000000	19.34670000	1.99311000
158.69999075	0.00000000	19.71580000	2.73745100
158.89999074	0.00000000	19.34670000	3.11269700
159.09999073	0.00000000	19.01451000	3.19881900
159.29999072	0.00000000	18.92839000	3.53100400
159.49999071	0.00000000	18.55315000	3.94315900
159.69999070	0.00000000	17.80881000	3.90625000
159.89999068	0.00000000	17.48277000	3.94315900
160.09999067	0.00000000	17.80881000	3.53100400
160.29999066	0.00000000	18.55315000	3.19881900
160.49999065	0.00000000	18.92839000	3.11269700
160.69999064	0.00000000	18.97145000	2.73745100
160.89999062	0.00000000	18.97145000	1.99311000
161.09999061	0.00000000	18.97145000	1.66707700
161.29999060	0.00000000	18.97145000	1.95004900
161.49999059	0.00000000	18.97145000	2.36220500
161.69999058	0.00000000	18.97145000	2.36835600
161.89999056	0.00000000	18.97145000	2.78051200
162.09999055	0.00000000	18.97145000	3.11269700
162.29999054	0.00000000	18.97145000	3.15575800
162.49999053	0.00000000	18.97145000	3.15575800
162.69999052	0.00000000	18.92839000	3.15575800
162.89999051	0.00000000	18.55315000	3.15575800
163.09999049	0.00000000	17.80881000	3.15575800
163.29999048	0.00000000	17.43356000	3.15575800
163.49999047	0.00000000	17.39050000	3.15575800
163.69999046	0.00000000	17.43356000	3.15575800
163.89999045	0.00000000	17.80881000	3.15575800
164.09999043	0.00000000	18.55315000	3.15575800
164.29999042	0.00000000	18.92839000	3.11269700
164.49999041	0.00000000	18.97145000	2.78051200
164.69999040	0.00000000	18.97145000	2.41141700
164.89999039	0.00000000	18.97145000	2.78051200
165.09999037	0.00000000	18.97145000	3.11269700
165.29999036	0.00000000	18.97145000	3.15575800
165.49999035	0.00000000	18.97145000	3.15575800
165.69999034	0.00000000	18.92839000	3.15575800
165.89999033	0.00000000	18.55315000	3.15575800
166.09999032	0.00000000	17.80881000	3.15575800
166.29999030	0.00000000	17.48277000	3.15575800
166.49999029	0.00000000	17.80881000	3.15575800
166.69999028	0.00000000	18.55315000	3.15575800
166.89999027	0.00000000	18.92839000	3.15575800
167.09999026	0.00000000	18.97145000	3.15575800
167.29999024	0.00000000	18.97145000	3.11269700
167.49999023	0.00000000	18.97145000	2.78051200
167.69999022	0.00000000	18.97145000	2.41141700
167.89999021	0.00000000	18.97145000	2.78051200
168.09999020	0.00000000	18.97145000	3.11269700
168.29999018	0.00000000	18.97145000	3.15575800
168.49999017	0.00000000	18.97145000	3.15575800
168.69999016	0.00000000	18.97145000	3.15575800
168.89999015	0.00000000	18.97145000	3.15575800
169.09999014	0.00000000	18.92839000	3.15575800
169.29999013	0.00000000	18.59621000	3.15575800
169.49999011	0.00000000	18.22711000	3.15575800
169.69999010	0.00000000	18.59621000	3.15575800
169.89999009	0.00000000	18.92839000	3.15575800
170.09999008	0.00000000	18.97145000	3.15575800
170.29999007	0.00000000	18.97145000	3.15575800
170.49999005	0.00000000	18.97145000	3.15575800
170.69999004	0.00000000	18.97145000	3.15575800
170.89999003	0.00000000	18.97145000	3.15575800
171.09999002	0.00000000	18.97145000	3.11269700
171.29999001	0.00000000	18.97145000	2.78051200
171.49998999	0.00000000	18.97145000	2.41141700
171.69998998	0.00000000	18.97145000	2.78051200
171.89998997	0.00000000	18.97145000	3.06348400
172.09998996	0.00000000	18.92839000	2.78051200
172.29998995	0.00000000	18.59621000	2.41141700
172.49998994	0.00000000	18.22711000	2.78051200
172.69998992	0.00000000	18.59621000	3.11269700
172.89998991	0.00000000	18.92839000	3.15575800
173.09998990	0.00000000	18.97145000	3.15575800
173.29998989	-0.15871060	18.97145000	3.15575800
173.49998988	0.00000000	18.97145000	3.15575800
173.69998986	0.00000000	18.97145000	3.15575800
173.89998985	0.00000000	18.97145000	3.15575800
174.09998984	0.00000000	18.92839000	3.15575800
174.29998983	0.00000000	18.59621000	3.15575800
174.49998982	0.00000000	18.22711000	3.15575800
174.69998980	0.00000000	18.59621000	3.15575800
174.89998979	0.00000000	18.92839000	3.15575800
175.09998978	0.00000000	18.97145000	3.15575800
175.29998977	0.00000000	18.97145000	3.15575800
175.49998976	0.00000000	18.97145000	3.15575800
175.69998975	0.00000000	18.97145000	3.15575800
175.89998973	0.00000000	18.97145000	3.15575800
176.09998972	0.00000000	18.97145000	3.15575800
176.29998971	0.00000000	18.97145000	3.15575800
176.49998970	0.00000000	18.97145000	3.15575800
176.69998969	0.00000000	18.97145000	3.15575800
176.89998967	0.00000000	18.97145000	3.15575800
177.09998966	0.00000000	18.97145000	3.15575800
177.29998965	0.00000000	18.97145000	3.15575800
177.49998964	0.00000000	18.92839000	3.15575800
177.69998963	0.00000000	18.55315000	3.15575800
177.89998961	0.00000000	17.85802000	3.15575800
178.09998960	0.00000000	17.85802000	3.15575800
178.29998959	0.00000000	18.55315000	3.15575800
178.49998958	0.00000000	18.92839000	3.15575800
178.69998957	0.00000000	18.97145000	3.15575800
178.89998956	0.00000000	18.97145000	3.15575800
179.09998954	0.00000000	18.97145000	3.15575800
179.29998953	0.00000000	18.97145000	3.15575800
179.49998952	0.00000000	18.97145000	3.15575800
179.69998951	0.00000000	18.97145000	3.15575800
179.89998950	0.00000000	18.97145000	3.11269700
180.09998948	0.00000000	18.97145000	2.73745100
180.29998947	0.00000000	18.97145000	2.04232300
180.49998946	0.00000000	18.97145000	2.04232300
180.69998945	0.00000000	18.97145000	2.73745100
180.89998944	0.00000000	18.92839000	3.11269700
181.09998942	0.00000000	18.59621000	3.15575800
181.29998941	0.00000000	18.18405000	3.15575800
181.49998940	0.00000000	18.22096000	3.15575800
181.69998939	0.00000000	18.18405000	3.15575800
181.89998938	0.00000000	18.59621000	3.15575800
182.09998937	0.00000000	18.92839000	3.15575800
182.29998935	0.00000000	18.97145000	3.15575800
182.49998934	0.00000000	18.97145000	3.15575800
182.69998933	0.00000000	18.97145000	3.11269700
182.89998932	0.00000000	18.92839000	2.73745100
183.09998931	0.00000000	18.55315000	1.99311000
183.29998929	0.00000000	17.85802000	1.66707700
183.49998928	0.00000000	17.80881000	1.99311000
183.69998927	0.00000000	18.13484000	2.73745100
183.89998926	0.00000000	17.76575000	3.11269700
184.09998925	0.00000000	17.48277000	3.15575800
184.29998923	0.00000000	17.80881000	3.15575800
184.49998922	0.00000000	18.55315000	3.15575800
184.69998921	0.00000000	18.92839000	3.15575800
184.89998920	0.00000000	18.97145000	3.15575800
185.09998919	0.00000000	18.97145000	3.15575800
185.29998918	0.00000000	18.97145000	3.11269700
185.49998916	0.00000000	18.97145000	2.73745100
185.69998915	0.00000000	18.97145000	1.99311000
185.89998914	0.00000000	18.97145000	1.61786400
186.09998913	0.00000000	18.97145000	1.57480300
186.29998912	0.00000000	18.97145000	1.57480300
186.49998910	0.00000000	18.92839000	1.61786400
186.69998909	0.00000000	18.55315000	1.99311000
186.89998908	0.00000000	17.85802000	2.73745100
187.09998907	0.00000000	17.80881000	3.11269700
187.29998906	0.00000000	18.13484000	3.15575800
187.49998904	0.00000000	17.80881000	3.15575800
187.69998903	0.00000000	17.80881000	3.15575800
187.89998902	0.00000000	18.17790000	3.15575800
188.09998901	0.00000000	18.18405000	3.15575800
188.29998900	0.00000000	18.59621000	3.11269700
188.49998899	0.00000000	18.92839000	2.73745100
188.69998897	0.00000000	18.97145000	2.04232300
188.89998896	0.00000000	18.97145000	1.99311000
189.09998895	0.00000000	18.97145000	2.36220500
189.29998894	0.00000000	18.92839000	2.32529500
189.49998893	0.00000000	18.55315000	2.36220500
189.69998891	0.00000000	17.80881000	1.99311000
189.89998890	0.00000000	17.43356000	2.04232300
190.09998889	0.00000000	17.39050000	2.73745100
190.29998888	0.00000000	17.39050000	3.11269700
190.49998887	0.00000000	17.39050000	3.15575800
190.69998885	0.00000000	17.39050000	3.15575800
190.89998884	0.00000000	17.43356000	3.11269700
191.09998883	0.00000000	17.80881000	2.78051200
191.29998882	0.00000000	18.50394000	2.41141700
191.49998881	0.00000000	18.55315000	2.73745100
191.69998880	0.00000000	18.22711000	2.68823800
191.89998878	0.00000000	18.55315000	1.99311000
192.09998877	0.00000000	18.50394000	1.61786400
192.29998876	0.00000000	17.80881000	1.57480300
192.49998875	0.00000000	17.43356000	1.61786400
192.69998874	0.00000000	17.39050000	1.99311000
192.89998872	0.00000000	17.43356000	2.73745100
193.09998871	0.00000000	17.76575000	3.11269700
193.29998870	0.00000000	18.13484000	3.15575800
193.49998869	0.00000000	17.80881000	3.15575800
193.69998868	-0.15871060	17.80881000	3.15575800
193.89998866	0.00000000	18.17790000	3.15575800
194.09998865	0.00000000	18.18405000	3.15575800
194.29998864	0.00000000	18.59621000	3.15575800
194.49998863	0.00000000	18.92839000	3.15575800
194.69998862	0.00000000	18.92839000	3.15575800
194.89998861	0.00000000	18.55315000	3.11269700
195.09998859	0.00000000	17.80881000	2.73745100
195.29998858	0.00000000	17.43356000	1.99311000
195.49998857	0.00000000	17.39050000	1.66707700
195.69998856	0.00000000	17.39050000	1.99311000
195.89998855	0.00000000	17.39050000	2.73745100
196.09998853	0.00000000	17.39050000	3.11269700
