Time	Channel A	Channel B	Channel C
(us)	(V)	(mV)	(mV)

-4.59999956	0.00000000	-23.75738000	-15.78494000
-4.39999957	0.00000000	-23.71432000	-15.78494000
-4.19999958	0.00000000	-23.71432000	-15.78494000
-3.99999959	0.00000000	-23.71432000	-15.74188000
-3.79999960	-0.15871060	-23.71432000	-15.40969000
-3.59999962	0.00000000	-23.71432000	-15.04675000
-3.39999963	0.00000000	-23.71432000	-15.36663000
-3.19999964	0.00000000	-23.71432000	-15.32357000
-2.99999965	0.00000000	-23.71432000	-14.62844000
-2.79999966	0.00000000	-23.71432000	-14.30241000
-2.59999968	0.00000000	-23.71432000	-14.58538000
-2.39999969	0.00000000	-23.71432000	-14.94833000
-2.19999970	0.00000000	-23.71432000	-14.58538000
-1.99999971	0.00000000	-23.71432000	-14.25320000
-1.79999972	0.00000000	-23.71432000	-14.21014000
-1.59999973	0.00000000	-23.71432000	-14.21014000
-1.39999975	0.00000000	-23.71432000	-14.25320000
-1.19999976	0.00000000	-23.71432000	-14.58538000
-0.99999977	0.00000000	-23.71432000	-14.99139000
-0.79999978	0.00000000	-23.71432000	-14.95448000
-0.59999979	0.00000000	-23.75738000	-15.04060000
-0.39999981	0.15871060	-24.08957000	-15.00369000
-0.19999982	0.47736220	-24.45866000	-15.40969000
0.00000017	0.79601380	-24.08957000	-15.78494000
0.20000016	0.95533960	-23.75738000	-16.16018000
0.40000015	0.95533960	-23.71432000	-16.52928000
0.60000013	0.63668800	-23.75738000	-16.16018000
0.80000012	-0.15871060	-24.08957000	-15.82800000
1.00000011	-1.11466500	-24.50172000	-15.78494000
1.20000010	-2.07062000	-24.46481000	-15.78494000
1.40000009	-2.70792300	-24.50172000	-15.78494000
1.60000008	-2.70792300	-24.13263000	-15.78494000
1.80000006	-1.91129400	-24.13263000	-15.78494000
2.00000005	-0.31803640	-24.45866000	-15.78494000
2.20000004	1.75196900	-24.13263000	-15.78494000
2.40000003	3.66326300	-24.18184000	-15.78494000
2.60000002	5.09719500	-24.87697000	-15.78494000
2.80000000	5.25652100	-25.25221000	-15.82800000
2.99999999	3.98191400	-25.29527000	-16.20325000
3.19999998	1.27399100	-25.25221000	-16.89837000
3.39999997	-1.91129400	-24.92003000	-16.89837000
3.59999996	-5.25652100	-24.55093000	-16.20325000
3.79999994	-7.48646600	-24.87697000	-15.78494000
3.99999993	-7.96444400	-24.82775000	-15.36663000
4.19999992	-6.37180100	-24.13263000	-14.62844000
4.39999991	-3.02657500	-23.75738000	-14.30241000
4.59999990	1.27399100	-23.75738000	-14.62844000
4.79999989	5.57517200	-24.13263000	-15.36663000
4.99999987	8.60174700	-24.87697000	-15.74188000
5.19999986	9.39837600	-25.25221000	-15.82800000
5.39999985	7.96444400	-25.29527000	-16.20325000
5.59999984	4.45989200	-25.29527000	-16.94759000
5.79999983	-0.15871060	-25.29527000	-17.27362000
5.99999981	-4.93786900	-25.29527000	-16.94759000
6.19999980	-8.28309500	-25.29527000	-16.20325000
6.39999979	-9.55770200	-25.29527000	-15.82800000
6.59999978	-8.44242100	-25.29527000	-15.74188000
6.79999977	-5.41584600	-25.25221000	-15.40969000
6.99999975	-1.11466500	-24.92003000	-15.00369000
7.19999974	3.18590100	-24.55093000	-15.04060000
7.39999973	6.37180100	-24.92003000	-15.00369000
7.59999972	7.80511800	-25.25221000	-15.40969000
7.79999971	7.16781500	-25.29527000	-15.78494000
7.99999970	4.77854300	-25.29527000	-16.16018000
8.19999968	1.59264300	-25.29527000	-16.52928000
8.39999967	-1.59264300	-25.29527000	-16.16018000
8.59999966	-3.98191400	-25.29527000	-15.82800000
8.79999965	-5.25652100	-25.29527000	-15.78494000
8.99999964	-4.93786900	-25.29527000	-15.78494000
9.19999962	-3.50393700	-25.29527000	-15.78494000
9.39999961	-1.59264300	-25.29527000	-15.78494000
9.59999960	0.31803640	-25.29527000	-15.78494000
9.79999959	1.75196900	-25.29527000	-15.78494000
9.99999958	2.38927200	-25.29527000	-15.78494000
10.19999956	2.38927200	-25.29527000	-15.78494000
10.39999955	1.91129400	-25.29527000	-15.78494000
10.59999954	0.95533960	-25.29527000	-15.78494000
10.79999953	0.15871060	-25.25221000	-15.78494000
10.99999952	-0.63668800	-24.87697000	-15.78494000
11.19999951	-0.95533960	-24.18184000	-15.78494000
11.39999949	-0.95533960	-24.18184000	-15.78494000
11.59999948	-0.79601380	-24.87697000	-15.78494000
11.79999947	-0.63668800	-25.25221000	-15.78494000
11.99999946	-0.31803640	-25.29527000	-15.78494000
12.19999945	-0.15871060	-25.29527000	-15.78494000
12.39999943	-0.15871060	-25.29527000	-15.78494000
12.59999942	0.00000000	-25.29527000	-15.78494000
12.79999941	0.00000000	-25.29527000	-15.78494000
12.99999940	0.00000000	-25.29527000	-15.78494000
13.19999939	0.00000000	-25.29527000	-15.78494000
13.39999937	0.00000000	-25.29527000	-15.78494000
13.59999936	0.00000000	-25.29527000	-15.78494000
13.79999935	0.00000000	-25.29527000	-15.78494000
13.99999934	-0.15871060	-25.29527000	-15.78494000
14.19999933	-0.15871060	-25.29527000	-15.78494000
14.39999932	-0.15871060	-25.29527000	-15.78494000
14.59999930	-0.15871060	-25.29527000	-15.78494000
14.79999929	0.00000000	-25.29527000	-15.78494000
14.99999928	0.00000000	-25.29527000	-15.78494000
15.19999927	0.00000000	-25.29527000	-15.78494000
15.39999926	0.00000000	-25.29527000	-15.78494000
15.59999924	0.00000000	-25.29527000	-15.78494000
15.79999923	0.00000000	-25.29527000	-15.78494000
15.99999922	0.00000000	-25.29527000	-15.78494000
16.19999921	-0.15871060	-25.29527000	-15.78494000
16.39999920	-0.15871060	-25.29527000	-15.78494000
16.59999919	-0.15871060	-25.25221000	-15.78494000
16.79999917	0.00000000	-24.87697000	-15.78494000
16.99999916	-0.15871060	-24.13263000	-15.78494000
17.19999915	0.00000000	-23.75738000	-15.78494000
17.39999914	0.00000000	-23.71432000	-15.78494000
17.59999913	0.00000000	-23.71432000	-15.78494000
17.79999911	0.00000000	-23.75738000	-15.78494000
17.99999910	0.00000000	-24.18184000	-15.78494000
18.19999909	0.00000000	-25.33834000	-15.78494000
18.39999908	0.00000000	-26.87623000	-15.78494000
18.59999907	0.00000000	-28.45718000	-15.78494000
18.79999905	0.00000000	-29.94586000	-15.78494000
18.99999904	-0.15871060	-30.64714000	-15.78494000
19.19999903	-0.15871060	-29.48450000	-15.78494000
19.39999902	0.00000000	-26.83317000	-15.78494000
19.59999901	0.00000000	-23.67126000	-15.78494000
19.79999900	0.00000000	-20.13410000	-15.78494000
19.99999898	0.00000000	-16.32013000	-15.78494000
20.19999897	0.00000000	-13.71186000	-15.78494000
20.39999896	0.00000000	-13.75492000	-15.78494000
20.59999895	0.00000000	-16.87377000	-15.78494000
20.79999894	0.00000000	-22.68701000	-15.78494000
20.99999892	0.00000000	-30.08735000	-15.78494000
21.19999891	0.00000000	-37.77067000	-15.78494000
21.39999890	0.00000000	-43.95300000	-15.78494000
21.59999889	0.00000000	-46.56742000	-15.82800000
21.79999888	0.00000000	-44.97416000	-16.20325000
21.99999886	0.00000000	-38.28740000	-16.94759000
22.19999885	0.00000000	-27.48524000	-17.32283000
22.39999884	0.00000000	-14.69611000	-17.36589000
22.59999883	0.00000000	-2.78051200	-17.32283000
22.79999882	0.00000000	5.22268700	-16.94759000
22.99999881	0.00000000	6.33612200	-16.20325000
23.19999879	0.00000000	-0.30757870	-15.78494000
23.39999878	-0.15871060	-13.47810000	-15.36663000
23.59999877	0.00000000	-31.24384000	-14.62844000
23.79999876	0.00000000	-48.97884000	-14.25320000
23.99999875	0.00000000	-62.47539000	-14.25320000
24.19999873	0.00000000	-68.56544000	-14.67150000
24.39999872	0.00000000	-64.66535000	-15.83415000
24.59999871	0.00000000	-51.49483000	-17.36589000
24.79999870	0.00000000	-31.71752000	-18.94685000
24.99999869	0.00000000	-8.96899500	-20.47859000
25.19999867	0.00000000	11.03592000	-21.64124000
25.39999866	0.00000000	22.99459000	-21.96727000
25.59999865	0.00000000	24.10802000	-21.17372000
25.79999864	0.00000000	13.64419000	-18.81152000
25.99999863	0.00000000	-6.40378900	-15.32357000
26.19999862	-0.15871060	-31.10851000	-11.09129000
26.39999860	0.00000000	-54.69980000	-7.24040300
26.59999859	0.00000000	-72.05955000	-4.95816900
26.79999858	0.00000000	-78.99237000	-4.63828700
26.99999857	0.00000000	-73.64050000	-7.37573800
27.19999856	0.00000000	-57.77559000	-12.80758000
27.39999854	0.00000000	-34.97170000	-19.78346000
27.59999853	0.00000000	-9.94709500	-27.49138000
27.79999852	0.00000000	10.52534000	-33.58144000
27.99999851	0.00000000	21.88115000	-36.31890000
28.19999850	0.00000000	23.03765000	-35.07013000
28.39999848	0.00000000	13.73647000	-29.58907000
28.59999847	0.00000000	-4.40452700	-19.92495000
28.79999846	0.00000000	-26.74089000	-8.35998900
28.99999845	0.00000000	-48.00074000	2.46678100
29.19999844	0.00000000	-63.12745000	10.50074000
29.39999843	0.00000000	-69.40821000	13.15207000
29.59999841	0.00000000	-66.33243000	9.29502900
29.79999840	-0.15871060	-54.79207000	-0.04306102
29.99999839	0.00000000	-37.85679000	-13.65034000
30.19999838	0.00000000	-20.03568000	-29.40452000
30.39999837	0.00000000	-4.87204700	-43.20251000
30.59999835	0.00000000	5.22268700	-50.95964000
30.79999834	0.00000000	8.34153500	-51.37795000
30.99999833	0.00000000	4.15231300	-44.73425000
31.19999832	0.00000000	-5.89936000	-31.53912000
31.39999831	0.00000000	-19.38976000	-14.21014000
31.59999829	0.00000000	-33.34769000	3.11884800
31.79999828	0.00000000	-44.56200000	16.27091000
31.99999827	0.00000000	-51.21186000	22.49631000
32.19999826	0.00000000	-52.00541000	20.95841000
32.39999825	0.00000000	-47.44094000	12.03863000
32.59999824	0.00000000	-38.92716000	-2.68823800
32.79999822	0.00000000	-28.45718000	-20.43553000
32.99999821	0.00000000	-18.03642000	-37.39542000
33.19999820	0.00000000	-9.94094400	-49.37868000
33.39999819	0.00000000	-6.40378900	-54.07234000
33.59999818	0.00000000	-7.52337600	-51.00270000
33.79999816	0.00000000	-12.50615000	-40.92643000
33.99999815	0.00000000	-20.22022000	-25.86737000
34.19999814	0.00000000	-28.32185000	-8.91363100
34.39999813	0.00000000	-35.30389000	5.77017700
34.59999812	0.00000000	-39.53617000	15.05905000
34.79999810	0.00000000	-39.95448000	17.42741000
34.99999809	0.00000000	-36.92790000	12.41388000
35.19999808	0.00000000	-31.53297000	1.63016700
35.39999807	0.00000000	-25.38755000	-12.62918000
35.59999806	0.00000000	-19.99262000	-26.89468000
35.79999805	0.00000000	-16.91683000	-37.77067000
35.99999803	0.00000000	-16.87377000	-43.57775000
36.19999802	0.00000000	-19.56816000	-43.15945000
36.39999801	0.00000000	-24.13263000	-36.23277000
36.59999800	0.00000000	-29.15231000	-24.75394000
36.79999799	0.00000000	-33.02165000	-12.06939000
36.99999797	0.00000000	-35.34695000	-1.70398600
37.19999796	0.00000000	-35.30389000	3.72170300
37.39999795	0.00000000	-32.64640000	2.98351400
37.59999794	0.00000000	-28.41412000	-3.10039400
37.79999793	0.00000000	-23.75738000	-12.67224000
37.99999791	0.00000000	-19.56816000	-22.61934000
38.19999790	0.00000000	-17.24902000	-29.95817000
38.39999789	0.00000000	-17.61811000	-33.02780000
38.59999788	0.00000000	-19.90034000	-31.12082000
38.79999787	0.00000000	-23.80659000	-24.57554000
38.99999786	0.00000000	-28.41412000	-15.41585000
39.19999784	0.00000000	-32.64640000	-6.26230300
39.39999783	0.00000000	-35.39001000	-0.54749010
39.59999782	0.00000000	-36.23277000	-0.12918310
39.79999781	0.00000000	-35.81446000	-4.73056000
39.99999780	0.00000000	-33.80905000	-13.13976000
40.19999778	0.00000000	-29.95201000	-22.71161000
40.39999777	0.00000000	-25.33834000	-30.42569000
40.59999776	0.00000000	-21.06299000	-34.65182000
40.79999775	0.00000000	-17.94414000	-34.23351000
40.99999774	0.00000000	-16.40625000	-28.84473000
41.19999772	0.00000000	-16.78149000	-20.01722000
41.39999771	0.00000000	-19.10679000	-10.07013000
41.59999770	0.00000000	-22.55167000	-1.99311000
41.79999769	0.00000000	-26.45792000	1.87007900
41.99999768	0.00000000	-29.94586000	1.16879900
42.19999767	0.00000000	-32.68946000	-3.84473400
42.39999765	0.00000000	-34.23351000	-11.51575000
42.59999764	0.00000000	-34.23351000	-19.97416000
42.79999763	0.00000000	-32.73868000	-26.93774000
42.99999762	0.00000000	-30.37032000	-30.80093000
43.19999761	0.00000000	-27.66363000	-31.21309000
43.39999759	0.00000000	-24.60015000	-27.77436000
43.59999758	0.00000000	-22.68701000	-22.05955000
43.79999757	0.00000000	-22.22564000	-15.87721000
43.99999756	0.00000000	-22.55167000	-10.44537000
44.19999755	0.00000000	-23.29601000	-6.95743000
44.39999753	0.00000000	-23.71432000	-5.79478300
44.59999752	0.00000000	-24.08957000	-7.33267600
44.79999751	0.00000000	-24.50172000	-11.14050000
44.99999750	0.00000000	-24.50787000	-15.69882000
45.19999749	0.00000000	-24.96309000	-19.54970000
45.39999748	0.00000000	-25.76279000	-21.54897000
45.59999746	0.00000000	-27.38681000	-22.01033000
45.79999745	0.00000000	-30.08120000	-21.59203000
45.99999744	0.00000000	-33.15699000	-20.06029000
46.19999743	0.00000000	-35.81446000	-17.74114000
46.39999742	0.00000000	-36.92790000	-15.45891000
46.59999740	0.00000000	-35.72219000	-13.46580000
46.79999739	0.00000000	-32.22810000	-12.34621000
46.99999738	0.00000000	-26.78395000	-11.93405000
47.19999737	0.00000000	-20.59547000	-12.76452000
47.39999736	0.00000000	-14.82529000	-14.62844000
47.59999734	0.00000000	-11.06053000	-16.99065000
47.79999733	0.00000000	-11.10359000	-19.27288000
47.99999732	0.00000000	-15.33587000	-21.22293000
48.19999731	0.00000000	-22.68701000	-21.96727000
48.39999730	0.00000000	-31.53297000	-21.59203000
48.59999729	0.00000000	-39.62844000	-20.01722000
48.79999727	0.00000000	-44.65428000	-17.32283000
48.99999726	0.00000000	-45.81693000	-14.25320000
49.19999725	0.00000000	-42.65502000	-11.55881000
49.39999724	0.00000000	-35.34695000	-10.02707000
49.59999723	0.00000000	-25.71358000	-10.02707000
49.79999721	0.00000000	-16.45546000	-11.55881000
49.99999720	0.00000000	-9.52263600	-14.29626000
50.19999719	0.00000000	-6.87130900	-17.78420000
50.39999718	0.00000000	-9.52263600	-21.59203000
50.59999717	0.00000000	-16.45546000	-24.29257000
50.79999715	0.00000000	-25.71358000	-25.08612000
50.99999714	0.00000000	-35.34695000	-24.33563000
51.19999713	0.00000000	-42.61196000	-21.96727000
51.39999712	-0.15871060	-45.34940000	-18.47933000
51.59999711	0.00000000	-43.07332000	-14.25320000
51.79999710	0.00000000	-36.92790000	-10.44537000
51.99999708	0.00000000	-28.45718000	-8.48917200
52.19999707	0.00000000	-20.03568000	-8.44611200
52.39999706	0.00000000	-14.22244000	-10.02707000
52.59999705	0.00000000	-12.30930000	-13.13976000
52.79999704	0.00000000	-14.59769000	-17.32283000
52.99999702	0.00000000	-20.73080000	-21.17372000
53.19999701	0.00000000	-28.37106000	-23.50517000
53.39999700	0.00000000	-35.34695000	-24.29257000
53.59999699	0.00000000	-39.91141000	-23.12992000
53.79999698	0.00000000	-40.69882000	-20.47859000
53.99999696	0.00000000	-37.26009000	-17.41511000
54.19999695	0.00000000	-31.20078000	-14.72072000
54.39999694	0.00000000	-24.60015000	-13.18282000
54.59999693	0.00000000	-19.19906000	-13.13976000
54.79999692	0.00000000	-15.76033000	-14.25320000
54.99999691	0.00000000	-15.80339000	-15.78494000
55.19999689	0.00000000	-19.56816000	-17.32283000
55.39999688	0.00000000	-25.29527000	-18.43627000
55.59999687	0.00000000	-31.10851000	-18.43627000
55.79999686	0.00000000	-35.72219000	-17.32283000
55.99999685	0.00000000	-38.04749000	-15.78494000
56.19999683	0.00000000	-37.30315000	-14.25320000
56.39999682	0.00000000	-34.23351000	-13.18282000
56.59999681	0.00000000	-29.57677000	-13.60113000
56.79999680	0.00000000	-24.22490000	-15.87721000
56.99999679	0.00000000	-20.03568000	-18.94685000
57.19999677	0.00000000	-18.41166000	-22.01649000
57.39999676	0.00000000	-19.14985000	-24.29257000
57.59999675	0.00000000	-21.48130000	-24.61860000
57.79999674	0.00000000	-25.33834000	-22.71161000
57.99999673	0.00000000	-29.52756000	-18.85458000
58.19999672	0.00000000	-32.64640000	-14.21014000
58.39999670	0.00000000	-34.18430000	-9.60875900
58.59999669	0.00000000	-33.80905000	-6.21924200
58.79999668	0.00000000	-31.53297000	-5.84399600
58.99999667	0.00000000	-28.50024000	-8.48917200
59.19999666	0.00000000	-25.80585000	-13.13976000
59.39999664	0.00000000	-24.22490000	-18.98991000
59.59999663	0.00000000	-23.80659000	-25.12918000
59.79999662	0.00000000	-24.18184000	-30.00738000
59.99999661	0.00000000	-25.33834000	-31.16388000
60.19999660	0.00000000	-26.87623000	-28.14960000
60.39999658	0.00000000	-28.36491000	-22.75467000
60.59999657	0.00000000	-29.20152000	-15.78494000
60.79999656	0.00000000	-29.20767000	-8.86441900
60.99999655	0.00000000	-29.20152000	-3.84473400
61.19999654	0.00000000	-28.36491000	-1.56865100
61.39999653	0.00000000	-26.91929000	-3.14960600
61.59999651	0.00000000	-25.80585000	-8.48917200
61.79999650	0.00000000	-25.80585000	-15.83415000
61.99999649	0.00000000	-26.87623000	-23.54823000
62.19999648	0.00000000	-28.03888000	-30.05044000
62.39999647	0.00000000	-28.83243000	-33.12008000
62.59999645	0.00000000	-29.61983000	-32.04970000
62.79999644	0.00000000	-29.94586000	-27.77436000
62.99999643	0.00000000	-29.57062000	-21.22293000
63.19999642	0.00000000	-28.41412000	-13.50886000
63.39999641	0.00000000	-26.91929000	-6.95743000
63.59999639	0.00000000	-25.71358000	-2.68208600
63.79999638	0.00000000	-24.96309000	-1.56865100
63.99999637	0.00000000	-24.60015000	-4.21998000
64.19999636	0.00000000	-25.38755000	-9.60875900
64.39999635	0.00000000	-26.83317000	-16.16018000
64.59999634	-0.15871060	-28.03888000	-22.71161000
64.79999632	0.00000000	-28.83243000	-27.35605000
64.99999631	0.00000000	-29.61983000	-29.35531000
65.19999630	0.00000000	-29.94586000	-28.98007000
65.39999629	0.00000000	-29.57062000	-26.28568000
65.59999628	0.00000000	-28.45718000	-22.05955000
65.79999626	0.00000000	-27.34375000	-17.40895000
65.99999625	0.00000000	-26.91929000	-13.09670000
66.19999624	0.00000000	-26.91929000	-9.60875900
66.39999623	0.00000000	-27.34375000	-7.28346400
66.59999622	0.00000000	-28.45718000	-6.90821800
66.79999620	0.00000000	-29.57062000	-8.40305000
66.99999619	0.00000000	-29.99508000	-11.09744000
67.19999618	0.00000000	-29.99508000	-14.21014000
67.39999617	0.00000000	-29.57062000	-17.36589000
67.59999616	0.00000000	-28.36491000	-20.47859000
67.79999615	0.00000000	-26.45792000	-23.22219000
67.99999613	0.00000000	-24.18184000	-25.17224000
68.19999612	0.00000000	-22.68701000	-26.32874000
68.39999611	0.00000000	-22.68701000	-26.28568000
68.59999610	0.00000000	-24.26796000	-24.71087000
68.79999609	0.00000000	-27.34375000	-21.54897000
68.99999607	0.00000000	-31.20078000	-16.94759000
69.19999606	0.00000000	-34.65182000	-11.93405000
69.39999605	0.00000000	-36.97712000	-8.07086500
69.59999604	0.00000000	-37.30315000	-5.75172200
69.79999603	0.00000000	-35.39001000	-5.80093500
69.99999601	0.00000000	-31.48376000	-8.44611200
70.19999600	0.00000000	-26.50098000	-12.72146000
70.39999599	0.00000000	-21.48130000	-17.78420000
70.59999598	0.00000000	-18.03642000	-23.17298000
70.79999597	0.00000000	-16.87377000	-27.40526000
70.99999596	0.00000000	-18.41166000	-29.31225000
71.19999594	0.00000000	-22.26870000	-28.56176000
71.39999593	0.00000000	-27.34375000	-25.12918000
71.59999592	0.00000000	-33.11393000	-20.52780000
71.79999591	0.00000000	-38.09055000	-15.83415000
71.99999590	0.00000000	-40.42199000	-11.55881000
72.19999588	0.00000000	-40.08981000	-8.53223400
72.39999587	0.00000000	-37.34621000	-7.75098400
72.59999586	-0.15871060	-32.68946000	-9.60875900
72.79999585	0.00000000	-26.91929000	-12.67224000
72.99999584	0.00000000	-21.57357000	-16.16018000
73.19999582	0.00000000	-18.41166000	-19.59892000
73.39999581	0.00000000	-17.61811000	-21.54897000
73.59999580	0.00000000	-18.78691000	-21.96727000
73.79999579	0.00000000	-22.26870000	-21.22293000
73.99999578	0.00000000	-26.83317000	-19.32210000
74.19999577	0.00000000	-31.15772000	-17.45817000
74.39999575	0.00000000	-34.65182000	-16.29552000
74.59999574	0.00000000	-36.92790000	-16.29552000
74.79999573	0.00000000	-36.92790000	-17.36589000
74.99999572	0.00000000	-34.69488000	-18.52854000
75.19999571	0.00000000	-31.61909000	-19.27903000
75.39999569	0.00000000	-28.50024000	-19.59892000
75.59999568	0.00000000	-25.80585000	-18.43627000
75.79999567	0.00000000	-24.22490000	-16.16018000
75.99999566	0.00000000	-23.80659000	-13.83489000
76.19999565	0.00000000	-24.18184000	-11.51575000
76.39999563	0.00000000	-25.33834000	-10.07013000
76.59999562	0.00000000	-26.87623000	-10.48843000
76.79999561	0.00000000	-28.36491000	-13.13976000
76.99999560	0.00000000	-29.15231000	-16.99065000
77.19999559	0.00000000	-28.83243000	-20.90305000
77.39999558	0.00000000	-28.50024000	-24.71087000
77.59999556	0.00000000	-28.45718000	-26.98080000
77.79999555	0.00000000	-28.50024000	-26.61786000
77.99999554	0.00000000	-28.87549000	-24.29257000
78.19999553	0.00000000	-29.66289000	-20.01722000
78.39999552	0.00000000	-30.41338000	-14.67766000
78.59999550	0.00000000	-31.15157000	-10.02707000
78.79999549	0.00000000	-31.06545000	-6.91437000
78.99999548	0.00000000	-29.57062000	-5.79478300
79.19999547	0.00000000	-27.29453000	-7.33267600
79.39999546	0.00000000	-25.33834000	-11.14050000
79.59999544	0.00000000	-23.80659000	-15.78494000
79.79999543	0.00000000	-23.06225000	-20.43553000
79.99999542	0.00000000	-23.84965000	-24.29257000
80.19999541	0.00000000	-25.76279000	-26.24262000
80.39999540	0.00000000	-28.45718000	-26.28568000
80.59999539	0.00000000	-31.15157000	-24.75394000
80.79999537	0.00000000	-33.11393000	-22.05955000
80.99999536	0.00000000	-34.27657000	-18.94685000
81.19999535	0.00000000	-34.23351000	-15.83415000
81.39999534	0.00000000	-32.68946000	-13.09055000
81.59999533	0.00000000	-29.99508000	-11.18356000
81.79999531	0.00000000	-26.96850000	-10.35310000
81.99999530	0.00000000	-24.64321000	-10.76525000
82.19999529	0.00000000	-23.84965000	-11.93405000
82.39999528	0.00000000	-24.18184000	-14.25320000
82.59999527	0.00000000	-25.38755000	-16.94759000
82.79999525	0.00000000	-27.29453000	-19.32210000
82.99999524	0.00000000	-29.61983000	-21.68430000
83.19999523	0.00000000	-31.52682000	-23.59129000
83.39999522	0.00000000	-32.68946000	-24.75394000
83.59999521	0.00000000	-32.68946000	-24.71087000
83.79999520	0.00000000	-31.57603000	-23.17298000
83.99999518	0.00000000	-30.08120000	-20.47859000
84.19999517	0.00000000	-28.87549000	-17.32283000
84.39999516	0.00000000	-28.08194000	-13.83489000
84.59999515	0.00000000	-27.34375000	-10.40231000
84.79999514	0.00000000	-27.34375000	-8.48917200
84.99999512	0.00000000	-28.03888000	-8.48917200
85.19999511	0.00000000	-28.41412000	-10.44537000
85.39999510	0.00000000	-28.45718000	-14.30241000
85.59999509	0.00000000	-28.45718000	-18.90379000
85.79999508	-0.15871060	-28.45718000	-23.17298000
85.99999506	0.00000000	-28.45718000	-26.24262000
86.19999505	0.00000000	-28.50024000	-27.39911000
86.39999504	0.00000000	-28.92470000	-26.24262000
86.59999503	0.00000000	-30.03814000	-23.17298000
86.79999502	0.00000000	-31.15157000	-18.90379000
86.99999501	0.00000000	-31.57603000	-14.30241000
87.19999499	0.00000000	-31.57603000	-10.44537000
87.39999498	0.00000000	-31.15157000	-8.53838500
87.59999497	0.00000000	-30.03814000	-8.90747900
87.79999496	0.00000000	-28.87549000	-11.60187000
87.99999495	0.00000000	-28.03888000	-15.87721000
88.19999493	0.00000000	-26.91929000	-20.81078000
88.39999492	0.00000000	-26.18110000	-25.03076000
88.59999491	0.00000000	-26.54404000	-26.61786000
88.79999490	0.00000000	-27.29453000	-26.28568000
88.99999489	0.00000000	-28.50024000	-24.24335000
89.19999487	0.00000000	-29.99508000	-20.01722000
89.39999486	0.00000000	-31.15157000	-14.72072000
89.59999485	0.00000000	-31.52682000	-10.48843000
89.79999484	0.00000000	-31.20078000	-8.48917200
89.99999483	0.00000000	-30.41338000	-8.53838500
90.19999482	0.00000000	-29.66289000	-10.86368000
90.39999480	0.00000000	-28.87549000	-15.45891000
90.59999479	0.00000000	-28.50024000	-20.39247000
90.79999478	0.00000000	-28.45718000	-24.29257000
90.99999477	0.00000000	-28.45718000	-26.19955000
91.19999476	0.00000000	-28.45718000	-25.82431000
91.39999474	0.00000000	-28.45718000	-23.12992000
91.59999473	0.00000000	-28.45718000	-18.90379000
91.79999472	0.00000000	-28.45718000	-14.25320000
91.99999471	0.00000000	-28.45718000	-10.07013000
92.19999470	-0.15871060	-28.45718000	-7.79404500
92.39999468	0.00000000	-28.50024000	-8.53223400
92.59999467	0.00000000	-28.87549000	-11.60187000
92.79999466	0.00000000	-29.66289000	-16.20325000
92.99999465	0.00000000	-30.45644000	-21.17372000
93.19999464	0.00000000	-31.61909000	-24.61860000
93.39999463	0.00000000	-32.68946000	-25.82431000
93.59999461	0.00000000	-32.68946000	-24.66166000
93.79999460	0.00000000	-31.52682000	-21.59203000
93.99999459	0.00000000	-29.61983000	-17.36589000
94.19999458	0.00000000	-27.29453000	-13.18282000
94.39999457	0.00000000	-25.38755000	-10.48843000
94.59999455	0.00000000	-24.18184000	-10.07013000
94.79999454	0.00000000	-23.80659000	-11.60187000
94.99999453	0.00000000	-24.22490000	-14.67150000
95.19999452	0.00000000	-25.84892000	-18.52854000
95.39999451	0.00000000	-28.92470000	-21.96727000
95.59999449	0.00000000	-32.73868000	-24.29257000
95.79999448	0.00000000	-35.81446000	-24.66781000
95.99999447	0.00000000	-37.39542000	-23.17298000
96.19999446	0.00000000	-37.39542000	-20.47859000
96.39999445	0.00000000	-35.81446000	-17.41511000
96.59999444	0.00000000	-32.68946000	-14.72072000
96.79999442	0.00000000	-28.45718000	-13.13976000
96.99999441	0.00000000	-24.26796000	-12.76452000
97.19999440	0.00000000	-21.52436000	-13.55807000
97.39999439	-0.15871060	-20.73080000	-15.83415000
97.59999438	0.00000000	-21.48130000	-18.47933000
97.79999436	0.00000000	-23.84965000	-20.43553000
97.99999435	0.00000000	-27.34375000	-21.59203000
98.19999434	0.00000000	-31.57603000	-21.59203000
98.39999433	0.00000000	-35.43922000	-20.52780000
98.59999432	0.00000000	-37.77067000	-19.36516000
98.79999430	0.00000000	-38.55807000	-18.57160000
98.99999429	0.00000000	-37.35236000	-17.78420000
99.19999428	0.00000000	-34.31963000	-17.40895000
99.39999427	0.00000000	-30.45644000	-17.36589000
99.59999426	0.00000000	-26.96850000	-17.32283000
99.79999425	0.00000000	-24.22490000	-16.94759000
99.99999423	0.00000000	-22.64394000	-16.20325000
100.19999422	0.00000000	-22.31176000	-15.82800000
100.39999421	0.00000000	-23.43750000	-15.78494000
100.59999420	0.00000000	-26.12574000	-15.82800000
100.79999419	0.00000000	-28.83243000	-16.25246000
100.99999417	0.00000000	-31.61909000	-17.40895000
101.19999416	0.00000000	-34.27657000	-18.94685000
101.39999415	0.00000000	-35.81446000	-20.52780000
101.59999414	0.00000000	-35.85752000	-22.01649000
101.79999413	0.00000000	-34.69488000	-22.71161000
101.99999411	0.00000000	-32.78174000	-21.59203000
102.19999410	0.00000000	-30.41338000	-19.32210000
102.39999409	0.00000000	-28.12500000	-16.99065000
102.59999408	0.00000000	-26.18110000	-14.62844000
102.79999407	0.00000000	-25.38755000	-12.76452000
102.99999406	0.00000000	-25.33834000	-11.97711000
103.19999404	0.00000000	-25.80585000	-12.76452000
103.39999403	0.00000000	-27.34375000	-14.72072000
103.59999402	0.00000000	-29.61983000	-17.78420000
103.79999401	0.00000000	-31.57603000	-21.22293000
103.99999400	0.00000000	-33.15699000	-23.54823000
104.19999398	0.00000000	-34.27657000	-24.71087000
104.39999397	0.00000000	-34.27657000	-24.29257000
104.59999396	0.00000000	-33.15699000	-22.01649000
104.79999395	0.00000000	-31.61909000	-18.94685000
104.99999394	0.00000000	-30.03814000	-15.87721000
105.19999392	0.00000000	-28.50024000	-13.55807000
105.39999391	0.00000000	-27.38681000	-12.76452000
105.59999390	0.00000000	-27.34375000	-13.13976000
105.79999389	0.00000000	-28.08194000	-14.67150000
105.99999388	0.00000000	-28.87549000	-16.99065000
106.19999387	0.00000000	-30.03814000	-19.27288000
106.39999385	0.00000000	-31.15157000	-21.22293000
106.59999384	0.00000000	-31.57603000	-21.96727000
106.79999383	0.00000000	-31.57603000	-21.59203000
106.99999382	0.00000000	-31.15157000	-20.06029000
107.19999381	0.00000000	-30.03814000	-17.78420000
107.39999379	0.00000000	-28.92470000	-15.87721000
107.59999378	0.00000000	-28.50024000	-14.67150000
107.79999377	0.00000000	-28.45718000	-14.30241000
107.99999376	0.00000000	-28.50024000	-14.67150000
108.19999375	0.00000000	-28.92470000	-15.87721000
108.39999374	0.00000000	-30.03814000	-17.74114000
108.59999372	0.00000000	-31.15157000	-19.64198000
108.79999371	0.00000000	-31.57603000	-20.43553000
108.99999370	0.00000000	-31.61909000	-20.48474000
109.19999369	0.00000000	-31.57603000	-20.06029000
109.39999368	0.00000000	-31.15157000	-18.90379000
109.59999366	0.00000000	-29.99508000	-17.36589000
109.79999365	0.00000000	-28.59252000	-15.83415000
109.99999364	0.00000000	-28.13730000	-14.72072000
110.19999363	0.00000000	-28.82628000	-14.72072000
110.39999362	0.00000000	-28.83243000	-15.83415000
110.59999360	0.00000000	-28.96776000	-17.36589000
110.79999359	0.00000000	-30.03814000	-18.90379000
110.99999358	0.00000000	-31.20078000	-20.10950000
111.19999357	0.00000000	-31.95128000	-20.85384000
111.39999356	0.00000000	-32.36343000	-21.26599000
111.59999355	0.00000000	-31.95128000	-20.85384000
111.79999353	0.00000000	-31.24384000	-20.10950000
111.99999352	0.00000000	-30.45644000	-18.94685000
112.19999351	0.00000000	-30.08120000	-17.78420000
112.39999350	0.00000000	-29.99508000	-16.99065000
112.59999349	0.00000000	-29.66289000	-16.20325000
112.79999347	0.00000000	-29.29380000	-15.87721000
112.99999346	0.00000000	-29.66289000	-16.20325000
113.19999345	0.00000000	-29.99508000	-16.94759000
113.39999344	0.00000000	-30.03814000	-17.36589000
113.59999343	0.00000000	-30.03814000	-17.78420000
113.79999341	0.00000000	-30.08120000	-18.52854000
113.99999340	0.00000000	-30.45644000	-18.90379000
114.19999339	0.00000000	-31.20078000	-18.98991000
114.39999338	0.00000000	-31.52682000	-19.36516000
114.59999337	0.00000000	-31.20078000	-20.06029000
114.79999336	0.00000000	-30.45644000	-20.06029000
114.99999334	0.00000000	-30.08120000	-19.36516000
115.19999333	0.00000000	-30.03814000	-18.98991000
115.39999332	0.00000000	-30.03814000	-18.90379000
115.59999331	0.00000000	-30.03814000	-18.52854000
115.79999330	0.00000000	-30.03814000	-17.74114000
115.99999328	0.00000000	-30.03814000	-16.99065000
116.19999327	0.00000000	-30.08120000	-16.20325000
116.39999326	0.00000000	-30.45644000	-15.82800000
116.59999325	0.00000000	-31.20078000	-15.82800000
116.79999324	0.00000000	-31.57603000	-16.25246000
116.99999322	0.00000000	-31.57603000	-17.40895000
117.19999321	0.00000000	-31.20078000	-18.90379000
117.39999320	0.00000000	-30.41338000	-20.06029000
117.59999319	0.00000000	-29.66289000	-20.48474000
117.79999318	0.00000000	-28.87549000	-20.52780000
117.99999317	0.00000000	-28.54946000	-20.48474000
118.19999315	0.00000000	-28.87549000	-20.10950000
118.39999314	0.00000000	-29.66289000	-19.32210000
118.59999313	-0.15871060	-30.45644000	-18.52854000
118.79999312	0.00000000	-31.61909000	-17.40895000
118.99999311	0.00000000	-32.73252000	-16.62155000
119.19999309	0.00000000	-33.15699000	-16.61540000
119.39999308	0.00000000	-33.15699000	-16.57849000
119.59999307	0.00000000	-32.73252000	-17.03371000
119.79999306	0.00000000	-31.61909000	-17.74114000
119.99999305	0.00000000	-30.45644000	-18.52854000
120.19999303	0.00000000	-29.61983000	-18.90379000
120.39999302	0.00000000	-28.45718000	-18.98991000
120.59999301	0.00000000	-27.38681000	-19.36516000
120.79999300	0.00000000	-27.38681000	-20.06029000
120.99999299	0.00000000	-28.50024000	-20.06029000
121.19999298	0.00000000	-29.99508000	-19.36516000
121.39999296	0.00000000	-31.20078000	-18.98991000
121.59999295	0.00000000	-31.99434000	-18.94685000
121.79999294	0.00000000	-32.78174000	-18.90379000
121.99999293	0.00000000	-33.15699000	-18.52854000
122.19999292	0.00000000	-33.15699000	-17.78420000
122.39999290	0.00000000	-32.73252000	-17.40895000
122.59999289	0.00000000	-31.61909000	-17.36589000
122.79999288	0.00000000	-30.50566000	-17.36589000
122.99999287	0.00000000	-30.03814000	-17.36589000
123.19999286	0.00000000	-29.61983000	-17.36589000
123.39999284	0.00000000	-28.87549000	-17.40895000
123.59999283	0.00000000	-28.50024000	-17.78420000
123.79999282	0.00000000	-28.50024000	-18.52854000
123.99999281	0.00000000	-28.92470000	-18.90379000
124.19999280	0.00000000	-30.03814000	-18.94685000
124.39999279	-0.15871060	-31.20078000	-18.94685000
124.59999277	0.00000000	-31.99434000	-18.94685000
124.79999276	0.00000000	-32.78174000	-18.90379000
124.99999275	0.00000000	-33.15699000	-18.52854000
125.19999274	0.00000000	-33.15699000	-17.74114000
125.39999273	0.00000000	-32.78174000	-17.03371000
125.59999271	0.00000000	-31.99434000	-16.62155000
125.79999270	0.00000000	-31.20078000	-16.99065000
125.99999269	0.00000000	-30.03814000	-17.32283000
126.19999268	0.00000000	-28.92470000	-17.36589000
126.39999267	0.00000000	-28.50024000	-17.36589000
126.59999265	0.00000000	-28.50024000	-17.40895000
126.79999264	0.00000000	-28.92470000	-17.78420000
126.99999263	0.00000000	-30.03814000	-18.52854000
127.19999262	0.00000000	-31.20078000	-18.90379000
127.39999261	0.00000000	-31.99434000	-18.94685000
127.59999260	0.00000000	-32.78174000	-18.94685000
127.79999258	0.00000000	-33.15699000	-18.94685000
127.99999257	0.00000000	-33.15699000	-18.90379000
128.19999256	0.00000000	-32.73252000	-18.52854000
128.39999255	0.00000000	-31.57603000	-17.78420000
128.59999254	0.00000000	-30.08120000	-17.40895000
128.79999252	0.00000000	-28.92470000	-17.40895000
128.99999251	0.00000000	-28.54946000	-17.78420000
129.19999250	0.00000000	-28.92470000	-18.52854000
129.39999249	0.00000000	-30.03814000	-18.90379000
129.59999248	0.00000000	-31.20078000	-18.94685000
129.79999246	0.00000000	-31.99434000	-18.94685000
129.99999245	0.00000000	-32.78174000	-18.94685000
130.19999244	0.00000000	-33.15699000	-18.94685000
130.39999243	0.00000000	-33.15699000	-18.94685000
130.59999242	0.00000000	-32.78174000	-18.94685000
130.79999241	0.00000000	-31.99434000	-18.94685000
130.99999239	0.00000000	-31.24384000	-18.94685000
131.19999238	0.00000000	-30.45644000	-18.94685000
131.39999237	0.00000000	-30.08120000	-18.94685000
131.59999236	0.00000000	-30.08120000	-18.98991000
131.79999235	0.00000000	-30.45644000	-19.36516000
131.99999233	0.00000000	-31.20078000	-20.10950000
132.19999232	0.00000000	-31.61909000	-20.43553000
132.39999231	0.00000000	-31.99434000	-20.10950000
132.59999230	0.00000000	-32.36343000	-19.36516000
132.79999229	0.00000000	-31.99434000	-18.98991000
132.99999227	0.00000000	-31.66215000	-18.90379000
133.19999226	0.00000000	-31.61909000	-18.52854000
133.39999225	0.00000000	-31.61909000	-17.78420000
133.59999224	0.00000000	-31.61909000	-17.40895000
133.79999223	0.00000000	-31.61909000	-17.40895000
133.99999222	0.00000000	-31.61909000	-17.78420000
134.19999220	0.00000000	-31.61909000	-18.52854000
134.39999219	0.00000000	-31.61909000	-18.94685000
134.59999218	0.00000000	-31.57603000	-19.36516000
134.79999217	0.00000000	-31.20078000	-20.10950000
134.99999216	0.00000000	-30.45644000	-20.43553000
135.19999214	0.00000000	-30.13041000	-20.10950000
135.39999213	0.00000000	-30.45644000	-19.32210000
135.59999212	0.00000000	-31.20078000	-18.57160000
135.79999211	0.00000000	-31.61909000	-17.78420000
135.99999210	0.00000000	-32.03740000	-17.40895000
136.19999208	0.00000000	-32.78174000	-17.36589000
136.39999207	0.00000000	-33.10777000	-17.36589000
136.59999206	0.00000000	-32.78174000	-17.36589000
136.79999205	0.00000000	-32.03740000	-17.40895000
136.99999204	0.00000000	-31.61909000	-17.78420000
137.19999203	0.00000000	-31.20078000	-18.52854000
137.39999201	0.00000000	-30.45644000	-18.90379000
137.59999200	0.00000000	-30.08120000	-18.98991000
137.79999199	0.00000000	-30.03814000	-19.32210000
137.99999198	0.00000000	-30.08120000	-19.69119000
138.19999197	0.00000000	-30.50566000	-19.32210000
138.39999195	0.00000000	-31.61909000	-18.98991000
138.59999194	0.00000000	-32.73252000	-18.90379000
138.79999193	0.00000000	-33.15699000	-18.52854000
138.99999192	0.00000000	-33.15699000	-17.78420000
139.19999191	0.00000000	-32.78174000	-17.40895000
139.39999189	0.00000000	-32.03740000	-17.36589000
139.59999188	0.00000000	-31.61909000	-17.36589000
139.79999187	0.00000000	-31.20078000	-17.40895000
139.99999186	0.00000000	-30.45644000	-17.78420000
140.19999185	0.00000000	-30.13041000	-18.52854000
140.39999184	0.00000000	-30.45644000	-18.94685000
140.59999182	0.00000000	-31.20078000	-19.36516000
140.79999181	0.00000000	-31.57603000	-20.10950000
140.99999180	0.00000000	-31.66215000	-20.48474000
141.19999179	0.00000000	-31.99434000	-20.48474000
141.39999178	0.00000000	-32.36343000	-20.06029000
141.59999176	0.00000000	-31.99434000	-18.94685000
141.79999175	0.00000000	-31.66215000	-17.83341000
141.99999174	0.00000000	-31.61909000	-17.40895000
142.19999173	0.00000000	-31.61909000	-17.36589000
142.39999172	0.00000000	-31.61909000	-17.36589000
142.59999170	0.00000000	-31.61909000	-17.40895000
142.79999169	0.00000000	-31.61909000	-17.83341000
142.99999168	-0.15871060	-31.61909000	-18.94685000
143.19999167	0.00000000	-31.66215000	-20.06029000
143.39999166	0.00000000	-32.03740000	-20.48474000
143.59999165	0.00000000	-32.73252000	-20.52780000
143.79999163	0.00000000	-32.73252000	-20.52780000
143.99999162	0.00000000	-32.03740000	-20.48474000
144.19999161	0.00000000	-31.66215000	-20.10950000
144.39999160	0.00000000	-31.61909000	-19.32210000
144.59999159	0.00000000	-31.61909000	-18.57160000
144.79999157	0.00000000	-31.61909000	-17.78420000
144.99999156	-0.15871060	-31.61909000	-17.45817000
145.19999155	0.00000000	-31.66215000	-17.78420000
145.39999154	0.00000000	-32.03740000	-18.52854000
145.59999153	0.00000000	-32.78174000	-18.94685000
145.79999151	0.00000000	-33.15699000	-19.36516000
145.99999150	0.00000000	-33.20005000	-20.10950000
146.19999149	0.00000000	-33.15699000	-20.48474000
146.39999148	0.00000000	-32.78174000	-20.52780000
146.59999147	0.00000000	-32.03740000	-20.48474000
146.79999146	0.00000000	-31.66215000	-20.10950000
146.99999144	0.00000000	-31.61909000	-19.32210000
147.19999143	0.00000000	-31.61909000	-18.57160000
147.39999142	0.00000000	-31.61909000	-17.83341000
147.59999141	0.00000000	-31.66215000	-17.83341000
147.79999140	0.00000000	-32.03740000	-18.52854000
147.99999138	0.00000000	-32.78174000	-18.90379000
148.19999137	0.00000000	-33.15699000	-18.94685000
148.39999136	0.00000000	-33.20005000	-18.94685000
148.59999135	0.00000000	-33.15699000	-18.98991000
148.79999134	0.00000000	-32.78174000	-19.36516000
148.99999132	0.00000000	-32.03740000	-20.10950000
149.19999131	0.00000000	-31.66215000	-20.43553000
149.39999130	0.00000000	-31.61909000	-20.10950000
149.59999129	0.00000000	-31.61909000	-19.36516000
149.79999128	0.00000000	-31.61909000	-18.98991000
149.99999127	0.00000000	-31.61909000	-18.94685000
150.19999125	0.00000000	-31.61909000	-18.90379000
150.39999124	0.00000000	-31.66215000	-18.52854000
150.59999123	0.00000000	-32.03740000	-17.83341000
150.79999122	0.00000000	-32.78174000	-17.83341000
150.99999121	0.00000000	-33.15699000	-18.52854000
151.19999119	0.00000000	-33.20005000	-18.90379000
151.39999118	0.00000000	-33.20005000	-18.94685000
151.59999117	0.00000000	-33.15699000	-18.94685000
151.79999116	0.00000000	-32.78174000	-18.94685000
151.99999115	0.00000000	-32.03740000	-18.94685000
152.19999113	0.00000000	-31.66215000	-18.94685000
152.39999112	0.00000000	-31.61909000	-18.94685000
152.59999111	0.00000000	-31.61909000	-18.94685000
152.79999110	0.00000000	-31.61909000	-18.94685000
152.99999109	0.00000000	-31.61909000	-18.94685000
153.19999108	0.00000000	-31.61909000	-18.90379000
153.39999106	0.00000000	-31.66215000	-18.52854000
153.59999105	0.00000000	-32.03740000	-17.78420000
153.79999104	0.00000000	-32.78174000	-17.45817000
153.99999103	0.00000000	-33.15699000	-17.78420000
154.19999102	0.00000000	-33.20005000	-18.52854000
154.39999100	0.00000000	-33.20005000	-18.90379000
154.59999099	0.00000000	-33.15699000	-18.94685000
154.79999098	0.00000000	-32.82480000	-18.94685000
154.99999097	0.00000000	-32.41265000	-18.94685000
155.19999096	0.00000000	-32.40649000	-18.94685000
155.39999094	0.00000000	-31.99434000	-18.94685000
155.59999093	0.00000000	-31.66215000	-18.94685000
155.79999092	0.00000000	-31.61909000	-18.94685000
155.99999091	0.00000000	-31.66215000	-18.94685000
156.19999090	0.00000000	-32.03740000	-18.90379000
156.39999089	0.00000000	-32.78174000	-18.57160000
156.59999087	0.00000000	-33.15699000	-18.15945000
156.79999086	0.00000000	-33.20005000	-18.15330000
156.99999085	0.00000000	-33.20005000	-17.78420000
157.19999084	0.00000000	-33.20005000	-17.83341000
157.39999083	0.00000000	-33.20005000	-18.52854000
157.59999081	0.00000000	-33.15699000	-18.94685000
157.79999080	0.00000000	-32.78174000	-19.36516000
157.99999079	0.00000000	-32.03740000	-20.10950000
158.19999078	0.00000000	-31.66215000	-20.48474000
158.39999077	0.00000000	-31.61909000	-20.48474000
158.59999075	0.00000000	-31.61909000	-20.10950000
158.79999074	0.00000000	-31.61909000	-19.36516000
158.99999073	0.00000000	-31.66215000	-18.98991000
159.19999072	0.00000000	-32.03740000	-18.94685000
159.39999071	0.00000000	-32.78174000	-18.90379000
159.59999070	0.00000000	-33.15699000	-18.57160000
159.79999068	0.00000000	-33.20005000	-18.20251000
159.99999067	0.00000000	-33.20005000	-18.57160000
160.19999066	0.00000000	-33.20005000	-18.90379000
160.39999065	0.00000000	-33.20005000	-18.98991000
160.59999064	0.00000000	-33.20005000	-19.32210000
160.79999062	0.00000000	-33.20005000	-19.73425000
160.99999061	0.00000000	-33.20005000	-19.74040000
161.19999060	0.00000000	-33.20005000	-20.15256000
161.39999059	0.00000000	-33.15699000	-20.43553000
161.59999058	0.00000000	-32.78174000	-20.10950000
161.79999056	0.00000000	-32.03740000	-19.36516000
161.99999055	0.00000000	-31.71137000	-18.98991000
162.19999054	0.00000000	-32.03740000	-18.94685000
162.39999053	0.00000000	-32.78174000	-18.94685000
162.59999052	0.00000000	-33.15699000	-18.94685000
162.79999051	0.00000000	-33.20005000	-18.94685000
162.99999049	0.00000000	-33.24311000	-18.94685000
163.19999048	0.00000000	-33.57529000	-18.94685000
163.39999047	0.00000000	-33.94439000	-18.94685000
163.59999046	0.00000000	-33.57529000	-18.94685000
163.79999045	0.00000000	-33.24311000	-18.94685000
163.99999043	0.00000000	-33.20005000	-18.98991000
164.19999042	0.00000000	-33.20005000	-19.32210000
164.39999041	-0.15871060	-33.15699000	-19.69119000
164.59999040	0.00000000	-32.78174000	-19.32210000
164.79999039	0.00000000	-32.08661000	-18.98991000
164.99999037	0.00000000	-32.03740000	-18.94685000
165.19999036	0.00000000	-32.40649000	-18.94685000
165.39999035	0.00000000	-32.41265000	-18.94685000
165.59999034	0.00000000	-32.82480000	-18.94685000
165.79999033	0.00000000	-33.15699000	-18.94685000
165.99999032	0.00000000	-33.20005000	-18.94685000
166.19999030	0.00000000	-33.20005000	-18.94685000
166.39999029	0.00000000	-33.20005000	-18.94685000
166.59999028	-0.15871060	-33.20005000	-18.94685000
166.79999027	0.00000000	-33.20005000	-18.94685000
166.99999026	0.00000000	-33.20005000	-18.94685000
167.19999024	0.00000000	-33.20005000	-18.94685000
167.39999023	0.00000000	-33.20005000	-18.94685000
167.59999022	0.00000000	-33.20005000	-18.94685000
167.79999021	0.00000000	-33.20005000	-18.94685000
167.99999020	0.00000000	-33.20005000	-18.94685000
168.19999018	0.00000000	-33.20005000	-18.94685000
168.39999017	0.00000000	-33.20005000	-18.94685000
168.59999016	0.00000000	-33.20005000	-18.94685000
168.79999015	0.00000000	-33.20005000	-18.94685000
168.99999014	0.00000000	-33.20005000	-18.94685000
169.19999013	0.00000000	-33.20005000	-18.94685000
169.39999011	0.00000000	-33.20005000	-18.94685000
169.59999010	0.00000000	-33.20005000	-18.94685000
169.79999009	0.00000000	-33.20005000	-18.94685000
169.99999008	0.00000000	-33.20005000	-18.94685000
170.19999007	0.00000000	-33.20005000	-18.94685000
170.39999005	0.00000000	-33.20005000	-18.94685000
170.59999004	0.00000000	-33.20005000	-18.94685000
170.79999003	0.00000000	-33.20005000	-18.94685000
170.99999002	0.00000000	-33.20005000	-18.94685000
171.19999001	0.00000000	-33.20005000	-18.94685000
171.39998999	0.00000000	-33.20005000	-18.94685000
171.59998998	0.00000000	-33.20005000	-18.94685000
171.79998997	0.00000000	-33.20005000	-18.94685000
171.99998996	0.00000000	-33.20005000	-18.94685000
172.19998995	0.00000000	-33.20005000	-18.94685000
172.39998994	0.00000000	-33.20005000	-18.94685000
172.59998992	0.00000000	-33.20005000	-18.94685000
172.79998991	0.00000000	-33.20005000	-18.94685000
172.99998990	0.00000000	-33.20005000	-18.94685000
173.19998989	0.00000000	-33.20005000	-18.94685000
173.39998988	0.00000000	-33.20005000	-18.98991000
173.59998986	0.00000000	-33.20005000	-19.32210000
173.79998985	0.00000000	-33.20005000	-19.69119000
173.99998984	0.00000000	-33.20005000	-19.36516000
174.19998983	0.00000000	-33.20005000	-19.36516000
174.39998982	0.00000000	-33.20005000	-19.73425000
174.59998980	0.00000000	-33.20005000	-19.74040000
174.79998979	0.00000000	-33.20005000	-20.15256000
174.99998978	0.00000000	-33.20005000	-20.48474000
175.19998977	0.00000000	-33.20005000	-20.52780000
175.39998976	0.00000000	-33.20005000	-20.48474000
175.59998975	0.00000000	-33.20005000	-20.10950000
175.79998973	0.00000000	-33.20005000	-19.41437000
175.99998972	0.00000000	-33.20005000	-19.41437000
176.19998971	0.00000000	-33.20005000	-20.10950000
176.39998970	0.00000000	-33.20005000	-20.48474000
176.59998969	0.00000000	-33.20005000	-20.52780000
176.79998967	0.00000000	-33.20005000	-20.52780000
176.99998966	0.00000000	-33.20005000	-20.52780000
177.19998965	0.00000000	-33.20005000	-20.52780000
177.39998964	0.00000000	-33.24311000	-20.52780000
177.59998963	0.00000000	-33.57529000	-20.52780000
177.79998961	0.00000000	-33.94439000	-20.52780000
177.99998960	0.00000000	-33.57529000	-20.52780000
178.19998959	0.00000000	-33.24311000	-20.48474000
178.39998958	0.00000000	-33.20005000	-20.15256000
178.59998957	0.00000000	-33.20005000	-19.74040000
178.79998956	0.00000000	-33.20005000	-19.73425000
178.99998954	-0.15871060	-33.20005000	-19.32210000
179.19998953	0.00000000	-33.20005000	-18.98991000
179.39998952	0.00000000	-33.20005000	-18.98991000
179.59998951	0.00000000	-33.20005000	-19.32210000
179.79998950	0.00000000	-33.20005000	-19.69119000
179.99998948	0.00000000	-33.20005000	-19.32210000
180.19998947	0.00000000	-33.20005000	-18.98991000
180.39998946	0.00000000	-33.20005000	-18.98991000
180.59998945	0.00000000	-33.20005000	-19.32210000
180.79998944	0.00000000	-33.20005000	-19.69119000
180.99998942	0.00000000	-33.24311000	-19.32210000
181.19998941	0.00000000	-33.61835000	-18.98991000
181.39998940	0.00000000	-34.31963000	-18.94685000
181.59998939	0.00000000	-34.31963000	-18.94685000
181.79998938	0.00000000	-33.61835000	-18.94685000
181.99998937	0.00000000	-33.24311000	-18.94685000
182.19998935	0.00000000	-33.20005000	-18.98991000
182.39998934	0.00000000	-33.20005000	-19.36516000
182.59998933	0.00000000	-33.20005000	-20.10950000
182.79998932	0.00000000	-33.20005000	-20.48474000
182.99998931	0.00000000	-33.24311000	-20.52780000
183.19998929	0.00000000	-33.61835000	-20.48474000
183.39998928	0.00000000	-34.36884000	-20.10950000
183.59998927	0.00000000	-34.74409000	-19.36516000
183.79998926	0.00000000	-34.78716000	-18.98991000
183.99998925	0.00000000	-34.78716000	-18.94685000
184.19998923	0.00000000	-34.78716000	-18.94685000
184.39998922	0.00000000	-34.74409000	-18.94685000
184.59998921	0.00000000	-34.36884000	-18.94685000
184.79998920	0.00000000	-33.61835000	-18.94685000
184.99998919	0.00000000	-33.24311000	-18.94685000
185.19998918	0.00000000	-33.20005000	-18.94685000
185.39998916	0.00000000	-33.20005000	-18.94685000
185.59998915	0.00000000	-33.20005000	-18.98991000
185.79998914	0.00000000	-33.20005000	-19.36516000
185.99998913	0.00000000	-33.20005000	-20.06029000
186.19998912	0.00000000	-33.20005000	-20.06029000
186.39998910	0.00000000	-33.20005000	-19.36516000
186.59998909	0.00000000	-33.24311000	-18.98991000
186.79998908	0.00000000	-33.61835000	-18.94685000
186.99998907	0.00000000	-34.36884000	-18.94685000
187.19998906	0.00000000	-34.69488000	-18.94685000
187.39998904	0.00000000	-34.36884000	-18.94685000
187.59998903	0.00000000	-33.61835000	-18.94685000
187.79998902	0.00000000	-33.24311000	-18.94685000
187.99998901	0.00000000	-33.20005000	-18.94685000
188.19998900	0.00000000	-33.20005000	-18.98991000
188.39998899	0.00000000	-33.20005000	-19.36516000
188.59998897	0.00000000	-33.20005000	-20.10950000
188.79998896	0.00000000	-33.24311000	-20.48474000
188.99998895	0.00000000	-33.61835000	-20.52780000
189.19998894	0.00000000	-34.36884000	-20.52780000
189.39998893	0.00000000	-34.74409000	-20.52780000
189.59998891	0.00000000	-34.78716000	-20.52780000
189.79998890	0.00000000	-34.78716000	-20.48474000
189.99998889	0.00000000	-34.78716000	-20.15256000
190.19998888	0.00000000	-34.78716000	-19.74040000
190.39998887	0.00000000	-34.78716000	-19.73425000
190.59998885	0.00000000	-34.78716000	-19.36516000
190.79998884	0.00000000	-34.78716000	-19.41437000
190.99998883	-0.15871060	-34.78716000	-20.10950000
191.19998882	0.00000000	-34.78716000	-20.48474000
191.39998881	0.00000000	-34.78716000	-20.52780000
191.59998880	0.00000000	-34.78716000	-20.52780000
191.79998878	0.00000000	-34.78716000	-20.57087000
191.99998877	0.00000000	-34.78716000	-20.90305000
192.19998876	0.00000000	-34.78716000	-21.26599000
192.39998875	0.00000000	-34.78716000	-20.90305000
192.59998874	0.00000000	-34.78716000	-20.57087000
192.79998872	0.00000000	-34.78716000	-20.52780000
192.99998871	0.00000000	-34.78716000	-20.52780000
193.19998870	0.00000000	-34.78716000	-20.52780000
193.39998869	0.00000000	-34.78716000	-20.52780000
193.59998868	0.00000000	-34.78716000	-20.52780000
193.79998866	0.00000000	-34.78716000	-20.52780000
193.99998865	0.00000000	-34.78716000	-20.52780000
194.19998864	0.00000000	-34.78716000	-20.52780000
194.39998863	0.00000000	-34.78716000	-20.52780000
194.59998862	0.00000000	-34.78716000	-20.52780000
194.79998861	0.00000000	-34.78716000	-20.48474000
194.99998859	0.00000000	-34.78716000	-20.15256000
195.19998858	0.00000000	-34.78716000	-19.78346000
195.39998857	0.00000000	-34.78716000	-20.15256000
195.59998856	0.00000000	-34.78716000	-20.48474000
195.79998855	0.00000000	-34.83022000	-20.52780000
195.99998853	0.00000000	-35.16240000	-20.48474000
