Time	Channel A	Channel B	Channel C
(us)	(V)	(mV)	(mV)

-4.53333289	0.00000000	19.01451000	3.15575800
-4.33333290	0.00000000	19.38976000	3.15575800
-4.13333291	0.00000000	20.08489000	3.15575800
-3.93333293	0.00000000	20.08489000	3.15575800
-3.73333294	0.00000000	19.38976000	3.15575800
-3.53333295	0.00000000	19.01451000	3.15575800
-3.33333296	0.00000000	18.97145000	3.15575800
-3.13333297	0.00000000	19.01451000	3.15575800
-2.93333299	0.00000000	19.38976000	3.15575800
-2.73333300	0.00000000	20.08489000	3.15575800
-2.53333301	0.00000000	20.08489000	3.15575800
-2.33333302	0.00000000	19.38976000	3.15575800
-2.13333303	0.00000000	19.01451000	3.15575800
-1.93333304	0.00000000	18.97145000	3.15575800
-1.73333306	0.00000000	18.97145000	3.15575800
-1.53333307	0.00000000	18.97145000	3.15575800
-1.33333308	0.00000000	18.97145000	3.15575800
-1.13333309	0.00000000	18.97145000	3.15575800
-0.93333310	0.00000000	18.97145000	3.15575800
-0.73333312	0.00000000	18.97145000	3.15575800
-0.53333313	0.00000000	18.97145000	3.15575800
-0.33333314	0.15871060	18.97145000	3.15575800
-0.13333315	0.47736220	19.01451000	3.15575800
0.06666684	0.95533960	19.34670000	3.15575800
0.26666682	0.95533960	19.71580000	3.15575800
0.46666681	0.79601380	19.34670000	3.15575800
0.66666680	0.47736220	19.01451000	3.15575800
0.86666679	-0.47736220	18.97145000	3.15575800
1.06666678	-1.43331700	19.01451000	3.15575800
1.26666677	-2.22994600	19.38976000	3.15575800
1.46666675	-2.86724900	20.08489000	3.15575800
1.66666674	-2.54859700	20.08489000	3.15575800
1.86666673	-1.59264300	19.38976000	3.15575800
2.06666672	0.31803640	19.01451000	3.15575800
2.26666671	2.38927200	18.97145000	3.15575800
2.46666669	4.30056600	18.97145000	3.15575800
2.66666668	5.25652100	18.97145000	3.15575800
2.86666667	4.93786900	18.97145000	3.11269700
3.06666666	3.18590100	18.97145000	2.73745100
3.26666665	0.31803640	18.97145000	2.04232300
3.46666663	-3.18590100	18.97145000	2.04232300
3.66666662	-6.21247500	18.97145000	2.73745100
3.86666661	-7.80511800	18.97145000	3.15575800
4.06666660	-7.64579200	19.01451000	3.57406500
4.26666659	-5.41584600	19.34670000	4.26919300
4.46666658	-1.59264300	19.71580000	4.26919300
4.66666656	2.70792300	19.34670000	3.57406500
4.86666655	6.69045300	19.01451000	3.19881900
5.06666654	9.07972400	18.97145000	3.15575800
5.26666653	9.23905000	18.97145000	3.11269700
5.46666652	7.00848900	18.97145000	2.73745100
5.66666650	3.02657500	18.97145000	2.04232300
5.86666649	-1.75196900	18.97145000	2.04232300
6.06666648	-6.21247500	18.97145000	2.73745100
6.26666647	-8.92039900	18.97145000	3.11269700
6.46666646	-9.39837600	18.97145000	3.15575800
6.66666644	-7.64579200	18.97145000	3.19881900
6.86666643	-3.98191400	18.97145000	3.53100400
7.06666642	0.31803640	18.97145000	3.90009800
7.26666641	4.45989200	18.97145000	3.53100400
7.46666640	7.00848900	18.97145000	3.19881900
7.66666639	7.80511800	18.97145000	3.15575800
7.86666637	6.53112700	18.97145000	3.15575800
8.06666636	3.82258900	18.97145000	3.15575800
8.26666635	0.47736220	18.97145000	3.15575800
8.46666634	-2.54859700	18.97145000	3.15575800
8.66666633	-4.61921700	18.97145000	3.15575800
8.86666631	-5.25652100	18.97145000	3.15575800
9.06666630	-4.61921700	18.97145000	3.15575800
9.26666629	-2.86724900	18.97145000	3.15575800
9.46666628	-0.95533960	18.97145000	3.15575800
9.66666627	0.79601380	18.97145000	3.15575800
9.86666625	2.07062000	18.97145000	3.15575800
10.06666624	2.54859700	18.97145000	3.15575800
10.26666623	2.22994600	18.97145000	3.15575800
10.46666622	1.59264300	18.97145000	3.15575800
10.66666621	0.63668800	18.97145000	3.15575800
10.86666620	-0.15871060	18.97145000	3.15575800
11.06666618	-0.63668800	18.97145000	3.15575800
11.26666617	-0.95533960	18.97145000	3.15575800
11.46666616	-0.95533960	18.97145000	3.15575800
11.66666615	-0.79601380	18.97145000	3.15575800
11.86666614	-0.47736220	18.97145000	3.15575800
12.06666612	-0.15871060	18.97145000	3.15575800
12.26666611	-0.15871060	18.97145000	3.15575800
12.46666610	-0.15871060	18.97145000	3.15575800
12.66666609	0.00000000	18.97145000	3.15575800
12.86666608	0.00000000	18.97145000	3.15575800
13.06666606	0.00000000	18.97145000	3.15575800
13.26666605	0.00000000	18.97145000	3.15575800
13.46666604	0.00000000	18.97145000	3.15575800
13.66666603	0.00000000	18.97145000	3.15575800
13.86666602	-0.15871060	18.97145000	3.15575800
14.06666601	-0.15871060	18.97145000	3.15575800
14.26666599	-0.15871060	18.97145000	3.15575800
14.46666598	-0.15871060	18.97145000	3.15575800
14.66666597	-0.15871060	18.97145000	3.15575800
14.86666596	0.00000000	18.97145000	3.15575800
15.06666595	0.00000000	18.97145000	3.15575800
15.26666593	0.00000000	18.97145000	3.15575800
15.46666592	0.00000000	18.97145000	3.15575800
15.66666591	0.00000000	18.97145000	3.15575800
15.86666590	0.00000000	18.97145000	3.15575800
16.06666589	0.00000000	18.97145000	3.15575800
16.26666587	-0.15871060	18.97145000	3.15575800
16.46666586	-0.15871060	18.97145000	3.15575800
16.66666585	-0.15871060	19.01451000	3.15575800
16.86666584	-0.15871060	19.38976000	3.15575800
17.06666583	0.00000000	20.13410000	3.15575800
17.26666582	0.00000000	20.50935000	3.15575800
17.46666580	0.00000000	20.55241000	3.15575800
17.66666579	0.00000000	20.50935000	3.15575800
17.86666578	0.00000000	20.08489000	3.15575800
18.06666577	0.00000000	18.92839000	3.15575800
18.26666576	0.00000000	17.39050000	3.15575800
18.46666574	-0.15871060	15.85261000	3.15575800
18.66666573	0.00000000	14.69611000	3.15575800
18.86666572	-0.15871060	14.27165000	3.15575800
19.06666571	-0.15871060	14.32087000	3.15575800
19.26666570	0.00000000	15.20054000	3.15575800
19.46666568	0.00000000	17.90108000	3.15575800
19.66666567	0.00000000	21.75812000	3.15575800
19.86666566	0.00000000	25.62746000	3.15575800
20.06666565	0.00000000	29.10925000	3.15575800
20.26666564	0.00000000	30.93012000	3.15575800
20.46666563	0.00000000	30.13656000	3.15575800
20.66666561	0.00000000	26.23031000	3.15575800
20.86666560	0.00000000	20.04183000	3.15575800
21.06666559	0.00000000	12.64764000	3.15575800
21.26666558	0.00000000	5.33956700	3.15575800
21.46666557	-0.15871060	-0.00615157	3.11269700
21.66666555	0.00000000	-1.50098400	2.78051200
21.86666554	0.00000000	1.66092500	2.41141700
22.06666553	0.00000000	9.47957600	2.73745100
22.26666552	0.00000000	21.10605000	2.73745100
22.46666551	0.00000000	34.18430000	2.41141700
22.66666549	0.00000000	45.30634000	2.78051200
22.86666548	0.00000000	51.03346000	3.11269700
23.06666547	0.00000000	49.45251000	3.15575800
23.26666546	0.00000000	40.51427000	3.19881900
23.46666545	0.00000000	25.76895000	3.57406500
23.66666544	0.00000000	7.99704600	4.31840500
23.86666542	-0.15871060	-8.98129900	4.69365100
24.06666541	0.00000000	-20.85384000	4.69365100
24.26666540	0.00000000	-24.24335000	4.26919300
24.46666539	0.00000000	-17.22441000	3.11269700
24.66666538	0.00000000	-1.03346500	1.57480300
24.86666536	0.00000000	20.60162000	0.00000000
25.06666535	0.00000000	42.65502000	-1.53174200
25.26666534	0.00000000	60.38385000	-2.64517700
25.46666533	-0.15871060	69.59277000	-2.60211600
25.66666532	0.00000000	67.18134000	-1.07037400
25.86666530	0.00000000	53.30954000	1.66707700
26.06666529	0.00000000	30.93012000	5.19808000
26.26666528	0.00000000	5.85014700	9.43036400
26.46666527	0.00000000	-16.24631000	13.18898000
26.66666526	0.00000000	-30.85630000	14.72687000
26.86666525	0.00000000	-34.29503000	13.56422000
27.06666523	0.00000000	-25.04306000	10.03322000
27.26666522	0.00000000	-5.81938900	4.18307100
27.46666521	0.00000000	18.51009000	-3.15575800
27.66666520	0.00000000	42.14444000	-10.45152000
27.86666519	0.00000000	60.29158000	-15.79109000
28.06666517	-0.15871060	69.17445000	-17.28592000
28.26666516	0.00000000	66.15403000	-14.16708000
28.46666515	0.00000000	53.07578000	-6.78518600
28.66666514	0.00000000	33.34769000	3.66633800
28.86666513	0.00000000	10.96826000	15.23130000
29.06666511	0.00000000	-8.38459600	25.27067000
29.26666510	0.00000000	-20.80462000	31.36073000
29.46666509	0.00000000	-24.33563000	31.72982000
29.66666508	0.00000000	-18.19636000	25.46137000
29.86666507	0.00000000	-4.74901600	13.88410000
30.06666506	0.00000000	12.64764000	-1.20570900
30.26666504	0.00000000	30.09350000	-16.21555000
30.46666503	0.00000000	44.05143000	-27.78666000
30.66666502	0.00000000	52.18996000	-33.16929000
30.86666501	0.00000000	52.61442000	-30.85015000
31.06666500	0.00000000	45.77386000	-21.55512000
31.26666498	0.00000000	34.18430000	-6.83439900
31.46666497	0.00000000	20.60162000	10.54380000
31.66666496	0.00000000	7.43110200	26.71629000
31.86666495	0.00000000	-2.61441900	37.95522000
32.06666494	0.00000000	-7.31422200	41.81841000
32.26666492	0.00000000	-6.19463500	37.95522000
32.46666491	0.00000000	-0.04921259	26.71629000
32.66666490	0.00000000	9.62106200	10.49459000
32.86666489	0.00000000	20.41708000	-7.25270600
33.06666488	0.00000000	30.13656000	-22.71777000
33.26666487	0.00000000	36.70644000	-32.38804000
33.46666485	0.00000000	39.07480000	-34.75024000
33.66666484	0.00000000	36.74950000	-29.31840000
33.86666483	0.00000000	30.60408000	-17.37205000
34.06666482	0.00000000	22.13336000	-1.53174200
34.26666481	0.00000000	13.66880000	14.68381000
34.46666479	0.00000000	7.48031400	27.87278000
34.66666478	0.00000000	4.73671200	35.58686000
34.86666477	-0.15871060	5.85014700	36.33120000
35.06666476	0.00000000	10.03937000	29.40452000
35.26666475	0.00000000	15.85261000	16.76919000
35.46666473	0.00000000	21.99803000	2.08538400
35.66666472	0.00000000	26.97465000	-11.43578000
35.86666471	0.00000000	28.93085000	-21.09375000
36.06666470	0.00000000	27.81127000	-24.58169000
36.26666469	0.00000000	24.36639000	-21.55512000
36.46666468	0.00000000	19.34670000	-13.05364000
36.66666466	0.00000000	14.40699000	-1.15649600
36.86666465	0.00000000	10.88213000	11.10359000
37.06666464	-0.15871060	9.75639700	19.98031000
37.26666463	0.00000000	10.88213000	23.51132000
37.46666462	0.00000000	14.36393000	21.60433000
37.66666460	0.00000000	18.92839000	14.67766000
37.86666459	0.00000000	23.20374000	4.77977300
38.06666458	0.00000000	26.32259000	-4.82898600
38.26666457	0.00000000	27.86048000	-11.34350000
38.46666456	0.00000000	27.43602000	-13.28740000
38.66666454	0.00000000	24.74163000	-9.80561000
38.86666453	0.00000000	20.50935000	-2.18380900
39.06666452	0.00000000	15.90182000	7.38188900
39.26666451	0.00000000	11.99557000	15.74803000
39.46666450	0.00000000	9.66412400	19.98031000
39.66666449	0.00000000	8.87672100	18.86688000
39.86666447	0.00000000	10.08243000	13.10285000
40.06666446	0.00000000	13.11516000	4.27534400
40.26666445	0.00000000	17.01525000	-5.29650500
40.46666444	0.00000000	20.92766000	-12.59227000
40.66666443	0.00000000	24.78469000	-15.66191000
40.86666441	0.00000000	27.48524000	-13.70571000
41.06666440	0.00000000	28.27879000	-6.82824800
41.26666439	0.00000000	27.52830000	2.73745100
41.46666438	0.00000000	25.15994000	11.98942000
41.66666437	0.00000000	21.66585000	18.90994000
41.86666435	0.00000000	17.39050000	21.60433000
42.06666434	0.00000000	13.20128000	19.32825000
42.26666433	0.00000000	10.45768000	13.19513000
42.46666432	0.00000000	9.66412400	4.73671200
42.66666431	0.00000000	10.41462000	-3.71555100
42.86666430	0.00000000	12.73991000	-9.89788300
43.06666428	0.00000000	15.80955000	-12.63533000
43.26666427	0.00000000	18.87918000	-11.52190000
43.46666426	0.00000000	21.24754000	-7.29576700
43.66666425	0.00000000	22.46555000	-1.15649600
43.86666424	0.00000000	23.24680000	5.38262700
44.06666422	0.00000000	23.20374000	10.40846000
44.26666421	0.00000000	22.13336000	13.14591000
44.46666420	0.00000000	21.01993000	13.14591000
44.66666419	0.00000000	20.59547000	10.49459000
44.86666418	0.00000000	20.55241000	6.31151500
45.06666416	0.00000000	20.50935000	2.08538400
45.26666415	0.00000000	20.08489000	-1.02116100
45.46666414	0.00000000	18.87918000	-2.64517700
45.66666413	0.00000000	16.92298000	-3.02042300
45.86666412	0.00000000	14.18553000	-2.27608300
46.06666411	0.00000000	11.15896000	-0.33218500
46.26666409	0.00000000	8.87672100	1.95004900
46.46666408	0.00000000	8.55068800	4.31840500
46.66666407	0.00000000	10.50689000	6.22539300
46.86666406	0.00000000	14.78223000	7.38188900
47.06666405	0.00000000	20.59547000	7.38188900
47.26666403	0.00000000	26.78395000	6.22539300
47.46666402	0.00000000	32.13582000	4.31840500
47.66666401	0.00000000	34.75024000	1.95004900
47.86666400	0.00000000	33.21235000	-0.33218500
48.06666399	0.00000000	27.81742000	-2.22687000
48.26666397	0.00000000	20.08489000	-2.60211600
48.46666396	0.00000000	11.57726000	-1.48868100
48.66666395	0.00000000	4.26919300	0.46751960
48.86666394	0.00000000	0.03690945	3.19881900
49.06666393	0.00000000	0.07997046	6.26845500
49.26666392	0.00000000	4.73671200	8.91978400
49.46666390	0.00000000	13.20128000	10.07628000
49.66666389	0.00000000	23.20374000	9.33809000
49.86666388	0.00000000	32.04970000	7.38188900
50.06666387	0.00000000	37.48769000	4.26919300
50.26666386	0.00000000	38.23819000	0.41830710
50.46666384	0.00000000	34.37500000	-3.02042300
50.66666383	0.00000000	26.27953000	-5.33956700
50.86666382	0.00000000	16.32013000	-5.71481200
51.06666381	0.00000000	7.43110200	-4.18307100
51.26666380	0.00000000	1.66092500	-1.07037400
51.46666379	0.00000000	0.50442900	3.15575800
51.66666377	0.00000000	4.31840500	7.38188900
51.86666376	0.00000000	11.62032000	10.45152000
52.06666375	0.00000000	20.46014000	11.65723000
52.26666374	0.00000000	28.55561000	10.86983000
52.46666373	0.00000000	33.49532000	8.54453700
52.66666371	0.00000000	33.95054000	4.69365100
52.86666370	0.00000000	29.72441000	0.51058070
53.06666369	0.00000000	22.87770000	-2.60211600
53.26666368	0.00000000	15.11442000	-4.14000900
53.46666367	0.00000000	8.63681000	-3.80782500
53.66666365	0.00000000	5.15501900	-1.90698800
53.86666364	0.00000000	5.89936000	0.41830710
54.06666363	0.00000000	10.08243000	3.11269700
54.26666362	0.00000000	16.22785000	5.38262700
54.46666361	0.00000000	22.78543000	6.17618100
54.66666360	0.00000000	27.76821000	5.85014700
54.86666358	0.00000000	30.08735000	4.68750000
55.06666357	0.00000000	28.93085000	3.15575800
55.26666356	0.00000000	24.74163000	1.66707700
55.46666355	0.00000000	18.97145000	0.92888770
55.66666354	0.00000000	13.20128000	1.66707700
55.86666352	0.00000000	8.96899500	3.15575800
56.06666351	0.00000000	7.43110200	4.68750000
56.26666350	0.00000000	8.96899500	5.85014700
56.46666349	0.00000000	13.15822000	6.17618100
56.66666348	0.00000000	18.50394000	5.38262700
56.86666346	0.00000000	23.16068000	3.06348400
57.06666345	0.00000000	26.27953000	0.04306102
57.26666344	0.00000000	27.43602000	-2.64517700
57.46666343	0.00000000	26.27953000	-4.18307100
57.66666342	0.00000000	23.20374000	-4.14000900
57.86666341	0.00000000	19.01451000	-2.14074800
58.06666339	0.00000000	15.15748000	2.04232300
58.26666338	0.00000000	12.82603000	7.00664300
58.46666337	0.00000000	11.99557000	10.86983000
58.66666336	0.00000000	12.78297000	13.18898000
58.86666335	0.00000000	14.69611000	13.10285000
59.06666333	0.00000000	17.39050000	10.03322000
59.26666332	0.00000000	20.08489000	4.64443900
59.46666331	0.00000000	21.99803000	-1.53174200
59.66666330	0.00000000	22.78543000	-7.24655500
59.86666329	0.00000000	22.04109000	-10.68528000
60.06666327	0.00000000	20.55241000	-10.31619000
60.26666326	0.00000000	18.97145000	-6.87130900
60.46666325	0.00000000	17.43356000	-1.02116100
60.66666324	0.00000000	16.32013000	6.26845500
60.86666323	0.00000000	16.32013000	13.14591000
61.06666322	0.00000000	17.39050000	17.37205000
61.26666320	0.00000000	18.55315000	17.79035000
61.46666319	0.00000000	19.30364000	14.67766000
61.66666318	0.00000000	19.71580000	8.50147600
61.86666317	0.00000000	19.30364000	0.46751960
62.06666316	0.00000000	18.59621000	-6.82824800
62.26666314	0.00000000	17.76575000	-11.52190000
62.46666313	0.00000000	17.01525000	-13.05364000
62.66666312	0.00000000	16.22785000	-11.10359000
62.86666311	0.00000000	15.90182000	-5.71481200
63.06666310	0.00000000	16.27707000	1.58095500
63.26666308	0.00000000	17.43356000	8.91978400
63.46666307	0.00000000	18.97145000	14.72687000
63.66666306	0.00000000	20.46014000	17.79035000
63.86666305	0.00000000	21.24754000	17.42126000
64.06666304	0.00000000	20.88459000	13.56422000
64.26666303	0.00000000	20.13410000	7.43110200
64.46666301	0.00000000	18.92839000	0.51058070
64.66666300	0.00000000	17.43356000	-5.29650500
64.86666299	0.00000000	16.27707000	-8.82750900
65.06666298	0.00000000	15.85261000	-10.03322000
65.26666297	0.00000000	15.90182000	-8.82750900
65.46666295	0.00000000	16.69537000	-5.38262700
65.66666294	0.00000000	18.50394000	-0.41830710
65.86666293	0.00000000	19.66658000	4.22613100
66.06666292	0.00000000	19.72195000	7.80019600
66.26666291	0.00000000	19.71580000	10.53765000
66.46666289	0.00000000	18.87918000	12.07554000
66.66666288	0.00000000	17.43356000	12.07554000
66.86666287	0.00000000	16.22785000	10.53765000
67.06666286	0.00000000	15.47736000	7.84940900
67.26666285	0.00000000	15.15748000	4.73671200
67.46666284	0.00000000	16.32013000	1.58095500
67.66666282	0.00000000	18.59621000	-1.53174200
67.86666281	0.00000000	20.88459000	-4.26919300
68.06666280	0.00000000	22.82849000	-6.17618100
68.26666279	0.00000000	23.53592000	-6.92052100
68.46666278	0.00000000	22.78543000	-5.75787400
68.66666276	0.00000000	20.41708000	-3.06348400
68.86666275	0.00000000	16.97219000	0.46751960
69.06666274	-0.15871060	13.11516000	4.73671200
69.26666273	0.00000000	10.03937000	8.96284400
69.46666272	0.00000000	8.50147600	12.07554000
69.66666270	0.00000000	8.96899500	13.61343000
69.86666269	0.00000000	12.03863000	13.18898000
70.06666268	0.00000000	17.01525000	10.45152000
70.26666267	0.00000000	22.04109000	5.85014700
70.46666266	0.00000000	26.32259000	0.41830710
70.66666265	0.00000000	29.01698000	-4.55831700
70.86666263	0.00000000	29.39222000	-8.03395600
71.06666262	0.00000000	27.43602000	-8.82750900
71.26666261	0.00000000	23.16068000	-7.29576700
71.46666260	0.00000000	17.39050000	-3.80782500
71.66666259	0.00000000	11.62032000	1.19955700
71.86666257	0.00000000	7.34498000	6.17618100
72.06666256	0.00000000	5.43184000	10.07628000
72.26666255	0.00000000	6.22539300	11.98327000
72.46666254	0.00000000	10.03937000	11.65723000
72.66666253	0.00000000	15.43430000	9.33809000
72.86666251	0.00000000	20.88459000	5.89320800
73.06666250	0.00000000	25.90428000	2.04232300
73.26666249	0.00000000	28.97392000	-0.97810030
73.46666248	0.00000000	29.39222000	-2.22687000
73.66666247	0.00000000	27.48524000	-1.85777500
73.86666246	0.00000000	23.57899000	-0.73818890
74.06666244	0.00000000	18.59621000	1.15649600
74.26666243	0.00000000	13.61959000	2.64517700
74.46666242	0.00000000	10.50689000	3.06348400
74.66666241	0.00000000	9.66412400	2.73745100
74.86666240	0.00000000	10.41462000	1.95004900
75.06666238	0.00000000	12.73991000	1.19955700
75.26666237	0.00000000	15.80955000	0.46136810
75.46666236	0.00000000	18.92839000	0.51058070
75.66666235	0.00000000	21.62278000	1.66707700
75.86666234	0.00000000	23.16068000	3.61712600
76.06666232	0.00000000	23.20374000	6.26845500
76.26666231	0.00000000	22.09030000	8.54453700
76.46666230	0.00000000	20.55241000	9.24581600
76.66666229	0.00000000	19.01451000	8.12622900
76.86666228	0.00000000	17.85802000	5.01968500
77.06666227	0.00000000	17.43356000	1.20570900
77.26666225	0.00000000	17.43356000	-2.69439000
77.46666224	0.00000000	17.76575000	-5.75787400
77.66666223	0.00000000	18.13484000	-7.24655500
77.86666222	0.00000000	17.72268000	-6.45300100
78.06666221	0.00000000	16.97219000	-3.02042300
78.26666219	0.00000000	15.85261000	1.57480300
78.46666218	0.00000000	15.11442000	6.26845500
78.66666217	0.00000000	15.47736000	10.49459000
78.86666216	0.00000000	16.22785000	13.14591000
79.06666215	0.00000000	17.48277000	13.18898000
79.26666213	0.00000000	19.38976000	10.86983000
79.46666212	0.00000000	21.66585000	7.00664300
79.66666211	0.00000000	23.16068000	1.99311000
79.86666210	-0.15871060	23.20374000	-2.60211600
80.06666209	0.00000000	22.04109000	-5.71481200
80.26666208	0.00000000	20.08489000	-6.92052100
80.46666206	0.00000000	17.39050000	-6.17618100
80.66666205	0.00000000	14.69611000	-4.26919300
80.86666204	0.00000000	12.78297000	-1.48868100
81.06666203	0.00000000	11.99557000	1.95004900
81.26666202	0.00000000	12.78297000	5.43184000
81.46666200	0.00000000	14.69611000	7.80019600
81.66666199	0.00000000	17.43356000	9.38115100
81.86666198	0.00000000	20.46014000	10.11934000
82.06666197	0.00000000	22.78543000	9.33809000
82.26666196	0.00000000	23.53592000	7.47416300
82.46666194	0.00000000	22.82849000	5.11195900
82.66666193	0.00000000	20.88459000	2.73745100
82.86666192	0.00000000	18.59621000	0.00000000
83.06666191	0.00000000	16.27707000	-2.69439000
83.26666190	0.00000000	14.73917000	-4.60137700
83.46666189	0.00000000	14.32087000	-5.38262700
83.66666187	0.00000000	14.69611000	-4.60137700
83.86666186	0.00000000	15.85261000	-2.69439000
84.06666185	0.00000000	17.34744000	0.09227362
84.26666184	0.00000000	18.50394000	3.57406500
84.46666183	0.00000000	18.92839000	7.42495000
84.66666181	0.00000000	18.97145000	10.45152000
84.86666180	0.00000000	18.97145000	11.60802000
85.06666179	0.00000000	18.97145000	10.49459000
85.26666178	0.00000000	18.97145000	7.80019600
85.46666177	0.00000000	18.97145000	4.26919300
85.66666175	0.00000000	18.97145000	0.00000000
85.86666174	0.00000000	18.97145000	-4.18307100
86.06666173	0.00000000	18.92839000	-6.87746000
86.26666172	0.00000000	18.55315000	-7.24655500
86.46666171	0.00000000	17.76575000	-5.33956700
86.66666170	-0.15871060	16.97219000	-1.48868100
86.86666168	0.00000000	15.85261000	3.11269700
87.06666167	0.00000000	15.11442000	7.38188900
87.26666166	0.00000000	15.47736000	10.45152000
87.46666165	0.00000000	16.22785000	11.60802000
87.66666164	0.00000000	17.43356000	10.45152000
87.86666162	0.00000000	18.92839000	7.38188900
88.06666161	0.00000000	20.08489000	3.11269700
88.26666160	0.00000000	20.50935000	-1.48868100
88.46666159	0.00000000	20.50935000	-5.29650500
88.66666158	0.00000000	20.08489000	-6.82824800
88.86666156	0.00000000	18.92839000	-5.71481200
89.06666155	0.00000000	17.43356000	-2.64517700
89.26666154	0.00000000	16.27707000	1.62401600
89.46666153	0.00000000	15.85261000	6.21924200
89.66666152	0.00000000	15.85261000	10.03322000
89.86666151	0.00000000	16.22785000	11.56496000
90.06666149	0.00000000	17.01525000	10.45152000
90.26666148	0.00000000	17.76575000	7.38188900
90.46666147	0.00000000	18.55315000	3.11269700
90.66666146	0.00000000	18.92839000	-1.48868100
90.86666145	0.00000000	18.97145000	-5.29650500
91.06666143	0.00000000	18.92839000	-6.82824800
91.26666142	0.00000000	18.59621000	-5.67175200
91.46666141	0.00000000	18.22711000	-2.22687000
91.66666140	0.00000000	18.59621000	2.78051200
91.86666139	0.00000000	18.92839000	7.71407400
92.06666137	0.00000000	18.97145000	11.18971000
92.26666136	0.00000000	18.97145000	11.94021000
92.46666135	0.00000000	18.92839000	10.07628000
92.66666134	0.00000000	18.50394000	6.21924200
92.86666133	0.00000000	17.34744000	1.62401600
93.06666132	0.00000000	15.85261000	-2.64517700
93.26666130	0.00000000	14.69611000	-5.67175200
93.46666129	0.00000000	14.32087000	-6.45300100
93.66666128	0.00000000	14.69611000	-4.55831700
93.86666127	0.00000000	15.90182000	-1.11343500
94.06666126	0.00000000	17.80881000	3.15575800
94.26666124	0.00000000	20.13410000	7.33882900
94.46666123	0.00000000	22.04109000	9.98400600
94.66666122	0.00000000	23.20374000	10.03322000
94.86666121	0.00000000	23.20374000	7.75713500
95.06666120	0.00000000	22.04109000	4.31840500
95.26666118	0.00000000	20.04183000	0.46751960
95.46666117	0.00000000	16.97219000	-2.60211600
95.66666116	0.00000000	13.53346000	-4.14000900
95.86666115	0.00000000	11.20202000	-3.76476400
96.06666114	0.00000000	10.03937000	-1.48868100
96.26666113	0.00000000	10.45768000	1.58095500
96.46666111	0.00000000	12.78297000	4.64443900
96.66666110	0.00000000	16.22785000	6.96358300
96.86666109	0.00000000	20.13410000	7.75713500
97.06666108	0.00000000	23.57899000	7.38188900
97.26666107	0.00000000	25.90428000	5.80093500
97.46666105	0.00000000	26.27953000	3.19881900
97.66666104	0.00000000	24.78469000	0.87967510
97.86666103	0.00000000	22.04109000	-0.32603340
98.06666102	0.00000000	18.55315000	-1.11343500
98.26666101	0.00000000	14.69611000	-1.06422200
98.46666099	0.00000000	11.57726000	0.00000000
98.66666098	0.00000000	9.66412400	1.15649600
98.86666097	0.00000000	9.30118100	1.95004900
99.06666096	0.00000000	11.20202000	2.73745100
99.26666095	0.00000000	14.27165000	3.11269700
99.46666094	0.00000000	17.80881000	3.15575800
99.66666092	0.00000000	21.62278000	3.19881900
99.86666091	0.00000000	24.32333000	3.57406500
100.06666090	0.00000000	25.15994000	4.31840500
100.26666089	0.00000000	24.78469000	4.69365100
100.46666088	0.00000000	23.20374000	4.69365100
100.66666086	0.00000000	20.50935000	4.26919300
100.86666085	0.00000000	17.43356000	3.11269700
101.06666084	0.00000000	14.69611000	1.57480300
101.26666083	0.00000000	12.73991000	0.00000000
101.46666082	0.00000000	11.53420000	-1.48868100
101.66666080	0.00000000	11.20202000	-2.22687000
101.86666079	0.00000000	11.99557000	-1.48868100
102.06666078	0.00000000	14.32087000	0.04306102
102.26666077	-0.15871060	17.34744000	2.04232300
102.46666076	0.00000000	20.04183000	4.73671200
102.66666075	0.00000000	21.62278000	7.38188900
102.86666073	0.00000000	22.04109000	8.87672100
103.06666072	0.00000000	21.66585000	8.54453700
103.26666071	0.00000000	20.50935000	6.64370100
103.46666070	0.00000000	18.97145000	4.31840500
103.66666069	0.00000000	17.39050000	1.53174200
103.86666067	0.00000000	15.80955000	-1.48868100
104.06666066	0.00000000	14.32087000	-3.76476400
104.26666065	0.00000000	13.53346000	-4.14000900
104.46666064	0.00000000	13.94562000	-2.69439000
104.66666063	0.00000000	15.02214000	-0.37524600
104.86666061	0.00000000	16.59695000	1.99311000
105.06666060	0.00000000	17.76575000	4.68750000
105.26666059	0.00000000	18.97145000	6.96358300
105.46666058	-0.15871060	20.04183000	7.71407400
105.66666057	0.00000000	20.08489000	7.01279500
105.86666056	0.00000000	19.34670000	5.06274600
106.06666054	0.00000000	18.55315000	2.78051200
106.26666053	0.00000000	17.34744000	0.46751960
106.46666052	0.00000000	15.90182000	-1.06422200
106.66666051	0.00000000	15.11442000	-1.48253000
106.86666050	0.00000000	15.47736000	-1.06422200
107.06666048	0.00000000	16.22785000	0.46751960
107.26666047	0.00000000	17.43356000	2.73745100
107.46666046	0.00000000	18.87918000	4.64443900
107.66666045	0.00000000	19.66658000	5.80093500
107.86666044	0.00000000	19.30364000	5.80093500
108.06666042	0.00000000	18.55315000	4.68750000
108.26666041	0.00000000	17.39050000	3.15575800
108.46666040	0.00000000	16.22785000	1.57480300
108.66666039	0.00000000	15.43430000	0.09227362
108.86666038	0.00000000	14.69611000	-0.69512790
109.06666037	0.00000000	14.73917000	-0.32603340
109.26666035	0.00000000	15.85261000	0.46136810
109.46666034	0.00000000	17.34744000	1.99311000
109.66666033	0.00000000	18.55315000	3.90009800
109.86666032	0.00000000	19.30364000	5.01968500
110.06666031	0.00000000	19.71580000	5.47490100
110.26666029	0.00000000	19.34670000	5.06274600
110.46666028	0.00000000	18.97145000	4.31840500
110.66666027	0.00000000	18.50394000	3.11269700
110.86666026	0.00000000	17.39050000	1.57480300
111.06666025	0.00000000	16.27707000	0.09227362
111.26666023	0.00000000	15.85261000	-0.69512790
111.46666022	0.00000000	15.85261000	-0.32603340
111.66666021	0.00000000	16.22785000	0.37524600
111.86666020	0.00000000	16.97219000	1.19955700
112.06666019	0.00000000	17.34744000	1.95004900
112.26666018	0.00000000	17.43356000	2.78051200
112.46666016	0.00000000	17.80881000	3.53100400
112.66666015	0.00000000	18.55315000	4.26919300
112.86666014	0.00000000	18.87918000	4.26919300
113.06666013	0.00000000	18.55315000	3.57406500
113.26666012	0.00000000	17.80881000	3.15575800
113.46666010	0.00000000	17.43356000	2.73745100
113.66666009	0.00000000	17.39050000	1.99311000
113.86666008	0.00000000	17.39050000	1.61786400
114.06666007	0.00000000	17.39050000	1.53174200
114.26666006	0.00000000	17.39050000	1.15649600
114.46666004	0.00000000	17.39050000	0.41830710
114.66666003	0.00000000	17.39050000	0.04306102
114.86666002	0.00000000	17.39050000	0.00000000
115.06666001	0.00000000	17.39050000	0.04306102
115.26666000	0.00000000	17.39050000	0.41830710
115.46665999	0.00000000	17.39050000	1.19955700
115.66665997	0.00000000	17.39050000	1.99311000
115.86665996	0.00000000	17.43356000	3.15575800
116.06665995	0.00000000	17.76575000	4.26919300
116.26665994	0.00000000	18.13484000	4.69365100
116.46665993	0.00000000	17.72268000	4.69365100
116.66665991	0.00000000	17.01525000	4.31840500
116.86665990	0.00000000	16.27707000	3.53100400
117.06665989	0.00000000	16.27707000	2.73745100
117.26665988	0.00000000	16.97219000	1.53174200
117.46665987	0.00000000	17.39050000	0.09227362
117.66665985	0.00000000	17.80881000	-0.69512790
117.86665984	0.00000000	18.55315000	-0.37524600
118.06665983	0.00000000	18.92839000	0.00000000
118.26665982	0.00000000	18.92839000	0.46136810
118.46665981	0.00000000	18.50394000	1.57480300
118.66665980	0.00000000	17.34744000	2.73745100
118.86665978	0.00000000	15.85261000	3.53100400
119.06665977	0.00000000	14.69611000	4.31840500
119.26665976	0.00000000	14.32087000	4.69365100
119.46665975	0.00000000	14.64690000	4.69365100
119.66665974	0.00000000	15.43430000	4.31840500
119.86665972	0.00000000	16.22785000	3.53100400
120.06665971	0.00000000	17.43356000	2.78051200
120.26665970	0.00000000	18.92839000	1.99311000
120.46665969	0.00000000	20.08489000	1.61786400
120.66665968	0.00000000	20.46014000	1.57480300
120.86665966	0.00000000	20.08489000	1.57480300
121.06665965	0.00000000	18.97145000	1.57480300
121.26665964	0.00000000	17.80881000	1.57480300
121.46665963	0.00000000	16.97219000	1.57480300
121.66665962	0.00000000	15.80955000	1.61786400
121.86665961	0.00000000	14.69611000	1.99311000
122.06665959	0.00000000	14.32087000	2.73745100
122.26665958	0.00000000	14.69611000	3.11269700
122.46665957	0.00000000	15.80955000	3.15575800
122.66665956	0.00000000	16.97219000	3.15575800
122.86665955	0.00000000	17.76575000	3.15575800
123.06665953	0.00000000	18.59621000	3.15575800
123.26665952	0.00000000	19.34670000	3.11269700
123.46665951	0.00000000	20.08489000	2.73745100
123.66665950	0.00000000	20.08489000	1.99311000
123.86665949	0.00000000	19.34670000	1.61786400
124.06665947	0.00000000	18.55315000	1.57480300
124.26665946	0.00000000	17.39050000	1.57480300
124.46665945	0.00000000	16.27707000	1.57480300
124.66665944	0.00000000	15.80955000	1.57480300
124.86665943	0.00000000	15.39124000	1.57480300
125.06665942	0.00000000	14.69611000	1.61786400
125.26665940	0.00000000	14.69611000	1.99311000
125.46665939	0.00000000	15.43430000	2.73745100
125.66665938	0.00000000	16.22785000	3.11269700
125.86665937	0.00000000	17.39050000	3.15575800
126.06665936	0.00000000	18.50394000	3.15575800
126.26665934	0.00000000	18.92839000	3.11269700
126.46665933	0.00000000	18.97145000	2.73745100
126.66665932	0.00000000	18.92839000	1.99311000
126.86665931	0.00000000	18.55315000	1.61786400
127.06665930	0.00000000	17.76575000	1.57480300
127.26665928	0.00000000	16.97219000	1.53174200
127.46665927	0.00000000	15.80955000	1.19955700
127.66665926	0.00000000	14.69611000	0.83661410
127.86665925	0.00000000	14.32087000	1.19955700
128.06665924	0.00000000	14.69611000	1.57480300
128.26665923	0.00000000	15.85261000	1.99311000
128.46665921	0.00000000	17.34744000	2.73745100
128.66665920	0.00000000	18.50394000	3.11269700
128.86665919	0.00000000	18.92839000	3.11269700
129.06665918	0.00000000	18.97145000	2.73745100
129.26665917	0.00000000	18.92839000	1.99311000
129.46665915	0.00000000	18.50394000	1.61786400
129.66665914	0.00000000	17.34744000	1.57480300
129.86665913	0.00000000	15.90182000	1.57480300
130.06665912	0.00000000	15.06521000	1.57480300
130.26665911	-0.15871060	15.05905000	1.61786400
130.46665909	0.00000000	15.06521000	1.99311000
130.66665908	0.00000000	15.85261000	2.73745100
130.86665907	0.00000000	16.97219000	3.11269700
131.06665906	0.00000000	17.76575000	3.11269700
131.26665905	0.00000000	18.55315000	2.73745100
131.46665904	0.00000000	18.87918000	1.99311000
131.66665902	0.00000000	18.55315000	1.61786400
131.86665901	0.00000000	17.80881000	1.53174200
132.06665900	0.00000000	17.39050000	1.15649600
132.26665899	0.00000000	16.97219000	0.46136810
132.46665898	0.00000000	16.22785000	0.46136810
132.66665896	0.00000000	15.85261000	1.15649600
132.86665895	0.00000000	15.85261000	1.57480300
133.06665894	0.00000000	16.22785000	2.04232300
133.26665893	0.00000000	16.97219000	3.15575800
133.46665892	0.00000000	17.34744000	4.22613100
133.66665890	0.00000000	17.39050000	4.26919300
133.86665889	0.00000000	17.39050000	3.53100400
134.06665888	0.00000000	17.39050000	2.78051200
134.26665887	0.00000000	17.39050000	1.95004900
134.46665886	0.00000000	17.39050000	1.19955700
134.66665885	0.00000000	17.39050000	0.41830710
134.86665883	0.00000000	17.39050000	0.04306102
135.06665882	0.00000000	17.39050000	0.04306102
135.26665881	0.00000000	17.39050000	0.41830710
135.46665880	0.00000000	17.39050000	1.19955700
135.66665879	0.00000000	17.34744000	1.95004900
135.86665877	0.00000000	16.97219000	2.73745100
136.06665876	0.00000000	16.22785000	3.11269700
136.26665875	0.00000000	15.85261000	3.15575800
136.46665874	0.00000000	15.80955000	3.15575800
136.66665873	0.00000000	15.85261000	3.11269700
136.86665871	0.00000000	16.22785000	2.73745100
137.06665870	0.00000000	16.97219000	1.99311000
137.26665869	0.00000000	17.39050000	1.57480300
137.46665868	0.00000000	17.80881000	1.15649600
137.66665867	0.00000000	18.55315000	0.46136810
137.86665866	0.00000000	18.87918000	0.41830710
138.06665864	0.00000000	18.55315000	0.78124990
138.26665863	0.00000000	17.76575000	0.79355310
138.46665862	0.00000000	16.97219000	1.19955700
138.66665861	0.00000000	15.85261000	1.57480300
138.86665860	0.00000000	15.11442000	1.99311000
139.06665858	0.00000000	15.43430000	2.73745100
139.26665857	0.00000000	15.80955000	3.11269700
139.46665856	0.00000000	16.22785000	3.15575800
139.66665855	0.00000000	16.97219000	3.15575800
139.86665854	0.00000000	17.34744000	3.11269700
140.06665852	0.00000000	17.39050000	2.73745100
140.26665851	0.00000000	17.39050000	1.95004900
140.46665850	0.00000000	17.39050000	1.19955700
140.66665849	0.00000000	17.34744000	0.41830710
140.86665848	0.00000000	16.97219000	0.04306102
141.06665847	0.00000000	16.22785000	0.04306102
141.26665845	0.00000000	15.85261000	0.46136810
141.46665844	0.00000000	15.85261000	1.57480300
141.66665843	0.00000000	16.22785000	2.68823800
141.86665842	0.00000000	16.97219000	3.11269700
142.06665841	0.00000000	17.34744000	3.19881900
142.26665839	0.00000000	17.39050000	3.53100400
142.46665838	0.00000000	17.39050000	3.85088600
142.66665837	0.00000000	17.39050000	3.11269700
142.86665836	0.00000000	17.34744000	2.04232300
143.06665835	0.00000000	17.01525000	1.57480300
143.26665834	0.00000000	16.60310000	1.15649600
143.46665832	0.00000000	16.59695000	0.41830710
143.66665831	0.00000000	16.22785000	0.09227362
143.86665830	0.00000000	16.27707000	0.41830710
144.06665829	0.00000000	16.97219000	1.19955700
144.26665828	0.00000000	17.34744000	1.95004900
144.46665826	0.00000000	17.39050000	2.73745100
144.66665825	0.00000000	17.39050000	3.11269700
144.86665824	0.00000000	17.39050000	3.15575800
145.06665823	0.00000000	17.39050000	3.15575800
145.26665822	0.00000000	17.34744000	3.11269700
145.46665820	0.00000000	16.97219000	2.73745100
145.66665819	0.00000000	16.22785000	1.99311000
145.86665818	0.00000000	15.85261000	1.61786400
146.06665817	0.00000000	15.85261000	1.57480300
146.26665816	0.00000000	16.22785000	1.57480300
146.46665815	0.00000000	16.97219000	1.57480300
146.66665813	0.00000000	17.34744000	1.61786400
146.86665812	0.00000000	17.39050000	1.95004900
147.06665811	0.00000000	17.39050000	2.36220500
147.26665810	0.00000000	17.39050000	2.36835600
147.46665809	0.00000000	17.39050000	2.78051200
147.66665807	0.00000000	17.34744000	3.11269700
147.86665806	0.00000000	16.97219000	3.11269700
148.06665805	0.00000000	16.22785000	2.73745100
148.26665804	0.00000000	15.85261000	1.99311000
148.46665803	0.00000000	15.80955000	1.61786400
148.66665801	0.00000000	15.85261000	1.57480300
148.86665800	0.00000000	16.22785000	1.57480300
149.06665799	0.00000000	16.97219000	1.57480300
149.26665798	0.00000000	17.34744000	1.57480300
149.46665797	0.00000000	17.39050000	1.57480300
149.66665796	0.00000000	17.39050000	1.57480300
149.86665794	0.00000000	17.39050000	1.61786400
150.06665793	0.00000000	17.39050000	1.99311000
150.26665792	0.00000000	17.39050000	2.73745100
150.46665791	0.00000000	17.39050000	3.11269700
150.66665790	0.00000000	17.34744000	3.11269700
150.86665788	0.00000000	16.97219000	2.73745100
151.06665787	0.00000000	16.22785000	1.99311000
151.26665786	0.00000000	15.85261000	1.61786400
151.46665785	0.00000000	15.80955000	1.57480300
151.66665784	0.00000000	15.85261000	1.57480300
151.86665782	0.00000000	16.22785000	1.57480300
152.06665781	0.00000000	16.97219000	1.57480300
152.26665780	0.00000000	17.34744000	1.57480300
152.46665779	0.00000000	17.39050000	1.57480300
152.66665778	0.00000000	17.39050000	1.57480300
152.86665777	0.00000000	17.39050000	1.57480300
153.06665775	0.00000000	17.39050000	1.61786400
153.26665774	0.00000000	17.34744000	1.99311000
153.46665773	0.00000000	16.97219000	2.73745100
153.66665772	0.00000000	16.22785000	3.11269700
153.86665771	0.00000000	15.85261000	3.15575800
154.06665769	0.00000000	15.80955000	3.15575800
154.26665768	0.00000000	15.80955000	3.11269700
154.46665767	-0.15871060	15.85261000	2.73745100
154.66665766	0.00000000	16.22785000	1.99311000
154.86665765	0.00000000	16.97219000	1.61786400
155.06665763	0.00000000	17.34744000	1.57480300
155.26665762	0.00000000	17.39050000	1.57480300
155.46665761	0.00000000	17.39050000	1.57480300
155.66665760	0.00000000	17.39050000	1.57480300
155.86665759	0.00000000	17.39050000	1.57480300
156.06665758	0.00000000	17.34744000	1.61786400
156.26665756	0.00000000	16.97219000	1.99311000
156.46665755	0.00000000	16.22785000	2.73745100
156.66665754	0.00000000	15.85261000	3.11269700
156.86665753	0.00000000	15.80955000	3.15575800
157.06665752	-0.15871060	15.80955000	3.15575800
157.26665750	0.00000000	15.80955000	3.11269700
157.46665749	0.00000000	15.80955000	2.73745100
157.66665748	0.00000000	15.85261000	1.99311000
157.86665747	0.00000000	16.22785000	1.61786400
158.06665746	0.00000000	16.97219000	1.57480300
158.26665744	0.00000000	17.34744000	1.57480300
158.46665743	0.00000000	17.39050000	1.57480300
158.66665742	0.00000000	17.39050000	1.57480300
158.86665741	0.00000000	17.39050000	1.61786400
159.06665740	0.00000000	17.39050000	1.99311000
159.26665739	0.00000000	17.34744000	2.73745100
159.46665737	-0.15871060	16.97219000	3.11269700
159.66665736	0.00000000	16.22785000	3.15575800
159.86665735	0.00000000	15.85261000	3.15575800
160.06665734	0.00000000	15.80955000	3.11269700
160.26665733	0.00000000	15.80955000	2.73745100
160.46665731	0.00000000	15.80955000	1.99311000
160.66665730	0.00000000	15.80955000	1.61786400
160.86665729	0.00000000	15.85261000	1.57480300
161.06665728	0.00000000	16.22785000	1.57480300
161.26665727	0.00000000	16.97219000	1.57480300
161.46665725	0.00000000	17.34744000	1.57480300
161.66665724	0.00000000	17.39050000	1.57480300
161.86665723	0.00000000	17.39050000	1.57480300
162.06665722	0.00000000	17.39050000	1.61786400
162.26665721	0.00000000	17.39050000	1.95004900
162.46665720	0.00000000	17.34744000	2.31914400
162.66665718	0.00000000	16.97219000	1.99311000
162.86665717	0.00000000	16.22785000	1.99311000
163.06665716	0.00000000	15.85261000	2.31914400
163.26665715	0.00000000	15.80955000	1.95004900
163.46665714	0.00000000	15.80955000	1.61786400
163.66665712	0.00000000	15.80955000	1.57480300
163.86665711	0.00000000	15.80955000	1.57480300
164.06665710	0.00000000	15.85261000	1.57480300
164.26665709	0.00000000	16.22785000	1.57480300
164.46665708	0.00000000	16.97219000	1.57480300
164.66665706	0.00000000	17.34744000	1.57480300
164.86665705	0.00000000	17.39050000	1.57480300
165.06665704	0.00000000	17.39050000	1.57480300
165.26665703	0.00000000	17.34744000	1.57480300
165.46665702	0.00000000	16.97219000	1.57480300
165.66665701	0.00000000	16.22785000	1.57480300
165.86665699	0.00000000	15.85261000	1.57480300
166.06665698	0.00000000	15.80955000	1.57480300
166.26665697	0.00000000	15.80955000	1.57480300
166.46665696	0.00000000	15.80955000	1.57480300
166.66665695	0.00000000	15.80955000	1.57480300
166.86665693	0.00000000	15.80955000	1.57480300
167.06665692	0.00000000	15.85261000	1.57480300
167.26665691	0.00000000	16.22785000	1.57480300
167.46665690	0.00000000	16.97219000	1.57480300
167.66665689	0.00000000	17.29823000	1.57480300
167.86665687	0.00000000	16.97219000	1.57480300
168.06665686	0.00000000	16.27707000	1.57480300
168.26665685	0.00000000	16.27707000	1.57480300
168.46665684	0.00000000	16.92298000	1.57480300
168.66665683	0.00000000	16.92298000	1.57480300
168.86665682	0.00000000	16.22785000	1.57480300
169.06665680	0.00000000	15.85261000	1.57480300
169.26665679	0.00000000	15.80955000	1.57480300
169.46665678	0.00000000	15.80955000	1.57480300
169.66665677	0.00000000	15.80955000	1.57480300
169.86665676	0.00000000	15.80955000	1.57480300
170.06665674	0.00000000	15.80955000	1.57480300
170.26665673	0.00000000	15.80955000	1.57480300
170.46665672	0.00000000	15.80955000	1.57480300
170.66665671	0.00000000	15.85261000	1.57480300
170.86665670	0.00000000	16.22785000	1.57480300
171.06665668	0.00000000	16.92298000	1.57480300
171.26665667	0.00000000	16.97219000	1.57480300
171.46665666	0.00000000	16.64616000	1.57480300
171.66665665	0.00000000	16.97219000	1.57480300
171.86665664	0.00000000	16.92298000	1.57480300
172.06665663	0.00000000	16.22785000	1.57480300
172.26665661	0.00000000	15.85261000	1.57480300
172.46665660	0.00000000	15.80955000	1.57480300
172.66665659	0.00000000	15.80955000	1.57480300
172.86665658	0.00000000	15.80955000	1.57480300
173.06665657	0.00000000	15.85261000	1.57480300
173.26665655	0.00000000	16.22785000	1.57480300
173.46665654	0.00000000	16.92298000	1.57480300
173.66665653	0.00000000	16.92298000	1.57480300
173.86665652	0.00000000	16.22785000	1.57480300
174.06665651	0.00000000	15.90182000	1.57480300
174.26665649	0.00000000	16.18479000	1.57480300
174.46665648	0.00000000	16.55389000	1.57480300
174.66665647	0.00000000	16.18479000	1.57480300
174.86665646	0.00000000	15.85261000	1.57480300
175.06665645	0.00000000	15.80955000	1.57480300
175.26665644	0.00000000	15.85261000	1.57480300
175.46665642	0.00000000	16.18479000	1.57480300
175.66665641	0.00000000	16.55389000	1.57480300
175.86665640	0.00000000	16.18479000	1.57480300
176.06665639	0.00000000	15.85261000	1.57480300
176.26665638	0.00000000	15.80955000	1.57480300
176.46665636	0.00000000	15.80955000	1.57480300
176.66665635	0.00000000	15.80955000	1.57480300
176.86665634	0.00000000	15.80955000	1.57480300
177.06665633	0.00000000	15.80955000	1.57480300
177.26665632	0.00000000	15.80955000	1.57480300
177.46665630	0.00000000	15.80955000	1.57480300
177.66665629	0.00000000	15.80955000	1.57480300
177.86665628	0.00000000	15.80955000	1.57480300
178.06665627	0.00000000	15.80955000	1.57480300
178.26665626	0.00000000	15.80955000	1.57480300
178.46665625	0.00000000	15.80955000	1.57480300
178.66665623	0.00000000	15.80955000	1.57480300
178.86665622	0.00000000	15.80955000	1.57480300
179.06665621	0.00000000	15.80955000	1.57480300
179.26665620	0.00000000	15.80955000	1.57480300
179.46665619	0.00000000	15.80955000	1.57480300
179.66665617	0.00000000	15.80955000	1.57480300
179.86665616	0.00000000	15.80955000	1.57480300
180.06665615	0.00000000	15.80955000	1.57480300
180.26665614	0.00000000	15.80955000	1.57480300
180.46665613	0.00000000	15.80955000	1.57480300
180.66665611	0.00000000	15.80955000	1.57480300
180.86665610	0.00000000	15.80955000	1.57480300
181.06665609	0.00000000	15.80955000	1.57480300
181.26665608	0.00000000	15.80955000	1.57480300
181.46665607	0.00000000	15.80955000	1.57480300
181.66665606	0.00000000	15.80955000	1.57480300
181.86665604	0.00000000	15.80955000	1.57480300
182.06665603	0.00000000	15.80955000	1.57480300
182.26665602	0.00000000	15.80955000	1.57480300
182.46665601	0.00000000	15.85261000	1.57480300
182.66665600	0.00000000	16.18479000	1.57480300
182.86665598	0.00000000	16.55389000	1.57480300
183.06665597	0.00000000	16.18479000	1.57480300
183.26665596	0.00000000	15.85261000	1.57480300
183.46665595	0.00000000	15.80955000	1.57480300
183.66665594	0.00000000	15.80955000	1.57480300
183.86665592	0.00000000	15.80955000	1.61786400
184.06665591	0.00000000	15.80955000	1.99311000
184.26665590	0.00000000	15.80955000	2.73745100
184.46665589	0.00000000	15.80955000	3.11269700
184.66665588	0.00000000	15.80955000	3.15575800
184.86665587	0.00000000	15.80955000	3.11269700
185.06665585	0.00000000	15.80955000	2.73745100
185.26665584	0.00000000	15.80955000	1.99311000
185.46665583	0.00000000	15.80955000	1.61786400
185.66665582	0.00000000	15.80955000	1.53174200
185.86665581	0.00000000	15.80955000	1.19955700
186.06665579	0.00000000	15.80955000	0.83661410
186.26665578	0.00000000	15.80955000	1.19955700
186.46665577	0.00000000	15.80955000	1.53174200
186.66665576	0.00000000	15.80955000	1.57480300
186.86665575	0.00000000	15.80955000	1.61786400
187.06665573	0.00000000	15.80955000	1.99311000
187.26665572	0.00000000	15.80955000	2.73745100
187.46665571	0.00000000	15.80955000	3.11269700
187.66665570	0.00000000	15.80955000	3.11269700
187.86665569	0.00000000	15.80955000	2.73745100
188.06665568	0.00000000	15.80955000	1.99311000
188.26665566	-0.15871060	15.85261000	1.61786400
188.46665565	0.00000000	16.22785000	1.57480300
188.66665564	0.00000000	16.92298000	1.57480300
188.86665563	0.00000000	16.92298000	1.57480300
189.06665562	0.00000000	16.22785000	1.57480300
189.26665560	0.00000000	15.85261000	1.57480300
189.46665559	0.00000000	15.80955000	1.57480300
189.66665558	0.00000000	15.80955000	1.57480300
189.86665557	0.00000000	15.80955000	1.57480300
190.06665556	0.00000000	15.80955000	1.57480300
190.26665554	0.00000000	15.80955000	1.57480300
190.46665553	0.00000000	15.80955000	1.57480300
190.66665552	0.00000000	15.80955000	1.57480300
190.86665551	0.00000000	15.80955000	1.57480300
191.06665550	0.00000000	15.80955000	1.57480300
191.26665549	0.00000000	15.80955000	1.57480300
191.46665547	0.00000000	15.80955000	1.57480300
191.66665546	0.00000000	15.80955000	1.57480300
191.86665545	0.00000000	15.80955000	1.57480300
192.06665544	0.00000000	15.80955000	1.57480300
192.26665543	0.00000000	15.80955000	1.57480300
192.46665541	0.00000000	15.80955000	1.57480300
192.66665540	0.00000000	15.80955000	1.57480300
192.86665539	0.00000000	15.80955000	1.57480300
193.06665538	0.00000000	15.80955000	1.57480300
193.26665537	0.00000000	15.80955000	1.57480300
193.46665535	0.00000000	15.80955000	1.57480300
193.66665534	0.00000000	15.80955000	1.57480300
193.86665533	0.00000000	15.80955000	1.57480300
194.06665532	0.00000000	15.80955000	1.57480300
194.26665531	0.00000000	15.80955000	1.57480300
194.46665530	0.00000000	15.80955000	1.57480300
194.66665528	0.00000000	15.80955000	1.57480300
194.86665527	0.00000000	15.80955000	1.57480300
195.06665526	0.00000000	15.80955000	1.57480300
195.26665525	0.00000000	15.80955000	1.57480300
195.46665524	0.00000000	15.80955000	1.57480300
195.66665522	0.00000000	15.80955000	1.57480300
195.86665521	0.00000000	15.80955000	1.57480300
196.06665520	0.00000000	15.80955000	1.57480300
