Time	Channel A	Channel B	Channel C
(us)	(V)	(mV)	(mV)

-4.59999956	0.00000000	7.90477300	6.31151500
-4.39999957	0.00000000	7.90477300	6.31151500
-4.19999958	0.00000000	7.90477300	6.31151500
-3.99999959	0.00000000	7.90477300	6.31151500
-3.79999960	0.00000000	7.90477300	6.31151500
-3.59999962	0.00000000	7.90477300	6.31151500
-3.39999963	0.00000000	7.90477300	6.31151500
-3.19999964	0.00000000	7.90477300	6.31151500
-2.99999965	0.00000000	7.86171200	6.31151500
-2.79999966	0.00000000	7.52952700	6.31151500
-2.59999968	0.00000000	7.16043300	6.31151500
-2.39999969	0.00000000	7.52952700	6.31151500
-2.19999970	0.00000000	7.86171200	6.31151500
-1.99999971	0.00000000	7.86171200	6.31151500
-1.79999972	0.00000000	7.48646600	6.31151500
-1.59999973	0.00000000	6.74212600	6.31151500
-1.39999975	0.00000000	6.41609200	6.31151500
-1.19999976	0.00000000	6.74212600	6.31151500
-0.99999977	0.00000000	7.43725300	6.31151500
-0.79999978	0.00000000	7.43725300	6.31151500
-0.59999979	0.00000000	6.74212600	6.31151500
-0.39999981	0.00000000	6.41609200	6.31151500
-0.19999982	0.47736220	6.74212600	6.31151500
0.00000017	0.79601380	7.48646600	6.31151500
0.20000016	0.95533960	7.86171200	6.31151500
0.40000015	0.95533960	7.86171200	6.26845500
0.60000013	0.63668800	7.52952700	5.93626900
0.80000012	0.00000000	7.11737200	5.57332700
1.00000011	-0.79601380	7.15428100	5.93626900
1.20000010	-1.91129400	7.11737200	6.26845500
1.40000009	-2.54859700	7.52952700	6.31151500
1.60000008	-2.70792300	7.81250000	6.31151500
1.80000006	-2.07062000	7.52952700	6.31151500
2.00000005	-0.63668800	7.16043300	6.31151500
2.20000004	1.27399100	7.52952700	6.31151500
2.40000003	3.34522600	7.81250000	6.31151500
2.60000002	4.93786900	7.48646600	6.26845500
2.80000000	5.25652100	6.74212600	5.89320800
2.99999999	4.30056600	6.36687900	5.15501900
3.19999998	1.91129400	6.32381900	4.77977300
3.39999997	-1.27399100	6.36687900	4.77977300
3.59999996	-4.77854300	6.74212600	5.15501900
3.79999994	-7.16781500	7.48646600	5.89320800
3.99999993	-7.96444400	7.86171200	6.31151500
4.19999992	-6.84916400	7.90477300	6.68676100
4.39999991	-3.82258900	7.90477300	7.05585600
4.59999990	0.63668800	7.90477300	6.68676100
4.79999989	4.93786900	7.86171200	6.35457700
4.99999987	8.12377000	7.48646600	6.31151500
5.19999986	9.55770200	6.74212600	6.26845500
5.39999985	8.44242100	6.36687900	5.89320800
5.59999984	5.09719500	6.32381900	5.15501900
5.79999983	0.63668800	6.36687900	4.77977300
5.99999981	-4.14124000	6.74212600	4.77977300
6.19999980	-7.80511800	7.48646600	5.15501900
6.39999979	-9.39837600	7.86171200	5.89320800
6.59999978	-8.76107300	7.90477300	6.26845500
6.79999977	-5.89382400	7.90477300	6.31151500
6.99999975	-1.75196900	7.90477300	6.31151500
7.19999974	2.54859700	7.90477300	6.31151500
7.39999973	5.89382400	7.86171200	6.31151500
7.59999972	7.64579200	7.52952700	6.26845500
7.79999971	7.32714100	7.11737200	5.89320800
7.99999970	5.25652100	7.11122000	5.19808000
8.19999968	2.22994600	6.69906400	5.19808000
8.39999967	-0.95533960	6.36687900	5.89320800
8.59999966	-3.66326300	6.36687900	6.26845500
8.79999965	-5.09719500	6.69906400	6.31151500
8.99999964	-4.93786900	7.06815900	6.31151500
9.19999962	-3.82258900	6.74212600	6.31151500
9.39999961	-1.91129400	6.74212600	6.31151500
9.59999960	0.00000000	7.11122000	6.31151500
9.79999959	1.59264300	7.07431000	6.31151500
9.99999958	2.38927200	7.15428100	6.31151500
10.19999956	2.54859700	7.07431000	6.31151500
10.39999955	1.91129400	7.11122000	6.31151500
10.59999954	1.11466500	6.74212600	6.31151500
10.79999953	0.15871060	6.79133800	6.31151500
10.99999952	-0.47736220	7.43725300	6.31151500
11.19999951	-0.79601380	7.43725300	6.31151500
11.39999949	-0.95533960	6.79133800	6.31151500
11.59999948	-0.95533960	6.79133800	6.31151500
11.79999947	-0.63668800	7.48646600	6.31151500
11.99999946	-0.31803640	7.81250000	6.31151500
12.19999945	-0.15871060	7.52952700	6.31151500
12.39999943	-0.15871060	7.16043300	6.31151500
12.59999942	0.00000000	7.52952700	6.31151500
12.79999941	0.00000000	7.86171200	6.31151500
12.99999940	0.00000000	7.86171200	6.31151500
13.19999939	0.00000000	7.48646600	6.31151500
13.39999937	0.00000000	6.74212600	6.31151500
13.59999936	0.00000000	6.36687900	6.31151500
13.79999935	0.00000000	6.32381900	6.31151500
13.99999934	-0.15871060	6.36687900	6.31151500
14.19999933	-0.15871060	6.69906400	6.31151500
14.39999932	-0.15871060	7.06815900	6.31151500
14.59999930	0.00000000	6.69906400	6.31151500
14.79999929	0.00000000	6.36687900	6.31151500
14.99999928	0.00000000	6.36687900	6.31151500
15.19999927	0.00000000	6.69906400	6.31151500
15.39999926	0.00000000	7.06815900	6.31151500
15.59999924	0.00000000	6.69906400	6.31151500
15.79999923	0.00000000	6.36687900	6.31151500
15.99999922	0.00000000	6.32381900	6.31151500
16.19999921	0.00000000	6.32381900	6.31151500
16.39999920	-0.15871060	6.36687900	6.31151500
16.59999919	0.00000000	6.74212600	6.31151500
16.79999917	-0.15871060	7.48646600	6.31151500
16.99999916	0.00000000	7.90477300	6.31151500
17.19999915	0.00000000	8.32308000	6.31151500
17.39999914	0.00000000	9.06742000	6.31151500
17.59999913	0.00000000	9.39345400	6.31151500
17.79999911	0.00000000	9.06742000	6.31151500
17.99999910	0.00000000	8.28001900	6.31151500
18.19999909	0.00000000	7.48646600	6.31151500
18.39999908	0.00000000	6.23154500	6.31151500
18.59999907	0.00000000	4.36761800	6.31151500
18.79999905	0.00000000	2.46678100	6.31151500
18.99999904	-0.15871060	1.71628900	6.31151500
19.19999903	0.00000000	2.09153500	6.31151500
19.39999902	0.00000000	3.71555100	6.31151500
19.59999901	0.00000000	6.83439900	6.31151500
19.79999900	0.00000000	11.06668000	6.31151500
19.99999898	0.00000000	15.25591000	6.31151500
20.19999897	0.00000000	17.99951000	6.31151500
20.39999896	0.00000000	18.70079000	6.31151500
20.59999895	0.00000000	17.11368000	6.31151500
20.79999894	0.00000000	12.42003000	6.31151500
20.99999892	0.00000000	5.85629900	6.31151500
21.19999891	0.00000000	-1.53789400	6.31151500
21.39999890	0.00000000	-8.46456700	6.31151500
21.59999889	0.00000000	-12.98597000	6.31151500
21.79999888	0.00000000	-13.30585000	6.31151500
21.99999886	0.00000000	-8.24311000	6.31151500
22.19999885	0.00000000	1.06422200	6.31151500
22.39999884	0.00000000	13.06594000	6.31151500
22.59999883	0.00000000	25.39370000	6.31151500
22.79999882	0.00000000	34.61491000	6.31151500
22.99999881	0.00000000	38.42889000	6.31151500
23.19999879	0.00000000	35.21776000	6.35457700
23.39999878	0.00000000	24.74778000	6.72982200
23.59999877	0.00000000	8.88902600	7.47416300
23.79999876	0.00000000	-8.88902600	7.84940900
23.99999875	0.00000000	-24.66166000	7.89247000
24.19999873	0.00000000	-34.24581000	7.84940900
24.39999872	0.00000000	-34.57800000	7.42495000
24.59999871	0.00000000	-25.26452000	6.26845500
24.79999870	0.00000000	-7.82480200	4.73671200
24.99999869	0.00000000	14.18553000	3.15575800
25.19999867	0.00000000	35.77140000	1.62401600
25.39999866	0.00000000	51.59325000	0.51058070
25.59999865	0.00000000	57.73868000	0.55364170
25.79999864	0.00000000	52.66363000	2.12844500
25.99999863	0.00000000	36.79872000	5.24729300
26.19999862	0.00000000	13.63189000	9.47342500
26.39999860	0.00000000	-11.44808000	13.69956000
26.59999859	0.00000000	-32.66486000	16.76919000
26.79999858	0.00000000	-44.62352000	17.88263000
26.99999857	0.00000000	-44.66658000	16.30167000
27.19999856	0.00000000	-33.08317000	12.03248000
27.39999854	0.00000000	-12.61073000	5.80708600
27.59999853	0.00000000	12.09400000	-1.58095500
27.79999852	0.00000000	35.26698000	-8.82750900
27.99999851	0.00000000	51.50098000	-13.79798000
28.19999850	0.00000000	57.36343000	-14.49926000
28.39999848	0.00000000	52.01156000	-10.63607000
28.59999847	0.00000000	37.35236000	-2.46678100
28.79999846	0.00000000	16.83686000	8.35998900
28.99999845	0.00000000	-5.16732200	19.97416000
29.19999844	0.00000000	-23.73277000	29.95817000
29.39999843	0.00000000	-34.62106000	35.67913000
29.59999841	0.00000000	-36.20201000	35.21161000
29.79999840	0.00000000	-28.51870000	27.82972000
29.99999839	0.00000000	-13.49655000	14.72687000
30.19999838	0.00000000	4.69980300	-1.11343500
30.39999837	0.00000000	22.51476000	-16.12328000
30.59999835	0.00000000	36.42347000	-26.94390000
30.79999834	0.00000000	43.03642000	-30.80709000
30.99999833	0.00000000	41.59080000	-27.27608000
31.19999832	0.00000000	33.12008000	-16.40010000
31.39999831	0.00000000	19.99877000	0.17839570
31.59999829	0.00000000	5.29650500	18.30093000
31.79999828	0.00000000	-7.91092400	34.14124000
31.99999827	0.00000000	-17.21826000	44.18061000
32.19999826	0.00000000	-21.07529000	46.13066000
32.39999825	0.00000000	-18.42397000	39.95448000
32.59999824	0.00000000	-10.37771000	26.80241000
32.79999822	0.00000000	0.46751960	9.43036400
32.99999821	0.00000000	12.09400000	-8.36614100
33.19999820	0.00000000	22.09646000	-23.04995000
33.39999819	0.00000000	27.90969000	-31.55143000
33.59999818	0.00000000	28.37721000	-31.96973000
33.79999816	0.00000000	24.13878000	-24.62475000
33.99999815	0.00000000	16.46161000	-11.10359000
34.19999814	0.00000000	7.20964500	5.89320800
34.39999813	0.00000000	-0.89197830	22.48400000
34.59999812	0.00000000	-6.32997000	35.26082000
34.79999810	0.00000000	-7.86786400	41.44316000
34.99999809	0.00000000	-5.21653500	39.90526000
35.19999808	0.00000000	0.51058070	31.02854000
35.39999807	0.00000000	7.43725300	16.81225000
35.59999806	0.00000000	13.58268000	1.01501000
35.79999805	0.00000000	17.48893000	-12.50615000
35.99999803	0.00000000	18.23942000	-21.05069000
36.19999802	0.00000000	15.95103000	-22.95768000
36.39999801	0.00000000	10.97441000	-18.02411000
36.59999800	0.00000000	5.25344500	-7.62180000
36.79999799	0.00000000	0.59670270	5.01968500
36.99999797	0.00000000	-2.09768700	17.00295000
37.19999796	0.00000000	-2.14074800	25.04306000
37.39999795	0.00000000	0.17839570	27.41142000
37.59999794	0.00000000	4.04773600	23.60359000
37.79999793	0.00000000	9.06742000	15.18824000
37.99999791	0.00000000	13.67495000	4.87204700
38.19999790	0.00000000	16.79380000	-4.36761800
38.39999789	0.00000000	17.90723000	-9.71948700
38.59999788	0.00000000	16.36934000	-10.12549000
38.79999787	0.00000000	12.55536000	-5.16117100
38.99999786	0.00000000	7.90477300	3.24803100
39.19999784	0.00000000	3.25418300	12.45079000
39.39999783	0.00000000	-0.60900590	20.06643000
39.59999782	0.00000000	-2.51599400	23.13607000
39.79999781	0.00000000	-2.18996000	20.85999000
39.99999780	0.00000000	0.09227362	14.30241000
40.19999778	0.00000000	3.20497000	4.73671200
40.39999777	0.00000000	6.74212600	-4.82898600
40.59999776	0.00000000	10.59916000	-11.34350000
40.79999775	0.00000000	13.67495000	-13.28740000
40.99999774	0.00000000	15.29897000	-9.80561000
41.19999772	0.00000000	15.67421000	-2.14074800
41.39999771	0.00000000	14.88066000	7.84940900
41.59999770	0.00000000	12.55536000	17.42126000
41.79999769	0.00000000	9.48572700	23.60359000
41.99999768	0.00000000	6.32381900	25.17839000
42.19999767	0.00000000	3.25418300	22.06570000
42.39999765	0.00000000	0.92888770	14.81299000
42.59999764	0.00000000	0.13533460	5.61638700
42.79999763	0.00000000	0.51058070	-2.46678100
42.99999762	0.00000000	2.04847400	-7.94783400
43.19999761	0.00000000	4.36761800	-9.85482200
43.39999759	0.00000000	6.69906400	-7.94783400
43.59999758	0.00000000	9.01820900	-2.60211600
43.79999757	0.00000000	10.55610000	4.31840500
43.99999756	0.00000000	11.02362000	10.86983000
44.19999755	0.00000000	11.06668000	15.88336000
44.39999753	0.00000000	11.06668000	17.83957000
44.59999752	0.00000000	11.02362000	16.76919000
44.79999751	0.00000000	10.64838000	13.69956000
44.99999750	0.00000000	9.86097400	9.43036400
45.19999749	0.00000000	9.11048200	4.82898600
45.39999748	0.00000000	8.23695900	0.97194880
45.59999746	0.00000000	7.01894700	-0.97810030
45.79999745	0.00000000	4.65059000	-1.02116100
45.99999744	0.00000000	1.62401600	0.51058070
46.19999743	0.00000000	-1.07037400	3.15575800
46.39999742	0.00000000	-2.56520700	5.89320800
46.59999740	0.00000000	-2.14074800	8.26771600
46.79999739	0.00000000	0.55364170	10.53765000
46.99999738	0.00000000	4.87819900	11.65723000
47.19999737	0.00000000	10.32234000	10.96211000
47.39999736	0.00000000	16.50467000	9.42421200
47.59999734	0.00000000	21.40133000	7.43110200
47.79999733	0.00000000	23.34522000	4.73671200
47.99999732	0.00000000	21.40133000	2.08538400
48.19999731	0.00000000	16.36934000	0.51058070
48.39999730	0.00000000	8.97514600	0.13533460
48.59999729	0.00000000	0.51058070	0.92888770
48.79999727	0.00000000	-6.79749000	3.24803100
48.99999726	0.00000000	-11.02977000	6.31151500
49.19999725	0.00000000	-10.98671000	9.42421200
49.39999724	0.00000000	-6.37303100	12.11860000
49.59999723	0.00000000	1.71628900	13.61343000
49.79999721	0.00000000	11.02362000	13.23819000
49.99999720	0.00000000	19.86343000	10.91289000
50.19999719	0.00000000	25.95349000	7.47416300
50.39999718	0.00000000	26.74705000	3.57406500
50.59999717	0.00000000	22.60704000	0.13533460
50.79999715	0.00000000	15.25591000	-2.18380900
50.99999714	0.00000000	6.36687900	-2.55905500
51.19999713	0.00000000	-2.09768700	-1.02116100
51.39999712	0.00000000	-7.86786400	2.08538400
51.59999711	0.00000000	-9.40575800	6.31151500
51.79999710	0.00000000	-6.32997000	10.53765000
51.99999708	0.00000000	0.55364170	13.60728000
52.19999707	0.00000000	8.97514600	14.76993000
52.39999706	0.00000000	16.28322000	13.65650000
52.59999705	0.00000000	20.55856000	10.96211000
52.79999704	0.00000000	20.97687000	7.47416300
52.99999702	0.00000000	17.90723000	3.62327700
53.19999701	0.00000000	12.09400000	0.59670270
53.39999700	0.00000000	4.83513700	-0.60285430
53.59999699	0.00000000	-1.63016700	0.13533460
53.79999698	0.00000000	-4.74901600	2.04232300
53.99999696	0.00000000	-4.05388800	4.73671200
54.19999695	0.00000000	-0.55979330	7.38188900
54.39999694	0.00000000	5.21038300	8.96284400
54.59999693	0.00000000	11.67569000	9.33809000
54.79999692	0.00000000	16.28322000	8.58759800
54.99999691	0.00000000	17.86417000	6.68676100
55.19999689	0.00000000	16.36934000	4.82283400
55.39999688	0.00000000	12.51230000	3.66633800
55.59999687	0.00000000	7.48646600	3.70939900
55.79999686	0.00000000	2.13459600	5.19808000
55.99999685	0.00000000	-1.67938000	7.47416300
56.19999683	0.00000000	-2.51599400	9.38115100
56.39999682	0.00000000	-0.98425190	10.53765000
56.59999681	0.00000000	2.50984200	10.49459000
56.79999680	0.00000000	7.48646600	8.91978400
56.99999679	0.00000000	12.09400000	5.85014700
57.19999677	0.00000000	15.21284000	2.04232300
57.39999676	0.00000000	16.36934000	-1.02116100
57.59999675	0.00000000	15.21284000	-2.55905500
57.79999674	0.00000000	12.18012000	-2.14074800
57.99999673	0.00000000	8.32308000	0.64591530
58.19999672	0.00000000	4.87819900	5.61638700
58.39999670	0.00000000	2.50984200	11.74951000
58.59999669	0.00000000	1.75935000	16.72613000
58.79999668	0.00000000	2.46678100	19.42052000
58.99999667	0.00000000	4.41067900	19.00221000
59.19999666	0.00000000	6.69906400	15.14518000
59.39999664	0.00000000	9.01820900	9.00590400
59.59999663	0.00000000	10.55610000	2.04232300
59.79999662	0.00000000	10.97441000	-4.09694900
59.99999661	0.00000000	10.59916000	-7.90477300
60.19999660	0.00000000	9.44266700	-7.90477300
60.39999658	0.00000000	7.94783400	-4.04773600
60.59999657	0.00000000	6.79133800	2.50369100
60.79999656	0.00000000	6.36687900	10.53765000
60.99999655	0.00000000	6.36687900	17.46432000
61.19999654	0.00000000	6.74212600	21.37057000
61.39999653	0.00000000	7.52952700	22.10876000
61.59999651	0.00000000	8.23695900	18.95300000
61.79999650	0.00000000	8.64911400	12.07554000
61.99999649	0.00000000	8.23695900	3.62327700
62.19999648	0.00000000	7.48646600	-4.09079700
62.39999647	0.00000000	6.32381900	-9.47957600
62.59999645	0.00000000	5.21038300	-11.01132000
62.79999644	0.00000000	4.78592500	-8.36614100
62.99999643	0.00000000	4.78592500	-2.60211600
63.19999642	0.00000000	5.25344500	4.73671200
63.39999641	0.00000000	6.79133800	12.07554000
63.59999639	0.00000000	9.01820900	17.88263000
63.79999638	0.00000000	10.55610000	20.95226000
63.99999637	0.00000000	10.97441000	20.57702000
64.19999636	0.00000000	10.59916000	16.71998000
64.39999635	0.00000000	9.44266700	10.58686000
64.59999634	0.00000000	7.90477300	3.66633800
64.79999632	0.00000000	6.32381900	-2.09153500
64.99999631	0.00000000	4.78592500	-5.24729300
65.19999630	0.00000000	3.67249000	-5.71481200
65.39999629	0.00000000	3.67249000	-4.18307100
65.59999628	0.00000000	4.78592500	-1.07037400
65.79999626	0.00000000	6.32381900	3.15575800
65.99999625	0.00000000	7.86171200	7.43110200
66.19999624	0.00000000	9.01820900	10.96211000
66.39999623	0.00000000	9.39345400	13.65650000
66.59999622	0.00000000	9.01820900	14.85605000
66.79999620	0.00000000	7.86171200	14.49311000
66.99999619	0.00000000	6.32381900	13.37352000
67.19999618	0.00000000	4.83513700	11.38041000
67.39999617	0.00000000	4.13385800	9.05511800
67.59999616	0.00000000	5.25344500	6.26845500
67.79999615	0.00000000	7.52952700	3.15575800
67.99999613	0.00000000	9.86097400	0.09227362
68.19999612	0.00000000	12.13706000	-2.22687000
68.39999611	0.00000000	13.25664000	-3.02042300
68.59999610	0.00000000	12.51230000	-2.60211600
68.79999609	0.00000000	10.55610000	-0.60285430
68.99999607	0.00000000	7.43725300	3.24803100
69.19999606	0.00000000	3.58021600	7.84940900
69.39999605	0.00000000	0.13533460	12.16166000
69.59999604	0.00000000	-2.14074800	15.60654000
69.79999603	0.00000000	-2.09768700	17.50738000
69.99999601	0.00000000	0.59670270	16.72613000
70.19999600	0.00000000	5.21038300	13.65650000
70.39999599	0.00000000	10.59916000	9.00590400
70.59999598	0.00000000	15.25591000	3.62327700
70.79999597	0.00000000	18.37475000	-1.02116100
70.99999596	0.00000000	19.48819000	-4.13385800
71.19999594	0.00000000	17.86417000	-5.25344500
71.39999593	0.00000000	13.25664000	-3.71555100
71.59999592	0.00000000	6.74212600	0.09227362
71.79999591	0.00000000	0.59670270	4.73671200
71.99999590	0.00000000	-3.72170300	9.38115100
72.19999588	0.00000000	-5.63484200	13.23819000
72.39999587	0.00000000	-4.84128900	15.14518000
72.59999586	0.00000000	-0.98425190	14.81299000
72.79999585	0.00000000	4.74286400	12.49385000
72.99999584	0.00000000	10.59916000	9.05511800
73.19999582	0.00000000	15.63115000	5.24729300
73.39999581	0.00000000	19.11294000	2.54675200
73.59999580	0.00000000	19.82037000	1.75319900
73.79999579	0.00000000	17.57505000	2.46063000
73.99999578	0.00000000	12.97982000	4.36146600
74.19999577	0.00000000	7.94783400	6.22539300
74.39999575	0.00000000	3.25418300	7.38188900
74.59999574	0.00000000	-0.60900590	7.38188900
74.79999573	0.00000000	-2.51599400	6.26845500
74.99999572	0.00000000	-2.14074800	4.73671200
75.19999571	0.00000000	0.55364170	3.24803100
75.39999569	0.00000000	4.74286400	2.50369100
75.59999568	0.00000000	8.97514600	3.29109200
75.79999567	0.00000000	12.09400000	5.19808000
75.99999566	0.00000000	13.67495000	7.93553100
76.19999565	0.00000000	13.71801000	11.00517000
76.39999563	0.00000000	12.55536000	13.65650000
76.59999562	0.00000000	10.64838000	14.72687000
76.79999561	0.00000000	8.37229300	13.18898000
76.99999560	0.00000000	6.83439900	9.38115100
77.19999559	0.00000000	6.36687900	4.73671200
77.39999558	0.00000000	6.32381900	0.09227362
77.59999556	0.00000000	6.32381900	-3.76476400
77.79999555	0.00000000	6.32381900	-5.62253900
77.99999554	0.00000000	6.32381900	-4.82898600
78.19999553	0.00000000	6.28075700	-0.97810030
78.39999552	0.00000000	5.90551100	4.73671200
78.59999550	0.00000000	5.21038300	10.53765000
78.79999549	0.00000000	5.21038300	15.23130000
78.99999548	0.00000000	5.99163300	18.30093000
79.19999547	0.00000000	7.16043300	19.04527000
79.39999546	0.00000000	9.11048200	16.72613000
79.59999544	0.00000000	10.97441000	12.11860000
79.79999543	0.00000000	12.18012000	6.36072800
79.99999542	0.00000000	12.51230000	0.97194880
80.19999541	0.00000000	11.71875000	-2.55905500
80.39999540	0.00000000	9.44266700	-4.14000900
80.59999539	0.00000000	6.74212600	-3.76476400
80.79999537	0.00000000	4.41067900	-1.44562000
80.99999536	0.00000000	2.46678100	1.99311000
81.19999535	0.00000000	1.75935000	5.89320800
81.39999534	0.00000000	2.50984200	9.38115100
81.59999533	0.00000000	4.83513700	12.11860000
81.79999531	0.00000000	7.86171200	13.65650000
81.99999530	0.00000000	10.55610000	13.69956000
82.19999529	0.00000000	12.13706000	12.58612000
82.39999528	0.00000000	12.55536000	11.00517000
82.59999527	0.00000000	12.13706000	9.00590400
82.79999525	0.00000000	10.59916000	6.26845500
82.99999524	0.00000000	8.32308000	3.19881900
83.19999523	0.00000000	6.36687900	0.51058070
83.39999522	0.00000000	4.78592500	-1.06422200
83.59999521	0.00000000	3.67249000	-1.48253000
83.79999520	0.00000000	3.67249000	-1.06422200
83.99999518	0.00000000	4.78592500	0.55364170
84.19999517	0.00000000	6.32381900	3.66633800
84.39999516	0.00000000	7.81250000	7.89247000
84.59999515	0.00000000	8.59990100	12.07554000
84.79999514	0.00000000	8.28001900	14.81299000
84.99999512	0.00000000	7.94783400	15.60654000
85.19999511	0.00000000	7.90477300	14.81299000
85.39999510	0.00000000	7.90477300	12.07554000
85.59999509	0.00000000	7.94783400	7.84940900
85.79999508	0.00000000	8.32308000	3.20497000
85.99999506	0.00000000	9.01820900	-1.02116100
86.19999505	0.00000000	9.01820900	-3.71555100
86.39999504	0.00000000	8.28001900	-4.09079700
86.59999503	0.00000000	7.48646600	-2.18380900
86.79999502	0.00000000	6.32381900	1.66707700
86.99999501	0.00000000	5.21038300	6.31151500
87.19999499	0.00000000	4.78592500	10.95595000
87.39999498	0.00000000	4.78592500	14.76993000
87.59999497	0.00000000	5.21038300	16.30167000
87.79999496	0.00000000	6.36687900	15.18824000
87.99999495	0.00000000	7.90477300	12.07554000
88.19999493	0.00000000	9.44266700	7.47416300
88.39999492	0.00000000	10.59916000	2.50369100
88.59999491	0.00000000	10.97441000	-0.97810030
88.79999490	0.00000000	10.59916000	-2.55905500
88.99999489	0.00000000	9.44266700	-2.14074800
89.19999487	0.00000000	7.90477300	0.55364170
89.39999486	0.00000000	6.36687900	4.77977300
89.59999485	0.00000000	5.21038300	9.38115100
89.79999484	0.00000000	4.78592500	13.18898000
89.99999483	0.00000000	4.78592500	14.72687000
90.19999482	0.00000000	5.21038300	13.65650000
90.39999480	0.00000000	6.36687900	10.91289000
90.59999479	0.00000000	7.86171200	7.05585600
90.79999478	0.00000000	9.01820900	2.46063000
90.99999477	0.00000000	9.44266700	-0.93503930
91.19999476	0.00000000	9.44266700	-2.13459600
91.39999474	0.00000000	9.06742000	-0.97810030
91.59999473	0.00000000	8.28001900	2.08538400
91.79999472	0.00000000	7.57258800	6.31151500
91.99999471	0.00000000	7.16043300	10.53765000
92.19999470	0.00000000	7.52952700	13.60728000
92.39999468	0.00000000	7.86171200	14.76993000
92.59999467	0.00000000	7.86171200	13.56422000
92.79999466	0.00000000	7.48646600	10.16855000
92.99999465	0.00000000	6.69906400	5.53026500
93.19999464	0.00000000	5.94857300	1.33489200
93.39999463	0.00000000	5.16117100	-1.76550200
93.59999461	0.00000000	4.78592500	-2.46678100
93.79999460	0.00000000	4.83513700	-0.60285430
93.99999459	0.00000000	5.62869100	3.24803100
94.19999458	0.00000000	7.52952700	7.80019600
94.39999457	0.00000000	9.44266700	11.65723000
94.59999455	0.00000000	11.02362000	13.61343000
94.79999454	0.00000000	12.18012000	13.61343000
94.99999453	0.00000000	12.51230000	11.65723000
95.19999452	0.00000000	11.71875000	7.84940900
95.39999451	0.00000000	9.39345400	3.66633800
95.59999449	0.00000000	6.36687900	0.59670270
95.79999448	0.00000000	3.62942900	-0.60285430
95.99999447	0.00000000	1.62401600	0.09227362
96.19999446	0.00000000	0.17839570	1.66707700
96.39999445	0.00000000	0.23375980	4.03543200
96.59999444	0.00000000	2.87893700	7.47416300
96.79999442	0.00000000	6.32381900	10.45152000
96.99999441	0.00000000	9.86097400	11.65723000
97.19999440	0.00000000	13.34276000	10.91289000
97.39999439	0.00000000	15.63115000	9.05511800
97.59999438	0.00000000	16.41855000	6.68676100
97.79999436	0.00000000	15.21284000	4.40452700
97.99999435	0.00000000	12.13706000	2.50369100
98.19999434	0.00000000	7.90477300	2.08538400
98.39999433	0.00000000	3.67249000	2.82357300
98.59999432	0.00000000	0.55364170	3.94931100
98.79999430	0.00000000	-1.02731300	5.51796200
98.99999429	0.00000000	-0.98425190	6.64370100
99.19999428	0.00000000	0.92888770	7.47416300
99.39999427	0.00000000	4.36761800	7.84940900
99.59999426	0.00000000	7.86171200	7.89247000
99.79999425	0.00000000	11.02362000	7.89247000
99.99999423	0.00000000	13.71801000	7.89247000
100.19999422	0.00000000	15.21284000	7.89247000
100.39999421	0.00000000	14.88066000	7.93553100
100.59999420	0.00000000	12.97982000	8.26771600
100.79999419	0.00000000	10.64838000	8.58759800
100.99999417	0.00000000	7.86171200	7.80019600
101.19999416	0.00000000	4.83513700	6.31151500
101.39999415	0.00000000	2.50984200	4.73671200
101.59999414	0.00000000	1.67322800	3.19881900
101.79999413	0.00000000	1.67322800	2.08538400
101.99999411	0.00000000	2.50984200	2.08538400
102.19999410	0.00000000	4.78592500	3.24803100
102.39999409	0.00000000	7.43725300	5.19808000
102.59999408	0.00000000	9.44266700	7.89247000
102.79999407	0.00000000	11.02362000	10.53765000
102.99999406	0.00000000	12.13706000	12.11860000
103.19999404	0.00000000	12.13706000	12.49385000
103.39999403	0.00000000	11.02362000	11.70029000
103.59999402	0.00000000	9.48572700	9.38115100
103.79999401	0.00000000	7.90477300	6.31151500
103.99999400	0.00000000	6.32381900	3.19881900
104.19999398	0.00000000	4.78592500	0.55364170
104.39999397	0.00000000	3.67249000	-0.55979330
104.59999396	0.00000000	3.67249000	0.55364170
104.79999395	0.00000000	4.78592500	3.19881900
104.99999394	0.00000000	6.28075700	6.26845500
105.19999392	0.00000000	7.48646600	9.00590400
105.39999391	0.00000000	8.32308000	10.91289000
105.59999390	0.00000000	9.44266700	11.70029000
105.79999389	0.00000000	10.13779000	10.91289000
105.99999388	0.00000000	9.39345400	9.05511800
106.19999387	0.00000000	7.94783400	6.72982200
106.39999385	0.00000000	6.79133800	4.77977300
106.59999384	0.00000000	6.36687900	3.24803100
106.79999383	0.00000000	6.32381900	2.50369100
106.99999382	0.00000000	6.36687900	3.24803100
107.19999381	0.00000000	6.74212600	4.73671200
107.39999379	0.00000000	7.52952700	6.31151500
107.59999378	0.00000000	8.28001900	7.84940900
107.79999377	0.00000000	9.01820900	8.96284400
107.99999376	0.00000000	9.01820900	8.96284400
108.19999375	0.00000000	8.28001900	7.84940900
108.39999374	0.00000000	7.48646600	6.31151500
108.59999372	0.00000000	6.36687900	4.77977300
108.79999371	0.00000000	5.62869100	3.62327700
108.99999370	0.00000000	5.94857300	3.24803100
109.19999369	0.00000000	6.32381900	3.62327700
109.39999368	0.00000000	6.79133800	4.77977300
109.59999366	0.00000000	7.90477300	6.31151500
109.79999365	0.00000000	9.06742000	7.84940900
109.99999364	0.00000000	9.81791200	9.00590400
110.19999363	0.00000000	10.18086000	9.38115100
110.39999362	0.00000000	9.44266700	9.00590400
110.59999360	0.00000000	8.32308000	7.84940900
110.79999359	0.00000000	7.52952700	6.31151500
110.99999358	0.00000000	6.69906400	4.77977300
111.19999357	0.00000000	5.99163300	3.62327700
111.39999356	0.00000000	5.57947800	3.19881900
111.59999355	0.00000000	5.99163300	3.19881900
111.79999353	0.00000000	6.69906400	3.57406500
111.99999352	0.00000000	7.48646600	4.40452700
112.19999351	0.00000000	7.90477300	5.53026500
112.39999350	0.00000000	8.32308000	7.05585600
112.59999349	0.00000000	9.06742000	7.80019600
112.79999347	0.00000000	9.39345400	7.89247000
112.99999346	0.00000000	9.06742000	7.89247000
113.19999345	0.00000000	8.32308000	7.84940900
113.39999344	0.00000000	7.90477300	7.47416300
113.59999343	0.00000000	7.48646600	6.72982200
113.79999341	0.00000000	6.74212600	6.31151500
113.99999340	0.00000000	6.41609200	5.89320800
114.19999339	0.00000000	6.74212600	5.15501900
114.39999338	0.00000000	7.48646600	4.77977300
114.59999337	0.00000000	7.86171200	4.73671200
114.79999336	0.00000000	7.90477300	4.73671200
114.99999334	0.00000000	7.90477300	4.73671200
115.19999333	0.00000000	7.90477300	4.73671200
115.39999332	0.00000000	7.90477300	4.77977300
115.59999331	0.00000000	7.90477300	5.15501900
115.79999330	0.00000000	7.90477300	5.93626900
115.99999328	0.00000000	7.86171200	6.68676100
116.19999327	0.00000000	7.48646600	7.47416300
116.39999326	0.00000000	6.74212600	7.84940900
116.59999325	0.00000000	6.36687900	7.89247000
116.79999324	0.00000000	6.36687900	7.84940900
116.99999322	0.00000000	6.74212600	7.47416300
117.19999321	0.00000000	7.48646600	6.68676100
117.39999320	0.00000000	7.90477300	5.89320800
117.59999319	0.00000000	8.32308000	4.77977300
117.79999318	0.00000000	9.06742000	3.99237200
117.99999317	0.00000000	9.44266700	3.98622000
118.19999315	0.00000000	9.44266700	3.94931100
118.39999314	0.00000000	9.06742000	4.40452700
118.59999313	0.00000000	8.28001900	5.15501900
118.79999312	0.00000000	7.52952700	6.31151500
118.99999311	0.00000000	6.69906400	7.42495000
119.19999309	0.00000000	5.94857300	7.84940900
119.39999308	0.00000000	5.21038300	7.89247000
119.59999307	0.00000000	5.21038300	7.89247000
119.79999306	0.00000000	5.94857300	7.84940900
119.99999305	0.00000000	6.74212600	7.47416300
120.19999303	0.00000000	7.94783400	6.72982200
120.39999302	0.00000000	9.44266700	6.31151500
120.59999301	0.00000000	10.55610000	5.89320800
120.79999300	0.00000000	10.59916000	5.15501900
120.99999299	0.00000000	9.86097400	4.77977300
121.19999298	0.00000000	9.06742000	4.73671200
121.39999296	0.00000000	7.90477300	4.73671200
121.59999295	0.00000000	6.74212600	4.77977300
121.79999294	0.00000000	5.94857300	5.15501900
121.99999293	0.00000000	5.16117100	5.89320800
122.19999292	0.00000000	4.83513700	6.31151500
122.39999290	0.00000000	5.16117100	6.72982200
122.59999289	0.00000000	5.94857300	7.47416300
122.79999288	0.00000000	6.74212600	7.84940900
122.99999287	0.00000000	7.90477300	7.89247000
123.19999286	0.00000000	9.01820900	7.89247000
123.39999284	0.00000000	9.44266700	7.84940900
123.59999283	0.00000000	9.48572700	7.51722400
123.79999282	0.00000000	9.48572700	7.06200700
123.99999281	0.00000000	9.44266700	6.68061000
124.19999280	0.00000000	9.06742000	5.57332700
124.39999279	0.00000000	8.28001900	5.19808000
124.59999277	0.00000000	7.52952700	5.47490100
124.79999276	0.00000000	6.69906400	5.11195900
124.99999275	0.00000000	5.99163300	4.82898600
125.19999274	0.00000000	5.57947800	5.15501900
125.39999273	0.00000000	5.94857300	5.93626900
125.59999271	0.00000000	6.32381900	6.68676100
125.79999270	0.00000000	6.79133800	7.47416300
125.99999269	0.00000000	7.90477300	7.84940900
126.19999268	0.00000000	9.01820900	7.84940900
126.39999267	0.00000000	9.44266700	7.47416300
126.59999265	0.00000000	9.48572700	6.72982200
126.79999264	0.00000000	9.44266700	6.31151500
126.99999263	0.00000000	9.01820900	5.89320800
127.19999262	0.00000000	7.90477300	5.15501900
127.39999261	0.00000000	6.74212600	4.77977300
127.59999260	0.00000000	5.94857300	4.77977300
127.79999258	0.00000000	5.21038300	5.15501900
127.99999257	0.00000000	5.21038300	5.89320800
128.19999256	0.00000000	5.94857300	6.26845500
128.39999255	0.00000000	6.74212600	6.31151500
128.59999254	0.00000000	7.90477300	6.31151500
128.79999252	0.00000000	9.01820900	6.31151500
128.99999251	0.00000000	9.44266700	6.31151500
129.19999250	0.00000000	9.44266700	6.31151500
129.39999249	0.00000000	9.06742000	6.31151500
129.59999248	0.00000000	8.28001900	6.26845500
129.79999246	0.00000000	7.52952700	5.89320800
129.99999245	0.00000000	6.74212600	5.19808000
130.19999244	0.00000000	6.36687900	5.19808000
130.39999243	0.00000000	6.32381900	5.89320800
130.59999242	0.00000000	6.36687900	6.26845500
130.79999241	0.00000000	6.74212600	6.31151500
130.99999239	0.00000000	7.52952700	6.31151500
131.19999238	0.00000000	8.28001900	6.31151500
131.39999237	0.00000000	9.06742000	6.31151500
131.59999236	0.00000000	9.39345400	6.31151500
131.79999235	0.00000000	9.06742000	6.26845500
131.99999233	0.00000000	8.28001900	5.89320800
132.19999232	0.00000000	7.57258800	5.15501900
132.39999231	0.00000000	7.11737200	4.82898600
132.59999230	0.00000000	7.11122000	5.15501900
132.79999229	0.00000000	6.69906400	5.89320800
132.99999227	0.00000000	6.41609200	6.31151500
133.19999226	0.00000000	6.74212600	6.72982200
133.39999225	0.00000000	7.48646600	7.47416300
133.59999224	0.00000000	7.86171200	7.84940900
133.79999223	0.00000000	7.90477300	7.84940900
133.99999222	0.00000000	7.90477300	7.47416300
134.19999220	0.00000000	7.90477300	6.72982200
134.39999219	0.00000000	7.90477300	6.31151500
134.59999218	0.00000000	7.90477300	5.89320800
134.79999217	0.00000000	7.90477300	5.15501900
134.99999216	0.00000000	7.90477300	4.77977300
135.19999214	0.00000000	7.90477300	4.73671200
135.39999213	0.00000000	7.90477300	4.77977300
135.59999212	0.00000000	7.90477300	5.15501900
135.79999211	0.00000000	7.90477300	5.89320800
135.99999210	0.00000000	7.86171200	6.31151500
136.19999208	0.00000000	7.48646600	6.72982200
136.39999207	0.00000000	6.74212600	7.47416300
136.59999206	0.00000000	6.36687900	7.84940900
136.79999205	0.00000000	6.32381900	7.84940900
136.99999204	0.00000000	6.36687900	7.47416300
137.19999203	0.00000000	6.74212600	6.72982200
137.39999201	0.00000000	7.52952700	6.31151500
137.59999200	0.00000000	8.28001900	5.89320800
137.79999199	0.00000000	9.06742000	5.15501900
137.99999198	0.00000000	9.44266700	4.77977300
138.19999197	0.00000000	9.44266700	4.73671200
138.39999195	0.00000000	9.01820900	4.73671200
138.59999194	0.00000000	7.90477300	4.77977300
138.79999193	0.00000000	6.79133800	5.15501900
138.99999192	0.00000000	6.36687900	5.93626900
139.19999191	0.00000000	6.32381900	6.68676100
139.39999189	0.00000000	6.36687900	7.47416300
139.59999188	0.00000000	6.74212600	7.84940900
139.79999187	0.00000000	7.48646600	7.84940900
139.99999186	0.00000000	7.90477300	7.51722400
140.19999185	0.00000000	8.32308000	7.10506800
140.39999184	0.00000000	9.06742000	7.05585600
140.59999182	0.00000000	9.39345400	6.26845500
140.79999181	0.00000000	9.06742000	5.19808000
140.99999180	0.00000000	8.28001900	4.77977300
141.19999179	0.00000000	7.52952700	4.73671200
141.39999178	0.00000000	6.79133800	4.77977300
141.59999176	0.00000000	6.79133800	5.15501900
141.79999175	0.00000000	7.48646600	5.93626900
141.99999174	0.00000000	7.86171200	6.68676100
142.19999173	0.00000000	7.90477300	7.47416300
142.39999172	0.00000000	7.90477300	7.84940900
142.59999170	0.00000000	7.90477300	7.89247000
142.79999169	0.00000000	7.90477300	7.84940900
142.99999168	0.00000000	7.90477300	7.42495000
143.19999167	0.00000000	7.90477300	6.31151500
143.39999166	0.00000000	7.86171200	5.19808000
143.59999165	0.00000000	7.52952700	4.77977300
143.79999163	0.00000000	7.16043300	4.73671200
143.99999162	0.00000000	7.52952700	4.77977300
144.19999161	0.00000000	7.86171200	5.15501900
144.39999160	0.00000000	7.90477300	5.93626900
144.59999159	0.00000000	7.90477300	6.68676100
144.79999157	0.00000000	7.90477300	7.47416300
144.99999156	0.00000000	7.90477300	7.84940900
145.19999155	0.00000000	7.90477300	7.89247000
145.39999154	0.00000000	7.90477300	7.84940900
145.59999153	0.00000000	7.90477300	7.47416300
145.79999151	0.00000000	7.86171200	6.68676100
145.99999150	0.00000000	7.48646600	5.93626900
146.19999149	0.00000000	6.79133800	5.15501900
146.39999148	0.00000000	6.79133800	4.77977300
146.59999147	0.00000000	7.48646600	4.77977300
146.79999146	0.00000000	7.86171200	5.15501900
146.99999144	0.00000000	7.90477300	5.89320800
147.19999143	0.00000000	7.90477300	6.26845500
147.39999142	0.00000000	7.90477300	6.35457700
147.59999141	0.00000000	7.90477300	6.72982200
147.79999140	0.00000000	7.90477300	7.42495000
147.99999138	0.00000000	7.86171200	7.42495000
148.19999137	0.00000000	7.48646600	6.72982200
148.39999136	0.00000000	6.74212600	6.35457700
148.59999135	0.00000000	6.41609200	6.31151500
148.79999134	0.00000000	6.74212600	6.26845500
148.99999132	0.00000000	7.48646600	5.93626900
149.19999131	0.00000000	7.86171200	5.57332700
149.39999130	0.00000000	7.94783400	5.93626900
149.59999129	0.00000000	8.28001900	6.26845500
149.79999128	0.00000000	8.64911400	6.31151500
149.99999127	0.00000000	8.28001900	6.31151500
150.19999125	0.00000000	7.94783400	6.31151500
150.39999124	0.00000000	7.90477300	6.31151500
150.59999123	0.00000000	7.86171200	6.35457700
150.79999122	0.00000000	7.48646600	6.72982200
150.99999121	0.00000000	6.74212600	7.42495000
151.19999119	0.00000000	6.36687900	7.42495000
151.39999118	0.00000000	6.36687900	6.72982200
151.59999117	0.00000000	6.74212600	6.35457700
151.79999116	0.00000000	7.48646600	6.31151500
151.99999115	0.00000000	7.86171200	6.26845500
152.19999113	0.00000000	7.94783400	5.93626900
152.39999112	0.00000000	8.32308000	5.57332700
152.59999111	0.00000000	9.06742000	5.93626900
152.79999110	0.00000000	9.39345400	6.26845500
152.99999109	0.00000000	9.06742000	6.31151500
153.19999108	0.00000000	8.32308000	6.31151500
153.39999106	0.00000000	7.94783400	6.31151500
153.59999105	0.00000000	7.86171200	6.31151500
153.79999104	0.00000000	7.48646600	6.31151500
153.99999103	0.00000000	6.74212600	6.31151500
154.19999102	0.00000000	6.36687900	6.31151500
154.39999100	0.00000000	6.32381900	6.31151500
154.59999099	0.00000000	6.36687900	6.31151500
154.79999098	0.00000000	6.74212600	6.31151500
154.99999097	0.00000000	7.48646600	6.31151500
155.19999096	0.00000000	7.86171200	6.31151500
155.39999094	0.00000000	7.94783400	6.31151500
155.59999093	0.00000000	8.32308000	6.31151500
155.79999092	0.00000000	9.01820900	6.31151500
155.99999091	0.00000000	9.01820900	6.31151500
156.19999090	0.00000000	8.32308000	6.31151500
156.39999089	0.00000000	7.90477300	6.31151500
156.59999087	0.00000000	7.48646600	6.35457700
156.79999086	0.00000000	6.74212600	6.72982200
156.99999085	0.00000000	6.36687900	7.47416300
157.19999084	0.00000000	6.32381900	7.80019600
157.39999083	0.00000000	6.36687900	7.47416300
157.59999081	0.00000000	6.74212600	6.72982200
157.79999080	0.00000000	7.48646600	6.35457700
157.99999079	0.00000000	7.86171200	6.31151500
158.19999078	0.00000000	7.94783400	6.26845500
158.39999077	0.00000000	8.28001900	5.93626900
158.59999075	0.00000000	8.64911400	5.57332700
158.79999074	0.00000000	8.28001900	5.93626900
158.99999073	0.00000000	7.94783400	6.26845500
159.19999072	0.00000000	7.90477300	6.31151500
159.39999071	0.00000000	7.90477300	6.35457700
159.59999070	0.00000000	7.90477300	6.72982200
159.79999068	0.00000000	7.86171200	7.47416300
159.99999067	0.00000000	7.52952700	7.84940900
160.19999066	0.00000000	7.11737200	7.89247000
160.39999065	0.00000000	7.15428100	7.84940900
160.59999064	0.00000000	7.11737200	7.47416300
160.79999062	0.00000000	7.52952700	6.72982200
160.99999061	0.00000000	7.86171200	6.35457700
161.19999060	0.00000000	7.90477300	6.31151500
161.39999059	0.00000000	7.90477300	6.31151500
161.59999058	0.00000000	7.90477300	6.31151500
161.79999056	0.00000000	7.90477300	6.31151500
161.99999055	0.00000000	7.90477300	6.31151500
162.19999054	0.00000000	7.90477300	6.31151500
162.39999053	0.00000000	7.90477300	6.35457700
162.59999052	0.00000000	7.90477300	6.68676100
162.79999051	0.00000000	7.90477300	7.05585600
162.99999049	0.00000000	7.90477300	6.68676100
163.19999048	0.00000000	7.86171200	6.35457700
163.39999047	0.00000000	7.48646600	6.31151500
163.59999046	0.00000000	6.74212600	6.31151500
163.79999045	0.00000000	6.41609200	6.31151500
163.99999043	0.00000000	6.74212600	6.31151500
164.19999042	0.00000000	7.48646600	6.31151500
164.39999041	0.00000000	7.86171200	6.31151500
164.59999040	0.00000000	7.94783400	6.31151500
164.79999039	0.00000000	8.28001900	6.31151500
164.99999037	0.00000000	8.69217500	6.31151500
165.19999036	0.00000000	8.65526600	6.31151500
165.39999035	0.00000000	8.69217500	6.31151500
165.59999034	0.00000000	8.28001900	6.31151500
165.79999033	0.00000000	7.94783400	6.31151500
165.99999032	0.00000000	7.86171200	6.31151500
166.19999030	0.00000000	7.52952700	6.31151500
166.39999029	0.00000000	7.16043300	6.31151500
166.59999028	0.00000000	7.52952700	6.31151500
166.79999027	0.00000000	7.86171200	6.31151500
166.99999026	0.00000000	7.90477300	6.31151500
167.19999024	0.00000000	7.90477300	6.31151500
167.39999023	0.00000000	7.90477300	6.31151500
167.59999022	0.00000000	7.90477300	6.31151500
167.79999021	0.00000000	7.90477300	6.31151500
167.99999020	0.00000000	7.90477300	6.31151500
168.19999018	0.00000000	7.90477300	6.31151500
168.39999017	0.00000000	7.90477300	6.31151500
168.59999016	0.00000000	7.90477300	6.31151500
168.79999015	0.00000000	7.90477300	6.31151500
168.99999014	0.00000000	7.86171200	6.31151500
169.19999013	0.00000000	7.48646600	6.31151500
169.39999011	0.00000000	6.79133800	6.31151500
169.59999010	0.00000000	6.79133800	6.31151500
169.79999009	0.00000000	7.48646600	6.31151500
169.99999008	0.00000000	7.86171200	6.31151500
170.19999007	0.00000000	7.90477300	6.31151500
170.39999005	0.00000000	7.90477300	6.31151500
170.59999004	0.00000000	7.90477300	6.31151500
170.79999003	0.00000000	7.90477300	6.31151500
170.99999002	0.00000000	7.90477300	6.31151500
171.19999001	0.00000000	7.90477300	6.31151500
171.39998999	0.00000000	7.90477300	6.31151500
171.59998998	0.00000000	7.90477300	6.31151500
171.79998997	0.00000000	7.90477300	6.31151500
171.99998996	0.00000000	7.90477300	6.31151500
172.19998995	0.00000000	7.90477300	6.31151500
172.39998994	0.00000000	7.90477300	6.31151500
172.59998992	0.00000000	7.90477300	6.31151500
172.79998991	0.00000000	7.90477300	6.31151500
172.99998990	0.00000000	7.90477300	6.31151500
173.19998989	0.00000000	7.90477300	6.31151500
173.39998988	0.00000000	7.90477300	6.31151500
173.59998986	0.00000000	7.90477300	6.31151500
173.79998985	0.00000000	7.90477300	6.31151500
173.99998984	0.00000000	7.90477300	6.31151500
174.19998983	0.00000000	7.90477300	6.31151500
174.39998982	0.00000000	7.90477300	6.31151500
174.59998980	0.00000000	7.90477300	6.31151500
174.79998979	0.00000000	7.90477300	6.31151500
174.99998978	0.00000000	7.90477300	6.31151500
175.19998977	0.00000000	7.90477300	6.31151500
175.39998976	0.00000000	7.90477300	6.31151500
175.59998975	0.00000000	7.90477300	6.31151500
175.79998973	0.00000000	7.90477300	6.31151500
175.99998972	0.00000000	7.90477300	6.31151500
176.19998971	0.00000000	7.90477300	6.31151500
176.39998970	0.00000000	7.90477300	6.31151500
176.59998969	0.00000000	7.90477300	6.31151500
176.79998967	0.00000000	7.90477300	6.31151500
176.99998966	0.00000000	7.90477300	6.31151500
177.19998965	0.00000000	7.90477300	6.31151500
177.39998964	0.00000000	7.90477300	6.31151500
177.59998963	0.00000000	7.90477300	6.31151500
177.79998961	0.00000000	7.90477300	6.31151500
177.99998960	0.00000000	7.90477300	6.31151500
178.19998959	0.00000000	7.90477300	6.31151500
178.39998958	0.00000000	7.90477300	6.31151500
178.59998957	0.00000000	7.90477300	6.31151500
178.79998956	0.00000000	7.90477300	6.31151500
178.99998954	0.00000000	7.90477300	6.31151500
179.19998953	0.00000000	7.90477300	6.31151500
179.39998952	0.00000000	7.90477300	6.31151500
179.59998951	0.00000000	7.90477300	6.31151500
179.79998950	0.00000000	7.90477300	6.31151500
179.99998948	0.00000000	7.90477300	6.31151500
180.19998947	0.00000000	7.90477300	6.31151500
180.39998946	0.00000000	7.90477300	6.31151500
180.59998945	0.00000000	7.90477300	6.31151500
180.79998944	0.00000000	7.90477300	6.31151500
180.99998942	0.00000000	7.90477300	6.31151500
181.19998941	0.00000000	7.90477300	6.31151500
181.39998940	0.00000000	7.90477300	6.31151500
181.59998939	0.00000000	7.90477300	6.31151500
181.79998938	0.00000000	7.90477300	6.31151500
181.99998937	0.00000000	7.90477300	6.31151500
182.19998935	0.00000000	7.90477300	6.31151500
182.39998934	0.00000000	7.90477300	6.31151500
182.59998933	0.00000000	7.90477300	6.31151500
182.79998932	0.00000000	7.90477300	6.31151500
182.99998931	0.00000000	7.90477300	6.31151500
183.19998929	0.00000000	7.90477300	6.31151500
183.39998928	0.00000000	7.90477300	6.31151500
183.59998927	0.00000000	7.90477300	6.31151500
183.79998926	0.00000000	7.90477300	6.31151500
183.99998925	0.00000000	7.90477300	6.31151500
184.19998923	0.00000000	7.90477300	6.31151500
184.39998922	0.00000000	7.90477300	6.35457700
184.59998921	0.00000000	7.90477300	6.72982200
184.79998920	0.00000000	7.90477300	7.47416300
184.99998919	0.00000000	7.90477300	7.80019600
185.19998918	0.00000000	7.90477300	7.47416300
185.39998916	0.00000000	7.90477300	6.72982200
185.59998915	0.00000000	7.90477300	6.35457700
185.79998914	0.00000000	7.90477300	6.31151500
185.99998913	0.00000000	7.90477300	6.26845500
186.19998912	0.00000000	7.90477300	5.93626900
186.39998910	0.00000000	7.90477300	5.57332700
186.59998909	0.00000000	7.90477300	5.93626900
186.79998908	0.00000000	7.90477300	6.26845500
186.99998907	0.00000000	7.90477300	6.31151500
187.19998906	0.00000000	7.90477300	6.31151500
187.39998904	0.00000000	7.90477300	6.35457700
187.59998903	0.00000000	7.90477300	6.72982200
187.79998902	0.00000000	7.90477300	7.42495000
187.99998901	0.00000000	7.90477300	7.42495000
188.19998900	0.00000000	7.90477300	6.72982200
188.39998899	0.00000000	7.90477300	6.35457700
188.59998897	0.00000000	7.90477300	6.31151500
188.79998896	0.00000000	7.90477300	6.31151500
188.99998895	0.00000000	7.90477300	6.31151500
189.19998894	0.00000000	7.90477300	6.31151500
189.39998893	0.00000000	7.90477300	6.31151500
189.59998891	0.00000000	7.90477300	6.31151500
189.79998890	0.00000000	7.94783400	6.31151500
189.99998889	0.00000000	8.28001900	6.31151500
190.19998888	0.00000000	8.64911400	6.31151500
190.39998887	0.00000000	8.28001900	6.31151500
190.59998885	0.00000000	7.94783400	6.31151500
190.79998884	0.00000000	7.90477300	6.31151500
190.99998883	0.00000000	7.90477300	6.31151500
191.19998882	0.00000000	7.90477300	6.31151500
191.39998881	0.00000000	7.90477300	6.31151500
191.59998880	0.00000000	7.90477300	6.31151500
191.79998878	0.00000000	7.90477300	6.31151500
191.99998877	0.00000000	7.90477300	6.31151500
192.19998876	0.00000000	7.90477300	6.31151500
192.39998875	0.00000000	7.90477300	6.31151500
192.59998874	0.00000000	7.90477300	6.31151500
192.79998872	0.00000000	7.90477300	6.31151500
192.99998871	0.00000000	7.90477300	6.31151500
193.19998870	0.00000000	7.90477300	6.31151500
193.39998869	0.00000000	7.90477300	6.31151500
193.59998868	0.00000000	7.90477300	6.31151500
193.79998866	0.00000000	7.90477300	6.31151500
193.99998865	0.00000000	7.90477300	6.31151500
194.19998864	0.00000000	7.90477300	6.31151500
194.39998863	0.00000000	7.90477300	6.31151500
194.59998862	0.00000000	7.90477300	6.31151500
194.79998861	0.00000000	7.90477300	6.31151500
194.99998859	0.00000000	7.90477300	6.31151500
195.19998858	0.00000000	7.90477300	6.31151500
195.39998857	0.00000000	7.90477300	6.31151500
195.59998856	0.00000000	7.90477300	6.31151500
195.79998855	0.00000000	7.90477300	6.31151500
195.99998853	0.00000000	7.90477300	6.31151500
