Time	Channel A	Channel B	Channel C
(us)	(V)	(mV)	(mV)

-4.49999956	0.00000000	-45.85384000	-16.57234000
-4.29999957	0.00000000	-45.81078000	-16.53543000
-4.09999958	0.00000000	-45.43553000	-16.61540000
-3.89999959	0.00000000	-44.74040000	-16.53543000
-3.69999960	0.00000000	-44.69119000	-16.61540000
-3.49999962	0.00000000	-45.06028000	-16.57849000
-3.29999963	0.00000000	-45.06644000	-16.99065000
-3.09999964	0.00000000	-45.47859000	-17.32283000
-2.89999965	0.00000000	-45.76156000	-17.36589000
-2.69999966	0.00000000	-45.47859000	-17.36589000
-2.49999968	0.00000000	-45.06644000	-17.36589000
-2.29999969	0.00000000	-45.10334000	-17.32283000
-2.09999970	0.00000000	-45.06644000	-16.99065000
-1.89999971	0.00000000	-45.47859000	-16.57849000
-1.69999972	0.00000000	-45.81078000	-16.61540000
-1.49999973	0.00000000	-45.85384000	-16.57849000
-1.29999975	0.00000000	-45.81078000	-16.99065000
-1.09999976	0.00000000	-45.43553000	-17.27362000
-0.89999977	0.00000000	-44.74040000	-16.99065000
-0.69999978	0.00000000	-44.74040000	-16.62155000
-0.49999979	0.00000000	-45.43553000	-16.99065000
-0.29999981	0.31803640	-45.81078000	-17.32283000
-0.09999982	0.63668800	-45.81078000	-17.36589000
0.10000017	0.95533960	-45.47859000	-17.36589000
0.30000016	1.11466500	-45.10950000	-17.36589000
0.50000015	0.79601380	-45.47859000	-17.36589000
0.70000013	0.31803640	-45.81078000	-17.32283000
0.90000012	-0.47736220	-45.85384000	-16.99065000
1.10000011	-1.43331700	-45.81078000	-16.62155000
1.30000010	-2.38927200	-45.47859000	-16.99065000
1.50000009	-2.70792300	-45.10950000	-17.27362000
1.70000008	-2.54859700	-45.43553000	-16.94759000
1.90000006	-1.43331700	-45.38631000	-16.20325000
2.10000005	0.31803640	-44.74040000	-15.82800000
2.30000004	2.54859700	-44.74040000	-15.78494000
2.50000003	4.30056600	-45.43553000	-15.82800000
2.70000002	5.25652100	-45.81078000	-16.20325000
2.90000000	4.93786900	-45.85384000	-16.99065000
3.09999999	3.18590100	-45.85384000	-17.69808000
3.29999998	0.00000000	-45.81078000	-18.11024000
3.49999997	-3.34522600	-45.47859000	-17.74114000
3.69999996	-6.21247500	-45.06644000	-17.36589000
3.89999994	-7.80511800	-45.06028000	-16.94759000
4.09999993	-7.64579200	-44.64813000	-16.20325000
4.29999992	-5.25652100	-44.31594000	-15.82800000
4.49999991	-1.27399100	-44.27288000	-15.78494000
4.69999990	3.02657500	-44.31594000	-15.78494000
4.89999989	6.84916400	-44.64813000	-15.82800000
5.09999987	9.23905000	-45.06028000	-16.20325000
5.29999986	9.07972400	-45.06644000	-16.94759000
5.49999985	6.84916400	-45.47859000	-17.32283000
5.69999984	2.70792300	-45.81078000	-17.36589000
5.89999983	-2.07062000	-45.85384000	-17.36589000
6.09999981	-6.37180100	-45.81078000	-17.32283000
6.29999980	-8.92039900	-45.43553000	-16.94759000
6.49999979	-9.39837600	-44.69119000	-16.20325000
6.69999978	-7.32714100	-44.31594000	-15.82800000
6.89999977	-3.82258900	-44.27288000	-15.78494000
7.09999975	0.63668800	-44.27288000	-15.82800000
7.29999974	4.61921700	-44.31594000	-16.16018000
7.49999973	7.16781500	-44.64813000	-16.57234000
7.69999972	7.64579200	-45.06028000	-16.57849000
7.89999971	6.37180100	-45.06644000	-16.99065000
8.09999970	3.66326300	-45.43553000	-17.32283000
8.29999968	0.31803640	-45.38631000	-17.36589000
8.49999967	-2.70792300	-44.69119000	-17.36589000
8.69999966	-4.61921700	-44.31594000	-17.32283000
8.89999965	-5.25652100	-44.31594000	-16.99065000
9.09999964	-4.45989200	-44.64813000	-16.57849000
9.29999962	-2.86724900	-45.01722000	-16.57234000
9.49999961	-0.79601380	-44.69119000	-16.16018000
9.69999960	0.95533960	-44.69119000	-15.82800000
9.89999959	2.07062000	-45.01722000	-15.82800000
10.09999958	2.54859700	-44.64813000	-16.20325000
10.29999956	2.22994600	-44.31594000	-16.94759000
10.49999955	1.43331700	-44.31594000	-17.32283000
10.69999954	0.63668800	-44.64813000	-17.36589000
10.89999953	-0.15871060	-45.06028000	-17.36589000
11.09999952	-0.63668800	-45.06644000	-17.36589000
11.29999951	-0.95533960	-45.43553000	-17.36589000
11.49999949	-0.95533960	-45.38631000	-17.36589000
11.69999948	-0.79601380	-44.74040000	-17.36589000
11.89999947	-0.47736220	-44.69119000	-17.36589000
12.09999946	-0.15871060	-45.01722000	-17.36589000
12.29999945	-0.15871060	-44.69119000	-17.36589000
12.49999943	-0.15871060	-44.69119000	-17.32283000
12.69999942	0.00000000	-45.01722000	-16.94759000
12.89999941	0.00000000	-44.64813000	-16.20325000
13.09999940	0.00000000	-44.31594000	-15.87721000
13.29999939	0.00000000	-44.27288000	-16.16018000
13.49999937	0.00000000	-44.31594000	-16.57234000
13.69999936	0.00000000	-44.64813000	-16.57849000
13.89999935	0.00000000	-45.01722000	-16.94759000
14.09999934	-0.15871060	-44.69119000	-16.94759000
14.29999933	-0.15871060	-44.69119000	-16.62155000
14.49999932	-0.15871060	-45.06028000	-16.94759000
14.69999930	0.00000000	-45.06644000	-16.94759000
14.89999929	0.00000000	-45.43553000	-16.62155000
15.09999928	0.00000000	-45.43553000	-16.94759000
15.29999927	0.00000000	-45.10950000	-16.89837000
15.49999926	0.00000000	-45.47859000	-16.25246000
15.69999924	0.00000000	-45.76156000	-16.25246000
15.89999923	0.00000000	-45.43553000	-16.94759000
16.09999922	0.00000000	-44.74040000	-17.27362000
16.29999921	0.00000000	-44.69119000	-16.94759000
16.49999920	0.00000000	-45.01722000	-16.20325000
16.69999919	-0.15871060	-44.64813000	-15.82800000
16.89999917	0.00000000	-44.31594000	-15.82800000
17.09999916	0.00000000	-44.22982000	-16.20325000
17.29999915	0.00000000	-43.85457000	-16.89837000
17.49999914	0.00000000	-43.11023000	-16.89837000
17.69999913	0.00000000	-42.78420000	-16.20325000
17.89999911	0.00000000	-43.15945000	-15.87721000
18.09999910	0.00000000	-44.31594000	-16.16018000
18.29999909	0.00000000	-45.85384000	-16.52928000
18.49999908	0.00000000	-47.43479000	-16.16018000
18.69999907	0.00000000	-48.97269000	-15.87721000
18.89999905	0.00000000	-50.08612000	-16.20325000
19.09999904	0.00000000	-50.08612000	-16.89837000
19.29999903	0.00000000	-48.88041000	-16.89837000
19.49999902	0.00000000	-46.54896000	-16.25246000
19.69999901	0.00000000	-43.02411000	-16.25246000
19.89999900	0.00000000	-39.19783000	-16.89837000
20.09999898	0.00000000	-35.71604000	-16.89837000
20.29999897	0.00000000	-33.84596000	-16.20325000
20.49999896	0.00000000	-34.26427000	-15.82800000
20.69999895	0.00000000	-37.43233000	-15.78494000
20.89999894	0.00000000	-43.24557000	-15.82800000
21.09999892	0.00000000	-50.59670000	-16.20325000
21.29999891	0.00000000	-57.94783000	-16.94759000
21.49999890	0.00000000	-63.67495000	-17.32283000
21.69999889	0.00000000	-65.90797000	-17.36589000
21.89999888	0.00000000	-63.11515000	-17.36589000
22.09999886	0.00000000	-55.38877000	-17.36589000
22.29999885	0.00000000	-44.13755000	-17.36589000
22.49999884	0.00000000	-31.75443000	-17.32283000
22.69999883	0.00000000	-20.58932000	-16.94759000
22.89999882	0.00000000	-13.74877000	-16.20325000
23.09999881	0.00000000	-13.79183000	-15.82800000
23.29999879	0.00000000	-21.19217000	-15.78494000
23.49999878	0.00000000	-34.81791000	-15.74188000
23.69999877	0.00000000	-52.55290000	-15.36663000
23.89999876	0.00000000	-70.27559000	-14.67150000
24.09999875	0.00000000	-82.94167000	-14.67150000
24.29999873	0.00000000	-87.54306000	-15.40969000
24.49999872	0.00000000	-82.05585000	-16.20325000
24.69999871	0.00000000	-67.39665000	-17.40895000
24.89999870	0.00000000	-46.88115000	-18.94685000
25.09999869	0.00000000	-24.82775000	-20.47859000
25.29999867	0.00000000	-5.97933100	-21.59203000
25.49999866	0.00000000	4.76747000	-21.59203000
25.69999865	0.00000000	3.98006900	-20.43553000
25.89999864	0.00000000	-7.97859100	-18.43627000
26.09999863	0.00000000	-28.49409000	-15.27436000
26.29999862	0.00000000	-53.20496000	-11.09129000
26.49999860	0.00000000	-76.37794000	-7.28346400
26.69999859	0.00000000	-92.56889000	-5.33341500
26.89999858	0.00000000	-97.96382000	-5.37647600
27.09999857	0.00000000	-91.03100000	-7.79404500
27.29999856	0.00000000	-73.67741000	-13.22589000
27.49999854	0.00000000	-50.12918000	-20.52780000
27.69999853	0.00000000	-25.75664000	-27.86663000
27.89999852	0.00000000	-6.02239100	-33.67372000
28.09999851	0.00000000	5.18577700	-36.65108000
28.29999850	0.00000000	5.18577700	-35.43922000
28.49999848	0.00000000	-5.97933100	-29.17692000
28.69999847	0.00000000	-25.24606000	-19.18061000
28.89999846	0.00000000	-48.04380000	-7.15428100
29.09999845	0.00000000	-68.89149000	3.96161400
29.29999844	0.00000000	-83.30463000	11.66339000
29.49999843	0.00000000	-88.75491000	13.52731000
29.69999841	0.00000000	-84.93479000	8.87672100
29.89999840	0.00000000	-72.56397000	-1.61786400
30.09999839	0.00000000	-54.87819000	-16.29552000
30.29999838	0.00000000	-36.26968000	-32.09276000
30.49999837	0.00000000	-20.77387000	-45.19562000
30.69999835	0.00000000	-11.05438000	-52.54060000
30.89999834	0.00000000	-9.04896600	-52.49754000
31.09999833	0.00000000	-14.40084000	-44.73425000
31.29999832	0.00000000	-25.24606000	-30.42569000
31.49999831	0.00000000	-39.57308000	-12.67840000
31.69999829	0.00000000	-54.23228000	4.69980300
31.89999828	0.00000000	-65.86491000	17.84572000
32.09999827	0.00000000	-72.09646000	23.98499000
32.29999826	0.00000000	-72.14567000	21.65354000
32.49999825	0.00000000	-66.37549000	10.88213000
32.69999824	0.00000000	-56.32381000	-5.33341500
32.89999822	0.00000000	-44.35900000	-23.50517000
33.09999821	0.00000000	-33.15083000	-40.13287000
33.29999820	0.00000000	-25.42446000	-51.33489000
33.49999819	0.00000000	-22.68085000	-55.27805000
33.69999818	0.00000000	-25.33218000	-51.37795000
33.89999816	0.00000000	-32.22195000	-40.55118000
34.09999815	0.00000000	-41.11097000	-24.71087000
34.29999814	0.00000000	-50.00000000	-7.37573800
34.49999813	0.00000000	-56.92667000	7.35113100
34.69999812	0.00000000	-60.04552000	16.59695000
34.89999810	0.00000000	-58.92593000	18.54085000
35.09999809	0.00000000	-54.36761000	12.41388000
35.29999808	0.00000000	-47.81004000	0.51673230
35.49999807	0.00000000	-41.24631000	-14.21014000
35.69999806	0.00000000	-35.85138000	-28.84473000
35.89999805	0.00000000	-33.19390000	-40.04060000
36.09999803	0.00000000	-34.31348000	-45.06028000
36.29999802	0.00000000	-38.50270000	-43.20251000
36.49999801	0.00000000	-44.22982000	-35.11934000
36.69999800	0.00000000	-49.62475000	-23.22219000
36.89999799	0.00000000	-53.11269000	-10.53765000
37.09999797	0.00000000	-54.31840000	-0.50442900
37.29999796	0.00000000	-53.11269000	4.51525500
37.49999795	0.00000000	-49.66781000	3.77091500
37.69999794	0.00000000	-44.64813000	-2.73129900
37.89999793	0.00000000	-39.70842000	-12.62918000
38.09999791	0.00000000	-36.18356000	-22.61934000
38.29999790	0.00000000	-35.01476000	-29.91511000
38.49999789	0.00000000	-35.75910000	-32.65256000
38.69999788	0.00000000	-38.50270000	-30.33341000
38.89999787	0.00000000	-42.69193000	-23.78199000
39.09999786	0.00000000	-47.01648000	-14.25320000
39.29999784	0.00000000	-50.83661000	-5.14886800
39.49999783	0.00000000	-53.56791000	-0.12918310
39.69999782	0.00000000	-53.95546000	-0.08612204
39.89999781	0.00000000	-52.87278000	-4.73056000
40.09999780	0.00000000	-50.46136000	-13.18282000
40.29999778	0.00000000	-47.01648000	-23.12992000
40.49999777	0.00000000	-43.11023000	-31.53912000
40.69999776	0.00000000	-39.62229000	-35.72219000
40.89999775	0.00000000	-36.87869000	-34.23351000
41.09999774	0.00000000	-35.38385000	-27.73130000
41.29999772	0.00000000	-35.71604000	-18.47933000
41.49999771	0.00000000	-37.66609000	-8.49532500
41.69999770	0.00000000	-40.36663000	-0.46136810
41.89999769	0.00000000	-43.89763000	3.02657500
42.09999768	0.00000000	-47.34252000	1.53789400
42.29999767	0.00000000	-50.08612000	-4.21998000
42.49999765	0.00000000	-51.66707000	-12.67224000
42.69999764	0.00000000	-52.04232000	-21.54897000
42.89999763	0.00000000	-51.24877000	-28.84473000
43.09999762	0.00000000	-48.92347000	-32.70177000
43.29999761	0.00000000	-45.89690000	-32.00664000
43.49999759	0.00000000	-43.20251000	-27.82357000
43.69999758	0.00000000	-41.57849000	-21.64124000
43.89999757	0.00000000	-40.73573000	-14.72072000
44.09999756	0.00000000	-39.99754000	-8.91363100
44.29999755	0.00000000	-39.99754000	-5.42568800
44.49999753	0.00000000	-40.69267000	-4.63828700
44.69999752	0.00000000	-41.06791000	-6.90821800
44.89999751	0.00000000	-41.15403000	-11.09129000
45.09999750	0.00000000	-41.57849000	-15.74188000
45.29999749	0.00000000	-42.73499000	-20.01722000
45.49999748	0.00000000	-44.31594000	-23.08686000
45.69999746	0.00000000	-46.32135000	-24.24335000
45.89999745	0.00000000	-49.01575000	-23.12992000
46.09999744	0.00000000	-51.71013000	-20.47859000
46.29999743	0.00000000	-53.62328000	-17.41511000
46.49999742	0.00000000	-54.31840000	-14.67150000
46.69999740	0.00000000	-52.73745000	-12.72146000
46.89999739	0.00000000	-48.88041000	-11.51575000
47.09999738	0.00000000	-43.80536000	-11.14050000
47.29999737	0.00000000	-37.99213000	-11.55881000
47.49999736	0.00000000	-32.59719000	-13.13976000
47.69999734	0.00000000	-29.18922000	-15.78494000
47.89999733	0.00000000	-28.86934000	-18.47933000
48.09999732	0.00000000	-32.73252000	-20.43553000
48.29999731	0.00000000	-39.66535000	-21.59203000
48.49999730	0.00000000	-47.81004000	-21.54897000
48.69999729	0.00000000	-55.89936000	-20.01722000
48.89999727	0.00000000	-61.62647000	-17.32283000
49.09999726	0.00000000	-63.20743000	-14.25320000
49.29999725	0.00000000	-60.46383000	-11.51575000
49.49999724	0.00000000	-53.85703000	-9.60875900
49.69999723	0.00000000	-44.22367000	-8.86441900
49.89999721	0.00000000	-34.26427000	-10.07013000
50.09999720	0.00000000	-26.95620000	-13.09670000
50.29999719	0.00000000	-24.21875000	-16.94759000
50.49999718	0.00000000	-26.49483000	-20.43553000
50.69999717	0.00000000	-32.68332000	-23.17298000
50.89999715	0.00000000	-41.52928000	-24.66781000
51.09999714	0.00000000	-50.78125000	-24.24335000
51.29999713	0.00000000	-57.72022000	-21.54897000
51.49999712	0.00000000	-61.20817000	-17.36589000
51.69999711	0.00000000	-60.04552000	-13.09670000
51.89999710	0.00000000	-54.69365000	-9.65182000
52.09999708	0.00000000	-46.96727000	-7.70792300
52.29999707	0.00000000	-38.54576000	-8.07086500
52.49999706	0.00000000	-32.03125000	-9.98400600
52.69999705	0.00000000	-29.69980000	-13.09670000
52.89999704	0.00000000	-31.56988000	-16.94759000
53.09999702	0.00000000	-36.92175000	-20.39247000
53.29999701	0.00000000	-43.85457000	-22.71161000
53.49999700	0.00000000	-50.36909000	-23.08686000
53.69999699	0.00000000	-55.01968000	-21.59203000
53.89999698	0.00000000	-56.13927000	-18.89764000
54.09999696	0.00000000	-53.90009000	-15.87721000
54.29999695	0.00000000	-48.88041000	-13.55807000
54.49999694	0.00000000	-42.78420000	-12.76452000
54.69999693	0.00000000	-37.34006000	-13.13976000
54.89999692	0.00000000	-33.93824000	-14.67150000
55.09999691	0.00000000	-33.52608000	-16.90453000
55.29999689	0.00000000	-36.58957000	-18.43627000
55.49999688	0.00000000	-41.52928000	-18.81152000
55.69999687	0.00000000	-46.96727000	-18.06102000
55.89999686	0.00000000	-51.53174000	-16.11712000
56.09999685	0.00000000	-53.85703000	-13.87795000
56.29999683	0.00000000	-53.11269000	-11.93405000
56.49999682	0.00000000	-50.08612000	-11.22662000
56.69999681	0.00000000	-45.85384000	-12.02018000
56.89999680	0.00000000	-41.57849000	-14.72072000
57.09999679	0.00000000	-38.12746000	-18.52854000
57.29999677	0.00000000	-36.18356000	-22.01649000
57.49999676	0.00000000	-36.54650000	-24.66166000
57.69999675	0.00000000	-38.45964000	-25.35679000
57.89999674	0.00000000	-41.57849000	-23.03765000
58.09999673	0.00000000	-45.38631000	-18.43627000
58.29999672	0.00000000	-48.46210000	-12.67224000
58.49999670	0.00000000	-50.04306000	-7.28346400
58.69999669	0.00000000	-50.04306000	-3.84473400
58.89999668	0.00000000	-48.50517000	-3.10039400
59.09999667	0.00000000	-45.85384000	-5.84399600
59.29999666	0.00000000	-43.20251000	-11.60187000
59.49999664	0.00000000	-41.62155000	-18.89764000
59.69999663	0.00000000	-41.15403000	-25.82431000
59.89999662	0.00000000	-41.15403000	-30.42569000
60.09999661	0.00000000	-41.57849000	-31.58218000
60.29999660	0.00000000	-42.73499000	-28.89395000
60.49999658	0.00000000	-44.22982000	-23.08686000
60.69999657	0.00000000	-45.34325000	-15.36663000
60.89999656	0.00000000	-45.38631000	-7.33267600
61.09999655	0.00000000	-44.64813000	-1.56865100
61.29999654	0.00000000	-43.89763000	0.38139760
61.49999653	0.00000000	-43.11023000	-1.56865100
61.69999651	0.00000000	-42.73499000	-7.33267600
61.89999650	0.00000000	-42.73499000	-15.40969000
62.09999649	0.00000000	-43.15945000	-23.50517000
62.29999648	0.00000000	-44.31594000	-30.09350000
62.49999647	0.00000000	-45.81078000	-33.49532000
62.69999645	0.00000000	-46.96727000	-32.74483000
62.89999644	0.00000000	-47.34252000	-27.78051000
63.09999643	0.00000000	-46.96727000	-20.47859000
63.29999642	0.00000000	-45.76156000	-12.76452000
63.49999641	0.00000000	-43.85457000	-6.17002900
63.69999639	0.00000000	-41.57849000	-2.31299200
63.89999638	0.00000000	-40.08366000	-1.48253000
64.09999637	0.00000000	-40.04060000	-3.84473400
64.29999636	0.00000000	-41.15403000	-8.82135800
64.49999635	0.00000000	-42.69193000	-15.36663000
64.69999634	0.00000000	-44.27288000	-21.50590000
64.89999632	0.00000000	-45.81078000	-25.82431000
65.09999631	0.00000000	-46.96727000	-27.77436000
65.29999630	0.00000000	-47.34252000	-27.44832000
65.49999629	0.00000000	-46.96727000	-25.12918000
65.69999628	0.00000000	-45.76156000	-21.64124000
65.89999626	0.00000000	-43.89763000	-17.36589000
66.09999625	0.00000000	-41.99680000	-13.09670000
66.29999624	0.00000000	-41.24631000	-9.60875900
66.49999623	0.00000000	-41.57849000	-7.28346400
66.69999622	0.00000000	-42.73499000	-6.86515700
66.89999620	0.00000000	-44.27288000	-7.93553100
67.09999619	0.00000000	-45.81078000	-9.51648500
67.29999618	0.00000000	-46.92421000	-11.51575000
67.49999617	0.00000000	-46.88115000	-14.25320000
67.69999616	0.00000000	-45.34325000	-17.36589000
67.89999615	0.00000000	-42.69193000	-20.47859000
68.09999613	0.00000000	-39.99754000	-23.17298000
68.29999612	0.00000000	-38.12746000	-24.71087000
68.49999611	0.00000000	-37.71530000	-24.71087000
68.69999610	0.00000000	-39.29010000	-23.12992000
68.89999609	0.00000000	-41.99680000	-20.01722000
69.09999607	0.00000000	-45.89690000	-15.74188000
69.29999606	0.00000000	-50.04306000	-11.09129000
69.49999605	0.00000000	-52.78666000	-6.86515700
69.69999604	0.00000000	-53.53100000	-4.21998000
69.89999603	0.00000000	-52.31914000	-4.17076700
70.09999601	0.00000000	-48.46210000	-6.48991100
70.29999600	0.00000000	-43.06717000	-10.40231000
70.49999599	0.00000000	-37.65994000	-15.83415000
70.69999598	0.00000000	-33.05856000	-21.54897000
70.89999597	0.00000000	-31.19464000	-25.82431000
71.09999596	0.00000000	-32.68332000	-27.77436000
71.29999594	0.00000000	-36.92175000	-27.35605000
71.49999593	0.00000000	-42.69193000	-24.29257000
71.69999592	0.00000000	-48.54823000	-19.32210000
71.89999591	0.00000000	-53.58022000	-14.34547000
72.09999590	0.00000000	-57.01894000	-10.44537000
72.29999588	0.00000000	-57.39419000	-8.48917200
72.49999587	0.00000000	-54.69365000	-8.40305000
72.69999586	0.00000000	-49.66781000	-9.60875900
72.89999585	0.00000000	-43.15945000	-11.93405000
73.09999584	0.00000000	-37.34006000	-15.36663000
73.29999582	0.00000000	-33.42765000	-18.39321000
73.49999581	0.00000000	-31.47761000	-20.01722000
73.69999580	0.00000000	-32.30807000	-20.39247000
73.89999579	0.00000000	-35.75910000	-19.64198000
74.09999578	0.00000000	-41.11097000	-17.74114000
74.29999577	0.00000000	-46.50590000	-15.92027000
74.49999575	0.00000000	-50.41830000	-15.13902000
74.69999574	0.00000000	-52.78666000	-15.87721000
74.89999573	0.00000000	-53.11269000	-17.36589000
75.09999572	0.00000000	-51.24877000	-18.90379000
75.29999571	0.00000000	-47.81004000	-20.01722000
75.49999569	0.00000000	-44.31594000	-19.97416000
75.69999568	0.00000000	-41.20325000	-18.43627000
75.89999567	0.00000000	-38.87795000	-15.74188000
76.09999566	0.00000000	-38.12746000	-12.62918000
76.29999565	0.00000000	-38.83489000	-9.60875900
76.49999563	0.00000000	-40.73573000	-7.70792300
76.69999562	0.00000000	-42.64886000	-8.12007800
76.89999561	0.00000000	-44.22982000	-10.44537000
77.09999560	0.00000000	-45.38631000	-14.72072000
77.29999559	0.00000000	-45.76156000	-20.06029000
77.49999558	0.00000000	-45.43553000	-24.66781000
77.69999556	0.00000000	-44.69119000	-27.35605000
77.89999555	0.00000000	-44.31594000	-27.35605000
78.09999554	0.00000000	-44.31594000	-24.66781000
78.29999553	0.00000000	-44.69119000	-20.06029000
78.49999552	0.00000000	-45.43553000	-14.62844000
78.69999550	0.00000000	-45.76156000	-9.60875900
78.89999549	0.00000000	-45.38631000	-5.70866100
79.09999548	0.00000000	-44.22982000	-3.84473400
79.29999547	0.00000000	-42.69193000	-4.63828700
79.49999546	0.00000000	-41.11097000	-8.44611200
79.69999544	0.00000000	-39.57308000	-13.79183000
79.89999543	0.00000000	-38.45964000	-18.85458000
80.09999542	0.00000000	-38.50270000	-23.12992000
80.29999541	0.00000000	-40.04060000	-25.82431000
80.49999540	0.00000000	-42.73499000	-26.24262000
80.69999539	0.00000000	-45.76156000	-24.71087000
80.89999537	0.00000000	-48.08686000	-21.64124000
81.09999536	0.00000000	-48.88041000	-17.78420000
81.29999535	0.00000000	-48.50517000	-14.25320000
81.49999534	0.00000000	-46.96727000	-11.14050000
81.69999533	0.00000000	-44.64813000	-8.82135800
81.89999531	0.00000000	-42.31668000	-8.02780400
82.09999530	0.00000000	-39.99754000	-8.40305000
82.29999529	0.00000000	-38.50270000	-9.93479300
82.49999528	0.00000000	-38.50270000	-12.25394000
82.69999527	0.00000000	-39.99754000	-14.62844000
82.89999525	0.00000000	-42.27362000	-17.41511000
83.09999524	0.00000000	-44.22982000	-20.43553000
83.29999523	0.00000000	-45.81078000	-22.75467000
83.49999522	0.00000000	-46.96727000	-23.59129000
83.69999521	0.00000000	-47.34252000	-23.59129000
83.89999520	0.00000000	-46.96727000	-22.71161000
84.09999518	0.00000000	-45.81078000	-20.01722000
84.29999517	0.00000000	-44.31594000	-16.16018000
84.49999516	0.00000000	-43.15945000	-12.29700000
84.69999515	0.00000000	-42.73499000	-8.82135800
84.89999514	0.00000000	-42.69193000	-6.90821800
85.09999512	0.00000000	-42.69193000	-6.90821800
85.29999511	0.00000000	-42.69193000	-8.86441900
85.49999510	0.00000000	-42.69193000	-12.72146000
85.69999509	0.00000000	-42.69193000	-17.32283000
85.89999508	0.00000000	-42.69193000	-21.59203000
86.09999506	0.00000000	-42.69193000	-24.71087000
86.29999505	0.00000000	-42.73499000	-26.24262000
86.49999504	0.00000000	-43.11023000	-25.82431000
86.69999503	0.00000000	-43.89763000	-23.08686000
86.89999502	0.00000000	-44.69119000	-18.47933000
87.09999501	0.00000000	-45.85384000	-13.13976000
87.29999499	0.00000000	-46.92421000	-8.90747900
87.49999498	0.00000000	-46.92421000	-6.90821800
87.69999497	0.00000000	-45.81078000	-6.90821800
87.89999496	0.00000000	-44.27288000	-8.86441900
88.09999495	0.00000000	-42.69193000	-12.72146000
88.29999493	0.00000000	-41.15403000	-17.32283000
88.49999492	0.00000000	-40.04060000	-21.54897000
88.69999491	0.00000000	-40.04060000	-24.24335000
88.89999490	0.00000000	-41.15403000	-24.61860000
89.09999489	0.00000000	-42.69193000	-22.71161000
89.29999487	0.00000000	-44.27288000	-18.85458000
89.49999486	0.00000000	-45.76156000	-14.25320000
89.69999485	0.00000000	-46.54896000	-10.02707000
89.89999484	0.00000000	-46.18602000	-7.37573800
90.09999483	0.00000000	-45.47859000	-7.33267600
90.29999482	0.00000000	-44.64813000	-9.60875900
90.49999480	0.00000000	-43.85457000	-13.09670000
90.69999479	0.00000000	-42.69193000	-17.36589000
90.89999478	0.00000000	-41.62155000	-21.54897000
91.09999477	0.00000000	-41.57849000	-24.20029000
91.29999476	0.00000000	-42.27362000	-24.24335000
91.49999474	0.00000000	-42.64886000	-21.92421000
91.69999473	0.00000000	-42.69193000	-18.06102000
91.89999472	0.00000000	-42.69193000	-13.09670000
92.09999471	0.00000000	-42.69193000	-8.90747900
92.29999470	0.00000000	-42.69193000	-6.95743000
92.49999468	0.00000000	-42.73499000	-7.33267600
92.69999467	0.00000000	-43.11023000	-10.02707000
92.89999466	0.00000000	-43.85457000	-14.21014000
93.09999465	0.00000000	-44.27288000	-18.47933000
93.29999464	0.00000000	-44.69119000	-21.96727000
93.49999463	0.00000000	-45.43553000	-24.20029000
93.69999461	0.00000000	-45.76156000	-23.82505000
93.89999460	0.00000000	-45.38631000	-20.81078000
94.09999459	0.00000000	-44.18061000	-16.99065000
94.29999458	0.00000000	-42.27362000	-13.09670000
94.49999457	0.00000000	-39.99754000	-10.07013000
94.69999455	0.00000000	-38.45964000	-8.91363100
94.89999454	0.00000000	-38.04134000	-10.02707000
95.09999453	0.00000000	-38.45964000	-12.72146000
95.29999452	0.00000000	-40.04060000	-16.16018000
95.49999451	0.00000000	-42.73499000	-19.64198000
95.69999449	0.00000000	-45.81078000	-21.92421000
95.89999448	0.00000000	-48.54823000	-22.71161000
96.09999447	0.00000000	-50.41830000	-21.54897000
96.29999446	0.00000000	-50.83046000	-18.89764000
96.49999445	0.00000000	-49.25565000	-15.78494000
96.69999444	0.00000000	-46.54896000	-12.72146000
96.89999442	0.00000000	-42.69193000	-10.44537000
97.09999441	0.00000000	-38.83489000	-10.07013000
97.29999440	0.00000000	-36.12819000	-11.55881000
97.49999439	0.00000000	-34.55339000	-14.21014000
97.69999438	0.00000000	-35.00861000	-16.85531000
97.89999436	0.00000000	-37.29700000	-18.47933000
98.09999435	0.00000000	-41.15403000	-19.27903000
98.29999434	0.00000000	-45.38631000	-19.64198000
98.49999433	0.00000000	-48.88041000	-18.85458000
98.69999432	0.00000000	-51.24877000	-17.36589000
98.89999430	0.00000000	-51.99926000	-15.83415000
99.09999429	0.00000000	-51.20571000	-14.67150000
99.29999428	0.00000000	-48.50517000	-14.25320000
99.49999427	0.00000000	-44.69119000	-14.21014000
99.69999426	0.00000000	-41.20325000	-14.21014000
99.89999425	0.00000000	-38.41658000	-14.21014000
100.09999423	0.00000000	-36.50344000	-14.21014000
100.29999422	0.00000000	-35.75910000	-14.21014000
100.49999421	0.00000000	-36.92175000	-14.21014000
100.69999420	0.00000000	-39.57308000	-14.21014000
100.89999419	0.00000000	-42.64886000	-14.25320000
101.09999417	0.00000000	-45.38631000	-14.72072000
101.29999416	0.00000000	-47.34252000	-16.25246000
101.49999415	0.00000000	-48.54823000	-18.47933000
101.69999414	0.00000000	-48.92347000	-20.01722000
101.89999413	0.00000000	-48.50517000	-20.39247000
102.09999411	0.00000000	-46.96727000	-19.64198000
102.29999410	0.00000000	-44.64813000	-17.69808000
102.49999409	0.00000000	-42.31668000	-15.36663000
102.69999408	0.00000000	-39.99754000	-12.62918000
102.89999407	0.00000000	-38.50270000	-10.02707000
103.09999406	0.00000000	-38.41658000	-8.86441900
103.29999404	0.00000000	-39.19783000	-9.60875900
103.49999403	0.00000000	-40.36663000	-11.51575000
103.69999402	0.00000000	-42.31668000	-14.25320000
103.89999401	0.00000000	-44.22982000	-17.32283000
104.09999400	0.00000000	-45.81078000	-20.01722000
104.29999398	0.00000000	-46.96727000	-21.54897000
104.49999397	0.00000000	-47.34252000	-21.54897000
104.69999396	0.00000000	-46.96727000	-20.01722000
104.89999395	0.00000000	-45.81078000	-17.32283000
105.09999394	0.00000000	-44.27288000	-14.25320000
105.29999392	0.00000000	-42.73499000	-11.60187000
105.49999391	0.00000000	-41.57849000	-10.40231000
105.69999390	0.00000000	-41.15403000	-10.76525000
105.89999389	0.00000000	-41.15403000	-11.88484000
106.09999388	0.00000000	-41.57849000	-13.87795000
106.29999387	0.00000000	-42.69193000	-16.16018000
106.49999385	0.00000000	-43.80536000	-18.47933000
106.69999384	0.00000000	-44.22982000	-19.97416000
106.89999383	0.00000000	-44.22982000	-20.01722000
107.09999382	0.00000000	-43.85457000	-18.85458000
107.29999381	0.00000000	-43.06717000	-16.94759000
107.49999379	0.00000000	-42.31668000	-14.67150000
107.69999378	0.00000000	-41.52928000	-13.13976000
107.89999377	0.00000000	-41.20325000	-12.72146000
108.09999376	0.00000000	-41.57849000	-13.09670000
108.29999375	0.00000000	-42.73499000	-14.25320000
108.49999374	0.00000000	-44.22982000	-15.78494000
108.69999372	0.00000000	-45.38631000	-17.32283000
108.89999371	0.00000000	-45.76156000	-18.43627000
109.09999370	0.00000000	-45.43553000	-18.43627000
109.29999369	0.00000000	-44.64813000	-17.32283000
109.49999368	0.00000000	-43.85457000	-15.78494000
109.69999366	0.00000000	-42.69193000	-14.25320000
109.89999365	0.00000000	-41.52928000	-13.09670000
110.09999364	0.00000000	-40.77879000	-12.72146000
110.29999363	0.00000000	-40.41584000	-13.04749000
110.49999362	0.00000000	-41.15403000	-13.83489000
110.69999360	0.00000000	-42.31668000	-14.62844000
110.89999359	0.00000000	-43.48548000	-15.83415000
111.09999358	0.00000000	-45.01722000	-17.32283000
111.29999357	0.00000000	-45.76156000	-18.47933000
111.49999356	0.00000000	-45.81078000	-18.85458000
111.69999355	0.00000000	-45.38631000	-18.47933000
111.89999353	0.00000000	-44.27288000	-17.36589000
112.09999352	0.00000000	-43.15945000	-16.20325000
112.29999351	0.00000000	-42.69193000	-15.40969000
112.49999350	0.00000000	-42.27362000	-14.62844000
112.69999349	0.00000000	-41.57849000	-14.25320000
112.89999347	0.00000000	-41.57849000	-14.21014000
113.09999346	0.00000000	-42.27362000	-14.25320000
113.29999345	0.00000000	-42.69193000	-14.62844000
113.49999344	0.00000000	-43.11023000	-15.36663000
113.69999343	0.00000000	-43.85457000	-15.74188000
113.89999341	0.00000000	-44.22982000	-15.78494000
114.09999340	0.00000000	-44.27288000	-15.82800000
114.29999339	0.00000000	-44.22982000	-16.20325000
114.49999338	0.00000000	-43.85457000	-16.94759000
114.69999337	0.00000000	-43.11023000	-17.32283000
114.89999336	0.00000000	-42.73499000	-17.36589000
115.09999334	0.00000000	-42.69193000	-17.36589000
115.29999333	0.00000000	-42.69193000	-17.32283000
115.49999332	0.00000000	-42.69193000	-16.94759000
115.69999331	0.00000000	-42.69193000	-16.20325000
115.89999330	0.00000000	-42.73499000	-15.78494000
116.09999328	0.00000000	-43.11023000	-15.36663000
116.29999327	0.00000000	-43.85457000	-14.58538000
116.49999326	0.00000000	-44.22982000	-13.87795000
116.69999325	0.00000000	-44.27288000	-13.46580000
116.89999324	0.00000000	-44.22982000	-13.87795000
117.09999322	0.00000000	-43.85457000	-14.62844000
117.29999321	0.00000000	-43.11023000	-15.78494000
117.49999320	0.00000000	-42.69193000	-16.94759000
117.69999319	0.00000000	-42.27362000	-17.69808000
117.89999318	0.00000000	-41.52928000	-18.11024000
118.09999317	0.00000000	-41.15403000	-17.74114000
118.29999315	0.00000000	-41.15403000	-17.36589000
118.49999314	0.00000000	-41.57849000	-16.89837000
118.69999313	0.00000000	-42.69193000	-15.78494000
118.89999312	0.00000000	-43.85457000	-14.67150000
119.09999311	0.00000000	-44.64813000	-14.25320000
119.29999309	0.00000000	-45.43553000	-14.21014000
119.49999308	0.00000000	-45.76156000	-14.21014000
119.69999307	0.00000000	-45.38631000	-14.25320000
119.89999306	0.00000000	-44.22982000	-14.62844000
120.09999305	0.00000000	-42.69193000	-15.36663000
120.29999303	0.00000000	-41.15403000	-15.74188000
120.49999302	0.00000000	-39.99754000	-15.78494000
120.69999301	0.00000000	-39.62229000	-15.82800000
120.89999300	0.00000000	-39.94832000	-16.20325000
121.09999299	0.00000000	-40.73573000	-16.94759000
121.29999298	0.00000000	-41.52928000	-17.27362000
121.49999296	0.00000000	-42.73499000	-16.94759000
121.69999295	0.00000000	-44.22982000	-16.20325000
121.89999294	0.00000000	-45.38631000	-15.82800000
122.09999293	0.00000000	-45.81078000	-15.74188000
122.29999292	0.00000000	-45.81078000	-15.36663000
122.49999290	0.00000000	-45.38631000	-14.62844000
122.69999289	0.00000000	-44.22982000	-14.25320000
122.89999288	0.00000000	-42.73499000	-14.21014000
123.09999287	0.00000000	-41.57849000	-14.21014000
123.29999286	0.00000000	-41.15403000	-14.25320000
123.49999284	0.00000000	-41.11097000	-14.62844000
123.69999283	0.00000000	-41.11097000	-15.36663000
123.89999282	0.00000000	-41.11097000	-15.74188000
124.09999281	0.00000000	-41.15403000	-15.78494000
124.29999280	0.00000000	-41.57849000	-15.82800000
124.49999279	0.00000000	-42.69193000	-16.16018000
124.69999277	0.00000000	-43.80536000	-16.52928000
124.89999276	0.00000000	-44.22982000	-16.16018000
125.09999275	0.00000000	-44.27288000	-15.82800000
125.29999274	0.00000000	-44.27288000	-15.74188000
125.49999273	0.00000000	-44.22982000	-15.36663000
125.69999271	0.00000000	-43.85457000	-14.62844000
125.89999270	0.00000000	-43.06717000	-14.25320000
126.09999269	0.00000000	-42.31668000	-14.25320000
126.29999268	0.00000000	-41.52928000	-14.62844000
126.49999267	0.00000000	-41.15403000	-15.36663000
126.69999265	0.00000000	-41.11097000	-15.74188000
126.89999264	0.00000000	-41.15403000	-15.78494000
127.09999263	0.00000000	-41.57849000	-15.82800000
127.29999262	0.00000000	-42.69193000	-16.20325000
127.49999261	0.00000000	-43.80536000	-16.89837000
127.69999260	0.00000000	-44.27288000	-16.89837000
127.89999258	0.00000000	-44.64813000	-16.20325000
128.09999257	0.00000000	-44.96801000	-15.82800000
128.29999256	0.00000000	-44.22982000	-15.74188000
128.49999255	0.00000000	-43.11023000	-15.36663000
128.69999254	0.00000000	-42.31668000	-14.62844000
128.89999252	0.00000000	-41.52928000	-14.25320000
129.09999251	0.00000000	-41.15403000	-14.25320000
129.29999250	0.00000000	-41.15403000	-14.62844000
129.49999249	0.00000000	-41.52928000	-15.36663000
129.69999248	0.00000000	-42.31668000	-15.78494000
129.89999246	0.00000000	-43.06717000	-16.16018000
130.09999245	0.00000000	-43.85457000	-16.52928000
130.29999244	0.00000000	-44.22982000	-16.11712000
130.49999243	0.00000000	-44.22982000	-15.40969000
130.69999242	0.00000000	-43.85457000	-14.62844000
130.89999241	0.00000000	-43.06717000	-14.25320000
131.09999239	0.00000000	-42.31668000	-14.21014000
131.29999238	0.00000000	-41.52928000	-14.25320000
131.49999237	0.00000000	-41.15403000	-14.62844000
131.69999236	0.00000000	-41.15403000	-15.36663000
131.89999235	0.00000000	-41.52928000	-15.74188000
132.09999233	0.00000000	-42.27362000	-15.82800000
132.29999232	0.00000000	-42.64886000	-16.16018000
132.49999231	0.00000000	-42.73499000	-16.52928000
132.69999230	0.00000000	-43.11023000	-16.16018000
132.89999229	0.00000000	-43.80536000	-15.78494000
133.09999227	0.00000000	-43.80536000	-15.36663000
133.29999226	0.00000000	-43.11023000	-14.62844000
133.49999225	0.00000000	-42.73499000	-14.25320000
133.69999224	0.00000000	-42.69193000	-14.21014000
133.89999223	0.00000000	-42.69193000	-14.25320000
134.09999222	0.00000000	-42.69193000	-14.62844000
134.29999220	0.00000000	-42.69193000	-15.40969000
134.49999219	0.00000000	-42.69193000	-16.16018000
134.69999218	0.00000000	-42.69193000	-16.94759000
134.89999217	0.00000000	-42.69193000	-17.32283000
135.09999216	0.00000000	-42.64886000	-17.32283000
135.29999214	0.00000000	-42.31668000	-16.94759000
135.49999213	0.00000000	-41.94759000	-16.20325000
135.69999212	0.00000000	-42.31668000	-15.82800000
135.89999211	0.00000000	-42.64886000	-15.74188000
136.09999210	0.00000000	-42.73499000	-15.36663000
136.29999208	0.00000000	-43.11023000	-14.62844000
136.49999207	0.00000000	-43.85457000	-14.25320000
136.69999206	0.00000000	-44.22982000	-14.25320000
136.89999205	0.00000000	-44.22982000	-14.62844000
137.09999204	0.00000000	-43.85457000	-15.36663000
137.29999203	0.00000000	-43.06717000	-15.78494000
137.49999201	0.00000000	-42.31668000	-16.20325000
137.69999200	0.00000000	-41.52928000	-16.94759000
137.89999199	0.00000000	-41.15403000	-17.32283000
138.09999198	0.00000000	-41.15403000	-17.36589000
138.29999197	0.00000000	-41.52928000	-17.36589000
138.49999195	0.00000000	-42.27362000	-17.32283000
138.69999194	0.00000000	-42.69193000	-16.94759000
138.89999193	0.00000000	-43.11023000	-16.16018000
139.09999192	0.00000000	-43.85457000	-15.40969000
139.29999191	0.00000000	-44.22982000	-14.62844000
139.49999189	0.00000000	-44.22982000	-14.21014000
139.69999188	0.00000000	-43.85457000	-13.83489000
139.89999187	0.00000000	-43.06717000	-13.46580000
140.09999186	0.00000000	-42.31668000	-13.87795000
140.29999185	0.00000000	-41.52928000	-14.58538000
140.49999184	0.00000000	-41.20325000	-15.36663000
140.69999182	0.00000000	-41.52928000	-15.78494000
140.89999181	0.00000000	-42.27362000	-16.20325000
141.09999180	0.00000000	-42.64886000	-16.94759000
141.29999179	0.00000000	-42.69193000	-17.27362000
141.49999178	0.00000000	-42.69193000	-16.94759000
141.69999176	0.00000000	-42.69193000	-16.16018000
141.89999175	0.00000000	-42.69193000	-15.36663000
142.09999174	0.00000000	-42.64886000	-14.21014000
142.29999173	0.00000000	-42.27362000	-13.13976000
142.49999172	0.00000000	-41.52928000	-13.09670000
142.69999170	0.00000000	-41.15403000	-13.79183000
142.89999169	0.00000000	-41.15403000	-14.21014000
143.09999168	0.00000000	-41.52928000	-14.67150000
143.29999167	0.00000000	-42.27362000	-15.78494000
143.49999166	0.00000000	-42.64886000	-16.89837000
143.69999165	0.00000000	-42.69193000	-17.32283000
143.89999163	0.00000000	-42.69193000	-17.36589000
144.09999162	0.00000000	-42.64886000	-17.32283000
144.29999161	0.00000000	-42.31668000	-16.89837000
144.49999160	0.00000000	-41.90453000	-15.78494000
144.69999159	0.00000000	-41.94144000	-14.67150000
144.89999157	0.00000000	-41.86147000	-14.25320000
145.09999156	0.00000000	-41.94144000	-14.21014000
145.29999155	0.00000000	-41.90453000	-14.21014000
145.49999154	0.00000000	-42.31668000	-14.25320000
145.69999153	0.00000000	-42.64886000	-14.62844000
145.89999151	0.00000000	-42.69193000	-15.36663000
146.09999150	0.00000000	-42.69193000	-15.78494000
146.29999149	0.00000000	-42.69193000	-16.20325000
146.49999148	0.00000000	-42.69193000	-16.89837000
146.69999147	0.00000000	-42.64886000	-16.89837000
146.89999146	0.00000000	-42.31668000	-16.20325000
147.09999144	0.00000000	-41.90453000	-15.82800000
147.29999143	0.00000000	-41.94144000	-15.74188000
147.49999142	0.00000000	-41.90453000	-15.36663000
147.69999141	0.00000000	-42.31668000	-14.62844000
147.89999140	0.00000000	-42.64886000	-14.25320000
148.09999138	0.00000000	-42.73499000	-14.25320000
148.29999137	0.00000000	-43.06717000	-14.62844000
148.49999136	0.00000000	-43.43627000	-15.36663000
148.69999135	0.00000000	-43.06717000	-15.74188000
148.89999134	0.00000000	-42.73499000	-15.78494000
149.09999132	0.00000000	-42.64886000	-15.78494000
149.29999131	0.00000000	-42.27362000	-15.78494000
149.49999130	0.00000000	-41.52928000	-15.78494000
149.69999129	0.00000000	-41.15403000	-15.78494000
149.89999128	0.00000000	-41.11097000	-15.78494000
150.09999127	0.00000000	-41.15403000	-15.74188000
150.29999125	0.00000000	-41.52928000	-15.36663000
150.49999124	0.00000000	-42.27362000	-14.62844000
150.69999123	0.00000000	-42.64886000	-14.25320000
150.89999122	0.00000000	-42.69193000	-14.21014000
151.09999121	0.00000000	-42.69193000	-14.25320000
151.29999119	0.00000000	-42.69193000	-14.62844000
151.49999118	0.00000000	-42.69193000	-15.36663000
151.69999117	0.00000000	-42.69193000	-15.74188000
151.89999116	0.00000000	-42.64886000	-15.78494000
152.09999115	0.00000000	-42.27362000	-15.78494000
152.29999113	0.00000000	-41.52928000	-15.78494000
152.49999112	0.00000000	-41.15403000	-15.78494000
152.69999111	0.00000000	-41.11097000	-15.78494000
152.89999110	0.00000000	-41.15403000	-15.78494000
153.09999109	0.00000000	-41.48622000	-15.74188000
153.29999108	0.00000000	-41.89838000	-15.36663000
153.49999106	0.00000000	-41.90453000	-14.62844000
153.69999105	0.00000000	-42.31668000	-14.25320000
153.89999104	0.00000000	-42.64886000	-14.21014000
154.09999103	0.00000000	-42.69193000	-14.21014000
154.29999102	0.00000000	-42.69193000	-14.21014000
154.49999100	0.00000000	-42.69193000	-14.25320000
154.69999099	0.00000000	-42.69193000	-14.62844000
154.89999098	0.00000000	-42.64886000	-15.36663000
155.09999097	0.00000000	-42.27362000	-15.74188000
155.29999096	0.00000000	-41.52928000	-15.78494000
155.49999094	0.00000000	-41.15403000	-15.78494000
155.69999093	0.00000000	-41.11097000	-15.78494000
155.89999092	0.00000000	-41.11097000	-15.78494000
156.09999091	0.00000000	-41.15403000	-15.78494000
156.29999090	0.00000000	-41.52928000	-15.74188000
156.49999089	0.00000000	-42.27362000	-15.36663000
156.69999087	0.00000000	-42.64886000	-14.62844000
156.89999086	0.00000000	-42.69193000	-14.25320000
157.09999085	0.00000000	-42.69193000	-14.21014000
157.29999084	0.00000000	-42.69193000	-14.21014000
157.49999083	0.00000000	-42.69193000	-14.25320000
157.69999081	0.00000000	-42.69193000	-14.62844000
157.89999080	0.00000000	-42.69193000	-15.36663000
158.09999079	0.00000000	-42.64886000	-15.74188000
158.29999078	0.00000000	-42.27362000	-15.78494000
158.49999077	0.00000000	-41.52928000	-15.78494000
158.69999075	0.00000000	-41.15403000	-15.78494000
158.89999074	0.00000000	-41.11097000	-15.78494000
159.09999073	0.00000000	-41.15403000	-15.78494000
159.29999072	0.00000000	-41.48622000	-15.78494000
159.49999071	0.00000000	-41.89838000	-15.74188000
159.69999070	0.00000000	-41.90453000	-15.36663000
159.89999068	0.00000000	-42.31668000	-14.62844000
160.09999067	0.00000000	-42.64886000	-14.25320000
160.29999066	0.00000000	-42.69193000	-14.25320000
160.49999065	0.00000000	-42.69193000	-14.62844000
160.69999064	0.00000000	-42.69193000	-15.36663000
160.89999062	0.00000000	-42.69193000	-15.74188000
161.09999061	0.00000000	-42.69193000	-15.78494000
161.29999060	0.00000000	-42.69193000	-15.78494000
161.49999059	0.00000000	-42.64886000	-15.78494000
161.69999058	0.00000000	-42.27362000	-15.78494000
161.89999056	0.00000000	-41.57849000	-15.78494000
162.09999055	0.00000000	-41.52928000	-15.74188000
162.29999054	0.00000000	-41.89838000	-15.36663000
162.49999053	0.00000000	-41.90453000	-14.62844000
162.69999052	0.00000000	-42.31668000	-14.25320000
162.89999051	0.00000000	-42.64886000	-14.21014000
163.09999049	0.00000000	-42.69193000	-14.25320000
163.29999048	0.00000000	-42.69193000	-14.62844000
163.49999047	0.00000000	-42.69193000	-15.36663000
163.69999046	0.00000000	-42.69193000	-15.74188000
163.89999045	0.00000000	-42.69193000	-15.78494000
164.09999043	0.00000000	-42.69193000	-15.78494000
164.29999042	0.00000000	-42.64886000	-15.78494000
164.49999041	0.00000000	-42.27362000	-15.78494000
164.69999040	0.00000000	-41.52928000	-15.78494000
164.89999039	0.00000000	-41.15403000	-15.74188000
165.09999037	0.00000000	-41.11097000	-15.36663000
165.29999036	0.00000000	-41.11097000	-14.62844000
165.49999035	0.00000000	-41.11097000	-14.25320000
165.69999034	0.00000000	-41.15403000	-14.21014000
165.89999033	0.00000000	-41.52928000	-14.21014000
166.09999032	0.00000000	-42.27362000	-14.21014000
166.29999030	0.00000000	-42.64886000	-14.21014000
166.49999029	0.00000000	-42.69193000	-14.25320000
166.69999028	0.00000000	-42.69193000	-14.62844000
166.89999027	0.00000000	-42.69193000	-15.36663000
167.09999026	0.00000000	-42.64886000	-15.74188000
167.29999024	0.00000000	-42.31668000	-15.78494000
167.49999023	0.00000000	-41.90453000	-15.78494000
167.69999022	0.00000000	-41.89838000	-15.78494000
167.89999021	0.00000000	-41.52928000	-15.78494000
168.09999020	0.00000000	-41.52928000	-15.78494000
168.29999018	0.00000000	-41.85531000	-15.78494000
168.49999017	0.00000000	-41.48622000	-15.78494000
168.69999016	0.00000000	-41.15403000	-15.78494000
168.89999015	0.00000000	-41.15403000	-15.78494000
169.09999014	0.00000000	-41.52928000	-15.78494000
169.29999013	0.00000000	-42.27362000	-15.78494000
169.49999011	0.00000000	-42.64886000	-15.78494000
169.69999010	0.00000000	-42.64886000	-15.74188000
169.89999009	0.00000000	-42.31668000	-15.40969000
170.09999008	0.00000000	-41.94759000	-15.04675000
170.29999007	0.00000000	-42.27362000	-15.36663000
170.49999005	0.00000000	-42.22441000	-15.36663000
170.69999004	0.00000000	-41.52928000	-15.00369000
170.89999003	0.00000000	-41.15403000	-14.99139000
171.09999002	0.00000000	-41.11097000	-14.58538000
171.29999001	0.00000000	-41.11097000	-14.30241000
171.49998999	0.00000000	-41.11097000	-14.62844000
171.69998998	0.00000000	-41.11097000	-15.36663000
171.89998997	0.00000000	-41.15403000	-15.74188000
172.09998996	0.00000000	-41.48622000	-15.74188000
172.29998995	0.00000000	-41.89838000	-15.36663000
172.49998994	0.00000000	-41.90453000	-14.62844000
172.69998992	0.00000000	-42.27362000	-14.25320000
172.89998991	0.00000000	-42.22441000	-14.21014000
173.09998990	0.00000000	-41.57849000	-14.21014000
173.29998989	0.00000000	-41.52928000	-14.21014000
173.49998988	0.00000000	-41.85531000	-14.21014000
173.69998986	0.00000000	-41.48622000	-14.21014000
173.89998985	0.00000000	-41.15403000	-14.25320000
174.09998984	0.00000000	-41.11097000	-14.58538000
174.29998983	0.00000000	-41.11097000	-14.99139000
174.49998982	0.00000000	-41.15403000	-15.00369000
174.69998980	0.00000000	-41.48622000	-15.40969000
174.89998979	0.00000000	-41.89838000	-15.74188000
175.09998978	0.00000000	-41.86147000	-15.74188000
175.29998977	0.00000000	-41.94144000	-15.40969000
175.49998976	0.00000000	-41.86147000	-15.04675000
175.69998975	0.00000000	-41.94144000	-15.36663000
175.89998973	0.00000000	-41.86147000	-15.36663000
176.09998972	0.00000000	-41.89838000	-15.04675000
176.29998971	0.00000000	-41.48622000	-15.36663000
176.49998970	0.00000000	-41.20325000	-15.36663000
176.69998969	0.00000000	-41.52928000	-15.04675000
176.89998967	0.00000000	-42.22441000	-15.40969000
177.09998966	0.00000000	-42.22441000	-15.74188000
177.29998965	0.00000000	-41.57849000	-15.78494000
177.49998964	0.00000000	-41.57849000	-15.78494000
177.69998963	0.00000000	-42.27362000	-15.78494000
177.89998961	0.00000000	-42.64886000	-15.78494000
178.09998960	0.00000000	-42.64886000	-15.78494000
178.29998959	0.00000000	-42.31668000	-15.78494000
178.49998958	0.00000000	-41.94759000	-15.74188000
178.69998957	0.00000000	-42.31668000	-15.40969000
178.89998956	0.00000000	-42.64886000	-15.04675000
179.09998954	0.00000000	-42.64886000	-15.40969000
179.29998953	0.00000000	-42.31668000	-15.74188000
179.49998952	0.00000000	-41.90453000	-15.78494000
179.69998951	0.00000000	-41.89838000	-15.78494000
179.89998950	0.00000000	-41.48622000	-15.78494000
180.09998948	0.00000000	-41.15403000	-15.78494000
180.29998947	0.00000000	-41.15403000	-15.78494000
180.49998946	0.00000000	-41.52928000	-15.78494000
180.69998945	0.00000000	-42.27362000	-15.78494000
180.89998944	0.00000000	-42.64886000	-15.78494000
181.09998942	0.00000000	-42.69193000	-15.74188000
181.29998941	0.00000000	-42.69193000	-15.36663000
181.49998940	0.00000000	-42.64886000	-14.62844000
181.69998939	0.00000000	-42.27362000	-14.25320000
181.89998938	0.00000000	-41.52928000	-14.21014000
182.09998937	0.00000000	-41.15403000	-14.21014000
182.29998935	0.00000000	-41.11097000	-14.21014000
182.49998934	0.00000000	-41.11097000	-14.21014000
182.69998933	0.00000000	-41.11097000	-14.25320000
182.89998932	0.00000000	-41.11097000	-14.62844000
183.09998931	0.00000000	-41.11097000	-15.36663000
183.29998929	0.00000000	-41.11097000	-15.74188000
183.49998928	0.00000000	-41.11097000	-15.78494000
183.69998927	0.00000000	-41.11097000	-15.78494000
183.89998926	0.00000000	-41.15403000	-15.78494000
184.09998925	0.00000000	-41.52928000	-15.74188000
184.29998923	0.00000000	-42.22441000	-15.36663000
184.49998922	0.00000000	-42.22441000	-14.62844000
184.69998921	0.00000000	-41.52928000	-14.25320000
184.89998920	0.00000000	-41.15403000	-14.21014000
185.09998919	0.00000000	-41.11097000	-14.21014000
185.29998918	0.00000000	-41.11097000	-14.25320000
185.49998916	0.00000000	-41.11097000	-14.62844000
185.69998915	0.00000000	-41.11097000	-15.36663000
185.89998914	0.00000000	-41.11097000	-15.74188000
186.09998913	0.00000000	-41.11097000	-15.78494000
186.29998912	0.00000000	-41.11097000	-15.78494000
186.49998910	0.00000000	-41.11097000	-15.78494000
186.69998909	0.00000000	-41.11097000	-15.74188000
186.89998908	0.00000000	-41.11097000	-15.36663000
187.09998907	0.00000000	-41.15403000	-14.62844000
187.29998906	0.00000000	-41.52928000	-14.25320000
187.49998904	0.00000000	-42.27362000	-14.21014000
187.69998903	0.00000000	-42.59965000	-14.21014000
187.89998902	0.00000000	-42.27362000	-14.21014000
188.09998901	0.00000000	-41.52928000	-14.21014000
188.29998900	0.00000000	-41.15403000	-14.25320000
188.49998899	0.00000000	-41.11097000	-14.62844000
188.69998897	0.00000000	-41.11097000	-15.36663000
188.89998896	0.00000000	-41.11097000	-15.74188000
189.09998895	0.00000000	-41.11097000	-15.78494000
189.29998894	0.00000000	-41.11097000	-15.78494000
189.49998893	0.00000000	-41.11097000	-15.78494000
189.69998891	0.00000000	-41.15403000	-15.78494000
189.89998890	0.00000000	-41.52928000	-15.78494000
190.09998889	0.00000000	-42.27362000	-15.78494000
190.29998888	0.00000000	-42.64886000	-15.74188000
190.49998887	0.00000000	-42.69193000	-15.36663000
190.69998885	0.00000000	-42.64886000	-14.62844000
190.89998884	0.00000000	-42.27362000	-14.25320000
191.09998883	0.00000000	-41.52928000	-14.25320000
191.29998882	0.00000000	-41.15403000	-14.58538000
191.49998881	0.00000000	-41.11097000	-14.99139000
191.69998880	0.00000000	-41.11097000	-15.00369000
191.89998878	0.00000000	-41.11097000	-15.40969000
192.09998877	0.00000000	-41.11097000	-15.74188000
192.29998876	0.00000000	-41.11097000	-15.78494000
192.49998875	0.00000000	-41.15403000	-15.78494000
192.69998874	0.00000000	-41.48622000	-15.78494000
192.89998872	0.00000000	-41.89838000	-15.78494000
193.09998871	0.00000000	-41.86147000	-15.78494000
193.29998870	0.00000000	-41.94144000	-15.74188000
193.49998869	0.00000000	-41.86147000	-15.36663000
193.69998868	0.00000000	-41.89838000	-14.62844000
193.89998866	0.00000000	-41.48622000	-14.25320000
194.09998865	0.00000000	-41.15403000	-14.21014000
194.29998864	0.00000000	-41.11097000	-14.21014000
194.49998863	0.00000000	-41.11097000	-14.21014000
194.69998862	0.00000000	-41.11097000	-14.21014000
194.89998861	0.00000000	-41.11097000	-14.21014000
195.09998859	0.00000000	-41.11097000	-14.21014000
195.29998858	0.00000000	-41.11097000	-14.25320000
195.49998857	0.00000000	-41.11097000	-14.62844000
195.69998856	0.00000000	-41.15403000	-15.36663000
195.89998855	0.00000000	-41.48622000	-15.74188000
196.09998853	0.00000000	-41.89838000	-15.74188000
