Time	Channel A	Channel B	Channel C
(us)	(V)	(mV)	(mV)

-4.53333289	0.00000000	6.32381900	6.31151500
-4.33333290	0.00000000	6.32381900	6.31151500
-4.13333291	0.00000000	6.32381900	6.31151500
-3.93333293	0.00000000	6.32381900	6.26845500
-3.73333294	0.00000000	6.32381900	5.93626900
-3.53333295	0.00000000	6.32381900	5.57332700
-3.33333296	0.00000000	6.32381900	5.93626900
-3.13333297	0.00000000	6.32381900	6.26845500
-2.93333299	0.00000000	6.32381900	6.31151500
-2.73333300	0.00000000	6.32381900	6.31151500
-2.53333301	0.00000000	6.32381900	6.31151500
-2.33333302	0.00000000	6.32381900	6.31151500
-2.13333303	0.00000000	6.32381900	6.31151500
-1.93333304	0.00000000	6.32381900	6.31151500
-1.73333306	0.00000000	6.32381900	6.31151500
-1.53333307	0.00000000	6.32381900	6.26845500
-1.33333308	0.00000000	6.32381900	5.93626900
-1.13333309	0.00000000	6.32381900	5.57332700
-0.93333310	0.00000000	6.32381900	5.93626900
-0.73333312	0.00000000	6.32381900	6.26845500
-0.53333313	0.00000000	6.36687900	6.31151500
-0.33333314	0.15871060	6.69906400	6.31151500
-0.13333315	0.47736220	7.06815900	6.31151500
0.06666684	0.95533960	6.69906400	6.31151500
0.26666682	0.95533960	6.36687900	6.31151500
0.46666681	0.95533960	6.32381900	6.26845500
0.66666680	0.47736220	6.32381900	5.89320800
0.86666679	-0.31803640	6.36687900	5.19808000
1.06666678	-1.27399100	6.69906400	5.19808000
1.26666677	-2.22994600	7.06815900	5.89320800
1.46666675	-2.70792300	6.69906400	6.26845500
1.66666674	-2.54859700	6.41609200	6.31151500
1.86666673	-1.75196900	6.69906400	6.31151500
2.06666672	0.00000000	7.06815900	6.31151500
2.26666671	2.07062000	6.69906400	6.31151500
2.46666669	3.98191400	6.36687900	6.31151500
2.66666668	5.25652100	6.32381900	6.26845500
2.86666667	5.09719500	6.32381900	5.89320800
3.06666666	3.66326300	6.32381900	5.15501900
3.26666665	0.79601380	6.32381900	4.77977300
3.46666663	-2.54859700	6.32381900	4.77977300
3.66666662	-5.73449800	6.32381900	5.15501900
3.86666661	-7.64579200	6.32381900	5.93626900
4.06666660	-7.80511800	6.32381900	6.64370100
4.26666659	-5.89382400	6.32381900	7.05585600
4.46666658	-2.22994600	6.36687900	6.68676100
4.66666656	2.07062000	6.69906400	6.35457700
4.86666655	6.21247500	7.06815900	6.31151500
5.06666654	8.92039900	6.69906400	6.26845500
5.26666653	9.39837600	6.36687900	5.89320800
5.46666652	7.48646600	6.32381900	5.15501900
5.66666650	3.66326300	6.32381900	4.77977300
5.86666649	-0.95533960	6.32381900	4.73671200
6.06666648	-5.57517200	6.32381900	4.77977300
6.26666647	-8.60174700	6.32381900	5.15501900
6.46666646	-9.39837600	6.32381900	5.89320800
6.66666644	-7.96444400	6.32381900	6.26845500
6.86666643	-4.61921700	6.32381900	6.31151500
7.06666642	-0.31803640	6.32381900	6.31151500
7.26666641	3.82258900	6.32381900	6.26845500
7.46666640	6.69045300	6.32381900	5.93626900
7.66666639	7.80511800	6.32381900	5.53026500
7.86666637	6.84916400	6.32381900	5.51796200
8.06666636	4.30056600	6.32381900	5.11195900
8.26666635	1.11466500	6.32381900	4.82898600
8.46666634	-2.07062000	6.32381900	5.15501900
8.66666633	-4.30056600	6.32381900	5.89320800
8.86666631	-5.25652100	6.32381900	6.26845500
9.06666630	-4.77854300	6.32381900	6.31151500
9.26666629	-3.18590100	6.32381900	6.31151500
9.46666628	-1.27399100	6.32381900	6.31151500
9.66666627	0.63668800	6.32381900	6.31151500
9.86666625	1.91129400	6.32381900	6.31151500
10.06666624	2.54859700	6.32381900	6.31151500
10.26666623	2.38927200	6.32381900	6.31151500
10.46666622	1.75196900	6.32381900	6.31151500
10.66666621	0.79601380	6.32381900	6.26845500
10.86666620	0.00000000	6.32381900	5.93626900
11.06666618	-0.63668800	6.32381900	5.57332700
11.26666617	-0.95533960	6.32381900	5.93626900
11.46666616	-0.95533960	6.32381900	6.26845500
11.66666615	-0.79601380	6.32381900	6.31151500
11.86666614	-0.47736220	6.32381900	6.31151500
12.06666612	-0.31803640	6.36687900	6.31151500
12.26666611	-0.15871060	6.69906400	6.26845500
12.46666610	-0.15871060	7.06815900	5.93626900
12.66666609	0.00000000	6.69906400	5.57332700
12.86666608	0.00000000	6.36687900	5.93626900
13.06666606	0.00000000	6.32381900	6.26845500
13.26666605	0.15871060	6.32381900	6.31151500
13.46666604	0.00000000	6.32381900	6.31151500
13.66666603	0.00000000	6.32381900	6.31151500
13.86666602	0.00000000	6.36687900	6.31151500
14.06666601	-0.15871060	6.69906400	6.31151500
14.26666599	-0.15871060	7.06815900	6.31151500
14.46666598	-0.15871060	6.69906400	6.31151500
14.66666597	-0.15871060	6.36687900	6.31151500
14.86666596	0.00000000	6.32381900	6.31151500
15.06666595	0.00000000	6.32381900	6.31151500
15.26666593	0.00000000	6.32381900	6.31151500
15.46666592	0.00000000	6.32381900	6.31151500
15.66666591	0.00000000	6.32381900	6.31151500
15.86666590	0.00000000	6.32381900	6.31151500
16.06666589	0.00000000	6.32381900	6.31151500
16.26666587	0.00000000	6.32381900	6.31151500
16.46666586	-0.15871060	6.32381900	6.31151500
16.66666585	-0.15871060	6.36687900	6.31151500
16.86666584	0.00000000	6.74212600	6.31151500
17.06666583	0.00000000	7.48646600	6.31151500
17.26666582	0.00000000	7.90477300	6.31151500
17.46666580	0.00000000	8.28001900	6.31151500
17.66666579	0.00000000	8.64911400	6.31151500
17.86666578	0.00000000	8.23695900	6.31151500
18.06666577	0.00000000	7.48646600	6.31151500
18.26666576	0.00000000	6.28075700	6.31151500
18.46666574	0.00000000	4.74286400	6.31151500
18.66666573	0.00000000	3.20497000	6.31151500
18.86666572	-0.15871060	2.04847400	6.31151500
19.06666571	0.00000000	1.71628900	6.31151500
19.26666570	0.00000000	2.50984200	6.31151500
19.46666568	0.00000000	4.83513700	6.31151500
19.66666567	0.00000000	7.94783400	6.26845500
19.86666566	0.00000000	11.48499000	5.93626900
20.06666565	0.00000000	15.29897000	5.57332700
20.26666564	0.00000000	17.90723000	5.93626900
20.46666563	0.00000000	17.90723000	6.26845500
20.66666561	0.00000000	15.16363000	6.31151500
20.86666560	0.00000000	10.09473000	6.31151500
21.06666559	0.00000000	3.06963600	6.31151500
21.26666558	0.00000000	-4.60752900	6.31151500
21.46666557	0.00000000	-11.11590000	6.31151500
21.66666555	0.00000000	-14.14862000	6.31151500
21.86666554	0.00000000	-12.56767000	6.31151500
22.06666553	0.00000000	-6.24384800	6.31151500
22.26666552	0.00000000	4.55831700	6.26845500
22.46666551	0.00000000	17.66732000	5.93626900
22.66666549	0.00000000	29.21383000	5.57332700
22.86666548	0.00000000	36.93405000	5.93626900
23.06666547	0.00000000	38.33661000	6.26845500
23.26666546	0.00000000	32.14813000	6.35457700
23.46666545	0.00000000	19.35285000	6.72982200
23.66666544	0.00000000	2.69439000	7.47416300
23.86666542	0.00000000	-14.70226000	7.84940900
24.06666541	0.00000000	-28.89395000	7.84940900
24.26666540	0.00000000	-35.78371000	7.47416300
24.46666539	0.00000000	-32.99704000	6.64370100
24.66666538	0.00000000	-20.61393000	5.51796200
24.86666536	0.00000000	-0.89197830	3.94931100
25.06666535	0.00000000	21.49360000	2.78051200
25.26666534	0.00000000	41.59080000	1.57480300
25.46666533	0.00000000	54.61983000	0.55364170
25.66666532	0.00000000	56.89591000	0.97194880
25.86666530	0.00000000	47.22564000	3.29109200
26.06666529	0.00000000	27.95891000	6.77903500
26.26666528	0.00000000	3.58021600	11.04823000
26.46666527	0.00000000	-20.33710000	15.23130000
26.66666526	0.00000000	-38.47810000	17.92569000
26.86666525	0.00000000	-46.20448000	18.25787000
27.06666523	0.00000000	-41.97219000	15.92642000
27.26666522	0.00000000	-26.89468000	10.82677000
27.46666521	0.00000000	-4.14616100	3.85088600
27.66666520	0.00000000	20.60777000	-4.22613100
27.86666519	0.00000000	41.87376000	-11.10359000
28.06666517	0.00000000	55.36417000	-14.54232000
28.26666516	0.00000000	57.31422000	-13.74877000
28.46666515	0.00000000	47.77928000	-8.27386800
28.66666514	0.00000000	30.00123000	1.01501000
28.86666513	0.00000000	7.94783400	12.62918000
29.06666511	0.00000000	-13.68110000	24.15723000
29.26666510	0.00000000	-29.92126000	32.60949000
29.46666509	0.00000000	-37.36466000	35.67913000
29.66666508	0.00000000	-35.08243000	32.52337000
29.86666507	0.00000000	-24.28642000	23.18528000
30.06666506	0.00000000	-7.30807100	8.91978400
30.26666504	0.00000000	11.62648000	-6.87746000
30.46666503	0.00000000	28.28494000	-20.39862000
30.66666502	0.00000000	39.54232000	-28.90010000
30.86666501	0.00000000	43.07948000	-30.38878000
31.06666500	0.00000000	38.89025000	-24.20645000
31.26666498	0.00000000	28.46333000	-11.38656000
31.46666497	0.00000000	14.18553000	5.62253900
31.66666496	0.00000000	-0.51673230	23.73892000
31.86666495	0.00000000	-12.56767000	38.33046000
32.06666494	0.00000000	-19.96186000	45.71235000
32.26666492	0.00000000	-21.49360000	44.59892000
32.46666491	0.00000000	-16.88607000	35.72219000
32.66666490	0.00000000	-7.25885800	20.99532000
32.86666489	0.00000000	4.65059000	3.20497000
33.06666488	0.00000000	15.90797000	-14.17323000
33.26666487	0.00000000	24.05266000	-27.27608000
33.46666485	0.00000000	27.95275000	-33.08317000
33.66666484	0.00000000	26.79626000	-30.43184000
33.86666483	0.00000000	21.06914000	-20.39862000
34.06666482	0.00000000	12.60458000	-5.29650500
34.26666481	0.00000000	3.71555100	12.07554000
34.46666479	0.00000000	-3.63558100	27.87278000
34.66666478	0.00000000	-7.86786400	38.33046000
34.86666477	0.00000000	-7.91092400	41.44316000
35.06666476	0.00000000	-4.09694900	36.84178000
35.26666475	0.00000000	2.04847400	25.68897000
35.46666473	0.00000000	8.97514600	11.00517000
35.66666472	0.00000000	14.74532000	-4.04773600
35.86666471	0.00000000	17.81496000	-16.35704000
36.06666470	0.00000000	17.43971000	-22.58243000
36.26666469	0.00000000	13.67495000	-21.84424000
36.46666468	0.00000000	8.32308000	-14.95448000
36.66666466	0.00000000	3.25418300	-3.39566900
36.86666465	0.00000000	-0.98425190	9.25196800
37.06666464	0.00000000	-3.26033400	20.06643000
37.26666463	0.00000000	-2.51599400	26.20571000
37.46666462	0.00000000	0.55364170	26.29183000
37.66666460	0.00000000	5.21038300	20.95226000
37.86666459	0.00000000	10.55610000	12.11860000
38.06666458	0.00000000	14.78838000	2.12844500
38.26666457	0.00000000	16.74459000	-6.27460600
38.46666456	0.00000000	16.41855000	-10.50074000
38.66666454	0.00000000	14.05020000	-9.34424200
38.86666453	0.00000000	10.23007000	-3.21112200
39.06666452	0.00000000	5.57947800	6.31151500
39.26666451	0.00000000	1.71628900	15.84030000
39.46666450	0.00000000	-1.07037400	21.97957000
39.66666449	0.00000000	-2.56520700	23.13607000
39.86666447	0.00000000	-2.14074800	18.90994000
40.06666446	0.00000000	0.51058070	10.49459000
40.26666445	0.00000000	4.32455700	0.55364170
40.46666444	0.00000000	7.86171200	-7.90477300
40.66666443	0.00000000	11.02362000	-12.50615000
40.86666441	0.00000000	13.71801000	-12.13091000
41.06666440	0.00000000	15.25591000	-6.74212600
41.26666439	0.00000000	15.25591000	2.08538400
41.46666438	0.00000000	13.71801000	12.07554000
41.66666437	0.00000000	11.02362000	20.52780000
41.86666435	0.00000000	7.90477300	25.13533000
42.06666434	0.00000000	4.78592500	24.80315000
42.26666433	0.00000000	2.04847400	19.78961000
42.46666432	0.00000000	0.13533460	11.74951000
42.66666431	0.00000000	-0.65206690	2.50369100
42.86666430	0.00000000	0.13533460	-5.16117100
43.06666428	0.00000000	1.99926200	-9.47957600
43.26666427	0.00000000	4.36761800	-9.89788300
43.46666426	0.00000000	6.69906400	-6.82824800
43.66666425	0.00000000	9.01820900	-1.07037400
43.86666424	0.00000000	10.55610000	5.85014700
44.06666422	0.00000000	11.02362000	12.03248000
44.26666421	0.00000000	11.06668000	16.30167000
44.46666420	0.00000000	11.02362000	17.83957000
44.66666419	0.00000000	10.64838000	16.35089000
44.86666418	0.00000000	9.90403500	12.53691000
45.06666416	0.00000000	9.48572700	7.93553100
45.26666415	0.00000000	9.01820900	3.66633800
45.46666414	0.00000000	7.81250000	0.55364170
45.66666413	0.00000000	5.85629900	-1.02116100
45.86666412	0.00000000	3.11884800	-1.02116100
46.06666411	0.00000000	0.09227362	0.51058070
46.26666409	0.00000000	-2.23302100	3.19881900
46.46666408	0.00000000	-2.98351400	6.26845500
46.66666407	0.00000000	-2.14074800	8.96284400
46.86666406	0.00000000	1.02116100	10.53765000
47.06666405	0.00000000	6.41609200	10.95595000
47.26666403	0.00000000	12.60458000	10.53765000
47.46666402	0.00000000	18.37475000	8.96284400
47.66666401	0.00000000	22.18258000	6.31151500
47.86666400	0.00000000	22.55782000	3.61712600
48.06666399	0.00000000	19.44513000	1.66707700
48.26666397	0.00000000	13.20743000	0.51058070
48.46666396	0.00000000	4.74286400	0.51058070
48.66666395	0.00000000	-3.67864200	1.66707700
48.86666394	0.00000000	-9.53494100	3.66633800
49.06666393	0.00000000	-11.86639000	6.72982200
49.26666392	0.00000000	-10.61147000	10.16855000
49.46666390	0.00000000	-4.74901600	12.45079000
49.66666389	0.00000000	4.78592500	13.28125000
49.86666388	0.00000000	14.78838000	12.45079000
50.06666387	0.00000000	22.51476000	10.11934000
50.26666386	0.00000000	26.37180000	6.26845500
50.46666384	0.00000000	25.21530000	2.08538400
50.66666383	0.00000000	19.48819000	-1.02116100
50.86666382	0.00000000	11.02362000	-2.55905500
51.06666381	0.00000000	2.13459600	-2.18380900
51.26666380	0.00000000	-5.21653500	0.13533460
51.46666379	0.00000000	-9.40575800	3.62327700
51.66666377	0.00000000	-9.03051100	7.84940900
51.86666376	0.00000000	-4.09694900	11.70029000
52.06666375	0.00000000	3.20497000	13.98253000
52.26666374	0.00000000	10.93135000	14.39468000
52.46666373	0.00000000	17.48893000	12.49385000
52.66666371	0.00000000	20.89075000	9.42421200
52.86666370	0.00000000	20.18332000	5.89320800
53.06666369	0.00000000	15.58194000	2.08538400
53.26666368	0.00000000	9.06742000	-0.55979330
53.46666367	0.00000000	2.13459600	-0.97810030
53.66666365	0.00000000	-3.21112200	0.51058070
53.86666364	0.00000000	-5.12426100	3.15575800
54.06666363	0.00000000	-3.26033400	5.85014700
54.26666362	0.00000000	1.71628900	7.80019600
54.46666361	0.00000000	7.86171200	8.96284400
54.66666360	0.00000000	13.63189000	8.96284400
54.86666358	0.00000000	17.43971000	7.80019600
55.06666357	0.00000000	17.86417000	5.93626900
55.26666356	0.00000000	15.21284000	4.03543200
55.46666355	0.00000000	10.59916000	3.29109200
55.66666354	0.00000000	5.21038300	3.66633800
55.86666352	0.00000000	0.55364170	5.19808000
56.06666351	0.00000000	-2.51599400	7.47416300
56.26666350	0.00000000	-3.26033400	9.38115100
56.46666349	0.00000000	-0.93503930	10.53765000
56.66666348	0.00000000	3.58021600	10.45152000
56.86666346	0.00000000	8.59990100	8.50147600
57.06666345	0.00000000	12.46924000	4.69365100
57.26666344	0.00000000	14.83760000	0.55364170
57.46666343	0.00000000	15.16363000	-2.18380900
57.66666342	0.00000000	13.29970000	-2.93430100
57.86666341	0.00000000	9.86097400	-1.72244100
58.06666339	0.00000000	6.41609200	2.17765700
58.26666338	0.00000000	3.62942900	7.89247000
58.46666337	0.00000000	1.71628900	13.65650000
58.66666336	0.00000000	0.97194880	17.88263000
58.86666335	0.00000000	2.09153500	19.37131000
59.06666333	0.00000000	4.36761800	17.46432000
59.26666332	0.00000000	6.65600300	12.45079000
59.46666331	0.00000000	8.59990100	5.85014700
59.66666330	0.00000000	9.39345400	-1.39640700
59.86666329	0.00000000	9.44266700	-7.15428100
60.06666327	0.00000000	9.01820900	-9.06742000
60.26666326	0.00000000	7.90477300	-7.57258800
60.46666325	0.00000000	6.74212600	-2.46678100
60.66666324	0.00000000	5.99163300	5.15501900
60.86666323	0.00000000	5.57947800	13.23819000
61.06666322	0.00000000	5.99163300	19.37131000
61.26666320	0.00000000	6.69906400	22.10876000
61.46666319	0.00000000	7.48646600	20.95226000
61.66666318	0.00000000	7.86171200	16.35089000
61.86666317	0.00000000	7.86171200	9.38115100
62.06666316	0.00000000	7.43725300	1.66707700
62.26666314	0.00000000	6.32381900	-5.25344500
62.46666313	0.00000000	5.16117100	-9.47957600
62.66666312	0.00000000	4.36761800	-9.84867000
62.86666311	0.00000000	3.62942900	-6.40994000
63.06666310	0.00000000	3.71555100	0.13533460
63.26666308	0.00000000	5.21038300	7.80019600
63.46666307	0.00000000	7.48646600	14.76993000
63.66666306	0.00000000	9.39345400	19.42052000
63.86666305	0.00000000	10.59916000	20.99532000
64.06666304	0.00000000	10.97441000	19.42052000
64.26666303	0.00000000	10.59916000	14.81299000
64.46666301	0.00000000	9.39345400	8.31077700
64.66666300	0.00000000	7.48646600	2.12844500
64.86666299	0.00000000	5.21038300	-2.55905500
65.06666298	0.00000000	3.67249000	-5.29650500
65.26666297	0.00000000	3.25418300	-5.67175200
65.46666295	0.00000000	3.62942900	-3.76476400
65.66666294	0.00000000	4.83513700	0.09227362
65.86666293	0.00000000	6.69906400	4.69365100
66.06666292	0.00000000	8.59990100	8.96284400
66.26666291	0.00000000	9.35039300	12.11860000
66.46666289	0.00000000	9.01820900	14.07480000
66.66666288	0.00000000	7.86171200	14.85605000
66.86666287	0.00000000	6.32381900	14.11786000
67.06666286	0.00000000	4.78592500	12.58612000
67.26666285	0.00000000	3.67249000	10.58686000
67.46666284	0.00000000	3.71555100	7.84940900
67.66666282	0.00000000	5.21038300	4.73671200
67.86666281	0.00000000	7.52952700	1.62401600
68.06666280	0.00000000	9.86097400	-1.07037400
68.26666279	0.00000000	12.13706000	-2.64517700
68.46666278	0.00000000	13.20743000	-3.02042300
68.66666276	0.00000000	12.09400000	-2.18380900
68.86666275	0.00000000	9.39345400	0.55364170
69.06666274	0.00000000	5.90551100	4.77977300
69.26666273	0.00000000	2.04847400	9.43036400
69.46666272	0.00000000	-1.02731300	13.69956000
69.66666270	0.00000000	-2.51599400	16.76919000
69.86666269	0.00000000	-1.72244100	17.88263000
70.06666268	0.00000000	1.75935000	16.35089000
70.26666267	0.00000000	6.74212600	12.49385000
70.46666266	0.00000000	12.18012000	7.47416300
70.66666265	0.00000000	16.79380000	2.04232300
70.86666263	0.00000000	19.48819000	-2.55905500
71.06666262	0.00000000	19.44513000	-5.24729300
71.26666261	0.00000000	16.32628000	-5.24729300
71.46666260	0.00000000	10.59916000	-2.60211600
71.66666259	0.00000000	4.04773600	1.62401600
71.86666257	0.00000000	-1.40255900	6.26845500
72.06666256	0.00000000	-5.30265700	10.53765000
72.26666255	0.00000000	-6.74827700	13.60728000
72.46666254	0.00000000	-4.84128900	14.76993000
72.66666253	0.00000000	0.13533460	13.65650000
72.86666251	0.00000000	6.28075700	10.96211000
73.06666250	0.00000000	12.13706000	7.51722400
73.26666249	0.00000000	16.79380000	4.08464600
73.46666248	0.00000000	19.44513000	2.17150600
73.66666247	0.00000000	19.06988000	2.08538400
73.86666246	0.00000000	15.63115000	3.19881900
74.06666244	0.00000000	10.64838000	4.73671200
74.26666243	0.00000000	5.21038300	6.22539300
74.46666242	0.00000000	0.59670270	6.96358300
74.66666241	0.00000000	-2.14074800	6.22539300
74.86666240	0.00000000	-2.56520700	4.73671200
75.06666238	0.00000000	-1.02731300	3.19881900
75.26666237	0.00000000	2.04847400	2.08538400
75.46666236	0.00000000	5.90551100	2.08538400
75.66666235	0.00000000	9.35039300	3.29109200
75.86666234	0.00000000	11.71875000	5.61638700
76.06666232	0.00000000	12.51230000	9.09817800
76.26666231	0.00000000	12.18012000	12.45079000
76.46666230	0.00000000	10.97441000	14.39468000
76.66666229	0.00000000	9.06742000	13.98253000
76.86666228	0.00000000	6.79133800	11.70029000
77.06666227	0.00000000	5.25344500	7.80019600
77.26666225	0.00000000	4.83513700	3.20497000
77.46666224	0.00000000	5.16117100	-1.07037400
77.66666223	0.00000000	5.90551100	-4.13385800
77.86666222	0.00000000	6.28075700	-5.25344500
78.06666221	0.00000000	6.32381900	-3.67249000
78.26666219	0.00000000	6.28075700	0.55364170
78.46666218	0.00000000	5.90551100	6.31151500
78.66666217	0.00000000	5.16117100	12.07554000
78.86666216	0.00000000	4.83513700	16.35089000
79.06666215	0.00000000	5.25344500	18.25787000
79.26666213	0.00000000	6.79133800	17.50738000
79.46666212	0.00000000	9.06742000	14.03174000
79.66666211	0.00000000	10.97441000	9.05511800
79.86666210	0.00000000	12.13706000	3.62327700
80.06666209	0.00000000	12.09400000	-0.97810030
80.26666208	0.00000000	10.59916000	-3.71555100
80.46666206	0.00000000	8.28001900	-4.18307100
80.66666205	0.00000000	5.90551100	-3.02042300
80.86666204	0.00000000	3.25418300	-0.64591530
81.06666203	0.00000000	1.34719500	3.20497000
81.26666202	0.00000000	1.34104300	7.43110200
81.46666200	0.00000000	2.46678100	10.91289000
81.66666199	0.00000000	4.83513700	13.28125000
81.86666198	0.00000000	7.86171200	14.07480000
82.06666197	0.00000000	10.55610000	13.74262000
82.26666196	0.00000000	12.09400000	12.53691000
82.46666194	0.00000000	12.13706000	10.58686000
82.66666193	0.00000000	11.02362000	7.84940900
82.86666192	0.00000000	9.44266700	4.77977300
83.06666191	0.00000000	7.48646600	2.04232300
83.26666190	0.00000000	5.21038300	0.04306102
83.46666189	0.00000000	3.67249000	-1.48868100
83.66666187	0.00000000	3.25418300	-2.18380900
83.86666186	0.00000000	3.62942900	-1.02116100
84.06666185	0.00000000	4.78592500	1.66707700
84.26666184	0.00000000	6.28075700	5.15501900
84.46666183	0.00000000	7.43725300	9.05511800
84.66666181	0.00000000	7.86171200	12.49385000
84.86666180	0.00000000	7.90477300	14.81299000
85.06666179	0.00000000	7.90477300	15.18824000
85.26666178	0.00000000	7.90477300	13.65650000
85.46666177	0.00000000	7.90477300	10.53765000
85.66666175	0.00000000	7.90477300	6.26845500
85.86666174	0.00000000	7.90477300	1.66707700
86.06666173	0.00000000	7.90477300	-2.18380900
86.26666172	0.00000000	7.90477300	-4.09079700
86.46666171	0.00000000	7.86171200	-3.71555100
86.66666170	0.00000000	7.43725300	-1.02116100
86.86666168	0.00000000	6.32381900	3.20497000
87.06666167	0.00000000	5.16117100	7.84940900
87.26666166	0.00000000	4.41067900	12.11860000
87.46666165	0.00000000	4.04773600	15.14518000
87.66666164	0.00000000	4.83513700	15.92642000
87.86666162	0.00000000	6.32381900	13.98253000
88.06666161	0.00000000	7.90477300	10.16855000
88.26666160	0.00000000	9.44266700	5.15501900
88.46666159	0.00000000	10.55610000	0.55364170
88.66666158	0.00000000	10.55610000	-2.51599400
88.86666156	0.00000000	9.44266700	-3.29724400
89.06666155	0.00000000	7.90477300	-1.39640700
89.26666154	0.00000000	6.36687900	2.04232300
89.46666153	0.00000000	5.16117100	6.31151500
89.66666152	0.00000000	4.41067900	10.53765000
89.86666151	0.00000000	3.99852300	13.60728000
90.06666149	0.00000000	4.41067900	14.72687000
90.26666148	0.00000000	5.16117100	13.18898000
90.46666147	0.00000000	6.32381900	9.38115100
90.66666146	0.00000000	7.48646600	4.77977300
90.86666145	0.00000000	8.28001900	0.55364170
91.06666143	0.00000000	9.01820900	-2.09153500
91.26666142	0.00000000	9.01820900	-2.14074800
91.46666141	0.00000000	8.32308000	0.17839570
91.66666140	0.00000000	7.94783400	3.99237200
91.86666139	0.00000000	7.90477300	8.63681000
92.06666137	0.00000000	7.90477300	12.45079000
92.26666136	0.00000000	7.90477300	14.76993000
92.46666135	0.00000000	7.86171200	14.72072000
92.66666134	0.00000000	7.48646600	12.07554000
92.86666133	0.00000000	6.69906400	7.84940900
93.06666132	0.00000000	5.94857300	3.24803100
93.26666130	0.00000000	5.16117100	-0.60285430
93.46666129	0.00000000	4.78592500	-2.50984200
93.66666128	0.00000000	4.78592500	-2.14074800
93.86666127	0.00000000	5.21038300	0.55364170
94.06666126	0.00000000	6.36687900	4.73671200
94.26666124	0.00000000	7.90477300	8.96284400
94.46666123	0.00000000	9.48572700	12.07554000
94.66666122	0.00000000	11.02362000	13.61343000
94.86666121	0.00000000	12.13706000	13.18898000
95.06666120	0.00000000	12.13706000	10.49459000
95.26666118	0.00000000	10.93135000	6.35457700
95.46666117	0.00000000	8.59990100	2.50369100
95.66666116	0.00000000	5.16117100	0.17839570
95.86666115	0.00000000	2.13459600	-0.60285430
96.06666114	0.00000000	0.51058070	0.55364170
96.26666113	0.00000000	0.13533460	3.19881900
96.46666111	0.00000000	0.92888770	6.26845500
96.66666110	0.00000000	3.29724400	8.96284400
96.86666109	0.00000000	6.74212600	10.53765000
97.06666108	0.00000000	10.59916000	10.95595000
97.26666107	0.00000000	13.67495000	10.53765000
97.46666105	0.00000000	15.25591000	8.96284400
97.66666104	0.00000000	15.21284000	6.31151500
97.86666103	0.00000000	13.29970000	3.66633800
98.06666102	0.00000000	9.81791200	2.12844500
98.26666101	0.00000000	5.94857300	2.08538400
98.46666099	0.00000000	2.09153500	3.19881900
98.66666098	0.00000000	-0.60900590	4.68750000
98.86666097	0.00000000	-1.40255900	5.89320800
99.06666096	0.00000000	-0.65206690	6.68676100
99.26666095	0.00000000	1.71628900	7.47416300
99.46666094	0.00000000	5.16117100	7.84940900
99.66666092	0.00000000	9.01820900	7.84940900
99.86666091	0.00000000	12.13706000	7.51722400
100.06666090	0.00000000	14.09326000	7.14812900
100.26666089	0.00000000	14.88066000	7.51722400
100.46666088	0.00000000	14.09326000	7.84940900
100.66666086	0.00000000	12.13706000	7.89247000
100.86666085	0.00000000	9.06742000	7.80019600
101.06666084	0.00000000	5.62869100	7.01279500
101.26666083	0.00000000	3.25418300	5.11195900
101.46666082	0.00000000	1.67322800	3.24803100
101.66666080	0.00000000	0.92888770	2.04232300
101.86666079	0.00000000	1.67322800	1.66707700
102.06666078	0.00000000	3.16190900	2.04232300
102.26666077	0.00000000	4.78592500	3.29109200
102.46666076	0.00000000	6.74212600	5.57332700
102.66666075	0.00000000	9.06742000	8.63681000
102.86666073	0.00000000	10.93135000	10.91289000
103.06666072	0.00000000	11.76181000	12.11860000
103.26666071	0.00000000	11.39887000	12.07554000
103.46666070	0.00000000	10.59916000	10.53765000
103.66666069	0.00000000	9.01820900	7.84940900
103.86666067	0.00000000	6.74212600	4.77977300
104.06666066	0.00000000	4.83513700	2.08538400
104.26666065	0.00000000	3.62942900	0.51058070
104.46666064	0.00000000	3.25418300	0.13533460
104.66666063	0.00000000	3.62942900	0.92888770
104.86666061	0.00000000	4.78592500	3.24803100
105.06666060	0.00000000	6.32381900	6.26845500
105.26666059	0.00000000	7.86171200	9.00590400
105.46666058	0.00000000	9.01820900	10.91289000
105.66666057	0.00000000	9.39345400	11.65723000
105.86666056	0.00000000	9.06742000	10.53765000
106.06666054	0.00000000	8.28001900	8.31077700
106.26666053	0.00000000	7.52952700	6.31151500
106.46666052	0.00000000	6.74212600	4.36146600
106.66666051	0.00000000	6.36687900	2.50369100
106.86666050	0.00000000	6.32381900	2.17150600
107.06666048	0.00000000	6.36687900	3.57406500
107.26666047	0.00000000	6.74212600	5.47490100
107.46666046	0.00000000	7.52952700	6.68676100
107.66666045	0.00000000	8.23695900	7.89247000
107.86666044	0.00000000	8.64911400	8.96284400
108.06666042	0.00000000	8.23695900	8.96284400
108.26666041	0.00000000	7.48646600	7.84940900
108.46666040	0.00000000	6.32381900	6.31151500
108.66666039	0.00000000	5.21038300	4.77977300
108.86666038	0.00000000	4.78592500	3.62327700
109.06666037	0.00000000	4.78592500	3.24803100
109.26666035	0.00000000	5.21038300	3.62327700
109.46666034	0.00000000	6.36687900	4.77977300
109.66666033	0.00000000	7.86171200	6.31151500
109.86666032	0.00000000	9.01820900	7.84940900
110.06666031	0.00000000	9.44266700	8.96284400
110.26666029	0.00000000	9.44266700	9.00590400
110.46666028	0.00000000	9.01820900	8.26771600
110.66666027	0.00000000	7.90477300	7.47416300
110.86666026	0.00000000	6.74212600	6.26845500
111.06666025	0.00000000	5.94857300	4.77977300
111.26666023	0.00000000	5.16117100	3.62327700
111.46666022	0.00000000	4.83513700	3.24803100
111.66666021	0.00000000	5.16117100	3.57406500
111.86666020	0.00000000	5.94857300	4.36146600
112.06666019	0.00000000	6.69906400	5.11195900
112.26666018	0.00000000	7.52952700	5.93626900
112.46666016	0.00000000	8.23695900	6.68676100
112.66666015	0.00000000	8.64911400	7.47416300
112.86666014	0.00000000	8.28001900	7.84940900
113.06666013	0.00000000	7.90477300	7.84940900
113.26666012	0.00000000	7.48646600	7.47416300
113.46666010	0.00000000	6.74212600	6.72982200
113.66666009	0.00000000	6.36687900	6.35457700
113.86666008	0.00000000	6.32381900	6.26845500
114.06666007	0.00000000	6.32381900	5.89320800
114.26666006	0.00000000	6.36687900	5.15501900
114.46666004	0.00000000	6.74212600	4.77977300
114.66666003	0.00000000	7.48646600	4.73671200
114.86666002	0.00000000	7.86171200	4.73671200
115.06666001	0.00000000	7.90477300	4.73671200
115.26666000	0.00000000	7.90477300	4.73671200
115.46665999	0.00000000	7.90477300	4.77977300
115.66665997	0.00000000	7.90477300	5.19808000
115.86665996	0.00000000	7.86171200	6.31151500
116.06665995	0.00000000	7.48646600	7.42495000
116.26665994	0.00000000	6.74212600	7.84940900
116.46665993	0.00000000	6.36687900	7.89247000
116.66665991	0.00000000	6.32381900	7.84940900
116.86665990	0.00000000	6.32381900	7.47416300
117.06665989	0.00000000	6.36687900	6.68676100
117.26665988	0.00000000	6.74212600	5.93626900
117.46665987	0.00000000	7.52952700	5.15501900
117.66665985	0.00000000	8.28001900	4.73671200
117.86665984	0.00000000	9.06742000	4.36146600
118.06665983	0.00000000	9.39345400	3.99237200
118.26665982	0.00000000	9.11048200	4.40452700
118.46665981	0.00000000	8.65526600	5.11195900
118.66665980	0.00000000	8.27386800	5.93626900
118.86665978	0.00000000	7.07431000	6.68676100
119.06665977	0.00000000	5.94857300	7.47416300
119.26665976	0.00000000	4.78592500	7.84940900
119.46665975	0.00000000	4.09079700	7.89247000
119.66665974	0.00000000	4.83513700	7.84940900
119.86665972	0.00000000	6.28075700	7.47416300
120.06665971	0.00000000	7.48646600	6.72982200
120.26665970	0.00000000	8.28001900	6.31151500
120.46665969	0.00000000	9.06742000	5.89320800
120.66665968	0.00000000	9.44266700	5.15501900
120.86665966	0.00000000	9.44266700	4.82898600
121.06665965	0.00000000	9.06742000	5.11195900
121.26665964	0.00000000	8.28001900	5.47490100
121.46665963	0.00000000	7.48646600	5.11195900
121.66665962	0.00000000	6.32381900	4.82898600
121.86665961	0.00000000	5.21038300	5.15501900
122.06665959	0.00000000	4.78592500	5.89320800
122.26665958	0.00000000	4.78592500	6.26845500
122.46665957	0.00000000	5.16117100	6.35457700
122.66665956	0.00000000	5.94857300	6.72982200
122.86665955	0.00000000	6.69906400	7.47416300
123.06665953	0.00000000	7.52952700	7.84940900
123.26665952	0.00000000	8.28001900	7.84940900
123.46665951	0.00000000	9.06742000	7.47416300
123.66665950	0.00000000	9.44266700	6.68676100
123.86665949	0.00000000	9.44266700	5.93626900
124.06665947	0.00000000	9.06742000	5.15501900
124.26665946	0.00000000	8.28001900	4.77977300
124.46665945	0.00000000	7.52952700	4.73671200
124.66665944	0.00000000	6.69906400	4.73671200
124.86665943	0.00000000	5.94857300	4.77977300
125.06665942	0.00000000	5.16117100	5.15501900
125.26665940	0.00000000	4.83513700	5.93626900
125.46665939	0.00000000	5.16117100	6.68676100
125.66665938	0.00000000	5.94857300	7.47416300
125.86665937	0.00000000	6.69906400	7.84940900
126.06665936	0.00000000	7.52952700	7.89247000
126.26665934	0.00000000	8.28001900	7.84940900
126.46665933	0.00000000	9.06742000	7.47416300
126.66665932	0.00000000	9.39345400	6.72982200
126.86665931	0.00000000	9.06742000	6.31151500
127.06665930	0.00000000	8.28001900	5.89320800
127.26665928	0.00000000	7.52952700	5.15501900
127.46665927	0.00000000	6.69906400	4.77977300
127.66665926	0.00000000	5.94857300	4.77977300
127.86665925	0.00000000	5.21038300	5.15501900
128.06665924	0.00000000	5.21038300	5.89320800
128.26665923	0.00000000	5.94857300	6.26845500
128.46665921	0.00000000	6.74212600	6.31151500
128.66665920	0.00000000	7.90477300	6.31151500
128.86665919	0.00000000	9.01820900	6.31151500
129.06665918	0.00000000	9.44266700	6.31151500
129.26665917	0.00000000	9.44266700	6.31151500
129.46665915	0.00000000	9.06742000	6.31151500
129.66665914	0.00000000	8.28001900	6.26845500
129.86665913	0.00000000	7.48646600	5.93626900
130.06665912	0.00000000	6.32381900	5.57332700
130.26665911	0.00000000	5.21038300	5.93626900
130.46665909	0.00000000	4.83513700	6.26845500
130.66665908	0.00000000	5.16117100	6.31151500
130.86665907	0.00000000	5.94857300	6.31151500
131.06665906	0.00000000	6.74212600	6.31151500
131.26665905	0.00000000	7.90477300	6.31151500
131.46665904	0.00000000	8.97514600	6.31151500
131.66665902	0.00000000	9.01820900	6.26845500
131.86665901	0.00000000	8.28001900	5.89320800
132.06665900	0.00000000	7.52952700	5.15501900
132.26665899	0.00000000	6.74212600	4.77977300
132.46665898	0.00000000	6.36687900	4.73671200
132.66665896	0.00000000	6.32381900	4.77977300
132.86665895	0.00000000	6.32381900	5.15501900
133.06665894	0.00000000	6.36687900	5.93626900
133.26665893	0.00000000	6.74212600	6.68676100
133.46665892	0.00000000	7.48646600	7.47416300
133.66665890	0.00000000	7.86171200	7.84940900
133.86665889	0.00000000	7.90477300	7.84940900
134.06665888	0.00000000	7.90477300	7.47416300
134.26665887	0.00000000	7.86171200	6.68676100
134.46665886	0.00000000	7.48646600	5.93626900
134.66665885	0.00000000	6.79133800	5.15501900
134.86665883	0.00000000	6.79133800	4.77977300
135.06665882	0.00000000	7.48646600	4.73671200
135.26665881	0.00000000	7.86171200	4.73671200
135.46665880	0.00000000	7.90477300	4.77977300
135.66665879	0.00000000	7.90477300	5.15501900
135.86665877	0.00000000	7.86171200	5.93626900
136.06665876	0.00000000	7.48646600	6.68676100
136.26665875	0.00000000	6.74212600	7.47416300
136.46665874	0.00000000	6.36687900	7.84940900
136.66665873	0.00000000	6.32381900	7.84940900
136.86665871	0.00000000	6.32381900	7.47416300
137.06665870	0.00000000	6.36687900	6.72982200
137.26665869	0.00000000	6.74212600	6.31151500
137.46665868	0.00000000	7.48646600	5.89320800
137.66665867	0.00000000	7.86171200	5.15501900
137.86665866	0.00000000	7.90477300	4.77977300
138.06665864	0.00000000	7.90477300	4.73671200
138.26665863	0.00000000	7.86171200	4.77977300
138.46665862	0.00000000	7.48646600	5.15501900
138.66665861	0.00000000	6.74212600	5.89320800
138.86665860	0.00000000	6.36687900	6.26845500
139.06665858	0.00000000	6.32381900	6.35457700
139.26665857	0.00000000	6.32381900	6.72982200
139.46665856	0.00000000	6.36687900	7.47416300
139.66665855	0.00000000	6.74212600	7.84940900
139.86665854	0.00000000	7.48646600	7.84940900
140.06665852	0.00000000	7.86171200	7.47416300
140.26665851	0.00000000	7.90477300	6.68676100
140.46665850	0.00000000	7.90477300	5.93626900
140.66665849	0.00000000	7.90477300	5.15501900
140.86665848	0.00000000	7.86171200	4.77977300
141.06665847	0.00000000	7.48646600	4.73671200
141.26665845	0.00000000	6.74212600	4.73671200
141.46665844	0.00000000	6.41609200	4.82898600
141.66665843	0.00000000	6.69906400	5.57332700
141.86665842	0.00000000	7.11122000	7.05585600
142.06665841	0.00000000	7.11737200	7.80019600
142.26665839	0.00000000	7.52952700	7.89247000
142.46665838	0.00000000	7.86171200	7.89247000
142.66665837	0.00000000	7.90477300	7.84940900
142.86665836	0.00000000	7.86171200	7.42495000
143.06665835	0.00000000	7.48646600	6.31151500
143.26665834	0.00000000	6.74212600	5.19808000
143.46665832	0.00000000	6.36687900	4.77977300
143.66665831	0.00000000	6.32381900	4.73671200
143.86665830	0.00000000	6.36687900	4.73671200
144.06665829	0.00000000	6.74212600	4.77977300
144.26665828	0.00000000	7.48646600	5.15501900
144.46665826	0.00000000	7.86171200	5.93626900
144.66665825	0.00000000	7.90477300	6.68676100
144.86665824	0.00000000	7.90477300	7.47416300
145.06665823	0.00000000	7.90477300	7.84940900
145.26665822	0.00000000	7.86171200	7.84940900
145.46665820	0.00000000	7.48646600	7.47416300
145.66665819	0.00000000	6.74212600	6.68676100
145.86665818	0.00000000	6.36687900	5.93626900
146.06665817	0.00000000	6.32381900	5.19808000
146.26665816	0.00000000	6.36687900	5.15501900
146.46665815	0.00000000	6.74212600	5.47490100
146.66665813	0.00000000	7.48646600	5.11195900
146.86665812	0.00000000	7.86171200	4.82898600
147.06665811	0.00000000	7.90477300	5.15501900
147.26665810	0.00000000	7.90477300	5.89320800
147.46665809	0.00000000	7.90477300	6.31151500
147.66665807	0.00000000	7.86171200	6.72982200
147.86665806	0.00000000	7.48646600	7.42495000
148.06665805	0.00000000	6.74212600	7.42495000
148.26665804	0.00000000	6.36687900	6.72982200
148.46665803	0.00000000	6.32381900	6.35457700
148.66665801	0.00000000	6.32381900	6.26845500
148.86665800	0.00000000	6.36687900	5.93626900
149.06665799	0.00000000	6.74212600	5.53026500
149.26665798	0.00000000	7.48646600	5.51796200
149.46665797	0.00000000	7.86171200	5.15501900
149.66665796	0.00000000	7.90477300	5.19808000
149.86665794	0.00000000	7.90477300	5.89320800
150.06665793	0.00000000	7.90477300	6.26845500
150.26665792	0.00000000	7.90477300	6.31151500
150.46665791	0.00000000	7.90477300	6.35457700
150.66665790	0.00000000	7.86171200	6.68676100
150.86665788	0.00000000	7.48646600	7.05585600
151.06665787	0.00000000	6.74212600	6.68676100
151.26665786	0.00000000	6.36687900	6.35457700
151.46665785	0.00000000	6.32381900	6.31151500
151.66665784	0.00000000	6.36687900	6.31151500
151.86665782	0.00000000	6.74212600	6.31151500
152.06665781	0.00000000	7.48646600	6.31151500
152.26665780	0.00000000	7.86171200	6.31151500
152.46665779	0.00000000	7.90477300	6.31151500
152.66665778	0.00000000	7.90477300	6.31151500
152.86665777	0.00000000	7.90477300	6.31151500
153.06665775	0.00000000	7.90477300	6.31151500
153.26665774	0.00000000	7.86171200	6.31151500
153.46665773	0.00000000	7.48646600	6.31151500
153.66665772	0.00000000	6.74212600	6.31151500
153.86665771	0.00000000	6.36687900	6.31151500
154.06665769	0.00000000	6.32381900	6.31151500
154.26665768	0.00000000	6.32381900	6.35457700
154.46665767	0.00000000	6.32381900	6.68676100
154.66665766	0.00000000	6.32381900	7.05585600
154.86665765	0.00000000	6.36687900	6.68676100
155.06665763	0.00000000	6.74212600	6.35457700
155.26665762	0.00000000	7.48646600	6.31151500
155.46665761	0.00000000	7.86171200	6.31151500
155.66665760	0.00000000	7.90477300	6.31151500
155.86665759	0.00000000	7.90477300	6.31151500
156.06665758	0.00000000	7.90477300	6.31151500
156.26665756	0.00000000	7.86171200	6.31151500
156.46665755	0.00000000	7.48646600	6.31151500
156.66665754	0.00000000	6.74212600	6.35457700
156.86665753	0.00000000	6.36687900	6.68676100
157.06665752	0.00000000	6.32381900	7.09891700
157.26665750	0.00000000	6.32381900	7.06200700
157.46665749	0.00000000	6.32381900	7.09891700
157.66665748	0.00000000	6.36687900	6.68676100
157.86665747	0.00000000	6.74212600	6.31151500
158.06665746	0.00000000	7.48646600	5.93626900
158.26665744	0.00000000	7.86171200	5.53026500
158.46665743	0.00000000	7.90477300	5.51796200
158.66665742	0.00000000	7.90477300	5.15501900
158.86665741	0.00000000	7.90477300	5.19808000
159.06665740	0.00000000	7.90477300	5.89320800
159.26665739	0.00000000	7.86171200	6.26845500
159.46665737	0.00000000	7.48646600	6.35457700
159.66665736	0.00000000	6.79133800	6.68676100
159.86665735	0.00000000	6.74212600	7.05585600
160.06665734	0.00000000	7.06815900	6.72982200
160.26665733	0.00000000	6.69906400	6.72982200
160.46665731	0.00000000	6.36687900	7.05585600
160.66665730	0.00000000	6.36687900	6.68676100
160.86665729	0.00000000	6.74212600	6.31151500
161.06665728	0.00000000	7.43725300	5.93626900
161.26665727	0.00000000	7.48646600	5.53026500
161.46665725	0.00000000	7.16043300	5.51796200
161.66665724	0.00000000	7.52952700	5.15501900
161.86665723	0.00000000	7.86171200	5.19808000
162.06665722	0.00000000	7.90477300	5.89320800
162.26665721	0.00000000	7.90477300	6.26845500
162.46665720	0.00000000	7.90477300	6.31151500
162.66665718	0.00000000	7.90477300	6.31151500
162.86665717	0.00000000	7.86171200	6.31151500
163.06665716	0.00000000	7.48646600	6.31151500
163.26665715	0.00000000	6.74212600	6.31151500
163.46665714	0.00000000	6.36687900	6.31151500
163.66665712	0.00000000	6.32381900	6.31151500
163.86665711	0.00000000	6.32381900	6.31151500
164.06665710	0.00000000	6.32381900	6.31151500
164.26665709	0.00000000	6.36687900	6.26845500
164.46665708	0.00000000	6.74212600	5.93626900
164.66665706	0.00000000	7.48646600	5.57332700
164.86665705	0.00000000	7.86171200	5.93626900
165.06665704	0.00000000	7.90477300	6.26845500
165.26665703	0.00000000	7.90477300	6.31151500
165.46665702	0.00000000	7.90477300	6.31151500
165.66665701	0.00000000	7.90477300	6.31151500
165.86665699	0.00000000	7.86171200	6.31151500
166.06665698	0.00000000	7.48646600	6.31151500
166.26665697	0.00000000	6.74212600	6.31151500
166.46665696	0.00000000	6.36687900	6.31151500
166.66665695	0.00000000	6.32381900	6.31151500
166.86665693	0.00000000	6.32381900	6.31151500
167.06665692	0.00000000	6.36687900	6.31151500
167.26665691	0.00000000	6.74212600	6.31151500
167.46665690	0.00000000	7.48646600	6.31151500
167.66665689	0.00000000	7.86171200	6.31151500
167.86665687	0.00000000	7.90477300	6.31151500
168.06665686	0.00000000	7.90477300	6.31151500
168.26665685	0.00000000	7.90477300	6.31151500
168.46665684	0.00000000	7.90477300	6.31151500
168.66665683	0.00000000	7.90477300	6.31151500
168.86665682	0.00000000	7.90477300	6.31151500
169.06665680	0.00000000	7.86171200	6.31151500
169.26665679	0.00000000	7.52952700	6.31151500
169.46665678	0.00000000	7.11737200	6.31151500
169.66665677	0.00000000	7.11122000	6.31151500
169.86665676	0.00000000	6.69906400	6.31151500
170.06665674	0.00000000	6.36687900	6.31151500
170.26665673	0.00000000	6.36687900	6.31151500
170.46665672	0.00000000	6.74212600	6.31151500
170.66665671	0.00000000	7.48646600	6.31151500
170.86665670	0.00000000	7.86171200	6.31151500
171.06665668	0.00000000	7.90477300	6.31151500
171.26665667	0.00000000	7.90477300	6.31151500
171.46665666	0.00000000	7.90477300	6.31151500
171.66665665	0.00000000	7.90477300	6.31151500
171.86665664	0.00000000	7.90477300	6.31151500
172.06665663	0.00000000	7.90477300	6.31151500
172.26665661	0.00000000	7.90477300	6.31151500
172.46665660	0.00000000	7.90477300	6.31151500
172.66665659	0.00000000	7.90477300	6.31151500
172.86665658	0.00000000	7.86171200	6.31151500
173.06665657	0.00000000	7.52952700	6.31151500
173.26665655	0.00000000	7.11737200	6.31151500
173.46665654	0.00000000	7.15428100	6.31151500
173.66665653	0.00000000	7.07431000	6.31151500
173.86665652	0.00000000	7.15428100	6.31151500
174.06665651	0.00000000	7.11737200	6.31151500
174.26665649	0.00000000	7.52952700	6.31151500
174.46665648	0.00000000	7.86171200	6.31151500
174.66665647	0.00000000	7.90477300	6.31151500
174.86665646	0.00000000	7.90477300	6.31151500
175.06665645	0.00000000	7.90477300	6.31151500
175.26665644	0.00000000	7.90477300	6.31151500
175.46665642	0.00000000	7.86171200	6.31151500
175.66665641	0.00000000	7.52952700	6.31151500
175.86665640	0.00000000	7.11737200	6.31151500
176.06665639	0.00000000	7.15428100	6.31151500
176.26665638	0.00000000	7.11737200	6.31151500
176.46665636	0.00000000	7.52952700	6.31151500
176.66665635	0.00000000	7.86171200	6.31151500
176.86665634	0.00000000	7.90477300	6.31151500
177.06665633	0.00000000	7.90477300	6.31151500
177.26665632	0.00000000	7.90477300	6.31151500
177.46665630	0.00000000	7.90477300	6.31151500
177.66665629	0.00000000	7.90477300	6.31151500
177.86665628	0.00000000	7.90477300	6.31151500
178.06665627	0.00000000	7.90477300	6.26845500
178.26665626	0.00000000	7.86171200	5.93626900
178.46665625	0.00000000	7.52952700	5.57332700
178.66665623	0.00000000	7.16043300	5.93626900
178.86665622	0.00000000	7.52952700	6.26845500
179.06665621	0.00000000	7.86171200	6.31151500
179.26665620	0.00000000	7.90477300	6.31151500
179.46665619	0.00000000	7.90477300	6.31151500
179.66665617	0.00000000	7.90477300	6.31151500
179.86665616	0.00000000	7.90477300	6.31151500
180.06665615	0.00000000	7.90477300	6.26845500
180.26665614	0.00000000	7.90477300	5.93626900
180.46665613	0.00000000	7.90477300	5.57332700
180.66665611	0.00000000	7.90477300	5.93626900
180.86665610	0.00000000	7.86171200	6.26845500
181.06665609	0.00000000	7.52952700	6.31151500
181.26665608	0.00000000	7.16043300	6.31151500
181.46665607	0.00000000	7.52952700	6.35457700
181.66665606	0.00000000	7.86171200	6.68676100
181.86665604	0.00000000	7.90477300	7.05585600
182.06665603	0.00000000	7.90477300	6.68676100
182.26665602	0.00000000	7.90477300	6.35457700
182.46665601	0.00000000	7.94783400	6.31151500
182.66665600	0.00000000	8.28001900	6.31151500
182.86665598	0.00000000	8.64911400	6.26845500
183.06665597	0.00000000	8.28001900	5.93626900
183.26665596	0.00000000	7.94783400	5.57332700
183.46665595	0.00000000	7.90477300	5.93626900
183.66665594	0.00000000	7.86171200	6.21924200
183.86665592	0.00000000	7.52952700	5.93626900
184.06665591	0.00000000	7.16043300	5.57332700
184.26665590	0.00000000	7.52952700	5.98548200
184.46665589	0.00000000	7.86171200	6.68676100
184.66665588	0.00000000	7.90477300	7.47416300
184.86665587	0.00000000	7.90477300	7.84940900
185.06665585	0.00000000	7.90477300	7.84940900
185.26665584	0.00000000	7.90477300	7.51722400
185.46665583	0.00000000	7.90477300	7.10506800
185.66665582	0.00000000	7.90477300	7.05585600
185.86665581	0.00000000	7.90477300	6.26845500
186.06665579	0.00000000	7.90477300	5.19808000
186.26665578	0.00000000	7.90477300	4.77977300
186.46665577	0.00000000	7.90477300	4.77977300
186.66665576	0.00000000	7.90477300	5.15501900
186.86665575	0.00000000	7.90477300	5.89320800
187.06665573	0.00000000	7.86171200	6.26845500
187.26665572	0.00000000	7.48646600	6.35457700
187.46665571	0.00000000	6.79133800	6.72982200
187.66665570	0.00000000	6.79133800	7.47416300
187.86665569	0.00000000	7.48646600	7.80019600
188.06665568	0.00000000	7.86171200	7.47416300
188.26665566	0.00000000	7.90477300	6.72982200
188.46665565	0.00000000	7.90477300	6.35457700
188.66665564	0.00000000	7.90477300	6.31151500
188.86665563	0.00000000	7.90477300	6.26845500
189.06665562	0.00000000	7.90477300	5.89320800
189.26665560	0.00000000	7.90477300	5.19808000
189.46665559	0.00000000	7.90477300	5.19808000
189.66665558	0.00000000	7.90477300	5.89320800
189.86665557	0.00000000	7.90477300	6.26845500
190.06665556	0.00000000	7.86171200	6.31151500
190.26665554	0.00000000	7.48646600	6.31151500
190.46665553	0.00000000	6.74212600	6.31151500
190.66665552	0.00000000	6.36687900	6.31151500
190.86665551	0.00000000	6.36687900	6.31151500
191.06665550	0.00000000	6.74212600	6.31151500
191.26665549	0.00000000	7.48646600	6.31151500
191.46665547	0.00000000	7.86171200	6.31151500
191.66665546	0.00000000	7.90477300	6.31151500
191.86665545	0.00000000	7.90477300	6.31151500
192.06665544	0.00000000	7.90477300	6.31151500
192.26665543	0.00000000	7.90477300	6.31151500
192.46665541	0.00000000	7.90477300	6.31151500
192.66665540	0.00000000	7.90477300	6.31151500
192.86665539	0.00000000	7.86171200	6.31151500
193.06665538	0.00000000	7.48646600	6.31151500
193.26665537	0.00000000	6.79133800	6.31151500
193.46665535	0.00000000	6.74212600	6.31151500
193.66665534	0.00000000	7.11122000	6.31151500
193.86665533	0.00000000	7.11737200	6.31151500
194.06665532	0.00000000	7.52952700	6.31151500
194.26665531	0.00000000	7.86171200	6.31151500
194.46665530	0.00000000	7.90477300	6.31151500
194.66665528	0.00000000	7.90477300	6.31151500
194.86665527	0.00000000	7.90477300	6.31151500
195.06665526	0.00000000	7.90477300	6.31151500
195.26665525	0.00000000	7.90477300	6.31151500
195.46665524	0.00000000	7.90477300	6.31151500
195.66665522	0.00000000	7.86171200	6.31151500
195.86665521	0.00000000	7.48646600	6.31151500
196.06665520	0.00000000	6.74212600	6.31151500
