Time	Channel A	Channel B	Channel C
(us)	(V)	(mV)	(mV)

-4.59999956	0.00000000	77.47908000	31.61909000
-4.39999957	0.00000000	77.47908000	31.95128000
-4.19999958	0.00000000	77.47908000	32.32037000
-3.99999959	0.00000000	77.47908000	31.95128000
-3.79999960	0.00000000	77.47908000	31.61909000
-3.59999962	0.00000000	77.47908000	31.61909000
-3.39999963	0.00000000	77.47908000	31.95128000
-3.19999964	0.00000000	77.47908000	32.32037000
-2.99999965	0.00000000	77.47908000	31.95128000
-2.79999966	0.00000000	77.47908000	31.61909000
-2.59999968	0.00000000	77.47908000	31.57603000
-2.39999969	0.00000000	77.47908000	31.57603000
-2.19999970	0.00000000	77.47908000	31.57603000
-1.99999971	0.00000000	77.47908000	31.57603000
-1.79999972	0.00000000	77.47908000	31.57603000
-1.59999973	0.00000000	77.47908000	31.57603000
-1.39999975	0.00000000	77.47908000	31.57603000
-1.19999976	0.00000000	77.47908000	31.57603000
-0.99999977	0.00000000	77.47908000	31.57603000
-0.79999978	0.00000000	77.47908000	31.57603000
-0.59999979	0.00000000	77.47908000	31.57603000
-0.39999981	0.00000000	77.47908000	31.57603000
-0.19999982	0.31803640	77.47908000	31.57603000
0.00000017	0.79601380	77.47908000	31.57603000
0.20000016	0.95533960	77.47908000	31.57603000
0.40000015	0.95533960	77.47908000	31.57603000
0.60000013	0.79601380	77.47908000	31.57603000
0.80000012	0.00000000	77.47908000	31.57603000
1.00000011	-0.79601380	77.47908000	31.57603000
1.20000010	-1.91129400	77.47908000	31.57603000
1.40000009	-2.54859700	77.47908000	31.57603000
1.60000008	-2.70792300	77.47908000	31.61909000
1.80000006	-2.22994600	77.47908000	31.99434000
2.00000005	-0.63668800	77.47908000	32.68946000
2.20000004	1.27399100	77.47908000	32.68946000
2.40000003	3.34522600	77.47908000	31.99434000
2.60000002	4.93786900	77.47908000	31.61909000
2.80000000	5.25652100	77.47908000	31.57603000
2.99999999	4.30056600	77.43602000	31.53297000
3.19999998	1.91129400	77.10384000	31.15772000
3.39999997	-1.27399100	76.73474000	30.46260000
3.59999996	-4.61921700	77.10384000	30.46260000
3.79999994	-7.16781500	77.43602000	31.20078000
3.99999993	-7.96444400	77.47908000	31.95128000
4.19999992	-6.84916400	77.47908000	32.73868000
4.39999991	-3.82258900	77.47908000	33.11393000
4.59999990	0.31803640	77.47908000	33.11393000
4.79999989	4.61921700	77.47908000	32.73868000
4.99999987	8.12377000	77.47908000	31.99434000
5.19999986	9.39837600	77.47908000	31.61909000
5.39999985	8.44242100	77.47908000	31.53297000
5.59999984	5.41584600	77.47908000	31.15772000
5.79999983	0.79601380	77.47908000	30.46260000
5.99999981	-3.98191400	77.47908000	30.46260000
6.19999980	-7.64579200	77.47908000	31.15772000
6.39999979	-9.39837600	77.47908000	31.53297000
6.59999978	-8.76107300	77.47908000	31.61909000
6.79999977	-6.05315000	77.47908000	31.99434000
6.99999975	-1.91129400	77.47908000	32.73868000
7.19999974	2.38927200	77.47908000	33.06471000
7.39999973	5.89382400	77.47908000	32.73868000
7.59999972	7.64579200	77.47908000	31.99434000
7.79999971	7.48646600	77.47908000	31.61909000
7.99999970	5.41584600	77.47908000	31.57603000
8.19999968	2.22994600	77.47908000	31.57603000
8.39999967	-0.95533960	77.47908000	31.57603000
8.59999966	-3.66326300	77.47908000	31.57603000
8.79999965	-4.93786900	77.47908000	31.57603000
8.99999964	-5.09719500	77.47908000	31.57603000
9.19999962	-3.82258900	77.47908000	31.61909000
9.39999961	-1.91129400	77.47908000	31.95128000
9.59999960	0.00000000	77.47908000	32.32037000
9.79999959	1.59264300	77.47908000	31.95128000
9.99999958	2.38927200	77.47908000	31.61909000
10.19999956	2.54859700	77.47908000	31.57603000
10.39999955	2.07062000	77.47908000	31.57603000
10.59999954	1.11466500	77.47908000	31.57603000
10.79999953	0.31803640	77.47908000	31.57603000
10.99999952	-0.47736220	77.47908000	31.57603000
11.19999951	-0.79601380	77.47908000	31.61909000
11.39999949	-0.95533960	77.47908000	31.95128000
11.59999948	-0.95533960	77.47908000	32.36343000
11.79999947	-0.63668800	77.47908000	32.32653000
11.99999946	-0.31803640	77.47908000	32.36343000
12.19999945	-0.15871060	77.47908000	31.95128000
12.39999943	-0.15871060	77.47908000	31.61909000
12.59999942	0.00000000	77.47908000	31.57603000
12.79999941	0.00000000	77.47908000	31.57603000
12.99999940	0.00000000	77.47908000	31.57603000
13.19999939	0.00000000	77.47908000	31.57603000
13.39999937	0.15871060	77.47908000	31.57603000
13.59999936	0.00000000	77.47908000	31.57603000
13.79999935	0.00000000	77.47908000	31.57603000
13.99999934	-0.15871060	77.47908000	31.57603000
14.19999933	-0.15871060	77.47908000	31.57603000
14.39999932	-0.15871060	77.47908000	31.57603000
14.59999930	-0.15871060	77.47908000	31.57603000
14.79999929	0.00000000	77.47908000	31.57603000
14.99999928	0.00000000	77.47908000	31.57603000
15.19999927	0.00000000	77.47908000	31.57603000
15.39999926	0.00000000	77.47908000	31.57603000
15.59999924	0.00000000	77.47908000	31.57603000
15.79999923	0.00000000	77.43602000	31.57603000
15.99999922	0.00000000	77.06077000	31.57603000
16.19999921	0.00000000	76.36565000	31.57603000
16.39999920	0.00000000	76.36565000	31.57603000
16.59999919	-0.15871060	77.06077000	31.57603000
16.79999917	-0.15871060	77.47908000	31.57603000
16.99999916	0.00000000	77.89738000	31.57603000
17.19999915	0.00000000	78.64173000	31.57603000
17.39999914	0.00000000	79.01697000	31.57603000
17.59999913	0.00000000	79.06004000	31.57603000
17.79999911	0.00000000	79.01697000	31.61909000
17.99999910	0.00000000	78.59251000	31.90822000
18.19999909	0.00000000	77.43602000	31.94513000
18.39999908	0.00000000	75.89813000	31.21309000
18.59999907	0.00000000	74.31717000	31.25000000
18.79999905	0.00000000	72.82849000	31.53297000
18.99999904	-0.15871060	72.04109000	31.57603000
19.19999903	0.00000000	72.45324000	31.57603000
19.39999902	0.00000000	73.66510000	31.57603000
19.59999901	0.00000000	76.45177000	31.57603000
19.79999900	0.00000000	80.64099000	31.57603000
19.99999898	0.00000000	84.83022000	31.57603000
20.19999897	0.00000000	87.57381000	31.57603000
20.39999896	0.00000000	88.31815000	31.57603000
20.59999895	0.00000000	87.06323000	31.57603000
20.79999894	0.00000000	82.73868000	31.57603000
20.99999892	0.00000000	75.80585000	31.57603000
21.19999891	0.00000000	68.07948000	31.57603000
21.39999890	0.00000000	61.14665000	31.57603000
21.59999889	0.00000000	56.95743000	31.57603000
21.79999888	0.00000000	57.00049000	31.57603000
21.99999886	0.00000000	61.74950000	31.57603000
22.19999885	0.00000000	71.05684000	31.57603000
22.39999884	0.00000000	83.42766000	31.57603000
22.59999883	0.00000000	95.76156000	31.57603000
22.79999882	0.00000000	105.34570000	31.61909000
22.99999881	0.00000000	109.16580000	31.99434000
23.19999879	0.00000000	105.58560000	32.73868000
23.39999878	0.00000000	95.10950000	33.11393000
23.59999877	0.00000000	78.83243000	33.20005000
23.79999876	0.00000000	60.72834000	33.53223000
23.99999875	0.00000000	44.90649000	33.90133000
24.19999873	0.00000000	35.32234000	33.48917000
24.39999872	0.00000000	35.03937000	32.73868000
24.59999871	0.00000000	44.72195000	31.53297000
24.79999870	0.00000000	62.90600000	30.00123000
24.99999869	0.00000000	85.24852000	28.42027000
25.19999867	0.00000000	106.55760000	26.88853000
25.39999866	0.00000000	121.96110000	25.81816000
25.59999865	0.00000000	128.10040000	26.23647000
25.79999864	0.00000000	122.61320000	28.55561000
25.99999863	0.00000000	106.37300000	31.99434000
26.19999862	0.00000000	82.78174000	35.89444000
26.39999860	0.00000000	57.00049000	39.38238000
26.59999859	0.00000000	35.78986000	42.11983000
26.79999858	0.00000000	24.52633000	43.56545000
26.99999857	0.00000000	24.90157000	42.68578000
27.19999856	0.00000000	36.90329000	38.41043000
27.39999854	0.00000000	58.12008000	31.48991000
27.59999853	0.00000000	83.20619000	23.76968000
27.79999852	0.00000000	106.37300000	16.80610000
27.99999851	0.00000000	122.23790000	12.24778000
28.19999850	0.00000000	127.35600000	11.50960000
28.39999848	0.00000000	121.58590000	15.45275000
28.59999847	0.00000000	106.50840000	23.58514000
28.79999846	0.00000000	85.29158000	34.78100000
28.99999845	0.00000000	63.23819000	46.35211000
29.19999844	0.00000000	45.04183000	55.60408000
29.39999843	0.00000000	34.20891000	60.56840000
29.59999841	0.00000000	33.36614000	59.36885000
29.79999840	0.00000000	41.79380000	51.98080000
29.99999839	0.00000000	56.87131000	39.57308000
30.19999838	0.00000000	75.43060000	24.15108000
30.39999837	0.00000000	93.20866000	9.51033400
30.59999835	0.00000000	106.37300000	-0.94119090
30.79999834	0.00000000	112.27850000	-5.12426100
30.99999833	0.00000000	110.42080000	-1.59325800
31.19999832	0.00000000	102.31910000	9.60260800
31.39999831	0.00000000	89.53001000	25.81816000
31.59999829	0.00000000	74.87081000	43.57160000
31.79999828	0.00000000	61.65723000	59.03666000
31.99999827	0.00000000	52.34990000	68.70693000
32.19999826	0.00000000	48.49286000	71.02608000
32.39999825	0.00000000	51.18725000	65.16978000
32.59999824	0.00000000	59.56569000	52.06693000
32.79999822	0.00000000	70.78001000	34.68873000
32.99999821	0.00000000	81.99433000	16.89837000
33.19999820	0.00000000	91.29551000	2.21456700
33.39999819	0.00000000	96.37057000	-6.28690900
33.59999818	0.00000000	96.78887000	-6.70521600
33.79999816	0.00000000	92.91953000	0.59055110
33.99999815	0.00000000	85.24852000	13.78568000
34.19999814	0.00000000	76.40871000	30.37647000
34.39999813	0.00000000	68.63311000	47.00418000
34.59999812	0.00000000	63.23819000	59.69488000
34.79999810	0.00000000	61.70029000	65.91412000
34.99999809	0.00000000	64.30856000	64.01328000
35.19999808	0.00000000	69.66043000	55.22883000
35.39999807	0.00000000	75.85506000	42.03371000
35.59999806	0.00000000	81.66830000	27.01772000
35.79999805	0.00000000	85.85753000	13.50271000
35.99999803	0.00000000	87.01402000	5.04429100
36.19999802	0.00000000	84.78715000	3.05118100
36.39999801	0.00000000	80.54871000	8.02165300
36.59999800	0.00000000	75.52288000	18.01181000
36.79999799	0.00000000	70.54626000	30.32726000
36.99999797	-0.15871060	67.47047000	42.26747000
37.19999796	0.00000000	67.05216000	50.30758000
37.39999795	0.00000000	69.00836000	52.67593000
37.59999794	0.00000000	73.24680000	48.86811000
37.79999793	0.00000000	78.59251000	40.50196000
37.99999791	0.00000000	83.20619000	30.51181000
38.19999790	0.00000000	85.94365000	21.67815000
38.39999789	0.00000000	86.36810000	16.28937000
38.59999788	0.00000000	84.83022000	15.91412000
38.79999787	0.00000000	81.71136000	20.47244000
38.99999786	0.00000000	77.43602000	28.55561000
39.19999784	0.00000000	72.82849000	37.71530000
39.39999783	0.00000000	68.96530000	45.33095000
39.59999782	0.00000000	67.00910000	48.40059000
39.79999781	0.00000000	67.00910000	46.17372000
39.99999780	0.00000000	68.92224000	39.99138000
40.19999778	0.00000000	72.40403000	31.11466000
40.39999777	0.00000000	76.27337000	21.54281000
40.59999776	0.00000000	80.22269000	14.33932000
40.79999775	0.00000000	83.66756000	12.06324000
40.99999774	0.00000000	85.99286000	15.82800000
41.19999772	0.00000000	86.36810000	23.86196000
41.39999771	0.00000000	84.87327000	33.48917000
41.59999770	0.00000000	82.12967000	42.77190000
41.79999769	0.00000000	78.64173000	49.24335000
41.99999768	0.00000000	74.78469000	51.18725000
42.19999767	0.00000000	71.66584000	47.74852000
42.39999765	0.00000000	69.70964000	40.50196000
42.59999764	0.00000000	68.92224000	31.62524000
42.79999763	0.00000000	69.70964000	23.16683000
42.99999762	0.00000000	71.62278000	17.40280000
43.19999761	0.00000000	74.31717000	15.77879000
43.39999759	0.00000000	77.01156000	18.05487000
43.59999758	0.00000000	78.96776000	23.03149000
43.79999757	0.00000000	80.17347000	29.58292000
43.99999756	0.00000000	80.59792000	35.71604000
44.19999755	0.00000000	80.59792000	40.03444000
44.39999753	0.00000000	80.22269000	41.99065000
44.59999752	0.00000000	79.47834000	41.61540000
44.79999751	0.00000000	79.10310000	38.92101000
44.99999750	0.00000000	79.01697000	34.73794000
45.19999749	0.00000000	78.59251000	30.46260000
45.39999748	0.00000000	77.43602000	26.97465000
45.59999746	0.00000000	75.85506000	24.65551000
45.79999745	0.00000000	73.84965000	24.28026000
45.99999744	0.00000000	71.15526000	25.77510000
46.19999743	0.00000000	68.50394000	28.42027000
46.39999742	0.00000000	66.95989000	31.15772000
46.59999740	0.00000000	67.05216000	33.48302000
46.79999739	0.00000000	69.43282000	35.43307000
46.99999738	0.00000000	74.45251000	36.17741000
47.19999737	0.00000000	80.59792000	35.85138000
47.39999736	0.00000000	86.41116000	34.64567000
47.59999734	0.00000000	90.64346000	32.69562000
47.79999733	0.00000000	92.13213000	30.00123000
47.99999732	0.00000000	90.17593000	27.34990000
48.19999731	0.00000000	84.73794000	25.77510000
48.39999730	0.00000000	77.01156000	25.35679000
48.59999729	0.00000000	68.50394000	25.81816000
48.79999727	0.00000000	61.19586000	27.76821000
48.99999726	0.00000000	57.00049000	31.20078000
49.19999725	0.00000000	57.42495000	34.64567000
49.39999724	0.00000000	62.77681000	37.34006000
49.59999723	0.00000000	71.24138000	38.50270000
49.79999721	0.00000000	80.54871000	37.71530000
49.99999720	0.00000000	89.06249000	35.43307000
50.19999719	0.00000000	94.78961000	31.95128000
50.39999718	0.00000000	95.90305000	28.46333000
50.59999717	0.00000000	91.71383000	25.35064000
50.79999715	0.00000000	83.62450000	23.07455000
50.99999714	0.00000000	74.02805000	22.69931000
51.19999713	0.00000000	65.15132000	24.28026000
51.39999712	0.00000000	59.79330000	27.72515000
51.59999711	0.00000000	58.95669000	32.32037000
51.79999710	0.00000000	62.81988000	36.17741000
51.99999708	0.00000000	70.08488000	38.92101000
52.19999707	0.00000000	78.54945000	40.03444000
52.39999706	0.00000000	85.85753000	38.92101000
52.59999705	0.00000000	90.08981000	36.22662000
52.79999704	0.00000000	90.13287000	32.73868000
52.99999702	0.00000000	86.31889000	28.88779000
53.19999701	0.00000000	80.17347000	25.86122000
53.39999700	0.00000000	73.24680000	24.65551000
53.59999699	0.00000000	67.47047000	25.39985000
53.79999698	0.00000000	64.40083000	27.30684000
53.99999696	0.00000000	64.77608000	30.04429000
54.19999695	0.00000000	68.63311000	33.06471000
54.39999694	0.00000000	74.73548000	35.34079000
54.59999693	0.00000000	81.24999000	35.75910000
54.79999692	0.00000000	85.90058000	34.68873000
54.99999691	0.00000000	87.81372000	33.15699000
55.19999689	0.00000000	86.64493000	31.57603000
55.39999688	0.00000000	82.08661000	30.08735000
55.59999687	0.00000000	76.36565000	29.34916000
55.79999686	0.00000000	71.29060000	30.13656000
55.99999685	0.00000000	67.42741000	31.99434000
56.19999683	0.00000000	65.93258000	34.27042000
56.39999682	0.00000000	67.42741000	35.75910000
56.59999681	0.00000000	71.24138000	35.75910000
56.79999680	0.00000000	75.89813000	34.18430000
56.99999679	0.00000000	80.50565000	31.11466000
57.19999677	0.00000000	83.94438000	27.30684000
57.39999676	0.00000000	84.73794000	24.23720000
57.59999675	0.00000000	83.29231000	22.69931000
57.79999674	0.00000000	80.54871000	23.16683000
57.99999673	0.00000000	77.10384000	26.23647000
58.19999672	0.00000000	73.62204000	31.20078000
58.39999670	0.00000000	71.33366000	36.22662000
58.59999669	0.00000000	70.50320000	40.50196000
58.79999668	0.00000000	71.29060000	43.10408000
58.99999667	0.00000000	73.15452000	42.68578000
59.19999666	0.00000000	75.47981000	38.82874000
59.39999664	0.00000000	77.38681000	32.69562000
59.59999663	0.00000000	78.59251000	25.77510000
59.79999662	0.00000000	78.96776000	20.01107000
59.99999661	0.00000000	78.59251000	16.94144000
60.19999660	0.00000000	77.47908000	17.31053000
60.39999658	0.00000000	76.31644000	21.21063000
60.59999657	0.00000000	75.52288000	27.76821000
60.79999656	0.00000000	74.78469000	35.80217000
60.99999655	0.00000000	74.78469000	42.72884000
61.19999654	0.00000000	75.52288000	46.59203000
61.39999653	0.00000000	76.27337000	47.00418000
61.59999651	0.00000000	77.06077000	43.47933000
61.79999650	0.00000000	77.38681000	36.96481000
61.99999649	0.00000000	77.01156000	28.83858000
62.19999648	0.00000000	75.89813000	21.16757000
62.39999647	0.00000000	74.73548000	15.77879000
62.59999645	0.00000000	73.94193000	14.24705000
62.79999644	0.00000000	73.20374000	16.89222000
62.99999643	0.00000000	73.24680000	22.65625000
63.19999642	0.00000000	74.36023000	30.00123000
63.39999641	0.00000000	75.89813000	37.34006000
63.59999639	0.00000000	77.43602000	43.10408000
63.79999638	0.00000000	78.59251000	45.84153000
63.99999637	0.00000000	78.96776000	45.10334000
64.19999636	0.00000000	78.59251000	41.61540000
64.39999635	0.00000000	77.43602000	35.80217000
64.59999634	0.00000000	75.89813000	28.93085000
64.79999632	0.00000000	74.36023000	23.12377000
64.99999631	0.00000000	73.20374000	19.58661000
65.19999630	0.00000000	72.82849000	18.43012000
65.39999629	0.00000000	73.20374000	19.96186000
65.59999628	0.00000000	74.36023000	23.77584000
65.79999626	0.00000000	75.85506000	28.37721000
65.99999625	0.00000000	77.01156000	32.68946000
66.19999624	0.00000000	77.43602000	36.22662000
66.39999623	0.00000000	77.43602000	38.92101000
66.59999622	0.00000000	77.01156000	40.12672000
66.79999620	0.00000000	75.85506000	39.75763000
66.99999619	0.00000000	74.36023000	38.58883000
67.19999618	0.00000000	73.20374000	36.22662000
67.39999617	0.00000000	72.87155000	33.15699000
67.59999616	0.00000000	73.62204000	30.00123000
67.79999615	0.00000000	75.56593000	26.88853000
67.99999613	0.00000000	77.85432000	24.19414000
68.19999612	0.00000000	80.17347000	22.61319000
68.39999611	0.00000000	81.62524000	22.19488000
68.59999610	0.00000000	81.20078000	22.65625000
68.79999609	0.00000000	78.54945000	24.65551000
68.99999607	0.00000000	74.73548000	28.51255000
69.19999606	0.00000000	71.19833000	33.11393000
69.39999605	0.00000000	68.12868000	37.43233000
69.59999604	0.00000000	66.26476000	40.87721000
69.79999603	0.00000000	67.05216000	42.77190000
69.99999601	0.00000000	70.08488000	41.99065000
70.19999600	0.00000000	74.40945000	38.92101000
70.39999599	0.00000000	79.43528000	34.27042000
70.59999598	0.00000000	84.41190000	28.83858000
70.79999597	0.00000000	87.48154000	23.86196000
70.99999596	0.00000000	87.85679000	20.38632000
71.19999594	0.00000000	85.52534000	19.63582000
71.39999593	0.00000000	80.50565000	21.49975000
71.59999592	0.00000000	74.36023000	25.35679000
71.79999591	0.00000000	68.54699000	30.00123000
71.99999590	0.00000000	64.26550000	34.64567000
72.19999588	0.00000000	62.35236000	38.45964000
72.39999587	0.00000000	63.14591000	40.03444000
72.59999586	0.00000000	67.00910000	39.29626000
72.79999585	0.00000000	72.77928000	37.01402000
72.99999584	0.00000000	78.96776000	33.57529000
73.19999582	0.00000000	84.36269000	30.51181000
73.39999581	0.00000000	87.48154000	28.51255000
73.59999580	0.00000000	87.85679000	27.34990000
73.79999579	0.00000000	85.56840000	27.34990000
73.99999578	0.00000000	80.92397000	28.46333000
74.19999577	0.00000000	75.56593000	29.95201000
74.39999575	0.00000000	70.50320000	31.11466000
74.59999574	0.00000000	67.05216000	31.48376000
74.79999573	0.00000000	65.84645000	31.11466000
74.99999572	0.00000000	66.95989000	29.95201000
75.19999571	0.00000000	69.66043000	28.51255000
75.39999569	0.00000000	73.15452000	27.76821000
75.59999568	0.00000000	77.01156000	28.55561000
75.79999567	0.00000000	80.08734000	30.46260000
75.99999566	0.00000000	81.66830000	33.20005000
76.19999565	0.00000000	81.66830000	36.22662000
76.39999563	0.00000000	80.17347000	38.50270000
76.59999562	0.00000000	77.89738000	38.87795000
76.79999561	0.00000000	75.99039000	37.29700000
76.99999560	0.00000000	74.78469000	33.80905000
77.19999559	0.00000000	74.36023000	28.83858000
77.39999558	0.00000000	74.36023000	24.23720000
77.59999556	0.00000000	74.73548000	21.08145000
77.79999555	0.00000000	75.43060000	19.59276000
77.99999554	0.00000000	75.43060000	20.42938000
78.19999553	0.00000000	74.69241000	24.23720000
78.39999552	0.00000000	73.94193000	29.58292000
78.59999550	0.00000000	73.15452000	34.64567000
78.79999549	0.00000000	72.82849000	38.92101000
78.99999548	0.00000000	73.24680000	41.61540000
79.19999547	0.00000000	74.78469000	41.99065000
79.39999546	0.00000000	77.06077000	40.03444000
79.59999544	0.00000000	78.96776000	35.80832000
79.79999543	0.00000000	80.13041000	30.41954000
79.99999542	0.00000000	80.13041000	25.44291000
80.19999541	0.00000000	78.96776000	21.91806000
80.39999540	0.00000000	77.01156000	20.74926000
80.59999539	0.00000000	74.31717000	21.45669000
80.79999537	0.00000000	71.66584000	23.81890000
80.99999536	0.00000000	70.12794000	27.25763000
81.19999535	0.00000000	70.04182000	31.11466000
81.39999534	0.00000000	70.87228000	34.27042000
81.59999533	0.00000000	72.45940000	36.64493000
81.79999531	0.00000000	75.52288000	38.54576000
81.99999530	0.00000000	78.50639000	38.92101000
82.19999529	0.00000000	80.13041000	37.85064000
82.39999528	0.00000000	80.50565000	36.22662000
82.59999527	0.00000000	79.75516000	33.85211000
82.79999525	0.00000000	77.85432000	30.41954000
82.99999524	0.00000000	75.94118000	27.34990000
83.19999523	0.00000000	74.31717000	25.35064000
83.39999522	0.00000000	72.82849000	24.15108000
83.59999521	0.00000000	72.04109000	23.77584000
83.79999520	0.00000000	72.40403000	24.19414000
83.99999518	0.00000000	73.15452000	25.81816000
84.19999517	0.00000000	74.31717000	28.88779000
84.39999516	0.00000000	75.43060000	32.73868000
84.59999515	0.00000000	75.85506000	36.22662000
84.79999514	0.00000000	75.89813000	38.92101000
84.99999512	0.00000000	75.89813000	40.08366000
85.19999511	0.00000000	75.89813000	39.29626000
85.39999510	0.00000000	75.89813000	36.96481000
85.59999509	0.00000000	75.94118000	33.06471000
85.79999508	0.00000000	76.31644000	28.46333000
85.99999506	0.00000000	77.01156000	24.23720000
86.19999505	0.00000000	77.01156000	21.54281000
86.39999504	0.00000000	76.27337000	21.16757000
86.59999503	0.00000000	75.47981000	23.07455000
86.79999502	0.00000000	74.31717000	26.93159000
86.99999501	0.00000000	73.20374000	31.53297000
87.19999499	0.00000000	72.77928000	35.80217000
87.39999498	0.00000000	72.77928000	38.92101000
87.59999497	0.00000000	73.20374000	40.40969000
87.79999496	0.00000000	74.36023000	39.61614000
87.99999495	0.00000000	75.89813000	36.17741000
88.19999493	0.00000000	77.43602000	31.61909000
88.39999492	0.00000000	78.59251000	27.30684000
88.59999491	0.00000000	78.96776000	23.86196000
88.79999490	0.00000000	78.59251000	21.96112000
88.99999489	0.00000000	77.38681000	22.74852000
89.19999487	0.00000000	75.52288000	25.77510000
89.39999486	0.00000000	73.62204000	30.04429000
89.59999485	0.00000000	72.82849000	34.64567000
89.79999484	0.00000000	72.77928000	38.45964000
89.99999483	0.00000000	73.15452000	39.99138000
90.19999482	0.00000000	73.94193000	38.87795000
90.39999480	0.00000000	74.73548000	35.80217000
90.59999479	0.00000000	75.89813000	31.53297000
90.79999478	0.00000000	77.01156000	26.93159000
90.99999477	0.00000000	77.38681000	23.12377000
91.19999476	0.00000000	77.06077000	21.58587000
91.39999474	0.00000000	76.31644000	22.70546000
91.59999473	0.00000000	75.94118000	25.81816000
91.79999472	0.00000000	75.89813000	30.41954000
91.99999471	0.00000000	75.89813000	35.38385000
92.19999470	0.00000000	75.89813000	38.82874000
92.39999468	0.00000000	75.89813000	39.99138000
92.59999467	0.00000000	75.85506000	38.45964000
92.79999466	0.00000000	75.47981000	34.64567000
92.99999465	0.00000000	74.69241000	30.04429000
93.19999464	0.00000000	73.89886000	25.77510000
93.39999463	0.00000000	72.77928000	22.74852000
93.59999461	0.00000000	72.04109000	21.96112000
93.79999460	0.00000000	72.40403000	23.86196000
93.99999459	0.00000000	73.20374000	27.30684000
94.19999458	0.00000000	74.78469000	31.53297000
94.39999457	0.00000000	77.06077000	35.38385000
94.59999455	0.00000000	78.96776000	37.66609000
94.79999454	0.00000000	80.13041000	38.03519000
94.99999453	0.00000000	80.13041000	35.75910000
95.19999452	0.00000000	78.96776000	31.99434000
95.39999451	0.00000000	76.96850000	28.46333000
95.59999449	0.00000000	73.89886000	25.39985000
95.79999448	0.00000000	70.50320000	23.54207000
95.99999447	0.00000000	68.54699000	24.23720000
96.19999446	0.00000000	68.08563000	26.51329000
96.39999445	0.00000000	68.54699000	29.25689000
96.59999444	0.00000000	70.50320000	32.73868000
96.79999442	0.00000000	73.98499000	35.71604000
96.99999441	0.00000000	77.81126000	36.92175000
97.19999440	0.00000000	81.33611000	36.17741000
97.39999439	0.00000000	83.62450000	34.31963000
97.59999438	0.00000000	84.41190000	31.99434000
97.79999436	0.00000000	83.20619000	30.04429000
97.99999435	0.00000000	80.13041000	28.46333000
98.19999434	0.00000000	75.89813000	27.34990000
98.39999433	0.00000000	71.62278000	27.34990000
98.59999432	0.00000000	68.17175000	28.42027000
98.79999430	0.00000000	66.22169000	29.58292000
98.99999429	0.00000000	66.59079000	30.37647000
99.19999428	0.00000000	68.45472000	31.15772000
99.39999427	0.00000000	71.24754000	31.53297000
99.59999426	0.00000000	74.73548000	31.57603000
99.79999425	0.00000000	78.54945000	31.57603000
99.99999423	0.00000000	81.24999000	31.61909000
100.19999422	0.00000000	82.08661000	31.99434000
100.39999421	0.00000000	81.71136000	32.73868000
100.59999420	0.00000000	80.13041000	33.11393000
100.79999419	0.00000000	77.43602000	33.11393000
100.99999417	0.00000000	74.36023000	32.64640000
101.19999416	0.00000000	71.62278000	31.11466000
101.39999415	0.00000000	69.70964000	28.83858000
101.59999414	0.00000000	68.87917000	26.97465000
101.79999413	0.00000000	69.29134000	26.19340000
101.99999411	0.00000000	70.46014000	26.93159000
102.19999410	0.00000000	72.77928000	28.46333000
102.39999409	0.00000000	75.43060000	30.46260000
102.59999408	0.00000000	77.43602000	33.15699000
102.79999407	0.00000000	79.01697000	35.80217000
102.99999406	0.00000000	80.13041000	37.34006000
103.19999404	0.00000000	80.13041000	37.34006000
103.39999403	0.00000000	78.96776000	35.85138000
103.59999402	0.00000000	77.06077000	33.48302000
103.79999401	0.00000000	74.73548000	30.78248000
103.99999400	0.00000000	72.82849000	27.67593000
104.19999398	0.00000000	71.62278000	25.44291000
104.39999397	0.00000000	71.24754000	24.65551000
104.59999396	0.00000000	71.62278000	25.81816000
104.79999395	0.00000000	72.77928000	28.46333000
104.99999394	0.00000000	74.31717000	31.53297000
105.19999392	0.00000000	75.85506000	34.22736000
105.39999391	0.00000000	77.01156000	35.80217000
105.59999390	0.00000000	77.43602000	36.22047000
105.79999389	0.00000000	77.43602000	35.80217000
105.99999388	0.00000000	77.01156000	34.22736000
106.19999387	0.00000000	75.85506000	31.57603000
106.39999385	0.00000000	74.36023000	28.93085000
106.59999384	0.00000000	73.20374000	27.34990000
106.79999383	0.00000000	72.82849000	26.93159000
106.99999382	0.00000000	73.20374000	27.30684000
107.19999381	0.00000000	74.31717000	28.51255000
107.39999379	0.00000000	75.43060000	30.37647000
107.59999378	0.00000000	75.85506000	32.27731000
107.79999377	0.00000000	75.89813000	33.06471000
107.99999376	0.00000000	75.85506000	33.06471000
108.19999375	0.00000000	75.43060000	32.27731000
108.39999374	0.00000000	74.31717000	30.37647000
108.59999372	0.00000000	73.20374000	28.51255000
108.79999371	0.00000000	72.77928000	27.30684000
108.99999370	0.00000000	72.73621000	26.93159000
109.19999369	0.00000000	72.77928000	27.30684000
109.39999368	0.00000000	73.20374000	28.46333000
109.59999366	0.00000000	74.31717000	30.00123000
109.79999365	0.00000000	75.47981000	31.53297000
109.99999364	0.00000000	76.23032000	32.73868000
110.19999363	0.00000000	76.64246000	33.43996000
110.39999362	0.00000000	76.23032000	33.43381000
110.59999360	0.00000000	75.52288000	31.95128000
110.79999359	0.00000000	74.69241000	30.41954000
110.99999358	0.00000000	73.94193000	29.20767000
111.19999357	0.00000000	73.15452000	27.67593000
111.39999356	0.00000000	72.77928000	26.97465000
111.59999355	0.00000000	72.77928000	27.25763000
111.79999353	0.00000000	73.15452000	28.04503000
111.99999352	0.00000000	73.89886000	28.83858000
112.19999351	0.00000000	74.31717000	30.00123000
112.39999350	0.00000000	74.73548000	31.11466000
112.59999349	0.00000000	75.47981000	31.53297000
112.79999347	0.00000000	75.85506000	31.57603000
112.99999346	0.00000000	75.85506000	31.53297000
113.19999345	0.00000000	75.47981000	31.20078000
113.39999344	0.00000000	74.73548000	30.79478000
113.59999343	0.00000000	74.36023000	30.78248000
113.79999341	0.00000000	74.31717000	30.37647000
113.99999340	0.00000000	74.31717000	30.04429000
114.19999339	0.00000000	74.31717000	29.95817000
114.39999338	0.00000000	74.31717000	29.58292000
114.59999337	0.00000000	74.31717000	28.83858000
114.79999336	0.00000000	74.31717000	28.46333000
114.99999334	0.00000000	74.31717000	28.42027000
115.19999333	0.00000000	74.31717000	28.46333000
115.39999332	0.00000000	74.31717000	28.83858000
115.59999331	0.00000000	74.31717000	29.62598000
115.79999330	0.00000000	74.31717000	30.37647000
115.99999328	0.00000000	74.31717000	31.20078000
116.19999327	0.00000000	74.31717000	31.95128000
116.39999326	0.00000000	74.31717000	32.73868000
116.59999325	0.00000000	74.31717000	33.06471000
116.79999324	0.00000000	74.31717000	32.73868000
116.99999322	0.00000000	74.31717000	31.95128000
117.19999321	0.00000000	74.31717000	31.15772000
117.39999320	0.00000000	74.36023000	30.00123000
117.59999319	0.00000000	74.73548000	28.88779000
117.79999318	0.00000000	75.47981000	28.46333000
117.99999317	0.00000000	75.85506000	28.42027000
118.19999315	0.00000000	75.89813000	28.46333000
118.39999314	0.00000000	75.85506000	28.83858000
118.59999313	0.00000000	75.43060000	29.62598000
118.79999312	0.00000000	74.31717000	30.37647000
118.99999311	0.00000000	73.15452000	31.15772000
119.19999309	0.00000000	72.36097000	31.53297000
119.39999308	0.00000000	71.62278000	31.57603000
119.59999307	0.00000000	71.66584000	31.57603000
119.79999306	0.00000000	72.73621000	31.53297000
119.99999305	0.00000000	73.89886000	31.15772000
120.19999303	0.00000000	74.73548000	30.41954000
120.39999302	0.00000000	75.89813000	30.04429000
120.59999301	0.00000000	77.01156000	30.00123000
120.79999300	0.00000000	77.43602000	29.95817000
120.99999299	0.00000000	77.38681000	29.58292000
121.19999298	0.00000000	76.64246000	28.88779000
121.39999296	0.00000000	75.06767000	28.88779000
121.59999295	0.00000000	73.56668000	29.58292000
121.79999294	0.00000000	71.99188000	29.95817000
121.99999293	0.00000000	71.24754000	30.00123000
122.19999292	0.00000000	71.19833000	30.04429000
122.39999290	0.00000000	71.62278000	30.41954000
122.59999289	0.00000000	72.73621000	31.15772000
122.79999288	0.00000000	73.89886000	31.53297000
122.99999287	0.00000000	74.69241000	31.57603000
123.19999286	0.00000000	75.47981000	31.57603000
123.39999284	0.00000000	75.85506000	31.53297000
123.59999283	0.00000000	75.89813000	31.11466000
123.79999282	0.00000000	75.89813000	30.00123000
123.99999281	0.00000000	75.85506000	28.88779000
124.19999280	0.00000000	75.47981000	28.51255000
124.39999279	0.00000000	74.69241000	28.79552000
124.59999277	0.00000000	73.94193000	29.20767000
124.79999276	0.00000000	73.15452000	29.21383000
124.99999275	0.00000000	72.73621000	29.62598000
125.19999274	0.00000000	72.36097000	30.00123000
125.39999273	0.00000000	71.99188000	30.41954000
125.59999271	0.00000000	72.40403000	31.15772000
125.79999270	0.00000000	73.11147000	31.53297000
125.99999269	0.00000000	73.94193000	31.53297000
126.19999268	0.00000000	74.69241000	31.15772000
126.39999267	0.00000000	75.47981000	30.41954000
126.59999265	0.00000000	75.85506000	30.04429000
126.79999264	0.00000000	75.85506000	30.00123000
126.99999263	0.00000000	75.47981000	30.00123000
127.19999262	0.00000000	74.69241000	29.95817000
127.39999261	0.00000000	73.89886000	29.62598000
127.59999260	0.00000000	72.73621000	29.25689000
127.79999258	0.00000000	71.62278000	29.62598000
127.99999257	0.00000000	71.24754000	29.95817000
128.19999256	0.00000000	71.62278000	30.00123000
128.39999255	0.00000000	72.73621000	30.00123000
128.59999254	0.00000000	73.89886000	30.04429000
128.79999252	0.00000000	74.73548000	30.41954000
128.99999251	0.00000000	75.85506000	31.11466000
129.19999250	0.00000000	76.59325000	31.11466000
129.39999249	0.00000000	76.23032000	30.41954000
129.59999248	0.00000000	75.47981000	30.04429000
129.79999246	0.00000000	74.27411000	30.00123000
129.99999245	0.00000000	72.77928000	30.00123000
130.19999244	0.00000000	71.62278000	30.00123000
130.39999243	0.00000000	71.24754000	30.00123000
130.59999242	0.00000000	71.62278000	30.00123000
130.79999241	0.00000000	72.73621000	30.04429000
130.99999239	0.00000000	73.89886000	30.41954000
131.19999238	0.00000000	74.69241000	31.11466000
131.39999237	0.00000000	75.43060000	31.11466000
131.59999236	0.00000000	75.47981000	30.41954000
131.79999235	0.00000000	75.11072000	30.00123000
131.99999233	0.00000000	75.10458000	29.62598000
132.19999232	0.00000000	74.64935000	29.25689000
132.39999231	0.00000000	73.94193000	29.62598000
132.59999230	0.00000000	73.15452000	29.95817000
132.79999229	0.00000000	72.82849000	30.04429000
132.99999227	0.00000000	73.15452000	30.41954000
133.19999226	0.00000000	73.89886000	31.15772000
133.39999225	0.00000000	74.27411000	31.53297000
133.59999224	0.00000000	74.31717000	31.57603000
133.79999223	0.00000000	74.31717000	31.57603000
133.99999222	0.00000000	74.31717000	31.53297000
134.19999220	0.00000000	74.31717000	31.15772000
134.39999219	0.00000000	74.31717000	30.37647000
134.59999218	0.00000000	74.31717000	29.62598000
134.79999217	0.00000000	74.31717000	28.83858000
134.99999216	0.00000000	74.31717000	28.46333000
135.19999214	0.00000000	74.31717000	28.46333000
135.39999213	0.00000000	74.31717000	28.83858000
135.59999212	0.00000000	74.31717000	29.58292000
135.79999211	0.00000000	74.27411000	29.95817000
135.99999210	0.00000000	73.89886000	30.04429000
136.19999208	0.00000000	73.15452000	30.41954000
136.39999207	0.00000000	72.77928000	31.15772000
136.59999206	0.00000000	72.73621000	31.53297000
136.79999205	0.00000000	72.73621000	31.53297000
136.99999204	0.00000000	72.77928000	31.15772000
137.19999203	0.00000000	73.15452000	30.37647000
137.39999201	0.00000000	73.94193000	29.62598000
137.59999200	0.00000000	74.69241000	28.83858000
137.79999199	0.00000000	75.47981000	28.46333000
137.99999198	0.00000000	75.80585000	28.42027000
138.19999197	0.00000000	75.47981000	28.42027000
138.39999195	0.00000000	74.69241000	28.46333000
138.59999194	0.00000000	73.94193000	28.83858000
138.79999193	0.00000000	73.15452000	29.62598000
138.99999192	0.00000000	72.77928000	30.37647000
139.19999191	0.00000000	72.73621000	31.11466000
139.39999189	0.00000000	72.73621000	31.15772000
139.59999188	0.00000000	72.77928000	30.83784000
139.79999187	0.00000000	73.15452000	31.15772000
139.99999186	0.00000000	73.89886000	31.11466000
140.19999185	0.00000000	74.27411000	30.41954000
140.39999184	0.00000000	74.31717000	30.00123000
140.59999182	0.00000000	74.31717000	29.58292000
140.79999181	0.00000000	74.27411000	28.83858000
140.99999180	0.00000000	73.89886000	28.46333000
141.19999179	0.00000000	73.15452000	28.42027000
141.39999178	0.00000000	72.77928000	28.46333000
141.59999176	0.00000000	72.73621000	28.88779000
141.79999175	0.00000000	72.77928000	30.00123000
141.99999174	0.00000000	73.15452000	31.11466000
142.19999173	0.00000000	73.89886000	31.53297000
142.39999172	0.00000000	74.27411000	31.57603000
142.59999170	0.00000000	74.31717000	31.53297000
142.79999169	0.00000000	74.31717000	31.15772000
142.99999168	0.00000000	74.27411000	30.37647000
143.19999167	0.00000000	73.89886000	29.62598000
143.39999166	0.00000000	73.15452000	28.83858000
143.59999165	0.00000000	72.77928000	28.46333000
143.79999163	0.00000000	72.73621000	28.42027000
143.99999162	0.00000000	72.77928000	28.46333000
144.19999161	0.00000000	73.15452000	28.83858000
144.39999160	0.00000000	73.89886000	29.62598000
144.59999159	0.00000000	74.27411000	30.37647000
144.79999157	0.00000000	74.31717000	31.15772000
144.99999156	0.00000000	74.31717000	31.53297000
145.19999155	0.00000000	74.31717000	31.57603000
145.39999154	0.00000000	74.27411000	31.53297000
145.59999153	0.00000000	73.89886000	31.11466000
145.79999151	0.00000000	73.15452000	30.00123000
145.99999150	0.00000000	72.77928000	28.88779000
146.19999149	0.00000000	72.73621000	28.46333000
146.39999148	0.00000000	72.77928000	28.42027000
146.59999147	0.00000000	73.15452000	28.46333000
146.79999146	0.00000000	73.89886000	28.83858000
146.99999144	0.00000000	74.27411000	29.58292000
147.19999143	0.00000000	74.31717000	30.00123000
147.39999142	0.00000000	74.31717000	30.41954000
147.59999141	0.00000000	74.27411000	31.15772000
147.79999140	0.00000000	73.89886000	31.53297000
147.99999138	0.00000000	73.15452000	31.53297000
148.19999137	0.00000000	72.77928000	31.15772000
148.39999136	0.00000000	72.73621000	30.41954000
148.59999135	0.00000000	72.73621000	30.04429000
148.79999134	0.00000000	72.73621000	30.00123000
148.99999132	0.00000000	72.77928000	30.00123000
149.19999131	0.00000000	73.15452000	30.00123000
149.39999130	0.00000000	73.89886000	30.00123000
149.59999129	0.00000000	74.27411000	30.00123000
149.79999128	0.00000000	74.31717000	30.00123000
149.99999127	0.00000000	74.31717000	30.00123000
150.19999125	0.00000000	74.27411000	30.00123000
150.39999124	0.00000000	73.89886000	30.04429000
150.59999123	0.00000000	73.15452000	30.41954000
150.79999122	0.00000000	72.77928000	31.11466000
150.99999121	0.00000000	72.73621000	31.11466000
151.19999119	0.00000000	72.73621000	30.41954000
151.39999118	0.00000000	72.73621000	30.04429000
151.59999117	0.00000000	72.73621000	30.00123000
151.79999116	0.00000000	72.73621000	29.95817000
151.99999115	0.00000000	72.77928000	29.58292000
152.19999113	0.00000000	73.15452000	28.88779000
152.39999112	0.00000000	73.89886000	28.83858000
152.59999111	0.00000000	74.27411000	29.20767000
152.79999110	0.00000000	74.31717000	29.21383000
152.99999109	0.00000000	74.31717000	29.62598000
153.19999108	0.00000000	74.31717000	29.95817000
153.39999106	0.00000000	74.27411000	30.00123000
153.59999105	0.00000000	73.89886000	30.00123000
153.79999104	0.00000000	73.15452000	30.00123000
153.99999103	0.00000000	72.77928000	30.00123000
154.19999102	0.00000000	72.73621000	30.00123000
154.39999100	0.00000000	72.77928000	30.00123000
154.59999099	0.00000000	73.11147000	30.00123000
154.79999098	0.00000000	73.48056000	30.00123000
154.99999097	0.00000000	73.15452000	30.00123000
155.19999096	0.00000000	73.20374000	30.00123000
155.39999094	0.00000000	73.89886000	29.95817000
155.59999093	0.00000000	74.27411000	29.62598000
155.79999092	0.00000000	74.27411000	29.25689000
155.99999091	0.00000000	73.89886000	29.62598000
156.19999090	0.00000000	73.15452000	29.95817000
156.39999089	0.00000000	72.77928000	30.00123000
156.59999087	0.00000000	72.73621000	30.00123000
156.79999086	0.00000000	72.73621000	30.00123000
156.99999085	0.00000000	72.73621000	30.00123000
157.19999084	0.00000000	72.73621000	30.00123000
157.39999083	0.00000000	72.73621000	30.00123000
157.59999081	0.00000000	72.73621000	30.00123000
157.79999080	0.00000000	72.73621000	29.95817000
157.99999079	0.00000000	72.77928000	29.58292000
158.19999078	0.00000000	73.15452000	28.83858000
158.39999077	0.00000000	73.89886000	28.46333000
158.59999075	0.00000000	74.27411000	28.42027000
158.79999074	0.00000000	74.27411000	28.46333000
158.99999073	0.00000000	73.94193000	28.83858000
159.19999072	0.00000000	73.52977000	29.58292000
159.39999071	0.00000000	73.52361000	30.00123000
159.59999070	0.00000000	73.11147000	30.41954000
159.79999068	0.00000000	72.77928000	31.11466000
159.99999067	0.00000000	72.69316000	31.11466000
160.19999066	0.00000000	72.36097000	30.46260000
160.39999065	0.00000000	71.99188000	30.41954000
160.59999064	0.00000000	72.36097000	30.73942000
160.79999062	0.00000000	72.69316000	30.32726000
160.99999061	0.00000000	72.73621000	29.62598000
161.19999060	0.00000000	72.77928000	28.88779000
161.39999059	0.00000000	73.15452000	28.88779000
161.59999058	0.00000000	73.89886000	29.58292000
161.79999056	0.00000000	74.27411000	29.95817000
161.99999055	0.00000000	74.27411000	30.00123000
162.19999054	0.00000000	73.94193000	30.00123000
162.39999053	0.00000000	73.52977000	30.00123000
162.59999052	0.00000000	73.52361000	30.04429000
162.79999051	0.00000000	73.11147000	30.37647000
162.99999049	0.00000000	72.77928000	30.73942000
163.19999048	0.00000000	72.73621000	30.37647000
163.39999047	0.00000000	72.73621000	30.04429000
163.59999046	0.00000000	72.73621000	30.00123000
163.79999045	0.00000000	72.73621000	30.00123000
163.99999043	0.00000000	72.73621000	29.95817000
164.19999042	0.00000000	72.73621000	29.62598000
164.39999041	0.00000000	72.77928000	29.25689000
164.59999040	0.00000000	73.15452000	29.62598000
164.79999039	0.00000000	73.89886000	29.95817000
164.99999037	0.00000000	74.27411000	30.00123000
165.19999036	0.00000000	74.31717000	30.00123000
165.39999035	0.00000000	74.27411000	30.00123000
165.59999034	0.00000000	73.89886000	30.00123000
165.79999033	0.00000000	73.15452000	30.00123000
165.99999032	0.00000000	72.77928000	30.00123000
166.19999030	0.00000000	72.73621000	30.00123000
166.39999029	0.00000000	72.73621000	30.00123000
166.59999028	0.00000000	72.73621000	29.95817000
166.79999027	0.00000000	72.73621000	29.62598000
166.99999026	0.00000000	72.73621000	29.25689000
167.19999024	0.00000000	72.73621000	29.62598000
167.39999023	0.00000000	72.73621000	29.95817000
167.59999022	0.00000000	72.73621000	29.95817000
167.79999021	0.00000000	72.77928000	29.62598000
167.99999020	0.00000000	73.11147000	29.25689000
168.19999018	0.00000000	73.48056000	29.62598000
168.39999017	0.00000000	73.11147000	29.95817000
168.59999016	0.00000000	72.77928000	30.00123000
168.79999015	0.00000000	72.73621000	30.00123000
168.99999014	0.00000000	72.73621000	30.00123000
169.19999013	0.00000000	72.73621000	30.00123000
169.39999011	0.00000000	72.73621000	30.00123000
169.59999010	0.00000000	72.73621000	30.00123000
169.79999009	0.00000000	72.73621000	30.00123000
169.99999008	0.00000000	72.73621000	30.00123000
170.19999007	0.00000000	72.73621000	30.00123000
170.39999005	0.00000000	72.73621000	30.00123000
170.59999004	0.00000000	72.77928000	30.00123000
170.79999003	0.00000000	73.11147000	29.95817000
170.99999002	0.00000000	73.48056000	29.58292000
171.19999001	0.00000000	73.11147000	28.88779000
171.39998999	0.00000000	72.77928000	28.83858000
171.59998998	0.00000000	72.73621000	29.16461000
171.79998997	0.00000000	72.73621000	28.79552000
171.99998996	0.00000000	72.73621000	28.51255000
172.19998995	0.00000000	72.73621000	28.79552000
172.39998994	0.00000000	72.73621000	29.20767000
172.59998992	0.00000000	72.73621000	29.21383000
172.79998991	0.00000000	72.73621000	29.62598000
172.99998990	0.00000000	72.73621000	29.90895000
173.19998989	0.00000000	72.73621000	29.62598000
173.39998988	0.00000000	72.73621000	29.25689000
173.59998986	0.00000000	72.73621000	29.62598000
173.79998985	0.00000000	72.73621000	29.90895000
173.99998984	0.00000000	72.73621000	29.58292000
174.19998983	0.00000000	72.73621000	28.83858000
174.39998982	0.00000000	72.73621000	28.46333000
174.59998980	0.00000000	72.73621000	28.46333000
174.79998979	0.00000000	72.73621000	28.79552000
174.99998978	0.00000000	72.73621000	29.20767000
175.19998977	0.00000000	72.73621000	29.21383000
175.39998976	0.00000000	72.73621000	29.62598000
175.59998975	0.00000000	72.73621000	29.95817000
175.79998973	0.00000000	72.73621000	30.00123000
175.99998972	0.00000000	72.73621000	30.00123000
176.19998971	0.00000000	72.73621000	30.00123000
176.39998970	0.00000000	72.73621000	30.00123000
176.59998969	0.00000000	72.73621000	30.00123000
176.79998967	0.00000000	72.73621000	30.00123000
176.99998966	0.00000000	72.73621000	30.00123000
177.19998965	0.00000000	72.73621000	30.00123000
177.39998964	0.00000000	72.73621000	29.95817000
177.59998963	0.00000000	72.73621000	29.58292000
177.79998961	0.00000000	72.73621000	28.88779000
177.99998960	0.00000000	72.73621000	28.88779000
178.19998959	0.00000000	72.73621000	29.58292000
178.39998958	0.00000000	72.73621000	29.95817000
178.59998957	0.00000000	72.73621000	30.00123000
178.79998956	0.00000000	72.73621000	30.00123000
178.99998954	0.00000000	72.73621000	30.00123000
179.19998953	0.00000000	72.73621000	30.00123000
179.39998952	0.00000000	72.73621000	30.00123000
179.59998951	0.00000000	72.73621000	30.00123000
179.79998950	0.00000000	72.73621000	30.00123000
179.99998948	0.00000000	72.73621000	30.00123000
180.19998947	0.00000000	72.73621000	30.00123000
180.39998946	0.00000000	72.73621000	29.95817000
180.59998945	0.00000000	72.73621000	29.62598000
180.79998944	0.00000000	72.73621000	29.25689000
180.99998942	0.00000000	72.73621000	29.58292000
181.19998941	0.00000000	72.73621000	29.58292000
181.39998940	0.00000000	72.73621000	29.25689000
181.59998939	0.00000000	72.73621000	29.62598000
181.79998938	0.00000000	72.73621000	29.90895000
181.99998937	0.00000000	72.73621000	29.62598000
182.19998935	0.00000000	72.73621000	29.25689000
182.39998934	0.00000000	72.73621000	29.58292000
182.59998933	0.00000000	72.73621000	29.53371000
182.79998932	0.00000000	72.73621000	28.83858000
182.99998931	0.00000000	72.73621000	28.46333000
183.19998929	0.00000000	72.73621000	28.42027000
183.39998928	0.00000000	72.73621000	28.42027000
183.59998927	0.00000000	72.73621000	28.46333000
183.79998926	0.00000000	72.73621000	28.83858000
183.99998925	0.00000000	72.73621000	29.58292000
184.19998923	0.00000000	72.73621000	29.95817000
184.39998922	0.00000000	72.73621000	30.00123000
184.59998921	0.00000000	72.73621000	30.00123000
184.79998920	0.00000000	72.73621000	30.00123000
184.99998919	0.00000000	72.73621000	30.00123000
185.19998918	0.00000000	72.73621000	30.00123000
185.39998916	0.00000000	72.73621000	30.00123000
185.59998915	0.00000000	72.73621000	30.00123000
185.79998914	0.00000000	72.73621000	29.95817000
185.99998913	0.00000000	72.73621000	29.58292000
186.19998912	0.00000000	72.73621000	28.83858000
186.39998910	0.00000000	72.69316000	28.46333000
186.59998909	0.00000000	72.36097000	28.42027000
186.79998908	0.00000000	71.99188000	28.46333000
186.99998907	0.00000000	72.31791000	28.83858000
187.19998906	0.00000000	72.31791000	29.58292000
187.39998904	0.00000000	71.99188000	29.95817000
187.59998903	0.00000000	72.36097000	30.00123000
187.79998902	0.00000000	72.69316000	30.00123000
187.99998901	0.00000000	72.73621000	30.00123000
188.19998900	0.00000000	72.73621000	30.00123000
188.39998899	0.00000000	72.73621000	29.95817000
188.59998897	0.00000000	72.73621000	29.58292000
188.79998896	0.00000000	72.73621000	28.83858000
188.99998895	0.00000000	72.73621000	28.46333000
189.19998894	0.00000000	72.73621000	28.42027000
189.39998893	0.00000000	72.73621000	28.42027000
189.59998891	0.00000000	72.73621000	28.42027000
189.79998890	0.00000000	72.73621000	28.46333000
189.99998889	0.00000000	72.73621000	28.83858000
190.19998888	0.00000000	72.73621000	29.58292000
190.39998887	0.00000000	72.69316000	29.95817000
190.59998885	0.00000000	72.31791000	30.00123000
190.79998884	0.00000000	71.62278000	30.00123000
190.99998883	0.00000000	71.62278000	30.00123000
191.19998882	0.00000000	72.31791000	30.00123000
191.39998881	0.00000000	72.69316000	29.95817000
191.59998880	0.00000000	72.73621000	29.58292000
191.79998878	0.00000000	72.73621000	28.83858000
191.99998877	0.00000000	72.73621000	28.46333000
192.19998876	0.00000000	72.73621000	28.42027000
192.39998875	0.00000000	72.69316000	28.42027000
192.59998874	0.00000000	72.36097000	28.42027000
192.79998872	0.00000000	71.94881000	28.46333000
192.99998871	0.00000000	71.94266000	28.79552000
193.19998870	0.00000000	71.53051000	29.20767000
193.39998869	0.00000000	71.24754000	29.21383000
193.59998868	0.00000000	71.53051000	29.62598000
193.79998866	0.00000000	71.94266000	29.95817000
193.99998865	0.00000000	71.94881000	30.00123000
194.19998864	0.00000000	72.36097000	30.00123000
194.39998863	0.00000000	72.69316000	30.00123000
194.59998862	0.00000000	72.73621000	29.95817000
194.79998861	0.00000000	72.73621000	29.62598000
194.99998859	0.00000000	72.73621000	29.17077000
195.19998858	0.00000000	72.69316000	28.83243000
195.39998857	0.00000000	72.36097000	28.10039000
195.59998856	0.00000000	71.94881000	28.51255000
195.79998855	0.00000000	71.94266000	29.49065000
195.99998853	0.00000000	71.57356000	29.53371000
