Time	Channel A	Channel B	Channel C
(us)	(V)	(mV)	(mV)

-4.49999956	0.00000000	12.69070000	2.41141700
-4.29999957	0.00000000	13.02288000	2.73745100
-4.09999958	0.00000000	13.39198000	2.73745100
-3.89999959	0.00000000	13.02288000	2.41141700
-3.69999960	0.00000000	12.69070000	2.78051200
-3.49999962	0.00000000	12.64764000	3.06348400
-3.29999963	0.00000000	12.64764000	2.78051200
-3.09999964	0.00000000	12.64764000	2.41141700
-2.89999965	0.00000000	12.64764000	2.73745100
-2.69999966	0.00000000	12.64764000	2.73745100
-2.49999968	0.00000000	12.64764000	2.36835600
-2.29999969	0.00000000	12.64764000	2.40526600
-2.09999970	0.00000000	12.64764000	2.36835600
-1.89999971	0.00000000	12.64764000	2.78051200
-1.69999972	0.00000000	12.64764000	3.06348400
-1.49999973	0.00000000	12.64764000	2.78051200
-1.29999975	0.00000000	12.64764000	2.36835600
-1.09999976	0.00000000	12.64764000	2.40526600
-0.89999977	0.00000000	12.64764000	2.36835600
-0.69999978	0.00000000	12.64764000	2.73745100
-0.49999979	0.00000000	12.64764000	2.73745100
-0.29999981	0.31803640	12.64764000	2.36835600
-0.09999982	0.63668800	12.64764000	2.36220500
0.10000017	0.95533960	12.64764000	1.95004900
0.30000016	0.95533960	12.64764000	1.61786400
0.50000015	0.79601380	12.64764000	1.57480300
0.70000013	0.15871060	12.60458000	1.57480300
0.90000012	-0.79601380	12.27239000	1.61786400
1.10000011	-1.59264300	11.90330000	1.99311000
1.30000010	-2.54859700	12.27239000	2.73745100
1.50000009	-2.70792300	12.64764000	3.11269700
1.70000008	-2.22994600	13.02288000	3.15575800
1.90000006	-0.95533960	13.39198000	3.15575800
2.10000005	0.79601380	13.02288000	3.15575800
2.30000004	3.02657500	12.69070000	3.15575800
2.50000003	4.61921700	12.64764000	3.11269700
2.70000002	5.41584600	12.64764000	2.73745100
2.90000000	4.61921700	12.64764000	1.99311000
3.09999999	2.54859700	12.64764000	1.61786400
3.29999998	-0.63668800	12.64764000	1.57480300
3.49999997	-4.14124000	12.64764000	1.61786400
3.69999996	-6.84916400	12.64764000	1.99311000
3.89999994	-7.96444400	12.64764000	2.73745100
4.09999993	-7.16781500	12.69070000	3.11269700
4.29999992	-4.45989200	13.02288000	3.15575800
4.49999991	-0.31803640	13.39198000	3.15575800
4.69999990	4.14124000	13.02288000	3.11269700
4.89999989	7.64579200	12.69070000	2.73745100
5.09999987	9.39837600	12.64764000	1.99311000
5.29999986	8.76107300	12.64764000	1.61786400
5.49999985	6.05315000	12.64764000	1.57480300
5.69999984	1.59264300	12.64764000	1.57480300
5.89999983	-3.18590100	12.64764000	1.57480300
6.09999981	-7.16781500	12.64764000	1.61786400
6.29999980	-9.23905000	12.64764000	1.99311000
6.49999979	-9.07972400	12.64764000	2.73745100
6.69999978	-6.53112700	12.64764000	3.11269700
6.89999977	-2.70792300	12.64764000	3.15575800
7.09999975	1.59264300	12.64764000	3.11269700
7.29999974	5.25652100	12.64764000	2.73745100
7.49999973	7.48646600	12.64764000	1.99311000
7.69999972	7.48646600	12.64764000	1.66707700
7.89999971	5.89382400	12.64764000	1.95004900
8.09999970	2.86724900	12.64764000	2.31914400
8.29999968	-0.47736220	12.64764000	1.95004900
8.49999967	-3.18590100	12.64764000	1.66707700
8.69999966	-4.93786900	12.64764000	1.99311000
8.89999965	-5.09719500	12.64764000	2.73745100
9.09999964	-4.14124000	12.64764000	3.11269700
9.29999962	-2.38927200	12.64764000	3.15575800
9.49999961	-0.31803640	12.64764000	3.15575800
9.69999960	1.27399100	12.64764000	3.15575800
9.89999959	2.38927200	12.64764000	3.15575800
10.09999958	2.54859700	12.64764000	3.11269700
10.29999956	2.07062000	12.64764000	2.78051200
10.49999955	1.27399100	12.64764000	2.36835600
10.69999954	0.31803640	12.64764000	2.36220500
10.89999953	-0.31803640	12.64764000	1.95004900
11.09999952	-0.79601380	12.64764000	1.66707700
11.29999951	-0.95533960	12.64764000	1.95004900
11.49999949	-0.95533960	12.64764000	2.36220500
11.69999948	-0.79601380	12.64764000	2.36835600
11.89999947	-0.31803640	12.64764000	2.78051200
12.09999946	-0.15871060	12.64764000	3.06348400
12.29999945	-0.15871060	12.64764000	2.73745100
12.49999943	-0.15871060	12.64764000	2.04232300
12.69999942	0.00000000	12.64764000	1.99311000
12.89999941	0.00000000	12.64764000	2.36220500
13.09999940	0.15871060	12.64764000	2.36835600
13.29999939	0.00000000	12.64764000	2.73745100
13.49999937	0.00000000	12.64764000	2.68823800
13.69999936	0.00000000	12.64764000	1.99311000
13.89999935	0.00000000	12.64764000	1.61786400
14.09999934	-0.15871060	12.64764000	1.57480300
14.29999933	-0.15871060	12.64764000	1.57480300
14.49999932	-0.15871060	12.64764000	1.57480300
14.69999930	0.00000000	12.64764000	1.61786400
14.89999929	0.00000000	12.64764000	1.99311000
15.09999928	0.00000000	12.64764000	2.68823800
15.29999927	0.00000000	12.64764000	2.73745100
15.49999926	0.00000000	12.60458000	2.36835600
15.69999924	0.00000000	12.27239000	2.40526600
15.89999923	0.00000000	11.90330000	2.32529500
16.09999922	0.00000000	12.27239000	2.36220500
16.29999921	0.00000000	12.60458000	1.99311000
16.49999920	-0.15871060	12.64764000	1.99311000
16.69999919	0.00000000	12.69070000	2.31914400
16.89999917	-0.15871060	13.06594000	1.95004900
17.09999916	0.00000000	13.81028000	1.66707700
17.29999915	0.00000000	14.18553000	1.99311000
17.49999914	0.00000000	14.22859000	2.68823800
17.69999913	0.00000000	14.18553000	2.68823800
17.89999911	0.00000000	13.76107000	1.99311000
18.09999910	0.00000000	12.60458000	1.61786400
18.29999909	0.00000000	11.06668000	1.61786400
18.49999908	0.00000000	9.52879000	1.99311000
18.69999907	0.00000000	8.37229300	2.68823800
18.89999905	0.00000000	7.94783400	2.73745100
19.09999904	0.00000000	8.04010800	2.36835600
19.29999903	0.00000000	9.25196800	2.36220500
19.49999902	0.00000000	12.36466000	1.99311000
19.69999901	0.00000000	16.18479000	1.99311000
19.89999900	0.00000000	20.08489000	2.31914400
20.09999898	0.00000000	23.11762000	1.99311000
20.29999897	0.00000000	24.27411000	1.99311000
20.49999896	0.00000000	23.02534000	2.31914400
20.69999895	0.00000000	19.11294000	1.99311000
20.89999894	0.00000000	12.51230000	1.99311000
21.09999892	0.00000000	4.83513700	2.31914400
21.29999891	0.00000000	-2.14074800	1.95004900
21.49999890	0.00000000	-6.74827700	1.61786400
21.69999889	0.00000000	-7.82480200	1.57480300
21.89999888	0.00000000	-4.19537400	1.57480300
22.09999886	0.00000000	4.69365100	1.57480300
22.29999885	0.00000000	17.01525000	1.57480300
22.49999884	0.00000000	29.39837000	1.57480300
22.69999883	0.00000000	39.44390000	1.61786400
22.89999882	0.00000000	44.70964000	1.99311000
23.09999881	0.00000000	42.70423000	2.73745100
23.29999879	0.00000000	32.98474000	3.11269700
23.49999878	0.00000000	17.53199000	3.15575800
23.69999877	0.00000000	-0.65206690	3.19881900
23.89999876	0.00000000	-17.17520000	3.57406500
24.09999875	0.00000000	-27.96506000	4.26919300
24.29999873	0.00000000	-29.82899000	4.22613100
24.49999872	0.00000000	-22.05955000	3.06348400
24.69999871	0.00000000	-5.77632800	1.20570900
24.89999870	0.00000000	15.85876000	-0.73818890
25.09999869	0.00000000	37.86294000	-1.90698800
25.29999867	0.00000000	55.17347000	-2.68823800
25.49999866	0.00000000	63.22588000	-2.60211600
25.69999865	-0.15871060	59.31963000	-1.07037400
25.89999864	0.00000000	44.32824000	1.66707700
26.09999863	0.00000000	21.86270000	5.15501900
26.29999862	0.00000000	-2.84817900	9.00590400
26.49999860	0.00000000	-24.84621000	12.07554000
26.69999859	0.00000000	-38.29970000	13.56422000
26.89999858	0.00000000	-39.92372000	12.72761000
27.09999857	0.00000000	-29.82899000	8.82750900
27.29999856	0.00000000	-10.18701000	2.64517700
27.49999854	0.00000000	14.50541000	-4.69365100
27.69999853	-0.15871060	37.72761000	-11.65723000
27.89999852	0.00000000	55.17347000	-16.63386000
28.09999851	0.00000000	63.22588000	-18.49163000
28.29999850	0.00000000	59.40575000	-15.66191000
28.49999848	0.00000000	45.21407000	-7.94783400
28.69999847	0.00000000	24.74163000	3.24803100
28.89999846	0.00000000	2.68823800	15.18824000
29.09999845	0.00000000	-16.28937000	25.22145000
29.29999844	0.00000000	-28.29109000	30.98548000
29.49999843	0.00000000	-31.08391000	30.94242000
29.69999841	0.00000000	-24.52633000	24.66781000
29.89999840	0.00000000	-10.65453000	12.68455000
30.09999839	0.00000000	7.48646600	-2.73745100
30.29999838	0.00000000	25.30143000	-17.74729000
30.49999837	0.00000000	39.26550000	-28.98622000
30.69999835	0.00000000	47.02879000	-33.96284000
30.89999834	0.00000000	46.70890000	-31.63755000
31.09999833	0.00000000	39.44390000	-21.88730000
31.29999832	0.00000000	27.39296000	-6.45915300
31.49999831	0.00000000	12.73991000	11.65723000
31.69999829	0.00000000	-1.16879900	27.82972000
31.89999828	0.00000000	-10.89444000	38.37352000
32.09999827	0.00000000	-15.21900000	41.81841000
32.29999826	0.00000000	-13.63804000	37.53691000
32.49999825	0.00000000	-6.37303100	25.51058000
32.69999824	0.00000000	4.41067900	8.59375000
32.89999822	0.00000000	15.58194000	-9.61491000
33.09999821	0.00000000	24.97539000	-25.04306000
33.29999820	0.00000000	30.79478000	-34.70718000
33.49999819	0.00000000	32.74483000	-36.28199000
33.69999818	0.00000000	30.00123000	-29.73671000
33.89999816	0.00000000	23.11762000	-17.00295000
34.09999815	0.00000000	14.27165000	-0.37524600
34.29999814	0.00000000	5.76402500	16.21555000
34.49999813	0.00000000	-0.38139760	29.36146000
34.69999812	0.00000000	-2.74975400	36.33120000
34.89999810	0.00000000	-0.84891720	35.58686000
35.09999809	0.00000000	4.09079700	27.91584000
35.29999808	0.00000000	10.64838000	15.14518000
35.49999807	0.00000000	16.79380000	0.13533460
35.69999806	0.00000000	21.06914000	-13.75492000
35.89999805	0.00000000	22.60704000	-23.00074000
36.09999803	0.00000000	21.06914000	-25.78740000
36.29999802	0.00000000	16.87992000	-21.93036000
36.49999801	0.00000000	11.53420000	-12.72761000
36.69999800	0.00000000	6.87746000	-0.41830710
36.89999799	0.00000000	3.75861200	11.47884000
37.09999797	0.00000000	2.64517700	19.98031000
37.29999796	0.00000000	4.22613100	23.09301000
37.49999795	0.00000000	8.37229300	20.44168000
37.69999794	0.00000000	13.39198000	13.14591000
37.89999793	0.00000000	17.67347000	3.20497000
38.09999791	0.00000000	21.16142000	-6.40994000
38.29999790	0.00000000	22.65010000	-12.92446000
38.49999789	0.00000000	21.48745000	-14.81914000
38.69999788	0.00000000	18.04257000	-10.96826000
38.89999787	0.00000000	13.06594000	-2.64517700
39.09999786	0.00000000	8.45841400	6.92052100
39.29999784	0.00000000	5.29650500	14.63459000
39.49999783	0.00000000	3.67249000	18.81767000
39.69999782	0.00000000	3.29724400	18.02411000
39.89999781	0.00000000	4.13385800	11.89715000
40.09999780	0.00000000	6.87746000	2.73745100
40.29999778	0.00000000	11.06668000	-6.87746000
40.49999777	0.00000000	15.29897000	-14.12401000
40.69999776	0.00000000	18.46087000	-16.81841000
40.89999775	0.00000000	20.41708000	-14.12401000
41.09999774	0.00000000	21.20448000	-6.87746000
41.29999772	0.00000000	20.41708000	2.73745100
41.49999771	0.00000000	18.46087000	11.98942000
41.69999770	0.00000000	15.34203000	18.90994000
41.89999769	0.00000000	11.48499000	21.56127000
42.09999768	0.00000000	7.99704600	18.90994000
42.29999767	0.00000000	5.29650500	12.03248000
42.49999765	0.00000000	4.13385800	3.20497000
42.69999764	0.00000000	4.87819900	-5.29650500
42.89999763	0.00000000	6.74212600	-11.42962000
43.09999762	0.00000000	9.11048200	-13.79798000
43.29999761	0.00000000	11.44193000	-11.89715000
43.49999759	0.00000000	13.76107000	-6.96358300
43.69999758	0.00000000	15.29897000	-0.41830710
43.89999757	0.00000000	15.76649000	5.75787400
44.09999756	0.00000000	15.80955000	10.40846000
44.29999755	0.00000000	15.76649000	12.77067000
44.49999753	0.00000000	15.39124000	12.40157000
44.69999752	0.00000000	14.64690000	10.11934000
44.89999751	0.00000000	14.27165000	6.21924200
45.09999750	0.00000000	14.18553000	1.66707700
45.29999749	0.00000000	13.76107000	-2.18380900
45.49999748	0.00000000	12.55536000	-4.14000900
45.69999746	0.00000000	10.59916000	-4.22613100
45.89999745	0.00000000	7.86171200	-3.06348400
46.09999744	0.00000000	4.83513700	-1.11343500
46.29999743	0.00000000	2.55290300	1.58095500
46.49999742	0.00000000	2.22687000	4.26919300
46.69999740	0.00000000	4.18307100	6.22539300
46.89999739	0.00000000	8.45841400	7.38188900
47.09999738	0.00000000	14.27165000	7.38188900
47.29999737	0.00000000	20.46014000	6.22539300
47.49999736	0.00000000	25.81201000	4.26919300
47.69999734	0.00000000	28.46333000	1.58095500
47.89999733	0.00000000	27.25763000	-1.11343500
48.09999732	0.00000000	22.23179000	-3.02042300
48.29999731	0.00000000	14.13632000	-3.80782500
48.49999730	0.00000000	5.29650500	-3.02042300
48.69999729	0.00000000	-2.05462600	-1.11343500
48.89999727	0.00000000	-6.28690900	1.62401600
49.09999726	0.00000000	-6.28690900	4.68750000
49.29999725	0.00000000	-2.00541300	7.38188900
49.49999724	0.00000000	5.71481200	8.91978400
49.69999723	0.00000000	15.34203000	8.91978400
49.89999721	0.00000000	24.18799000	7.33882900
50.09999720	0.00000000	30.00123000	4.26919300
50.29999719	0.00000000	31.48991000	0.41830710
50.49999718	0.00000000	28.04503000	-3.06348400
50.69999717	0.00000000	20.37401000	-5.75787400
50.89999715	0.00000000	11.15896000	-6.82824800
51.09999714	0.00000000	2.64517700	-5.33956700
51.29999713	0.00000000	-3.12500000	-1.90698800
51.49999712	0.00000000	-4.70595500	1.95004900
51.69999711	0.00000000	-2.00541300	5.85014700
51.89999710	0.00000000	4.18307100	8.91978400
52.09999708	0.00000000	12.60458000	10.45152000
52.29999707	0.00000000	20.65084000	10.03322000
52.49999706	0.00000000	25.63361000	7.38188900
52.69999705	0.00000000	26.46407000	3.57406500
52.89999704	0.00000000	23.02534000	0.04306102
53.09999702	0.00000000	16.92298000	-3.02042300
53.29999701	0.00000000	9.95324800	-4.92125900
53.49999700	0.00000000	3.80782500	-4.55831700
53.69999699	0.00000000	-0.00615157	-2.69439000
53.89999698	0.00000000	-0.00615157	0.04306102
54.09999696	0.00000000	3.75861200	3.06348400
54.29999695	0.00000000	9.52879000	5.38262700
54.49999694	0.00000000	15.67421000	6.17618100
54.69999693	0.00000000	20.69390000	5.80093500
54.89999692	0.00000000	22.98228000	4.26919300
55.09999691	0.00000000	22.23179000	1.99311000
55.29999689	0.00000000	18.41781000	0.13533460
55.49999688	0.00000000	13.06594000	-0.65206690
55.69999687	0.00000000	7.99704600	0.13533460
55.89999686	0.00000000	3.75861200	1.99311000
56.09999685	0.00000000	1.53174200	4.31840500
56.29999683	0.00000000	2.64517700	6.17618100
56.49999682	0.00000000	6.41609200	6.92052100
56.69999681	0.00000000	11.06668000	5.71481200
56.89999680	0.00000000	15.67421000	2.69439000
57.09999679	0.00000000	19.15600000	-1.11343500
57.29999677	0.00000000	20.32480000	-4.22613100
57.49999676	0.00000000	19.58046000	-6.13312000
57.69999675	0.00000000	16.87992000	-6.45300100
57.89999674	0.00000000	13.06594000	-4.04773600
58.09999673	0.00000000	9.62106200	0.87967510
58.29999672	0.00000000	7.25270600	7.01279500
58.49999670	0.00000000	6.45915300	11.98327000
58.69999669	0.00000000	6.83439900	14.67766000
58.89999668	0.00000000	8.37229300	14.25935000
59.09999667	0.00000000	10.69144000	10.40846000
59.29999666	0.00000000	12.97982000	4.26919300
59.49999664	0.00000000	14.92372000	-2.69439000
59.69999663	0.00000000	15.67421000	-8.82750900
59.89999662	0.00000000	15.34203000	-12.63533000
60.09999661	0.00000000	14.18553000	-12.63533000
60.29999660	0.00000000	12.64764000	-8.78444900
60.49999658	0.00000000	11.15896000	-2.27608300
60.69999657	0.00000000	10.37155000	5.47490100
60.89999656	0.00000000	10.73450000	12.35851000
61.09999655	0.00000000	11.44193000	17.00295000
61.29999654	0.00000000	12.22933000	17.74729000
61.49999653	0.00000000	12.60458000	14.67766000
61.69999651	0.00000000	12.64764000	8.50147600
61.89999650	0.00000000	12.60458000	0.41830710
62.09999649	0.00000000	12.18012000	-7.25270600
62.29999648	0.00000000	11.06668000	-12.68455000
62.49999647	0.00000000	9.95324800	-14.59153000
62.69999645	0.00000000	9.52879000	-12.68455000
62.89999644	0.00000000	9.52879000	-7.29576700
63.09999643	0.00000000	9.95324800	0.00000000
63.29999642	0.00000000	11.10974000	7.38188900
63.49999641	0.00000000	12.64764000	13.52116000
63.69999639	0.00000000	14.18553000	17.00295000
63.89999638	0.00000000	15.29897000	16.63386000
64.09999637	0.00000000	15.29897000	13.18898000
64.29999636	0.00000000	14.18553000	7.38188900
64.49999635	0.00000000	12.64764000	0.51058070
64.69999634	0.00000000	11.10974000	-5.33956700
64.89999632	0.00000000	9.90403500	-9.24581600
65.09999631	0.00000000	9.20275500	-11.14665000
65.29999630	0.00000000	9.16584600	-9.98400600
65.49999629	0.00000000	10.31619000	-6.21924200
65.69999628	0.00000000	11.44193000	-1.62401600
65.89999626	0.00000000	12.64764000	2.69439000
66.09999625	0.00000000	13.71801000	6.22539300
66.29999624	0.00000000	13.71801000	8.96284400
66.49999623	0.00000000	12.60458000	10.49459000
66.69999622	0.00000000	11.06668000	10.53765000
66.89999620	0.00000000	9.52879000	9.38115100
67.09999619	0.00000000	8.41535400	7.43110200
67.29999618	0.00000000	8.41535400	4.68750000
67.49999617	0.00000000	9.57800100	1.58095500
67.69999616	0.00000000	11.53420000	-1.53174200
67.89999615	0.00000000	14.22859000	-4.26919300
68.09999613	0.00000000	16.83686000	-6.22539300
68.29999612	0.00000000	17.99951000	-7.33882900
68.49999611	0.00000000	17.25517000	-6.92052100
68.69999610	0.00000000	15.29897000	-4.60137700
68.89999609	0.00000000	12.13706000	-1.11343500
69.09999607	0.00000000	7.94783400	3.20497000
69.29999606	0.00000000	4.13385800	7.80019600
69.49999605	0.00000000	2.22687000	11.65723000
69.69999604	0.00000000	2.60211600	13.56422000
69.89999603	0.00000000	5.29650500	13.18898000
70.09999601	0.00000000	9.57800100	10.45152000
70.29999600	0.00000000	14.60384000	5.85014700
70.49999599	0.00000000	19.62352000	0.41830710
70.69999598	0.00000000	23.06841000	-4.60137700
70.89999597	0.00000000	24.23105000	-8.45226300
71.09999596	0.00000000	22.65010000	-9.94094400
71.29999594	0.00000000	18.37475000	-8.45226300
71.49999593	0.00000000	12.22933000	-4.64443900
71.69999592	0.00000000	5.67175200	0.00000000
71.89999591	0.00000000	0.68897630	4.64443900
72.09999590	0.00000000	-1.67938000	8.50147600
72.29999588	0.00000000	-0.89197830	10.40846000
72.49999587	0.00000000	2.55290300	10.07628000
72.69999586	0.00000000	7.99704600	7.80019600
72.89999585	0.00000000	14.13632000	4.73671200
73.09999584	0.00000000	19.58046000	1.62401600
73.29999582	0.00000000	23.02534000	-1.02116100
73.49999581	0.00000000	23.85581000	-2.18380900
73.69999580	0.00000000	21.90576000	-1.48868100
73.89999579	0.00000000	18.04257000	0.00000000
74.09999578	0.00000000	12.64764000	1.53174200
74.29999577	0.00000000	7.29576700	2.64517700
74.49999575	0.00000000	3.75861200	2.64517700
74.69999574	0.00000000	2.17765700	1.57480300
74.89999573	0.00000000	2.60211600	0.41830710
75.09999572	0.00000000	5.25344500	-0.37524600
75.29999571	0.00000000	9.06742000	-1.11343500
75.49999569	0.00000000	12.55536000	-1.02116100
75.69999568	0.00000000	15.29897000	0.51058070
75.89999567	0.00000000	16.83686000	3.19881900
76.09999566	0.00000000	16.87992000	6.26845500
76.29999565	0.00000000	15.76649000	8.91978400
76.49999563	0.00000000	14.22859000	10.03322000
76.69999562	0.00000000	12.64764000	8.87057000
76.89999561	0.00000000	11.10974000	5.75787400
77.09999560	0.00000000	9.99630800	1.15649600
77.29999559	0.00000000	9.95324800	-3.85703700
77.49999558	0.00000000	10.64838000	-7.67101300
77.69999556	0.00000000	11.02362000	-9.61491000
77.89999555	0.00000000	11.02362000	-8.78444900
78.09999554	0.00000000	10.64838000	-5.33956700
78.29999553	0.00000000	9.90403500	0.04306102
78.49999552	0.00000000	9.52879000	5.80093500
78.69999550	0.00000000	9.52879000	10.45152000
78.89999549	0.00000000	9.95324800	13.18898000
79.09999548	0.00000000	11.10974000	13.56422000
79.29999547	0.00000000	12.64764000	11.61417000
79.49999546	0.00000000	14.22859000	7.38188900
79.69999544	0.00000000	15.71727000	2.04232300
79.89999543	0.00000000	16.46161000	-2.64517700
80.09999542	0.00000000	15.67421000	-6.13312000
80.29999541	0.00000000	13.76107000	-8.07701800
80.49999540	0.00000000	11.06668000	-7.71407400
80.69999539	0.00000000	8.37229300	-5.80093500
80.89999537	0.00000000	6.41609200	-2.69439000
81.09999536	0.00000000	5.29650500	1.15649600
81.29999535	0.00000000	5.71481200	4.64443900
81.49999534	0.00000000	7.99704600	7.38188900
81.69999533	0.00000000	11.02362000	8.96284400
81.89999531	0.00000000	13.76107000	9.33809000
82.09999530	0.00000000	15.71727000	8.58759800
82.29999529	0.00000000	16.87992000	6.64370100
82.49999528	0.00000000	16.83686000	4.36146600
82.69999527	0.00000000	15.34203000	1.95004900
82.89999525	0.00000000	13.02288000	-0.37524600
83.09999524	0.00000000	10.73450000	-2.73745100
83.29999523	0.00000000	8.79060000	-4.64443900
83.49999522	0.00000000	7.99704600	-5.75787400
83.69999521	0.00000000	7.99704600	-5.33956700
83.89999520	0.00000000	8.79060000	-3.06348400
84.09999518	0.00000000	10.64838000	0.00000000
84.29999517	0.00000000	12.13706000	3.15575800
84.49999516	0.00000000	12.60458000	6.26845500
84.69999515	0.00000000	12.64764000	8.96284400
84.89999514	0.00000000	12.64764000	10.45152000
85.09999512	0.00000000	12.64764000	10.07628000
85.29999511	0.00000000	12.64764000	7.75713500
85.49999510	0.00000000	12.64764000	4.26919300
85.69999509	0.00000000	12.64764000	0.00000000
85.89999508	0.00000000	12.64764000	-4.22613100
86.09999506	0.00000000	12.64764000	-7.25270600
86.29999505	0.00000000	12.60458000	-8.03395600
86.49999504	0.00000000	12.18012000	-6.13312000
86.69999503	0.00000000	11.02362000	-2.69439000
86.89999502	0.00000000	9.52879000	1.62401600
87.09999501	0.00000000	8.41535400	6.17618100
87.29999499	0.00000000	8.37229300	9.65797200
87.49999498	0.00000000	9.11048200	10.82677000
87.69999497	0.00000000	9.90403500	10.07628000
87.89999496	0.00000000	11.10974000	7.33882900
88.09999495	0.00000000	12.60458000	3.11269700
88.29999493	0.00000000	13.76107000	-1.48868100
88.49999492	0.00000000	14.13632000	-5.33956700
88.69999491	0.00000000	13.76107000	-7.24655500
88.89999490	0.00000000	12.60458000	-6.87746000
89.09999489	0.00000000	11.10974000	-4.14000900
89.29999487	0.00000000	9.90403500	0.41830710
89.49999486	0.00000000	9.11048200	5.43184000
89.69999485	0.00000000	8.37229300	9.24581600
89.89999484	0.00000000	8.41535400	11.18971000
90.09999483	0.00000000	9.48572700	10.40846000
90.29999482	0.00000000	10.64838000	7.38188900
90.49999480	0.00000000	11.44193000	3.11269700
90.69999479	0.00000000	12.22933000	-1.48868100
90.89999478	0.00000000	12.60458000	-5.33956700
91.09999477	0.00000000	12.64764000	-7.20349400
91.29999476	0.00000000	12.60458000	-6.45300100
91.49999474	0.00000000	12.22933000	-3.02042300
91.69999473	0.00000000	11.48499000	1.57480300
91.89999472	0.00000000	11.15896000	6.17618100
92.09999471	0.00000000	11.48499000	9.65797200
92.29999470	0.00000000	12.18012000	10.82677000
92.49999468	0.00000000	12.18012000	10.03322000
92.69999467	0.00000000	11.44193000	6.92052100
92.89999466	0.00000000	10.69144000	1.99311000
93.09999465	0.00000000	9.86097400	-2.60211600
93.29999464	0.00000000	9.11048200	-5.71481200
93.49999463	0.00000000	8.37229300	-6.87130900
93.69999461	0.00000000	8.41535400	-5.71481200
93.89999460	0.00000000	9.52879000	-2.64517700
94.09999459	0.00000000	11.10974000	1.57480300
94.29999458	0.00000000	13.06594000	5.75787400
94.49999457	0.00000000	15.34203000	8.45226300
94.69999455	0.00000000	16.83686000	8.87672100
94.89999454	0.00000000	16.87992000	7.33882900
95.09999453	0.00000000	15.71727000	4.26919300
95.29999452	0.00000000	13.81028000	0.46751960
95.49999451	0.00000000	11.39887000	-2.64517700
95.69999449	0.00000000	8.69217500	-4.55831700
95.89999448	0.00000000	5.62869100	-4.92125900
96.09999447	0.00000000	3.80782500	-2.97736200
96.29999446	0.00000000	4.13385800	0.37524600
96.49999445	0.00000000	6.45915300	3.85088600
96.69999444	0.00000000	9.90403500	6.17618100
96.89999442	0.00000000	13.76107000	7.33882900
97.09999441	0.00000000	16.92298000	6.96358300
97.29999440	0.00000000	19.25443000	5.06274600
97.49999439	0.00000000	20.69390000	2.78051200
97.69999438	0.00000000	19.53125000	0.41830710
97.89999436	0.00000000	16.14173000	-1.43946800
98.09999435	0.00000000	12.27239000	-2.22687000
98.29999434	0.00000000	8.37229300	-1.53174200
98.49999433	0.00000000	5.25344500	-0.41830710
98.69999432	0.00000000	3.34030500	0.41830710
98.89999430	0.00000000	2.97736200	1.57480300
99.09999429	0.00000000	4.87819900	2.68823800
99.29999428	0.00000000	7.94783400	3.11269700
99.49999427	0.00000000	11.44193000	3.15575800
99.69999426	0.00000000	14.92372000	3.15575800
99.89999425	0.00000000	17.25517000	3.15575800
100.09999423	0.00000000	18.46087000	3.19881900
100.29999422	0.00000000	18.41781000	3.57406500
100.49999421	0.00000000	16.87992000	4.26919300
100.69999420	0.00000000	14.18553000	4.22613100
100.89999419	0.00000000	11.10974000	3.11269700
101.09999417	0.00000000	8.41535400	1.57480300
101.29999416	0.00000000	6.79133800	0.00000000
101.49999415	0.00000000	5.99163300	-1.53174200
101.69999414	0.00000000	5.62869100	-2.64517700
101.89999413	0.00000000	6.45915300	-2.64517700
102.09999411	0.00000000	8.32308000	-1.48868100
102.29999410	0.00000000	10.69144000	0.46751960
102.49999409	0.00000000	12.97982000	3.15575800
102.69999408	0.00000000	14.92372000	5.85014700
102.89999407	0.00000000	15.67421000	7.71407400
103.09999406	0.00000000	15.39124000	8.12622900
103.29999404	0.00000000	14.56078000	6.60063900
103.49999403	0.00000000	13.39198000	4.31840500
103.69999402	0.00000000	11.44193000	1.53174200
103.89999401	0.00000000	9.57800100	-1.48868100
104.09999400	0.00000000	8.32308000	-3.80782500
104.29999398	0.00000000	7.57258800	-4.55831700
104.49999397	0.00000000	7.20964500	-3.80782500
104.69999396	0.00000000	7.99704600	-1.48868100
104.89999395	0.00000000	9.48572700	1.53174200
105.09999394	0.00000000	11.06668000	4.26919300
105.29999392	0.00000000	12.60458000	6.22539300
105.49999391	0.00000000	13.71801000	7.33882900
105.69999390	0.00000000	13.76107000	6.92052100
105.89999389	0.00000000	13.02288000	4.68750000
106.09999388	0.00000000	12.22933000	2.04232300
106.29999387	0.00000000	11.06668000	0.04306102
106.49999385	0.00000000	9.95324800	-1.48868100
106.69999384	0.00000000	9.52879000	-2.22687000
106.89999383	0.00000000	9.52879000	-1.48868100
107.09999382	0.00000000	9.95324800	0.00000000
107.29999381	0.00000000	11.06668000	1.57480300
107.49999379	0.00000000	12.18012000	3.11269700
107.69999378	0.00000000	12.60458000	4.22613100
107.89999377	0.00000000	12.60458000	4.22613100
108.09999376	0.00000000	12.22933000	3.15575800
108.29999375	0.00000000	11.44193000	1.99311000
108.49999374	0.00000000	10.69144000	1.15649600
108.69999372	0.00000000	9.90403500	0.00000000
108.89999371	0.00000000	9.52879000	-1.06422200
109.09999370	0.00000000	9.52879000	-1.06422200
109.29999369	0.00000000	9.95324800	0.04306102
109.49999368	0.00000000	11.06668000	1.57480300
109.69999366	0.00000000	12.22933000	3.11269700
109.89999365	0.00000000	12.97982000	4.26919300
110.09999364	0.00000000	13.39198000	4.64443900
110.29999363	0.00000000	12.97982000	4.31840500
110.49999362	0.00000000	12.27239000	3.48794300
110.69999360	0.00000000	11.44193000	2.36220500
110.89999359	0.00000000	10.69144000	0.79355310
111.09999358	0.00000000	9.86097400	-0.32603340
111.29999357	0.00000000	9.15354300	-1.11343500
111.49999356	0.00000000	8.79060000	-1.11343500
111.69999355	0.00000000	9.52879000	-0.37524600
111.89999353	0.00000000	10.59916000	0.37524600
112.09999352	0.00000000	11.06668000	1.19955700
112.29999351	0.00000000	11.48499000	1.95004900
112.49999350	0.00000000	12.22933000	2.73745100
112.69999349	0.00000000	12.55536000	3.11269700
112.89999347	0.00000000	12.22933000	3.15575800
113.09999346	0.00000000	11.48499000	3.15575800
113.29999345	0.00000000	11.10974000	3.11269700
113.49999344	0.00000000	11.06668000	2.73745100
113.69999343	0.00000000	11.06668000	1.99311000
113.89999341	0.00000000	11.06668000	1.57480300
114.09999340	0.00000000	11.06668000	1.15649600
114.29999339	0.00000000	11.06668000	0.41830710
114.49999338	0.00000000	11.06668000	0.04306102
114.69999337	0.00000000	11.06668000	0.00000000
114.89999336	0.00000000	11.06668000	0.00000000
115.09999334	0.00000000	11.06668000	0.00000000
115.29999333	0.00000000	11.06668000	0.04306102
115.49999332	0.00000000	11.06668000	0.41830710
115.69999331	0.00000000	11.06668000	1.19955700
115.89999330	0.00000000	11.06668000	1.95004900
116.09999328	0.00000000	11.02362000	2.73745100
116.29999327	0.00000000	10.64838000	3.11269700
116.49999326	0.00000000	9.90403500	3.15575800
116.69999325	0.00000000	9.57800100	3.15575800
116.89999324	0.00000000	9.90403500	3.11269700
117.09999322	0.00000000	10.64838000	2.68823800
117.29999321	0.00000000	11.06668000	1.57480300
117.49999320	0.00000000	11.48499000	0.46136810
117.69999319	0.00000000	12.22933000	0.04306102
117.89999318	0.00000000	12.60458000	0.00000000
118.09999317	0.00000000	12.64764000	0.04306102
118.29999315	0.00000000	12.60458000	0.41830710
118.49999314	0.00000000	12.18012000	1.19955700
118.69999313	0.00000000	11.06668000	1.95004900
118.89999312	0.00000000	9.90403500	2.73745100
119.09999311	0.00000000	9.11048200	3.11269700
119.29999309	0.00000000	8.37229300	3.15575800
119.49999308	0.00000000	8.37229300	3.15575800
119.69999307	0.00000000	9.11048200	3.11269700
119.89999306	0.00000000	9.90403500	2.73745100
120.09999305	0.00000000	11.10974000	1.99311000
120.29999303	0.00000000	12.55536000	1.57480300
120.49999302	0.00000000	13.39198000	1.15649600
120.69999301	0.00000000	13.39813000	0.41830710
120.89999300	0.00000000	13.39198000	0.04306102
121.09999299	0.00000000	12.60458000	0.00000000
121.29999298	0.00000000	11.48499000	0.00000000
121.49999296	0.00000000	10.64838000	0.04306102
121.69999295	0.00000000	9.48572700	0.41830710
121.89999294	0.00000000	8.37229300	1.15649600
122.09999293	0.00000000	7.99704600	1.57480300
122.29999292	0.00000000	8.32308000	1.99311000
122.49999290	0.00000000	9.11048200	2.73745100
122.69999289	0.00000000	9.90403500	3.11269700
122.89999288	0.00000000	11.06668000	3.15575800
123.09999287	0.00000000	12.18012000	3.11269700
123.29999286	0.00000000	12.60458000	2.73745100
123.49999284	0.00000000	12.64764000	1.99311000
123.69999283	0.00000000	12.64764000	1.61786400
123.89999282	0.00000000	12.60458000	1.53174200
124.09999281	0.00000000	12.18012000	1.15649600
124.29999280	0.00000000	11.06668000	0.41830710
124.49999279	0.00000000	9.95324800	0.04306102
124.69999277	0.00000000	9.52879000	0.04306102
124.89999276	0.00000000	9.48572700	0.41830710
125.09999275	0.00000000	9.48572700	1.15649600
125.29999274	0.00000000	9.48572700	1.57480300
125.49999273	0.00000000	9.52879000	1.99311000
125.69999271	0.00000000	9.95324800	2.73745100
125.89999270	0.00000000	11.06668000	3.11269700
126.09999269	0.00000000	12.18012000	3.11269700
126.29999268	0.00000000	12.60458000	2.73745100
126.49999267	0.00000000	12.64764000	1.99311000
126.69999265	0.00000000	12.60458000	1.61786400
126.89999264	0.00000000	12.22933000	1.53174200
127.09999263	0.00000000	11.44193000	1.15649600
127.29999262	0.00000000	10.69144000	0.41830710
127.49999261	0.00000000	9.86097400	0.09227362
127.69999260	0.00000000	9.11048200	0.41830710
127.89999258	0.00000000	8.37229300	1.15649600
128.09999257	0.00000000	8.41535400	1.53174200
128.29999256	0.00000000	9.48572700	1.57480300
128.49999255	0.00000000	10.64838000	1.61786400
128.69999254	0.00000000	11.44193000	1.95004900
128.89999252	0.00000000	12.22933000	2.31914400
129.09999251	0.00000000	12.60458000	1.95004900
129.29999250	0.00000000	12.60458000	1.61786400
129.49999249	0.00000000	12.18012000	1.57480300
129.69999248	0.00000000	11.06668000	1.57480300
129.89999246	0.00000000	9.90403500	1.53174200
130.09999245	0.00000000	9.11048200	1.19955700
130.29999244	0.00000000	8.37229300	0.83661410
130.49999243	0.00000000	8.37229300	1.19955700
130.69999242	0.00000000	9.11048200	1.53174200
130.89999241	0.00000000	9.90403500	1.57480300
131.09999239	0.00000000	11.06668000	1.57480300
131.29999238	0.00000000	12.18012000	1.57480300
131.49999237	0.00000000	12.60458000	1.53174200
131.69999236	0.00000000	12.60458000	1.15649600
131.89999235	0.00000000	12.22933000	0.41830710
132.09999233	0.00000000	11.44193000	0.04306102
132.29999232	0.00000000	10.69144000	0.00000000
132.49999231	0.00000000	9.90403500	0.04306102
132.69999230	0.00000000	9.52879000	0.41830710
132.89999229	0.00000000	9.48572700	1.19955700
133.09999227	0.00000000	9.52879000	1.95004900
133.29999226	0.00000000	9.90403500	2.73745100
133.49999225	0.00000000	10.64838000	3.11269700
133.69999224	0.00000000	11.02362000	3.11269700
133.89999223	0.00000000	11.06668000	2.73745100
134.09999222	0.00000000	11.06668000	1.99311000
134.29999220	0.00000000	11.06668000	1.57480300
134.49999219	0.00000000	11.06668000	1.15649600
134.69999218	0.00000000	11.06668000	0.41830710
134.89999217	0.00000000	11.06668000	0.04306102
135.09999216	0.00000000	11.10974000	0.00000000
135.29999214	0.00000000	11.44193000	0.04306102
135.49999213	0.00000000	11.81102000	0.41830710
135.69999212	0.00000000	11.39887000	1.19955700
135.89999211	0.00000000	10.69144000	1.95004900
136.09999210	0.00000000	9.90403500	2.73745100
136.29999208	0.00000000	9.52879000	3.11269700
136.49999207	0.00000000	9.48572700	3.11269700
136.69999206	0.00000000	9.48572700	2.73745100
136.89999205	0.00000000	9.52879000	1.99311000
137.09999204	0.00000000	9.90403500	1.61786400
137.29999203	0.00000000	10.69144000	1.53174200
137.49999201	0.00000000	11.44193000	1.15649600
137.69999200	0.00000000	12.22933000	0.41830710
137.89999199	0.00000000	12.55536000	0.04306102
138.09999198	0.00000000	12.22933000	0.00000000
138.29999197	0.00000000	11.44193000	0.00000000
138.49999195	0.00000000	10.69144000	0.04306102
138.69999194	0.00000000	9.90403500	0.41830710
138.89999193	0.00000000	9.52879000	1.19955700
139.09999192	0.00000000	9.48572700	1.95004900
139.29999191	0.00000000	9.52879000	2.73745100
139.49999189	0.00000000	9.90403500	3.11269700
139.69999188	0.00000000	10.64838000	3.11269700
139.89999187	0.00000000	11.02362000	2.73745100
140.09999186	0.00000000	11.06668000	1.99311000
140.29999185	0.00000000	11.06668000	1.57480300
140.49999184	0.00000000	11.06668000	1.15649600
140.69999182	0.00000000	11.06668000	0.41830710
140.89999181	0.00000000	11.02362000	0.04306102
141.09999180	0.00000000	10.64838000	0.00000000
141.29999179	0.00000000	9.90403500	0.04306102
141.49999178	0.00000000	9.52879000	0.41830710
141.69999176	0.00000000	9.52879000	1.19955700
141.89999175	0.00000000	9.90403500	1.95004900
142.09999174	0.00000000	10.64838000	2.73745100
142.29999173	0.00000000	11.02362000	3.11269700
142.49999172	0.00000000	11.06668000	3.11269700
142.69999170	0.00000000	11.06668000	2.73745100
142.89999169	0.00000000	11.06668000	1.95004900
143.09999168	0.00000000	11.06668000	1.19955700
143.29999167	0.00000000	11.02362000	0.41830710
143.49999166	0.00000000	10.64838000	0.04306102
143.69999165	0.00000000	9.90403500	0.00000000
143.89999163	0.00000000	9.57800100	0.04306102
144.09999162	0.00000000	9.90403500	0.41830710
144.29999161	0.00000000	10.64838000	1.15649600
144.49999160	0.00000000	11.02362000	1.57480300
144.69999159	0.00000000	11.06668000	1.99311000
144.89999157	0.00000000	11.06668000	2.73745100
145.09999156	0.00000000	11.06668000	3.06348400
145.29999155	0.00000000	11.02362000	2.73745100
145.49999154	0.00000000	10.64838000	1.99311000
145.69999153	0.00000000	9.90403500	1.57480300
145.89999151	0.00000000	9.52879000	1.15649600
146.09999150	0.00000000	9.48572700	0.41830710
146.29999149	0.00000000	9.52879000	0.04306102
146.49999148	0.00000000	9.90403500	0.00000000
146.69999147	0.00000000	10.64838000	0.04306102
146.89999146	0.00000000	11.02362000	0.41830710
147.09999144	0.00000000	11.06668000	1.15649600
147.29999143	0.00000000	11.06668000	1.53174200
147.49999142	0.00000000	11.02362000	1.61786400
147.69999141	0.00000000	10.69144000	1.99311000
147.89999140	0.00000000	10.27928000	2.68823800
148.09999138	0.00000000	10.27313000	2.68823800
148.29999137	0.00000000	9.86097400	1.99311000
148.49999136	0.00000000	9.52879000	1.61786400
148.69999135	0.00000000	9.48572700	1.53174200
148.89999134	0.00000000	9.52879000	1.15649600
149.09999132	0.00000000	9.90403500	0.41830710
149.29999131	0.00000000	10.64838000	0.04306102
149.49999130	0.00000000	11.02362000	0.04306102
149.69999129	0.00000000	11.06668000	0.41830710
149.89999128	0.00000000	11.06668000	1.15649600
150.09999127	0.00000000	11.06668000	1.53174200
150.29999125	0.00000000	11.06668000	1.61786400
150.49999124	0.00000000	11.02362000	1.95004900
150.69999123	0.00000000	10.69144000	2.31914400
150.89999122	0.00000000	10.27928000	1.95004900
151.09999121	0.00000000	10.27313000	1.61786400
151.29999119	0.00000000	9.86097400	1.57480300
151.49999118	0.00000000	9.52879000	1.53174200
151.69999117	0.00000000	9.52879000	1.19955700
151.89999116	0.00000000	9.90403500	0.83661410
152.09999115	0.00000000	10.64838000	1.19955700
152.29999113	0.00000000	11.02362000	1.53174200
152.49999112	0.00000000	11.10974000	1.57480300
152.69999111	0.00000000	11.44193000	1.57480300
152.89999110	0.00000000	11.81102000	1.57480300
153.09999109	0.00000000	11.39887000	1.57480300
153.29999108	0.00000000	10.73450000	1.57480300
153.49999106	0.00000000	10.27928000	1.57480300
153.69999105	0.00000000	10.27313000	1.61786400
153.89999104	0.00000000	9.86097400	1.95004900
154.09999103	0.00000000	9.52879000	2.31914400
154.29999102	0.00000000	9.48572700	1.95004900
154.49999100	0.00000000	9.48572700	1.61786400
154.69999099	0.00000000	9.52879000	1.57480300
154.89999098	0.00000000	9.90403500	1.53174200
155.09999097	0.00000000	10.64838000	1.15649600
155.29999096	0.00000000	11.02362000	0.41830710
155.49999094	0.00000000	11.06668000	0.09227362
155.69999093	0.00000000	11.06668000	0.41830710
155.89999092	0.00000000	11.06668000	1.15649600
156.09999091	0.00000000	11.06668000	1.53174200
156.29999090	0.00000000	11.02362000	1.57480300
156.49999089	0.00000000	10.64838000	1.61786400
156.69999087	0.00000000	9.90403500	1.95004900
156.89999086	0.00000000	9.52879000	2.31914400
157.09999085	0.00000000	9.48572700	1.95004900
157.29999084	0.00000000	9.48572700	1.61786400
157.49999083	0.00000000	9.48572700	1.57480300
157.69999081	0.00000000	9.52879000	1.53174200
157.89999080	0.00000000	9.90403500	1.15649600
158.09999079	0.00000000	10.64838000	0.41830710
158.29999078	0.00000000	11.02362000	0.04306102
158.49999077	0.00000000	11.06668000	0.04306102
158.69999075	0.00000000	11.06668000	0.41830710
158.89999074	0.00000000	11.02362000	1.15649600
159.09999073	0.00000000	10.64838000	1.53174200
159.29999072	0.00000000	9.90403500	1.57480300
159.49999071	0.00000000	9.52879000	1.57480300
159.69999070	0.00000000	9.48572700	1.57480300
159.89999068	0.00000000	9.48572700	1.57480300
160.09999067	0.00000000	9.48572700	1.57480300
160.29999066	0.00000000	9.48572700	1.57480300
160.49999065	0.00000000	9.48572700	1.57480300
160.69999064	0.00000000	9.48572700	1.57480300
160.89999062	0.00000000	9.48572700	1.53174200
161.09999061	0.00000000	9.48572700	1.15649600
161.29999060	0.00000000	9.52879000	0.41830710
161.49999059	0.00000000	9.90403500	0.09227362
161.69999058	0.00000000	10.64838000	0.41830710
161.89999056	0.00000000	11.02362000	1.15649600
162.09999055	0.00000000	11.06668000	1.53174200
162.29999054	0.00000000	11.06668000	1.57480300
162.49999053	0.00000000	11.06668000	1.57480300
162.69999052	0.00000000	11.02362000	1.57480300
162.89999051	0.00000000	10.64838000	1.57480300
163.09999049	0.00000000	9.90403500	1.57480300
163.29999048	0.00000000	9.52879000	1.57480300
163.49999047	0.00000000	9.48572700	1.57480300
163.69999046	0.00000000	9.48572700	1.57480300
163.89999045	0.00000000	9.48572700	1.57480300
164.09999043	0.00000000	9.52879000	1.57480300
164.29999042	0.00000000	9.90403500	1.57480300
164.49999041	0.00000000	10.64838000	1.57480300
164.69999040	0.00000000	11.02362000	1.57480300
164.89999039	0.00000000	11.06668000	1.57480300
165.09999037	0.00000000	11.06668000	1.57480300
165.29999036	0.00000000	11.06668000	1.57480300
165.49999035	0.00000000	11.02362000	1.53174200
165.69999034	0.00000000	10.64838000	1.19955700
165.89999033	0.00000000	9.90403500	0.83661410
166.09999032	0.00000000	9.52879000	1.19955700
166.29999030	0.00000000	9.48572700	1.53174200
166.49999029	0.00000000	9.48572700	1.57480300
166.69999028	0.00000000	9.44266700	1.57480300
166.89999027	0.00000000	9.11048200	1.57480300
167.09999026	0.00000000	8.74138700	1.53174200
167.29999024	0.00000000	9.11048200	1.15649600
167.49999023	0.00000000	9.48572700	0.46136810
167.69999022	0.00000000	9.90403500	0.46136810
167.89999021	0.00000000	10.64838000	1.15649600
168.09999020	0.00000000	11.02362000	1.53174200
168.29999018	0.00000000	11.06668000	1.57480300
168.49999017	0.00000000	11.02362000	1.57480300
168.69999016	0.00000000	10.64838000	1.57480300
168.89999015	0.00000000	9.90403500	1.57480300
169.09999014	0.00000000	9.52879000	1.57480300
169.29999013	0.00000000	9.48572700	1.57480300
169.49999011	0.00000000	9.48572700	1.53174200
169.69999010	0.00000000	9.48572700	1.19955700
169.89999009	0.00000000	9.52879000	0.83661410
170.09999008	0.00000000	9.86097400	1.19955700
170.29999007	0.00000000	10.23007000	1.53174200
170.49999005	0.00000000	9.86097400	1.53174200
170.69999004	0.00000000	9.57800100	1.19955700
170.89999003	0.00000000	9.90403500	0.83661410
171.09999002	0.00000000	10.64838000	1.15649600
171.29999001	0.00000000	11.02362000	1.15649600
171.49998999	0.00000000	11.02362000	0.83661410
171.69998998	0.00000000	10.69144000	1.19955700
171.89998997	0.00000000	10.27928000	1.53174200
172.09998996	0.00000000	10.31619000	1.57480300
172.29998995	0.00000000	10.23622000	1.57480300
172.49998994	0.00000000	10.27313000	1.57480300
172.69998992	0.00000000	9.86097400	1.57480300
172.89998991	0.00000000	9.52879000	1.57480300
173.09998990	0.00000000	9.52879000	1.57480300
173.29998989	0.00000000	9.86097400	1.57480300
173.49998988	0.00000000	10.23007000	1.57480300
173.69998986	0.00000000	9.86097400	1.57480300
173.89998985	0.00000000	9.57800100	1.53174200
174.09998984	0.00000000	9.86097400	1.19955700
174.29998983	0.00000000	10.23007000	0.83661410
174.49998982	0.00000000	9.86097400	1.19955700
174.69998980	0.00000000	9.52879000	1.53174200
174.89998979	0.00000000	9.52879000	1.53174200
175.09998978	0.00000000	9.86097400	1.19955700
175.29998977	0.00000000	10.23007000	0.83661410
175.49998976	0.00000000	9.86097400	1.19955700
175.69998975	0.00000000	9.52879000	1.53174200
175.89998973	0.00000000	9.48572700	1.57480300
176.09998972	0.00000000	9.52879000	1.57480300
176.29998971	0.00000000	9.86097400	1.57480300
176.49998970	0.00000000	10.23007000	1.57480300
176.69998969	0.00000000	9.86097400	1.57480300
176.89998967	0.00000000	9.52879000	1.57480300
177.09998966	0.00000000	9.48572700	1.57480300
177.29998965	0.00000000	9.48572700	1.57480300
177.49998964	0.00000000	9.48572700	1.57480300
177.69998963	0.00000000	9.48572700	1.57480300
177.89998961	0.00000000	9.48572700	1.57480300
178.09998960	0.00000000	9.48572700	1.57480300
178.29998959	0.00000000	9.48572700	1.57480300
178.49998958	0.00000000	9.48572700	1.57480300
178.69998957	0.00000000	9.48572700	1.57480300
178.89998956	0.00000000	9.48572700	1.57480300
179.09998954	0.00000000	9.52879000	1.57480300
179.29998953	0.00000000	9.86097400	1.57480300
179.49998952	0.00000000	10.27313000	1.57480300
179.69998951	0.00000000	10.23622000	1.53174200
179.89998950	0.00000000	10.27313000	1.19955700
180.09998948	0.00000000	9.86097400	0.83661410
180.29998947	0.00000000	9.52879000	1.15649600
180.49998946	0.00000000	9.48572700	1.15649600
180.69998945	0.00000000	9.48572700	0.83661410
180.89998944	0.00000000	9.48572700	1.19955700
181.09998942	0.00000000	9.48572700	1.53174200
181.29998941	0.00000000	9.48572700	1.57480300
181.49998940	0.00000000	9.48572700	1.57480300
181.69998939	0.00000000	9.48572700	1.57480300
181.89998938	0.00000000	9.48572700	1.57480300
182.09998937	0.00000000	9.48572700	1.57480300
182.29998935	0.00000000	9.52879000	1.57480300
182.49998934	0.00000000	9.86097400	1.53174200
182.69998933	0.00000000	10.23007000	1.19955700
182.89998932	0.00000000	9.90403500	0.79355310
183.09998931	0.00000000	9.90403500	0.78124990
183.29998929	0.00000000	10.23007000	0.37524600
183.49998928	0.00000000	9.86097400	0.09227362
183.69998927	0.00000000	9.52879000	0.41830710
183.89998926	0.00000000	9.48572700	1.15649600
184.09998925	0.00000000	9.48572700	1.53174200
184.29998923	0.00000000	9.52879000	1.61786400
184.49998922	0.00000000	9.86097400	1.95004900
184.69998921	0.00000000	10.23007000	2.31914400
184.89998920	0.00000000	9.86097400	1.95004900
185.09998919	0.00000000	9.52879000	1.61786400
185.29998918	0.00000000	9.48572700	1.57480300
185.49998916	0.00000000	9.52879000	1.53174200
185.69998915	0.00000000	9.90403500	1.15649600
185.89998914	0.00000000	10.59916000	0.41830710
186.09998913	0.00000000	10.59916000	0.04306102
186.29998912	0.00000000	9.90403500	0.00000000
186.49998910	0.00000000	9.52879000	0.00000000
186.69998909	0.00000000	9.48572700	0.04306102
186.89998908	0.00000000	9.48572700	0.41830710
187.09998907	0.00000000	9.48572700	1.15649600
187.29998906	0.00000000	9.48572700	1.53174200
187.49998904	0.00000000	9.48572700	1.57480300
187.69998903	0.00000000	9.48572700	1.57480300
187.89998902	0.00000000	9.48572700	1.57480300
188.09998901	0.00000000	9.48572700	1.57480300
188.29998900	0.00000000	9.48572700	1.53174200
188.49998899	0.00000000	9.48572700	1.15649600
188.69998897	0.00000000	9.48572700	0.41830710
188.89998896	0.00000000	9.48572700	0.04306102
189.09998895	0.00000000	9.48572700	0.00000000
189.29998894	0.00000000	9.48572700	0.00000000
189.49998893	0.00000000	9.48572700	0.04306102
189.69998891	0.00000000	9.48572700	0.41830710
189.89998890	0.00000000	9.48572700	1.15649600
190.09998889	0.00000000	9.48572700	1.53174200
190.29998888	0.00000000	9.48572700	1.57480300
190.49998887	0.00000000	9.48572700	1.57480300
190.69998885	0.00000000	9.48572700	1.57480300
190.89998884	0.00000000	9.48572700	1.57480300
191.09998883	0.00000000	9.48572700	1.57480300
191.29998882	0.00000000	9.48572700	1.53174200
191.49998881	0.00000000	9.48572700	1.19955700
191.69998880	0.00000000	9.48572700	0.83661410
191.89998878	0.00000000	9.48572700	1.19955700
192.09998877	0.00000000	9.48572700	1.48253000
192.29998876	0.00000000	9.48572700	1.15649600
192.49998875	0.00000000	9.48572700	0.46136810
192.69998874	0.00000000	9.48572700	0.41830710
192.89998872	0.00000000	9.48572700	0.78124990
193.09998871	0.00000000	9.48572700	0.79355310
193.29998870	0.00000000	9.48572700	1.19955700
193.49998869	0.00000000	9.48572700	1.53174200
193.69998868	0.00000000	9.48572700	1.57480300
193.89998866	0.00000000	9.48572700	1.57480300
194.09998865	0.00000000	9.48572700	1.57480300
194.29998864	0.00000000	9.52879000	1.57480300
194.49998863	0.00000000	9.86097400	1.57480300
194.69998862	0.00000000	10.23007000	1.57480300
194.89998861	0.00000000	9.86097400	1.57480300
195.09998859	0.00000000	9.52879000	1.53174200
195.29998858	0.00000000	9.48572700	1.15649600
195.49998857	0.00000000	9.48572700	0.41830710
195.69998856	0.00000000	9.48572700	0.04306102
195.89998855	0.00000000	9.48572700	0.04306102
196.09998853	0.00000000	9.48572700	0.41830710
