Time	Channel A	Channel B	Channel C
(us)	(V)	(mV)	(mV)

-4.49999956	0.00000000	-33.57529000	-11.79257000
-4.29999957	0.00000000	-33.24311000	-11.42347000
-4.09999958	0.00000000	-33.20005000	-11.09129000
-3.89999959	0.00000000	-33.20005000	-11.04823000
-3.69999960	0.00000000	-33.20005000	-11.04823000
-3.49999962	0.00000000	-33.20005000	-11.04823000
-3.29999963	0.00000000	-33.20005000	-11.04823000
-3.09999964	0.00000000	-33.20005000	-11.04823000
-2.89999965	0.00000000	-33.20005000	-11.04823000
-2.69999966	0.00000000	-33.20005000	-11.04823000
-2.49999968	0.00000000	-33.20005000	-11.04823000
-2.29999969	0.00000000	-33.20005000	-11.04823000
-2.09999970	0.00000000	-33.20005000	-11.04823000
-1.89999971	0.00000000	-33.20005000	-11.04823000
-1.69999972	0.00000000	-33.20005000	-11.04823000
-1.49999973	0.00000000	-33.20005000	-11.04823000
-1.29999975	0.00000000	-33.20005000	-11.04823000
-1.09999976	0.00000000	-33.20005000	-11.04823000
-0.89999977	0.00000000	-33.20005000	-11.04823000
-0.69999978	0.00000000	-33.20005000	-11.04823000
-0.49999979	0.00000000	-33.20005000	-11.04823000
-0.29999981	0.31803640	-33.20005000	-11.04823000
-0.09999982	0.63668800	-33.20005000	-11.04823000
0.10000017	0.95533960	-33.20005000	-11.04823000
0.30000016	0.95533960	-33.24311000	-11.04823000
0.50000015	0.79601380	-33.61835000	-11.09129000
0.70000013	0.31803640	-34.31963000	-11.46653000
0.90000012	-0.47736220	-34.31963000	-12.21087000
1.10000011	-1.43331700	-33.61835000	-12.53691000
1.30000010	-2.38927200	-33.24311000	-12.21087000
1.50000009	-2.70792300	-33.20005000	-11.46653000
1.70000008	-2.54859700	-33.20005000	-11.09129000
1.90000006	-1.43331700	-33.20005000	-11.04823000
2.10000005	0.47736220	-33.20005000	-11.04823000
2.30000004	2.54859700	-33.20005000	-11.04823000
2.50000003	4.30056600	-33.20005000	-11.04823000
2.70000002	5.25652100	-33.24311000	-11.09129000
2.90000000	4.93786900	-33.61835000	-11.46653000
3.09999999	3.02657500	-34.31963000	-12.21087000
3.29999998	0.15871060	-34.31963000	-12.53691000
3.49999997	-3.34522600	-33.61835000	-12.21087000
3.69999996	-6.37180100	-33.24311000	-11.46653000
3.89999994	-7.96444400	-33.20005000	-11.09129000
4.09999993	-7.48646600	-33.20005000	-11.00517000
4.29999992	-5.25652100	-33.20005000	-10.62992000
4.49999991	-1.27399100	-33.20005000	-9.93479300
4.69999990	3.18590100	-33.20005000	-9.93479300
4.89999989	7.00848900	-33.20005000	-10.62992000
5.09999987	9.23905000	-33.20005000	-11.00517000
5.29999986	9.23905000	-33.20005000	-11.09129000
5.49999985	6.84916400	-33.20005000	-11.46653000
5.69999984	2.70792300	-33.20005000	-12.21087000
5.89999983	-2.22994600	-33.20005000	-12.53691000
6.09999981	-6.37180100	-33.20005000	-12.21087000
6.29999980	-9.07972400	-33.20005000	-11.42347000
6.49999979	-9.39837600	-33.20005000	-10.67298000
6.69999978	-7.32714100	-33.20005000	-9.89173200
6.89999977	-3.50393700	-33.20005000	-9.51648500
7.09999975	0.79601380	-33.20005000	-9.51648500
7.29999974	4.61921700	-33.20005000	-9.89173200
7.49999973	7.16781500	-33.20005000	-10.62992000
7.69999972	7.64579200	-33.20005000	-11.00517000
7.89999971	6.21247500	-33.20005000	-11.04823000
8.09999970	3.50393700	-33.20005000	-11.04823000
8.29999968	0.31803640	-33.20005000	-11.04823000
8.49999967	-2.70792300	-33.20005000	-11.04823000
8.69999966	-4.61921700	-33.20005000	-11.04823000
8.89999965	-5.09719500	-33.20005000	-11.04823000
9.09999964	-4.45989200	-33.20005000	-11.04823000
9.29999962	-2.70792300	-33.20005000	-11.04823000
9.49999961	-0.79601380	-33.20005000	-11.04823000
9.69999960	0.95533960	-33.20005000	-11.04823000
9.89999959	2.07062000	-33.20005000	-11.04823000
10.09999958	2.54859700	-33.20005000	-11.04823000
10.29999956	2.22994600	-33.20005000	-11.04823000
10.49999955	1.43331700	-33.20005000	-11.04823000
10.69999954	0.63668800	-33.20005000	-11.04823000
10.89999953	-0.15871060	-33.20005000	-11.04823000
11.09999952	-0.79601380	-33.20005000	-11.04823000
11.29999951	-0.95533960	-33.20005000	-11.04823000
11.49999949	-0.95533960	-33.20005000	-11.04823000
11.69999948	-0.79601380	-33.20005000	-11.04823000
11.89999947	-0.47736220	-33.20005000	-11.04823000
12.09999946	-0.15871060	-33.20005000	-11.04823000
12.29999945	-0.15871060	-33.20005000	-11.04823000
12.49999943	0.00000000	-33.24311000	-11.04823000
12.69999942	0.00000000	-33.57529000	-11.04823000
12.89999941	0.00000000	-33.94439000	-11.09129000
13.09999940	0.00000000	-33.57529000	-11.42347000
13.29999939	0.00000000	-33.24311000	-11.79257000
13.49999937	0.00000000	-33.20005000	-11.42347000
13.69999936	0.00000000	-33.20005000	-11.09129000
13.89999935	0.00000000	-33.20005000	-11.04823000
14.09999934	-0.15871060	-33.20005000	-11.04823000
14.29999933	-0.15871060	-33.20005000	-11.04823000
14.49999932	-0.15871060	-33.20005000	-11.04823000
14.69999930	0.00000000	-33.20005000	-11.04823000
14.89999929	0.00000000	-33.20005000	-11.04823000
15.09999928	0.00000000	-33.20005000	-11.04823000
15.29999927	0.00000000	-33.20005000	-11.04823000
15.49999926	0.00000000	-33.24311000	-11.04823000
15.69999924	0.00000000	-33.57529000	-11.04823000
15.89999923	0.00000000	-33.94439000	-11.04823000
16.09999922	0.00000000	-33.57529000	-11.04823000
16.29999921	-0.15871060	-33.24311000	-11.04823000
16.49999920	0.00000000	-33.20005000	-11.04823000
16.69999919	0.00000000	-33.15699000	-11.04823000
16.89999917	0.00000000	-32.78174000	-11.04823000
17.09999916	0.00000000	-32.03740000	-11.04823000
17.29999915	0.00000000	-31.66215000	-11.04823000
17.49999914	0.00000000	-31.61909000	-11.04823000
17.69999913	0.00000000	-31.66215000	-11.04823000
17.89999911	0.00000000	-32.03740000	-11.04823000
18.09999910	0.00000000	-32.82480000	-11.04823000
18.29999909	0.00000000	-33.61835000	-11.04823000
18.49999908	0.00000000	-34.83022000	-11.04823000
18.69999907	0.00000000	-36.36811000	-11.04823000
18.89999905	0.00000000	-37.85679000	-11.04823000
19.09999904	0.00000000	-38.55807000	-11.04823000
19.29999903	0.00000000	-37.35236000	-11.04823000
19.49999902	0.00000000	-34.31963000	-11.04823000
19.69999901	0.00000000	-30.45644000	-11.04823000
19.89999900	0.00000000	-26.91929000	-11.04823000
20.09999898	0.00000000	-23.80659000	-11.04823000
20.29999897	0.00000000	-21.57357000	-11.04823000
20.49999896	0.00000000	-21.65969000	-11.04823000
20.69999895	0.00000000	-24.77854000	-11.04823000
20.89999894	0.00000000	-30.64099000	-11.04823000
21.09999892	0.00000000	-38.36737000	-11.04823000
21.29999891	0.00000000	-46.41363000	-11.04823000
21.49999890	0.00000000	-52.18381000	-11.04823000
21.69999889	0.00000000	-54.09695000	-11.04823000
21.89999888	0.00000000	-51.67323000	-11.04823000
22.09999886	0.00000000	-44.23597000	-11.04823000
22.29999885	0.00000000	-32.68946000	-11.04823000
22.49999884	0.00000000	-19.94340000	-11.04823000
22.69999883	0.00000000	-9.14739100	-11.04823000
22.89999882	0.00000000	-2.63902500	-11.04823000
23.09999881	0.00000000	-2.72514700	-11.04823000
23.29999879	0.00000000	-10.12549000	-11.00517000
23.49999878	0.00000000	-23.70817000	-10.62992000
23.69999877	0.00000000	-41.11097000	-9.89173200
23.89999876	0.00000000	-58.42150000	-9.51648500
24.09999875	0.00000000	-71.12450000	-9.51648500
24.29999873	0.00000000	-75.73203000	-9.89173200
24.49999872	0.00000000	-71.03223000	-10.72219000
24.69999871	0.00000000	-57.44340000	-11.88484000
24.89999870	0.00000000	-37.30315000	-13.83489000
25.09999869	0.00000000	-14.96678000	-15.69882000
25.29999867	0.00000000	4.33686000	-16.85531000
25.49999866	0.00000000	15.46506000	-16.85531000
25.69999865	0.00000000	15.83415000	-15.64960000
25.89999864	0.00000000	4.57677100	-13.28125000
26.09999863	0.00000000	-15.84646000	-9.43036400
26.29999862	0.00000000	-40.60039000	-5.24729300
26.49999860	0.00000000	-64.14247000	-2.08538400
26.69999859	0.00000000	-81.07775000	-0.17839570
26.89999858	0.00000000	-86.89714000	0.09842519
27.09999857	0.00000000	-80.38262000	-2.63902500
27.29999856	0.00000000	-63.76722000	-8.07086500
27.49999854	0.00000000	-40.55733000	-15.04675000
27.69999853	0.00000000	-15.84646000	-22.75467000
27.89999852	0.00000000	4.61983300	-28.84473000
28.09999851	0.00000000	16.25246000	-31.53912000
28.29999850	0.00000000	16.67077000	-29.95817000
28.49999848	0.00000000	6.25000000	-24.06496000
28.69999847	0.00000000	-12.64149000	-14.39468000
28.89999846	0.00000000	-35.39001000	-2.41141700
29.09999845	0.00000000	-56.28690000	8.74138700
29.29999844	0.00000000	-71.07529000	16.81841000
29.49999843	0.00000000	-77.26993000	19.42667000
29.69999841	0.00000000	-73.86810000	15.15133000
29.89999840	0.00000000	-61.90944000	4.69365100
30.09999839	0.00000000	-44.92495000	-9.98400600
30.29999838	0.00000000	-26.31643000	-25.82431000
30.49999837	0.00000000	-10.07628000	-39.30241000
30.69999835	0.00000000	0.43676180	-47.38558000
30.89999834	0.00000000	3.50639700	-47.71161000
31.09999833	0.00000000	-1.43331700	-39.99754000
31.29999832	0.00000000	-12.96137000	-25.68897000
31.49999831	0.00000000	-27.29453000	-7.94168200
31.69999829	0.00000000	-42.04601000	9.47957600
31.89999828	0.00000000	-54.37377000	22.95768000
32.09999827	0.00000000	-60.98056000	29.50295000
32.29999826	0.00000000	-61.07283000	27.18381000
32.49999825	0.00000000	-55.30265000	16.81841000
32.69999824	0.00000000	-45.25098000	0.93503930
32.89999822	0.00000000	-33.29232000	-17.23056000
33.09999821	0.00000000	-22.08415000	-34.23351000
33.29999820	0.00000000	-14.30856000	-46.17987000
33.49999819	0.00000000	-11.19587000	-50.49828000
33.69999818	0.00000000	-13.10285000	-46.64124000
33.89999816	0.00000000	-19.61737000	-35.81446000
34.09999815	0.00000000	-28.45718000	-19.97416000
34.29999814	0.00000000	-37.39542000	-2.59596400
34.49999813	0.00000000	-44.69734000	12.46309000
34.69999812	0.00000000	-48.56053000	22.12106000
34.89999810	0.00000000	-47.81619000	24.07111000
35.09999809	0.00000000	-43.25172000	18.35630000
35.29999808	0.00000000	-36.31890000	6.78518600
35.49999807	0.00000000	-29.06004000	-7.89247000
35.69999806	0.00000000	-23.61589000	-22.57628000
35.89999805	0.00000000	-21.28445000	-34.14124000
36.09999803	0.00000000	-22.03494000	-39.90526000
36.29999802	0.00000000	-25.89198000	-38.41658000
36.49999801	0.00000000	-31.61909000	-30.38263000
36.69999800	0.00000000	-37.39542000	-18.48548000
36.89999799	0.00000000	-41.62770000	-5.75787400
37.09999797	0.00000000	-43.20866000	4.60752900
37.29999796	0.00000000	-42.04601000	10.03937000
37.49999795	0.00000000	-38.55192000	9.30118100
37.69999794	0.00000000	-33.20005000	3.21112200
37.89999793	0.00000000	-27.84818000	-6.40378900
38.09999791	0.00000000	-24.36024000	-16.71998000
38.29999790	0.00000000	-23.10531000	-24.76009000
38.49999789	0.00000000	-23.89271000	-27.82972000
38.69999788	0.00000000	-26.22416000	-25.17839000
38.89999787	0.00000000	-30.13041000	-17.92569000
39.09999786	0.00000000	-34.73794000	-8.40305000
39.29999784	0.00000000	-38.97638000	0.04921259
39.49999783	0.00000000	-41.67076000	5.02583600
39.69999782	0.00000000	-42.13828000	5.43799200
39.89999781	0.00000000	-41.01870000	0.75664370
40.09999780	0.00000000	-39.01944000	-7.66486200
40.29999778	0.00000000	-35.90059000	-17.97490000
40.49999777	0.00000000	-32.03740000	-26.38410000
40.69999776	0.00000000	-28.54946000	-30.24729000
40.89999775	0.00000000	-25.80585000	-29.12155000
41.09999774	0.00000000	-24.26796000	-22.90231000
41.29999772	0.00000000	-24.26796000	-13.37352000
41.49999771	0.00000000	-25.80585000	-2.97121000
41.69999770	0.00000000	-28.50024000	5.06889700
41.89999769	0.00000000	-31.61909000	8.96899500
42.09999768	0.00000000	-34.73794000	7.76328700
42.29999767	0.00000000	-37.48154000	1.67322800
42.49999765	0.00000000	-39.39468000	-7.51722400
42.69999764	0.00000000	-40.18209000	-16.72613000
42.89999763	0.00000000	-39.39468000	-23.73892000
43.09999762	0.00000000	-37.53075000	-27.22072000
43.29999761	0.00000000	-35.16240000	-26.84547000
43.49999759	0.00000000	-32.87401000	-22.61934000
43.69999758	0.00000000	-30.87475000	-15.78494000
43.89999757	0.00000000	-29.70595000	-8.82135800
44.09999756	0.00000000	-28.87549000	-3.38336600
44.29999755	0.00000000	-28.50024000	0.14148620
44.49999753	0.00000000	-28.45718000	0.88582670
44.69999752	0.00000000	-28.50024000	-0.97194880
44.89999751	0.00000000	-28.87549000	-4.82898600
45.09999750	0.00000000	-29.66289000	-9.43036400
45.29999749	0.00000000	-30.45644000	-13.69956000
45.49999748	0.00000000	-31.71137000	-16.76919000
45.69999746	0.00000000	-33.71063000	-17.97490000
45.89999745	0.00000000	-36.78642000	-17.23056000
46.09999744	0.00000000	-40.22515000	-15.32357000
46.29999743	0.00000000	-42.51353000	-12.62918000
46.49999742	0.00000000	-43.30093000	-9.89173200
46.69999740	0.00000000	-42.04601000	-7.56643700
46.89999739	0.00000000	-38.50886000	-5.61638700
47.09999738	0.00000000	-32.73868000	-4.91510800
47.29999737	0.00000000	-26.18110000	-5.61638700
47.49999736	0.00000000	-20.78002000	-7.56643700
47.69999734	0.00000000	-17.29208000	-9.89173200
47.89999733	0.00000000	-17.00910000	-12.62918000
48.09999732	0.00000000	-20.50320000	-15.27436000
48.29999731	0.00000000	-27.42987000	-16.81225000
48.49999730	0.00000000	-35.94980000	-16.81225000
48.69999729	0.00000000	-44.04527000	-15.27436000
48.89999727	0.00000000	-50.18454000	-12.58612000
49.09999726	0.00000000	-52.09768000	-9.47342500
49.29999725	0.00000000	-49.39714000	-6.36072800
49.49999724	0.00000000	-42.83341000	-3.70939900
49.69999723	0.00000000	-33.57529000	-2.59596400
49.89999721	0.00000000	-24.31102000	-3.75246000
50.09999720	0.00000000	-16.96604000	-6.82209600
50.29999719	0.00000000	-13.15207000	-11.04823000
50.49999718	0.00000000	-14.30856000	-15.27436000
50.69999717	0.00000000	-20.07874000	-18.35015000
50.89999715	0.00000000	-28.92470000	-19.55585000
51.09999714	0.00000000	-38.55192000	-18.76845000
51.29999713	0.00000000	-46.23523000	-16.43701000
51.49999712	0.00000000	-50.09227000	-12.53691000
51.69999711	0.00000000	-48.97884000	-7.98474400
51.89999710	0.00000000	-43.62696000	-4.12770700
52.09999708	0.00000000	-35.94980000	-2.17150600
52.29999707	0.00000000	-27.85433000	-2.17150600
52.49999706	0.00000000	-21.70891000	-4.08464600
52.69999705	0.00000000	-18.96531000	-7.56028500
52.89999704	0.00000000	-20.12795000	-11.38041000
53.09999702	0.00000000	-24.73548000	-14.85605000
53.29999701	0.00000000	-31.61909000	-16.81225000
53.49999700	0.00000000	-38.50886000	-17.23056000
53.69999699	0.00000000	-43.11638000	-16.39395000
53.89999698	0.00000000	-44.32209000	-13.74262000
54.09999696	0.00000000	-42.04601000	-10.35310000
54.29999695	0.00000000	-37.43848000	-8.02780400
54.49999694	0.00000000	-31.61909000	-6.86515700
54.69999693	0.00000000	-25.89198000	-7.24040300
54.89999692	0.00000000	-22.08415000	-9.09817800
55.09999691	0.00000000	-21.70891000	-11.00517000
55.29999689	0.00000000	-24.73548000	-12.58612000
55.49999688	0.00000000	-30.03814000	-13.65650000
55.69999687	0.00000000	-35.43922000	-13.23819000
55.89999686	0.00000000	-39.35162000	-11.00517000
56.09999685	0.00000000	-41.67076000	-8.35383800
56.29999683	0.00000000	-41.62770000	-6.44685000
56.49999682	0.00000000	-38.97638000	-5.66560000
56.69999681	0.00000000	-34.73794000	-6.48991100
56.89999680	0.00000000	-30.13041000	-8.82135800
57.09999679	0.00000000	-26.26722000	-12.67224000
57.29999677	0.00000000	-24.36024000	-16.85531000
57.49999676	0.00000000	-24.68627000	-19.88189000
57.69999675	0.00000000	-27.01156000	-20.62008000
57.89999674	0.00000000	-30.45644000	-18.30093000
58.09999673	0.00000000	-34.31963000	-13.69956000
58.29999672	0.00000000	-37.39542000	-7.89247000
58.49999670	0.00000000	-38.97638000	-2.17765700
58.69999669	0.00000000	-38.97638000	1.67322800
58.89999668	0.00000000	-37.43848000	2.42372000
59.09999667	0.00000000	-34.78716000	0.09227362
59.29999666	0.00000000	-32.08661000	-5.33341500
59.49999664	0.00000000	-30.13041000	-12.58612000
59.69999663	0.00000000	-28.96776000	-19.50664000
59.89999662	0.00000000	-28.96776000	-24.15723000
60.09999661	0.00000000	-30.08120000	-25.68897000
60.29999660	0.00000000	-31.57603000	-23.73892000
60.49999658	0.00000000	-32.78174000	-18.30093000
60.69999657	0.00000000	-33.53223000	-10.62992000
60.89999656	0.00000000	-33.94439000	-2.59596400
61.09999655	0.00000000	-33.53223000	3.16806100
61.29999654	0.00000000	-32.78174000	5.16117100
61.49999653	0.00000000	-31.61909000	3.58021600
61.69999651	0.00000000	-30.54872000	-1.43946800
61.89999650	0.00000000	-30.54872000	-9.14124000
62.09999649	0.00000000	-31.66215000	-17.18750000
62.29999648	0.00000000	-33.20005000	-23.78199000
62.49999647	0.00000000	-34.73794000	-27.22072000
62.69999645	0.00000000	-35.85752000	-26.84547000
62.89999644	0.00000000	-35.90059000	-22.61934000
63.09999643	0.00000000	-35.11934000	-15.69882000
63.29999642	0.00000000	-33.94439000	-7.98474400
63.49999641	0.00000000	-31.99434000	-1.01501000
63.69999639	0.00000000	-30.08120000	3.58021600
63.89999638	0.00000000	-28.54946000	4.78592500
64.09999637	0.00000000	-27.76206000	2.46678100
64.29999636	0.00000000	-28.17421000	-2.50369100
64.49999635	0.00000000	-29.34301000	-9.05511800
64.69999634	0.00000000	-31.66830000	-15.23130000
64.89999632	0.00000000	-34.27657000	-19.88189000
65.09999631	0.00000000	-35.85752000	-22.24409000
65.29999630	0.00000000	-36.27584000	-21.88115000
65.49999629	0.00000000	-35.85752000	-19.59892000
65.69999628	0.00000000	-34.31963000	-15.69882000
65.89999626	0.00000000	-32.03740000	-11.09129000
66.09999625	0.00000000	-30.13041000	-6.82209600
66.29999624	0.00000000	-28.96776000	-3.70939900
66.49999623	0.00000000	-28.96776000	-2.08538400
66.69999622	0.00000000	-30.08120000	-1.66707700
66.89999620	0.00000000	-31.66215000	-2.08538400
67.09999619	0.00000000	-33.57529000	-3.61712600
67.29999618	0.00000000	-35.39001000	-5.93626900
67.49999617	0.00000000	-35.39001000	-8.35383800
67.69999616	0.00000000	-33.53223000	-11.46653000
67.89999615	0.00000000	-31.24384000	-14.90526000
68.09999613	0.00000000	-28.87549000	-17.27362000
68.29999612	0.00000000	-27.01156000	-18.85458000
68.49999611	0.00000000	-26.26722000	-19.55585000
68.69999610	0.00000000	-27.42987000	-18.35015000
68.89999609	0.00000000	-30.13041000	-15.27436000
69.09999607	0.00000000	-33.61835000	-11.00517000
69.29999606	0.00000000	-37.48154000	-6.35457700
69.49999605	0.00000000	-40.55733000	-2.12844500
69.69999604	0.00000000	-42.04601000	0.55979330
69.89999603	0.00000000	-41.20940000	0.97810030
70.09999601	0.00000000	-37.34621000	-0.64591530
70.29999600	0.00000000	-31.61909000	-4.50295200
70.49999599	0.00000000	-25.84892000	-10.25467000
70.69999598	0.00000000	-21.57357000	-15.64960000
70.89999597	0.00000000	-19.61737000	-19.97416000
71.09999596	0.00000000	-20.07874000	-22.61934000
71.29999594	0.00000000	-23.57283000	-22.61934000
71.49999593	0.00000000	-29.71210000	-19.92495000
71.69999592	0.00000000	-36.23277000	-15.32357000
71.89999591	0.00000000	-41.71998000	-9.93479300
72.09999590	0.00000000	-45.16486000	-5.33341500
72.29999588	0.00000000	-45.95226000	-2.59596400
72.49999587	0.00000000	-43.58390000	-2.17150600
72.69999586	0.00000000	-38.60113000	-3.70939900
72.89999585	0.00000000	-32.03740000	-6.77903500
73.09999584	0.00000000	-25.89198000	-10.58686000
73.29999582	0.00000000	-21.57357000	-13.65650000
73.49999581	0.00000000	-19.66043000	-15.23130000
73.69999580	0.00000000	-20.41092000	-15.23130000
73.89999579	0.00000000	-23.89271000	-13.74262000
74.09999578	0.00000000	-28.87549000	-11.51575000
74.29999577	0.00000000	-34.31963000	-9.98400600
74.49999575	0.00000000	-38.93332000	-9.56569900
74.69999574	0.00000000	-41.67076000	-9.98400600
74.89999573	0.00000000	-42.09522000	-11.51575000
75.09999572	0.00000000	-40.55733000	-13.69956000
75.29999571	0.00000000	-37.43848000	-14.85605000
75.49999569	0.00000000	-33.20005000	-14.49311000
75.69999568	0.00000000	-29.01082000	-13.28125000
75.89999567	0.00000000	-26.26722000	-10.53765000
76.09999566	0.00000000	-25.47367000	-6.77903500
76.29999565	0.00000000	-26.18110000	-3.66633800
76.49999563	0.00000000	-28.12500000	-1.75319900
76.69999562	0.00000000	-30.37032000	-1.43331700
76.89999561	0.00000000	-32.36343000	-3.80167300
77.09999560	0.00000000	-33.48917000	-8.35998900
77.29999559	0.00000000	-33.94439000	-13.74262000
77.49999558	0.00000000	-33.53223000	-18.39321000
77.69999556	0.00000000	-32.86786000	-21.46284000
77.89999555	0.00000000	-32.45571000	-22.20103000
78.09999554	0.00000000	-32.82480000	-19.88189000
78.29999553	0.00000000	-33.15699000	-15.28051000
78.49999552	0.00000000	-33.20005000	-9.47342500
78.69999550	0.00000000	-33.20005000	-3.66633800
78.89999549	0.00000000	-33.15699000	0.93503930
79.09999548	0.00000000	-32.73252000	3.21112200
79.29999547	0.00000000	-31.57603000	2.09768700
79.49999546	0.00000000	-30.03814000	-1.71013800
79.69999544	0.00000000	-28.50024000	-6.72982200
79.89999543	0.00000000	-27.38681000	-12.16166000
80.09999542	0.00000000	-27.42987000	-16.81225000
80.29999541	0.00000000	-28.92470000	-19.92495000
80.49999540	0.00000000	-31.24384000	-21.04454000
80.69999539	0.00000000	-33.57529000	-19.54970000
80.89999537	0.00000000	-35.90059000	-16.11712000
81.09999536	0.00000000	-37.39542000	-12.25394000
81.29999535	0.00000000	-37.39542000	-8.35998900
81.49999534	0.00000000	-35.85752000	-5.24729300
81.69999533	0.00000000	-33.20005000	-3.24803100
81.89999531	0.00000000	-30.50566000	-2.08538400
82.09999530	0.00000000	-28.50024000	-2.12844500
82.29999529	0.00000000	-26.96850000	-3.66633800
82.49999528	0.00000000	-26.26722000	-6.36072800
82.69999527	0.00000000	-27.38681000	-9.42421200
82.89999525	0.00000000	-29.66289000	-12.21087000
83.09999524	0.00000000	-31.99434000	-14.58538000
83.29999523	0.00000000	-34.31963000	-16.90453000
83.49999522	0.00000000	-35.81446000	-18.39321000
83.69999521	0.00000000	-35.85752000	-18.39321000
83.89999520	0.00000000	-34.73794000	-16.85531000
84.09999518	0.00000000	-33.24926000	-14.11786000
84.29999517	0.00000000	-32.08661000	-10.62992000
84.49999516	0.00000000	-31.61909000	-6.72982200
84.69999515	0.00000000	-31.24384000	-3.29109200
84.89999514	0.00000000	-30.87475000	-0.97194880
85.09999512	0.00000000	-31.24384000	-0.59670270
85.29999511	0.00000000	-31.57603000	-2.17765700
85.49999510	0.00000000	-31.61909000	-5.66560000
85.69999509	0.00000000	-31.57603000	-10.62992000
85.89999508	0.00000000	-31.20078000	-15.27436000
86.09999506	0.00000000	-30.45644000	-18.76845000
86.29999505	0.00000000	-30.13041000	-20.71235000
86.49999504	0.00000000	-30.50566000	-20.30020000
86.69999503	0.00000000	-31.66215000	-17.97490000
86.89999502	0.00000000	-33.15699000	-13.69956000
87.09999501	0.00000000	-34.31963000	-8.35998900
87.29999499	0.00000000	-34.69488000	-3.75246000
87.49999498	0.00000000	-34.36884000	-1.01501000
87.69999497	0.00000000	-33.57529000	-0.63976370
87.89999496	0.00000000	-32.73252000	-2.54675200
88.09999495	0.00000000	-31.20078000	-6.40378900
88.29999493	0.00000000	-29.34301000	-11.00517000
88.49999492	0.00000000	-28.54946000	-15.27436000
88.69999491	0.00000000	-28.50024000	-18.35015000
88.89999490	0.00000000	-28.92470000	-19.46358000
89.09999489	0.00000000	-30.13041000	-17.93184000
89.29999487	0.00000000	-31.99434000	-14.11786000
89.49999486	0.00000000	-33.90133000	-9.51648500
89.69999485	0.00000000	-34.69488000	-5.24729300
89.89999484	0.00000000	-34.74409000	-2.22071800
90.09999483	0.00000000	-34.31963000	-1.43331700
90.29999482	0.00000000	-33.15699000	-3.33415300
90.49999480	0.00000000	-31.66215000	-6.77903500
90.69999479	0.00000000	-30.50566000	-11.04823000
90.89999478	0.00000000	-30.08120000	-15.23130000
91.09999477	0.00000000	-30.03814000	-17.92569000
91.29999476	0.00000000	-30.03814000	-18.30093000
91.49999474	0.00000000	-30.08120000	-16.39395000
91.69999473	0.00000000	-30.45644000	-12.53691000
91.89999472	0.00000000	-31.20078000	-7.98474400
92.09999471	0.00000000	-31.57603000	-4.12770700
92.29999470	0.00000000	-31.61909000	-2.22071800
92.49999468	0.00000000	-31.61909000	-2.54675200
92.69999467	0.00000000	-31.61909000	-4.91510800
92.89999466	0.00000000	-31.66215000	-8.72908400
93.09999465	0.00000000	-32.08661000	-13.32431000
93.29999464	0.00000000	-33.20005000	-16.76919000
93.49999463	0.00000000	-34.27657000	-18.35015000
93.69999461	0.00000000	-34.31963000	-17.92569000
93.89999460	0.00000000	-33.53223000	-15.23130000
94.09999459	0.00000000	-32.36343000	-11.04823000
94.29999458	0.00000000	-30.41338000	-6.82209600
94.49999457	0.00000000	-28.54946000	-3.75246000
94.69999455	0.00000000	-27.34375000	-2.59596400
94.89999454	0.00000000	-26.96850000	-3.75246000
95.09999453	0.00000000	-27.34375000	-6.77903500
95.29999452	0.00000000	-28.54946000	-10.62992000
95.49999451	0.00000000	-30.50566000	-14.11786000
95.69999449	0.00000000	-33.24926000	-16.81225000
95.89999448	0.00000000	-36.27584000	-17.88263000
96.09999447	0.00000000	-38.55807000	-16.39395000
96.29999446	0.00000000	-38.93332000	-13.00443000
96.49999445	0.00000000	-37.43848000	-9.55954600
96.69999444	0.00000000	-34.69488000	-6.77903500
96.89999442	0.00000000	-31.20078000	-4.87204700
97.09999441	0.00000000	-27.34375000	-4.12770700
97.29999440	0.00000000	-24.26796000	-5.29035400
97.49999439	0.00000000	-22.73007000	-7.89247000
97.69999438	0.00000000	-23.10531000	-10.58686000
97.89999436	0.00000000	-25.43061000	-12.53691000
98.09999435	0.00000000	-28.87549000	-13.69956000
98.29999434	0.00000000	-32.78174000	-13.69956000
98.49999433	0.00000000	-36.27584000	-12.62918000
98.69999432	0.00000000	-38.97638000	-11.46653000
98.89999430	0.00000000	-40.08981000	-10.62992000
99.09999429	0.00000000	-38.97638000	-9.47342500
99.29999428	0.00000000	-36.27584000	-8.40305000
99.49999427	0.00000000	-32.82480000	-8.35998900
99.69999426	0.00000000	-29.29380000	-9.05511800
99.89999425	0.00000000	-26.59326000	-9.38115100
100.09999423	0.00000000	-24.60015000	-9.05511800
100.29999422	0.00000000	-23.89271000	-8.31077700
100.49999421	0.00000000	-24.64321000	-7.93553100
100.69999420	0.00000000	-26.96850000	-7.93553100
100.89999419	0.00000000	-30.03814000	-8.35998900
101.09999417	0.00000000	-33.15699000	-9.51648500
101.29999416	0.00000000	-35.85752000	-11.04823000
101.49999415	0.00000000	-37.43848000	-12.58612000
101.69999414	0.00000000	-37.85679000	-13.74262000
101.89999413	0.00000000	-37.43848000	-14.11786000
102.09999411	0.00000000	-35.85752000	-13.74262000
102.29999410	0.00000000	-33.20005000	-12.49385000
102.49999409	0.00000000	-30.50566000	-10.21161000
102.69999408	0.00000000	-28.54946000	-7.14812900
102.89999407	0.00000000	-27.34375000	-4.91510800
103.09999406	0.00000000	-26.96850000	-4.08464600
103.29999404	0.00000000	-27.34375000	-4.82283400
103.49999403	0.00000000	-28.50024000	-6.40378900
103.69999402	0.00000000	-30.03814000	-8.77214500
103.89999401	0.00000000	-31.61909000	-12.21087000
104.09999400	0.00000000	-33.15699000	-15.23130000
104.29999398	0.00000000	-34.31963000	-16.81225000
104.49999397	0.00000000	-34.69488000	-16.81225000
104.69999396	0.00000000	-34.31963000	-15.27436000
104.89999395	0.00000000	-33.15699000	-12.58612000
105.09999394	0.00000000	-31.61909000	-9.51648500
105.29999392	0.00000000	-30.08120000	-6.82209600
105.49999391	0.00000000	-28.92470000	-5.29035400
105.69999390	0.00000000	-28.54946000	-5.24729300
105.89999389	0.00000000	-28.92470000	-6.40378900
106.09999388	0.00000000	-30.03814000	-8.31077700
106.29999387	0.00000000	-31.20078000	-10.62992000
106.49999385	0.00000000	-31.99434000	-12.53691000
106.69999384	0.00000000	-32.73252000	-13.69956000
106.89999383	0.00000000	-32.73252000	-13.69956000
107.09999382	0.00000000	-31.99434000	-12.58612000
107.29999381	0.00000000	-31.24384000	-11.04823000
107.49999379	0.00000000	-30.45644000	-9.47342500
107.69999378	0.00000000	-30.08120000	-7.98474400
107.89999377	0.00000000	-30.03814000	-7.24040300
108.09999376	0.00000000	-30.08120000	-7.93553100
108.29999375	0.00000000	-30.50566000	-9.05511800
108.49999374	0.00000000	-31.66215000	-9.89173200
108.69999372	0.00000000	-33.11393000	-11.04823000
108.89999371	0.00000000	-33.85211000	-12.11860000
109.09999370	0.00000000	-33.15699000	-12.16166000
109.29999369	0.00000000	-32.03740000	-11.38041000
109.49999368	0.00000000	-31.20078000	-10.25467000
109.69999366	0.00000000	-30.03814000	-8.68602300
109.89999365	0.00000000	-28.92470000	-7.56028500
110.09999364	0.00000000	-28.50024000	-6.72982200
110.29999363	0.00000000	-28.50024000	-6.40378900
110.49999362	0.00000000	-28.92470000	-6.77903500
110.69999360	0.00000000	-30.08120000	-7.93553100
110.89999359	0.00000000	-31.57603000	-9.47342500
111.09999358	0.00000000	-32.73252000	-11.00517000
111.29999357	0.00000000	-33.15699000	-12.16166000
111.49999356	0.00000000	-33.15699000	-12.58612000
111.69999355	0.00000000	-32.78174000	-12.58612000
111.89999353	0.00000000	-31.99434000	-12.16166000
112.09999352	0.00000000	-31.20078000	-11.04823000
112.29999351	0.00000000	-30.08120000	-9.93479300
112.49999350	0.00000000	-29.34301000	-9.47342500
112.69999349	0.00000000	-29.66289000	-9.09817800
112.89999347	0.00000000	-29.99508000	-8.72908400
113.09999346	0.00000000	-30.08120000	-9.09817800
113.29999345	0.00000000	-30.45644000	-9.43036400
113.49999344	0.00000000	-31.20078000	-9.47342500
113.69999343	0.00000000	-31.57603000	-9.47342500
113.89999341	0.00000000	-31.61909000	-9.51648500
114.09999340	0.00000000	-31.61909000	-9.89173200
114.29999339	0.00000000	-31.61909000	-10.62992000
114.49999338	0.00000000	-31.61909000	-11.00517000
114.69999337	0.00000000	-31.57603000	-11.04823000
114.89999336	0.00000000	-31.20078000	-11.04823000
115.09999334	0.00000000	-30.45644000	-11.04823000
115.29999333	0.00000000	-30.08120000	-11.04823000
115.49999332	0.00000000	-30.03814000	-11.00517000
115.69999331	0.00000000	-30.03814000	-10.62992000
115.89999330	0.00000000	-30.08120000	-9.84867000
116.09999328	0.00000000	-30.45644000	-9.09817800
116.29999327	0.00000000	-31.20078000	-8.31077700
116.49999326	0.00000000	-31.57603000	-7.93553100
116.69999325	0.00000000	-31.61909000	-7.93553100
116.89999324	0.00000000	-31.61909000	-8.31077700
117.09999322	0.00000000	-31.57603000	-9.05511800
117.29999321	0.00000000	-31.15157000	-9.47342500
117.49999320	0.00000000	-30.03814000	-9.93479300
117.69999319	0.00000000	-28.92470000	-11.04823000
117.89999318	0.00000000	-28.50024000	-12.11860000
118.09999317	0.00000000	-28.50024000	-12.16166000
118.29999315	0.00000000	-28.87549000	-11.42347000
118.49999314	0.00000000	-29.66289000	-10.67298000
118.69999313	0.00000000	-30.45644000	-9.84867000
118.89999312	0.00000000	-31.61909000	-9.09817800
119.09999311	0.00000000	-32.73252000	-8.31077700
119.29999309	0.00000000	-33.15699000	-7.93553100
119.49999308	0.00000000	-33.15699000	-7.89247000
119.69999307	0.00000000	-32.73252000	-7.93553100
119.89999306	0.00000000	-31.61909000	-8.31077700
120.09999305	0.00000000	-30.45644000	-9.05511800
120.29999303	0.00000000	-29.61983000	-9.43036400
120.49999302	0.00000000	-28.50024000	-9.51648500
120.69999301	0.00000000	-27.76206000	-9.89173200
120.89999300	0.00000000	-28.12500000	-10.62992000
121.09999299	0.00000000	-28.87549000	-11.00517000
121.29999298	0.00000000	-30.03814000	-11.04823000
121.49999296	0.00000000	-31.20078000	-11.04823000
121.69999295	0.00000000	-31.99434000	-11.00517000
121.89999294	0.00000000	-32.78174000	-10.62992000
122.09999293	0.00000000	-33.15699000	-9.89173200
122.29999292	0.00000000	-33.15699000	-9.47342500
122.49999290	0.00000000	-32.73252000	-9.05511800
122.69999289	0.00000000	-31.61909000	-8.31077700
122.89999288	0.00000000	-30.45644000	-7.93553100
123.09999287	0.00000000	-29.66289000	-7.89247000
123.29999286	0.00000000	-28.87549000	-7.89247000
123.49999284	0.00000000	-28.50024000	-7.93553100
123.69999283	0.00000000	-28.50024000	-8.35998900
123.89999282	0.00000000	-28.87549000	-9.47342500
124.09999281	0.00000000	-29.61983000	-10.58686000
124.29999280	0.00000000	-30.03814000	-11.00517000
124.49999279	0.00000000	-30.45644000	-11.04823000
124.69999277	0.00000000	-31.24384000	-11.00517000
124.89999276	0.00000000	-31.99434000	-10.62992000
125.09999275	0.00000000	-32.78174000	-9.89173200
125.29999274	0.00000000	-33.10777000	-9.51648500
125.49999273	0.00000000	-32.78174000	-9.43036400
125.69999271	0.00000000	-31.99434000	-9.05511800
125.89999270	0.00000000	-31.24384000	-8.31077700
126.09999269	0.00000000	-30.41338000	-7.98474400
126.29999268	0.00000000	-29.66289000	-8.31077700
126.49999267	0.00000000	-28.87549000	-9.05511800
126.69999265	0.00000000	-28.54946000	-9.43036400
126.89999264	0.00000000	-28.87549000	-9.51648500
127.09999263	0.00000000	-29.66289000	-9.89173200
127.29999262	0.00000000	-30.45644000	-10.62992000
127.49999261	0.00000000	-31.61909000	-11.00517000
127.69999260	0.00000000	-32.73252000	-11.00517000
127.89999258	0.00000000	-33.15699000	-10.62992000
128.09999257	0.00000000	-33.15699000	-9.89173200
128.29999256	0.00000000	-32.73252000	-9.51648500
128.49999255	0.00000000	-31.57603000	-9.47342500
128.69999254	0.00000000	-30.08120000	-9.47342500
128.89999252	0.00000000	-28.92470000	-9.47342500
129.09999251	0.00000000	-28.50024000	-9.47342500
129.29999250	0.00000000	-28.50024000	-9.47342500
129.49999249	0.00000000	-28.92470000	-9.47342500
129.69999248	0.00000000	-30.03814000	-9.51648500
129.89999246	0.00000000	-31.20078000	-9.84867000
130.09999245	0.00000000	-31.99434000	-10.21161000
130.29999244	0.00000000	-32.73252000	-9.84867000
130.49999243	0.00000000	-32.73252000	-9.51648500
130.69999242	0.00000000	-31.99434000	-9.47342500
130.89999241	0.00000000	-31.20078000	-9.47342500
131.09999239	0.00000000	-30.03814000	-9.47342500
131.29999238	0.00000000	-28.92470000	-9.47342500
131.49999237	0.00000000	-28.50024000	-9.47342500
131.69999236	0.00000000	-28.50024000	-9.51648500
131.89999235	0.00000000	-28.92470000	-9.89173200
132.09999233	0.00000000	-29.99508000	-10.62992000
132.29999232	0.00000000	-30.78248000	-11.00517000
132.49999231	0.00000000	-30.83169000	-11.00517000
132.69999230	0.00000000	-31.24384000	-10.62992000
132.89999229	0.00000000	-31.52682000	-9.84867000
133.09999227	0.00000000	-31.20078000	-9.09817800
133.29999226	0.00000000	-30.45644000	-8.31077700
133.49999225	0.00000000	-30.08120000	-7.93553100
133.69999224	0.00000000	-30.03814000	-7.89247000
133.89999223	0.00000000	-30.03814000	-7.93553100
134.09999222	0.00000000	-30.03814000	-8.31077700
134.29999220	0.00000000	-30.03814000	-9.09817800
134.49999219	0.00000000	-30.03814000	-9.84867000
134.69999218	0.00000000	-30.03814000	-10.62992000
134.89999217	0.00000000	-30.03814000	-11.00517000
135.09999216	0.00000000	-30.03814000	-11.04823000
135.29999214	0.00000000	-30.03814000	-11.00517000
135.49999213	0.00000000	-30.03814000	-10.62992000
135.69999212	0.00000000	-30.03814000	-9.84867000
135.89999211	0.00000000	-30.03814000	-9.09817800
136.09999210	0.00000000	-30.08120000	-8.31077700
136.29999208	0.00000000	-30.45644000	-7.93553100
136.49999207	0.00000000	-31.20078000	-7.93553100
136.69999206	0.00000000	-31.57603000	-8.31077700
136.89999205	0.00000000	-31.61909000	-9.05511800
137.09999204	0.00000000	-31.57603000	-9.47342500
137.29999203	0.00000000	-31.20078000	-9.84867000
137.49999201	0.00000000	-30.41338000	-10.25467000
137.69999200	0.00000000	-29.66289000	-10.26698000
137.89999199	0.00000000	-28.92470000	-10.67298000
138.09999198	0.00000000	-28.92470000	-11.00517000
138.29999197	0.00000000	-29.61983000	-11.04823000
138.49999195	0.00000000	-30.03814000	-11.00517000
138.69999194	0.00000000	-30.45644000	-10.62992000
138.89999193	0.00000000	-31.20078000	-9.89173200
139.09999192	0.00000000	-31.57603000	-9.47342500
139.29999191	0.00000000	-31.61909000	-9.05511800
139.49999189	0.00000000	-31.57603000	-8.31077700
139.69999188	0.00000000	-31.20078000	-7.93553100
139.89999187	0.00000000	-30.45644000	-7.89247000
140.09999186	0.00000000	-30.03814000	-7.93553100
140.29999185	0.00000000	-29.61983000	-8.31077700
140.49999184	0.00000000	-28.92470000	-9.09817800
140.69999182	0.00000000	-28.92470000	-9.84867000
140.89999181	0.00000000	-29.66289000	-10.62992000
141.09999180	0.00000000	-30.37032000	-11.00517000
141.29999179	0.00000000	-30.82554000	-11.04823000
141.49999178	0.00000000	-30.83169000	-11.00517000
141.69999176	0.00000000	-31.20078000	-10.58686000
141.89999175	0.00000000	-31.15157000	-9.47342500
142.09999174	0.00000000	-30.45644000	-8.35998900
142.29999173	0.00000000	-30.03814000	-7.93553100
142.49999172	0.00000000	-29.66289000	-7.89247000
142.69999170	0.00000000	-29.29380000	-7.93553100
142.89999169	0.00000000	-29.66289000	-8.31077700
143.09999168	0.00000000	-29.99508000	-9.09817800
143.29999167	0.00000000	-30.08120000	-9.84867000
143.49999166	0.00000000	-30.41338000	-10.62992000
143.69999165	0.00000000	-30.78248000	-11.00517000
143.89999163	0.00000000	-30.41338000	-11.04823000
144.09999162	0.00000000	-30.08120000	-11.00517000
144.29999161	0.00000000	-30.03814000	-10.58686000
144.49999160	0.00000000	-30.03814000	-9.47342500
144.69999159	0.00000000	-30.03814000	-8.35998900
144.89999157	0.00000000	-30.03814000	-7.93553100
145.09999156	0.00000000	-30.03814000	-7.89247000
145.29999155	0.00000000	-30.03814000	-7.93553100
145.49999154	0.00000000	-30.03814000	-8.31077700
145.69999153	0.00000000	-30.08120000	-9.09817800
145.89999151	0.00000000	-30.45644000	-9.84867000
146.09999150	0.00000000	-31.15157000	-10.62992000
146.29999149	0.00000000	-31.15157000	-10.95595000
146.49999148	0.00000000	-30.45644000	-10.62992000
146.69999147	0.00000000	-30.08120000	-9.89173200
146.89999146	0.00000000	-30.03814000	-9.51648500
147.09999144	0.00000000	-29.99508000	-9.47342500
147.29999143	0.00000000	-29.66289000	-9.47342500
147.49999142	0.00000000	-29.29380000	-9.43036400
147.69999141	0.00000000	-29.66289000	-9.05511800
147.89999140	0.00000000	-29.99508000	-8.35998900
148.09999138	0.00000000	-30.08120000	-8.35998900
148.29999137	0.00000000	-30.41338000	-9.05511800
148.49999136	0.00000000	-30.78248000	-9.43036400
148.69999135	0.00000000	-30.41338000	-9.47342500
148.89999134	0.00000000	-30.08120000	-9.47342500
149.09999132	0.00000000	-29.99508000	-9.47342500
149.29999131	0.00000000	-29.61983000	-9.47342500
149.49999130	0.00000000	-28.87549000	-9.47342500
149.69999129	0.00000000	-28.50024000	-9.47342500
149.89999128	0.00000000	-28.50024000	-9.47342500
150.09999127	0.00000000	-28.87549000	-9.47342500
150.29999125	0.00000000	-29.61983000	-9.47342500
150.49999124	0.00000000	-30.03814000	-9.47342500
150.69999123	0.00000000	-30.41338000	-9.43036400
150.89999122	0.00000000	-30.78248000	-9.05511800
151.09999121	0.00000000	-30.41338000	-8.31077700
151.29999119	0.00000000	-30.08120000	-7.98474400
151.49999118	0.00000000	-30.03814000	-8.31077700
151.69999117	0.00000000	-30.03814000	-9.05511800
151.89999116	0.00000000	-30.03814000	-9.43036400
152.09999115	0.00000000	-29.99508000	-9.47342500
152.29999113	0.00000000	-29.66289000	-9.47342500
152.49999112	0.00000000	-29.25074000	-9.47342500
152.69999111	0.00000000	-29.24459000	-9.47342500
152.89999110	0.00000000	-28.87549000	-9.47342500
153.09999109	0.00000000	-28.92470000	-9.47342500
153.29999108	0.00000000	-29.61983000	-9.47342500
153.49999106	0.00000000	-29.99508000	-9.43036400
153.69999105	0.00000000	-30.03814000	-9.05511800
153.89999104	0.00000000	-30.08120000	-8.35998900
154.09999103	0.00000000	-30.45644000	-8.35998900
154.29999102	0.00000000	-31.15157000	-9.05511800
154.49999100	0.00000000	-31.15157000	-9.43036400
154.69999099	0.00000000	-30.45644000	-9.47342500
154.89999098	0.00000000	-30.08120000	-9.47342500
155.09999097	0.00000000	-30.03814000	-9.47342500
155.29999096	0.00000000	-29.99508000	-9.47342500
155.49999094	0.00000000	-29.61983000	-9.47342500
155.69999093	0.00000000	-28.87549000	-9.47342500
155.89999092	0.00000000	-28.54946000	-9.47342500
156.09999091	0.00000000	-28.87549000	-9.47342500
156.29999090	0.00000000	-29.61983000	-9.47342500
156.49999089	0.00000000	-29.99508000	-9.43036400
156.69999087	0.00000000	-30.08120000	-9.05511800
156.89999086	0.00000000	-30.45644000	-8.31077700
157.09999085	0.00000000	-31.20078000	-7.93553100
157.29999084	0.00000000	-31.52682000	-7.93553100
157.49999083	0.00000000	-31.20078000	-8.31077700
157.69999081	0.00000000	-30.45644000	-9.05511800
157.89999080	0.00000000	-30.08120000	-9.43036400
158.09999079	0.00000000	-29.99508000	-9.47342500
158.29999078	0.00000000	-29.61983000	-9.47342500
158.49999077	0.00000000	-28.87549000	-9.47342500
158.69999075	0.00000000	-28.50024000	-9.47342500
158.89999074	0.00000000	-28.50024000	-9.47342500
159.09999073	0.00000000	-28.87549000	-9.47342500
159.29999072	0.00000000	-29.61983000	-9.47342500
159.49999071	0.00000000	-29.99508000	-9.43036400
159.69999070	0.00000000	-30.03814000	-9.05511800
159.89999068	0.00000000	-30.03814000	-8.31077700
160.09999067	0.00000000	-30.03814000	-7.93553100
160.29999066	0.00000000	-30.03814000	-7.93553100
160.49999065	0.00000000	-30.03814000	-8.31077700
160.69999064	0.00000000	-30.03814000	-9.05511800
160.89999062	0.00000000	-30.03814000	-9.43036400
161.09999061	0.00000000	-30.03814000	-9.47342500
161.29999060	0.00000000	-30.03814000	-9.47342500
161.49999059	0.00000000	-29.99508000	-9.47342500
161.69999058	0.00000000	-29.61983000	-9.47342500
161.89999056	0.00000000	-28.92470000	-9.47342500
162.09999055	0.00000000	-28.92470000	-9.47342500
162.29999054	0.00000000	-29.61983000	-9.43036400
162.49999053	0.00000000	-29.99508000	-9.05511800
162.69999052	0.00000000	-30.03814000	-8.31077700
162.89999051	0.00000000	-30.03814000	-7.98474400
163.09999049	0.00000000	-30.03814000	-8.31077700
163.29999048	0.00000000	-30.03814000	-9.05511800
163.49999047	0.00000000	-30.08120000	-9.43036400
163.69999046	0.00000000	-30.45644000	-9.47342500
163.89999045	0.00000000	-31.15157000	-9.47342500
164.09999043	0.00000000	-31.10851000	-9.47342500
164.29999042	0.00000000	-30.08120000	-9.47342500
164.49999041	0.00000000	-29.29380000	-9.47342500
164.69999040	0.00000000	-29.24459000	-9.47342500
164.89999039	0.00000000	-28.83243000	-9.47342500
165.09999037	0.00000000	-28.50024000	-9.47342500
165.29999036	0.00000000	-28.50024000	-9.47342500
165.49999035	0.00000000	-28.87549000	-9.47342500
165.69999034	0.00000000	-29.61983000	-9.47342500
165.89999033	0.00000000	-29.99508000	-9.47342500
166.09999032	0.00000000	-30.03814000	-9.47342500
166.29999030	0.00000000	-30.03814000	-9.47342500
166.49999029	0.00000000	-30.03814000	-9.47342500
166.69999028	0.00000000	-30.03814000	-9.47342500
166.89999027	0.00000000	-30.03814000	-9.47342500
167.09999026	0.00000000	-30.03814000	-9.47342500
167.29999024	0.00000000	-29.99508000	-9.47342500
167.49999023	0.00000000	-29.66289000	-9.47342500
167.69999022	0.00000000	-29.29380000	-9.47342500
167.89999021	0.00000000	-29.66289000	-9.47342500
168.09999020	0.00000000	-29.99508000	-9.47342500
168.29999018	0.00000000	-29.99508000	-9.47342500
168.49999017	0.00000000	-29.66289000	-9.47342500
168.69999016	0.00000000	-29.29380000	-9.47342500
168.89999015	0.00000000	-29.66289000	-9.47342500
169.09999014	0.00000000	-29.99508000	-9.47342500
169.29999013	0.00000000	-30.03814000	-9.47342500
169.49999011	0.00000000	-30.03814000	-9.47342500
169.69999010	0.00000000	-30.03814000	-9.47342500
169.89999009	0.00000000	-30.03814000	-9.47342500
170.09999008	0.00000000	-30.03814000	-9.47342500
170.29999007	0.00000000	-30.03814000	-9.47342500
170.49999005	0.00000000	-29.99508000	-9.47342500
170.69999004	0.00000000	-29.61983000	-9.47342500
170.89999003	0.00000000	-28.87549000	-9.47342500
171.09999002	0.00000000	-28.50024000	-9.47342500
171.29999001	0.00000000	-28.45718000	-9.47342500
171.49998999	0.00000000	-28.50024000	-9.47342500
171.69998998	0.00000000	-28.87549000	-9.47342500
171.89998997	0.00000000	-29.61983000	-9.47342500
172.09998996	0.00000000	-29.99508000	-9.47342500
172.29998995	0.00000000	-30.03814000	-9.47342500
172.49998994	0.00000000	-29.99508000	-9.47342500
172.69998992	0.00000000	-29.66289000	-9.43036400
172.89998991	0.00000000	-29.29380000	-9.09817800
173.09998990	0.00000000	-29.66289000	-8.72908400
173.29998989	0.00000000	-29.99508000	-9.09817800
173.49998988	0.00000000	-30.03814000	-9.43036400
173.69998986	0.00000000	-29.99508000	-9.47342500
173.89998985	0.00000000	-29.61983000	-9.47342500
174.09998984	0.00000000	-28.87549000	-9.47342500
174.29998983	0.00000000	-28.54946000	-9.47342500
174.49998982	0.00000000	-28.87549000	-9.47342500
174.69998980	0.00000000	-29.61983000	-9.47342500
174.89998979	0.00000000	-29.99508000	-9.47342500
175.09998978	0.00000000	-29.99508000	-9.43036400
175.29998977	0.00000000	-29.66289000	-9.09817800
175.49998976	0.00000000	-29.25074000	-8.72908400
175.69998975	0.00000000	-29.24459000	-9.09817800
175.89998973	0.00000000	-28.87549000	-9.43036400
176.09998972	0.00000000	-28.87549000	-9.47342500
176.29998971	0.00000000	-29.20152000	-9.47342500
176.49998970	0.00000000	-28.83243000	-9.47342500
176.69998969	0.00000000	-28.50024000	-9.47342500
176.89998967	0.00000000	-28.45718000	-9.47342500
177.09998966	0.00000000	-28.45718000	-9.47342500
177.29998965	0.00000000	-28.45718000	-9.47342500
177.49998964	0.00000000	-28.50024000	-9.47342500
177.69998963	0.00000000	-28.87549000	-9.47342500
177.89998961	0.00000000	-29.61983000	-9.47342500
178.09998960	0.00000000	-29.99508000	-9.47342500
178.29998959	0.00000000	-30.03814000	-9.47342500
178.49998958	0.00000000	-30.03814000	-9.47342500
178.69998957	0.00000000	-29.99508000	-9.47342500
178.89998956	0.00000000	-29.61983000	-9.43036400
179.09998954	0.00000000	-28.87549000	-9.05511800
179.29998953	0.00000000	-28.50024000	-8.31077700
179.49998952	0.00000000	-28.50024000	-7.98474400
179.69998951	0.00000000	-28.83243000	-8.31077700
179.89998950	0.00000000	-29.20152000	-9.05511800
180.09998948	0.00000000	-28.87549000	-9.43036400
180.29998947	0.00000000	-28.87549000	-9.47342500
180.49998946	0.00000000	-29.20152000	-9.47342500
180.69998945	0.00000000	-28.87549000	-9.47342500
180.89998944	0.00000000	-28.87549000	-9.47342500
181.09998942	0.00000000	-29.24459000	-9.43036400
181.29998941	0.00000000	-29.25074000	-9.05511800
181.49998940	0.00000000	-29.61983000	-8.31077700
181.69998939	0.00000000	-29.61983000	-7.93553100
181.89998938	0.00000000	-29.25074000	-7.89247000
182.09998937	0.00000000	-29.24459000	-7.89247000
182.29998935	0.00000000	-28.83243000	-7.89247000
182.49998934	0.00000000	-28.50024000	-7.93553100
182.69998933	0.00000000	-28.45718000	-8.31077700
182.89998932	0.00000000	-28.45718000	-9.05511800
183.09998931	0.00000000	-28.45718000	-9.43036400
183.29998929	0.00000000	-28.45718000	-9.47342500
183.49998928	0.00000000	-28.45718000	-9.47342500
183.69998927	0.00000000	-28.45718000	-9.47342500
183.89998926	0.00000000	-28.50024000	-9.47342500
184.09998925	0.00000000	-28.87549000	-9.43036400
184.29998923	0.00000000	-29.57062000	-9.05511800
184.49998922	0.00000000	-29.61983000	-8.31077700
184.69998921	0.00000000	-29.25074000	-7.93553100
184.89998920	0.00000000	-29.24459000	-7.89247000
185.09998919	0.00000000	-28.83243000	-7.89247000
185.29998918	0.00000000	-28.50024000	-7.89247000
185.49998916	0.00000000	-28.45718000	-7.93553100
185.69998915	0.00000000	-28.45718000	-8.31077700
185.89998914	0.00000000	-28.45718000	-9.05511800
186.09998913	0.00000000	-28.45718000	-9.43036400
186.29998912	0.00000000	-28.45718000	-9.47342500
186.49998910	0.00000000	-28.45718000	-9.47342500
186.69998909	0.00000000	-28.45718000	-9.47342500
186.89998908	0.00000000	-28.50024000	-9.43036400
187.09998907	0.00000000	-28.87549000	-9.05511800
187.29998906	0.00000000	-29.61983000	-8.31077700
187.49998904	0.00000000	-29.99508000	-7.93553100
187.69998903	0.00000000	-29.99508000	-7.89247000
187.89998902	0.00000000	-29.61983000	-7.89247000
188.09998901	0.00000000	-28.87549000	-7.89247000
188.29998900	0.00000000	-28.50024000	-7.93553100
188.49998899	0.00000000	-28.45718000	-8.31077700
188.69998897	0.00000000	-28.45718000	-9.05511800
188.89998896	0.00000000	-28.45718000	-9.43036400
189.09998895	0.00000000	-28.45718000	-9.47342500
189.29998894	0.00000000	-28.50024000	-9.47342500
189.49998893	0.00000000	-28.83243000	-9.47342500
189.69998891	0.00000000	-29.24459000	-9.43036400
189.89998890	0.00000000	-29.20767000	-9.09817800
190.09998889	0.00000000	-29.24459000	-8.68602300
190.29998888	0.00000000	-28.87549000	-8.67987200
190.49998887	0.00000000	-28.87549000	-8.26771600
190.69998885	0.00000000	-29.20152000	-7.93553100
190.89998884	0.00000000	-28.83243000	-7.89247000
191.09998883	0.00000000	-28.50024000	-7.89247000
191.29998882	0.00000000	-28.45718000	-7.93553100
191.49998881	0.00000000	-28.45718000	-8.31077700
191.69998880	0.00000000	-28.45718000	-9.05511800
191.89998878	0.00000000	-28.45718000	-9.43036400
192.09998877	0.00000000	-28.45718000	-9.47342500
192.29998876	0.00000000	-28.45718000	-9.47342500
192.49998875	0.00000000	-28.45718000	-9.47342500
192.69998874	0.00000000	-28.45718000	-9.47342500
192.89998872	0.00000000	-28.45718000	-9.47342500
193.09998871	0.00000000	-28.45718000	-9.43036400
193.29998870	0.00000000	-28.45718000	-9.09817800
193.49998869	0.00000000	-28.45718000	-8.68602300
193.69998868	0.00000000	-28.45718000	-8.67987200
193.89998866	0.00000000	-28.45718000	-8.26771600
194.09998865	0.00000000	-28.45718000	-7.93553100
194.29998864	0.00000000	-28.45718000	-7.89247000
194.49998863	0.00000000	-28.45718000	-7.89247000
194.69998862	0.00000000	-28.45718000	-7.93553100
194.89998861	0.00000000	-28.45718000	-8.31077700
195.09998859	0.00000000	-28.45718000	-9.05511800
195.29998858	0.00000000	-28.45718000	-9.43036400
195.49998857	0.00000000	-28.45718000	-9.47342500
195.69998856	0.00000000	-28.50024000	-9.47342500
195.89998855	0.00000000	-28.87549000	-9.43036400
196.09998853	0.00000000	-29.57062000	-9.05511800
