Time	Channel A	Channel B	Channel C
(us)	(V)	(mV)	(mV)

-4.49999956	0.00000000	-14.60384000	-9.47342500
-4.29999957	0.00000000	-14.97293000	-9.47342500
-4.09999958	0.00000000	-14.64690000	-9.47342500
-3.89999959	0.00000000	-14.69611000	-9.47342500
-3.69999960	0.00000000	-15.39124000	-9.47342500
-3.49999962	0.00000000	-15.76649000	-9.47342500
-3.29999963	0.00000000	-15.80955000	-9.47342500
-3.09999964	0.00000000	-15.76649000	-9.43036400
-2.89999965	0.00000000	-15.39124000	-9.09817800
-2.69999966	0.00000000	-14.69611000	-8.72908400
-2.49999968	0.00000000	-14.64690000	-9.09817800
-2.29999969	0.00000000	-15.01599000	-9.43036400
-2.09999970	0.00000000	-15.02214000	-9.47342500
-1.89999971	0.00000000	-15.39124000	-9.47342500
-1.69999972	0.00000000	-15.39124000	-9.47342500
-1.49999973	0.00000000	-15.06521000	-9.47342500
-1.29999975	0.00000000	-15.43430000	-9.47342500
-1.09999976	0.00000000	-15.76649000	-9.47342500
-0.89999977	0.00000000	-15.80955000	-9.43036400
-0.69999978	0.00000000	-15.76649000	-9.09817800
-0.49999979	0.00000000	-15.39124000	-8.72908400
-0.29999981	0.31803640	-14.64690000	-9.09817800
-0.09999982	0.63668800	-14.32087000	-9.43036400
0.10000017	0.95533960	-14.64690000	-9.47342500
0.30000016	0.95533960	-15.39124000	-9.47342500
0.50000015	0.79601380	-15.71727000	-9.47342500
0.70000013	0.15871060	-15.43430000	-9.47342500
0.90000012	-0.63668800	-15.06521000	-9.47342500
1.10000011	-1.59264300	-15.43430000	-9.47342500
1.30000010	-2.54859700	-15.71727000	-9.47342500
1.50000009	-2.70792300	-15.39124000	-9.47342500
1.70000008	-2.22994600	-14.64690000	-9.43036400
1.90000006	-0.95533960	-14.27165000	-9.09817800
2.10000005	0.95533960	-14.22859000	-8.72908400
2.30000004	3.02657500	-14.27165000	-9.09817800
2.50000003	4.77854300	-14.64690000	-9.43036400
2.70000002	5.41584600	-15.34203000	-9.47342500
2.90000000	4.61921700	-15.39124000	-9.47342500
3.09999999	2.38927200	-15.02214000	-9.47342500
3.29999998	-0.79601380	-15.01599000	-9.47342500
3.49999997	-4.14124000	-14.60384000	-9.47342500
3.69999996	-6.84916400	-14.27165000	-9.43036400
3.89999994	-7.96444400	-14.22859000	-9.05511800
4.09999993	-7.16781500	-14.27165000	-8.31077700
4.29999992	-4.30056600	-14.60384000	-7.93553100
4.49999991	-0.15871060	-15.01599000	-7.93553100
4.69999990	4.14124000	-14.97908000	-8.31077700
4.89999989	7.64579200	-15.01599000	-9.05511800
5.09999987	9.39837600	-14.64690000	-9.47342500
5.29999986	8.76107300	-14.69611000	-9.84867000
5.49999985	5.89382400	-15.39124000	-10.25467000
5.69999984	1.43331700	-15.76649000	-10.21776000
5.89999983	-3.18590100	-15.80955000	-10.25467000
6.09999981	-7.16781500	-15.76649000	-9.84867000
6.29999980	-9.23905000	-15.43430000	-9.51648500
6.49999979	-9.07972400	-15.02214000	-9.43036400
6.69999978	-6.53112700	-15.01599000	-9.05511800
6.89999977	-2.70792300	-14.64690000	-8.35998900
7.09999975	1.75196900	-14.64690000	-8.35998900
7.29999974	5.41584600	-15.01599000	-9.05511800
7.49999973	7.48646600	-15.02214000	-9.43036400
7.69999972	7.48646600	-15.39124000	-9.47342500
7.89999971	5.89382400	-15.34203000	-9.47342500
8.09999970	2.86724900	-14.69611000	-9.47342500
8.29999968	-0.47736220	-14.69611000	-9.47342500
8.49999967	-3.34522600	-15.34203000	-9.47342500
8.69999966	-4.93786900	-15.39124000	-9.47342500
8.89999965	-5.09719500	-15.02214000	-9.47342500
9.09999964	-4.14124000	-15.01599000	-9.47342500
9.29999962	-2.22994600	-14.60384000	-9.47342500
9.49999961	-0.31803640	-14.32087000	-9.47342500
9.69999960	1.27399100	-14.64690000	-9.47342500
9.89999959	2.38927200	-15.39124000	-9.47342500
10.09999958	2.54859700	-15.76649000	-9.47342500
10.29999956	2.07062000	-15.80955000	-9.47342500
10.49999955	1.27399100	-15.80955000	-9.47342500
10.69999954	0.47736220	-15.76649000	-9.47342500
10.89999953	-0.31803640	-15.43430000	-9.47342500
11.09999952	-0.79601380	-15.06521000	-9.47342500
11.29999951	-0.95533960	-15.39124000	-9.43036400
11.49999949	-0.95533960	-15.34203000	-9.09817800
11.69999948	-0.63668800	-14.64690000	-8.72908400
11.89999947	-0.31803640	-14.27165000	-9.09817800
12.09999946	-0.15871060	-14.27165000	-9.38115100
12.29999945	-0.15871060	-14.60384000	-9.09817800
12.49999943	0.00000000	-14.97293000	-8.72908400
12.69999942	0.00000000	-14.64690000	-9.09817800
12.89999941	0.00000000	-14.69611000	-9.43036400
13.09999940	0.15871060	-15.39124000	-9.47342500
13.29999939	0.00000000	-15.76649000	-9.47342500
13.49999937	0.00000000	-15.76649000	-9.47342500
13.69999936	0.00000000	-15.43430000	-9.47342500
13.89999935	0.00000000	-15.02214000	-9.47342500
14.09999934	-0.15871060	-15.05905000	-9.47342500
14.29999933	-0.15871060	-15.02214000	-9.47342500
14.49999932	-0.15871060	-15.43430000	-9.47342500
14.69999930	0.00000000	-15.76649000	-9.47342500
14.89999929	0.00000000	-15.80955000	-9.47342500
15.09999928	0.00000000	-15.80955000	-9.47342500
15.29999927	0.00000000	-15.80955000	-9.47342500
15.49999926	0.00000000	-15.80955000	-9.47342500
15.69999924	0.00000000	-15.80955000	-9.47342500
15.89999923	0.00000000	-15.80955000	-9.47342500
16.09999922	0.00000000	-15.80955000	-9.47342500
16.29999921	0.00000000	-15.76649000	-9.47342500
16.49999920	-0.15871060	-15.39124000	-9.47342500
16.69999919	-0.15871060	-14.64690000	-9.47342500
16.89999917	-0.15871060	-14.27165000	-9.47342500
17.09999916	0.00000000	-14.22859000	-9.47342500
17.29999915	0.00000000	-14.18553000	-9.47342500
17.49999914	0.00000000	-13.85334000	-9.47342500
17.69999913	0.00000000	-13.48425000	-9.47342500
17.89999911	0.00000000	-13.94562000	-9.47342500
18.09999910	0.00000000	-15.02214000	-9.47342500
18.29999909	0.00000000	-16.59695000	-9.47342500
18.49999908	0.00000000	-17.76575000	-9.47342500
18.69999907	0.00000000	-18.97145000	-9.47342500
18.89999905	0.00000000	-20.04183000	-9.47342500
19.09999904	0.00000000	-19.99877000	-9.47342500
19.29999903	0.00000000	-18.46087000	-9.47342500
19.49999902	0.00000000	-15.71727000	-9.47342500
19.69999901	0.00000000	-12.22933000	-9.47342500
19.89999900	0.00000000	-8.37229300	-9.47342500
20.09999898	0.00000000	-5.29650500	-9.47342500
20.29999897	0.00000000	-3.80782500	-9.47342500
20.49999896	0.00000000	-4.64443900	-9.47342500
20.69999895	0.00000000	-8.55068800	-9.47342500
20.89999894	0.00000000	-14.73917000	-9.47342500
21.09999892	0.00000000	-22.13336000	-9.47342500
21.29999891	0.00000000	-29.44143000	-9.47342500
21.49999890	0.00000000	-34.79330000	-9.47342500
21.69999889	0.00000000	-36.23893000	-9.47342500
21.89999888	0.00000000	-32.70177000	-9.47342500
22.09999886	0.00000000	-24.14493000	-9.47342500
22.29999885	0.00000000	-12.18012000	-9.47342500
22.49999884	0.00000000	0.55979330	-9.47342500
22.69999883	0.00000000	10.93750000	-9.47342500
22.89999882	0.00000000	16.28937000	-9.47342500
23.09999881	0.00000000	14.66535000	-9.43036400
23.29999879	0.00000000	5.73326700	-9.05511800
23.49999878	0.00000000	-9.01205700	-8.31077700
23.69999877	0.00000000	-26.79011000	-7.93553100
23.89999876	0.00000000	-43.72539000	-7.89247000
24.09999875	0.00000000	-55.21653000	-7.89247000
24.29999873	0.00000000	-57.87401000	-7.98474400
24.49999872	0.00000000	-50.47367000	-8.77214500
24.69999871	0.00000000	-34.28272000	-10.62992000
24.89999870	0.00000000	-12.97982000	-12.16166000
25.09999869	0.00000000	8.66141700	-13.04749000
25.29999867	0.00000000	26.38410000	-14.16092000
25.49999866	0.00000000	35.18085000	-14.81299000
25.69999865	0.00000000	32.48646000	-13.60728000
25.89999864	0.00000000	18.89764000	-10.58686000
26.09999863	0.00000000	-3.11269700	-6.68676100
26.29999862	0.00000000	-28.55561000	-2.82972400
26.49999860	0.00000000	-50.94119000	0.64591530
26.69999859	0.00000000	-65.26820000	2.46678100
26.89999858	0.00000000	-68.34399000	1.67322800
27.09999857	0.00000000	-59.45497000	-2.22071800
27.29999856	0.00000000	-40.56348000	-8.40305000
27.49999854	0.00000000	-16.22785000	-15.78494000
27.69999853	0.00000000	7.73252900	-23.08686000
27.89999852	0.00000000	26.29183000	-28.47564000
28.09999851	0.00000000	35.18085000	-30.33341000
28.29999850	0.00000000	32.57259000	-27.96506000
28.49999848	0.00000000	19.82652000	-20.90305000
28.69999847	0.00000000	0.09842519	-10.11934000
28.89999846	0.00000000	-22.65010000	2.22687000
29.09999845	0.00000000	-42.74729000	12.96752000
29.29999844	0.00000000	-55.59178000	19.55585000
29.49999843	0.00000000	-59.54109000	20.26329000
29.69999841	0.00000000	-54.10310000	14.77608000
29.89999840	0.00000000	-40.64960000	3.11884800
30.09999839	0.00000000	-22.46555000	-12.62918000
30.29999838	0.00000000	-3.94315900	-28.42643000
30.49999837	0.00000000	11.21432000	-40.41584000
30.69999835	0.00000000	19.73425000	-46.22293000
30.89999834	0.00000000	20.56471000	-44.59892000
31.09999833	0.00000000	13.63804000	-35.30389000
31.29999832	0.00000000	0.98425190	-19.83883000
31.49999831	0.00000000	-13.76107000	-1.71013800
31.69999829	0.00000000	-27.72515000	15.28666000
31.89999828	0.00000000	-38.56422000	27.23302000
32.09999827	0.00000000	-43.63311000	31.50221000
32.29999826	0.00000000	-42.51968000	27.27608000
32.49999825	0.00000000	-35.90674000	15.66191000
32.69999824	0.00000000	-24.74163000	-0.97194880
32.89999822	0.00000000	-12.08784000	-19.50664000
33.09999821	0.00000000	-1.61786400	-35.72219000
33.29999820	0.00000000	4.66289300	-46.17987000
33.49999819	0.00000000	6.24384800	-48.87426000
33.69999818	0.00000000	3.16806100	-43.11023000
33.89999816	0.00000000	-3.80782500	-30.38263000
34.09999815	0.00000000	-13.02288000	-13.79183000
34.29999814	0.00000000	-22.27485000	3.25418300
34.49999813	0.00000000	-28.79552000	17.15059000
34.69999812	0.00000000	-31.20694000	25.27682000
34.89999810	0.00000000	-29.25689000	25.65207000
35.09999809	0.00000000	-23.89887000	18.35630000
35.29999808	0.00000000	-16.22785000	5.25344500
35.49999807	0.00000000	-9.01205700	-10.54380000
35.69999806	0.00000000	-4.69365100	-25.17839000
35.89999805	0.00000000	-3.85088600	-35.26082000
36.09999803	0.00000000	-5.76402500	-38.74877000
36.29999802	0.00000000	-10.03937000	-35.30389000
36.49999801	0.00000000	-15.76649000	-25.73203000
36.69999800	0.00000000	-21.16142000	-13.09670000
36.89999799	0.00000000	-24.60630000	-1.10728300
37.09999797	0.00000000	-25.43676000	7.76943800
37.29999796	0.00000000	-23.48671000	11.62032000
37.49999795	0.00000000	-19.66658000	9.34424200
37.69999794	0.00000000	-14.60384000	2.09153500
37.89999793	0.00000000	-9.66412400	-7.89247000
38.09999791	0.00000000	-6.18233200	-17.83957000
38.29999790	0.00000000	-5.38877900	-24.71703000
38.49999789	0.00000000	-6.87746000	-26.29183000
38.69999788	0.00000000	-9.99630800	-22.48400000
38.89999787	0.00000000	-14.22859000	-14.81299000
39.09999786	0.00000000	-18.46087000	-5.24729300
39.29999784	0.00000000	-21.62278000	3.11884800
39.49999783	0.00000000	-23.57899000	7.34498000
39.69999782	0.00000000	-24.32333000	6.23154500
39.89999781	0.00000000	-23.16068000	0.46751960
40.09999780	0.00000000	-20.46014000	-8.40305000
40.29999778	0.00000000	-16.97219000	-18.35015000
40.49999777	0.00000000	-13.11516000	-26.34104000
40.69999776	0.00000000	-9.99630800	-29.40452000
40.89999775	0.00000000	-7.99704600	-26.75935000
41.09999774	0.00000000	-6.83439900	-19.46358000
41.29999772	0.00000000	-6.87746000	-9.47342500
41.49999771	0.00000000	-8.45841400	0.51673230
41.69999770	0.00000000	-11.53420000	7.81250000
41.89999769	0.00000000	-15.34203000	10.54995000
42.09999768	0.00000000	-18.46087000	8.27386800
42.29999767	0.00000000	-20.50935000	2.09768700
42.49999765	0.00000000	-22.04109000	-6.77903500
42.69999764	0.00000000	-22.78543000	-16.35089000
42.89999763	0.00000000	-21.99803000	-23.60359000
43.09999762	0.00000000	-20.08489000	-26.38410000
43.29999761	0.00000000	-17.39050000	-24.53248000
43.49999759	0.00000000	-14.69611000	-19.55585000
43.69999758	0.00000000	-12.73991000	-12.67840000
43.89999757	0.00000000	-11.53420000	-6.03469500
44.09999756	0.00000000	-11.10974000	-1.00885800
44.29999755	0.00000000	-11.06668000	2.46063000
44.49999753	0.00000000	-11.06668000	2.42372000
44.69999752	0.00000000	-11.10974000	-0.51058070
44.89999751	0.00000000	-11.48499000	-4.77977300
45.09999750	0.00000000	-12.27239000	-9.43036400
45.29999749	0.00000000	-13.11516000	-13.65650000
45.49999748	0.00000000	-14.73917000	-16.35089000
45.69999746	0.00000000	-17.43356000	-16.81225000
45.89999745	0.00000000	-20.50935000	-15.69882000
46.09999744	0.00000000	-23.24680000	-13.74262000
46.29999743	0.00000000	-25.11688000	-11.00517000
46.49999742	0.00000000	-25.47982000	-7.93553100
46.69999740	0.00000000	-23.48671000	-5.24729300
46.89999739	0.00000000	-19.58046000	-3.70939900
47.09999738	0.00000000	-13.76107000	-3.66633800
47.29999737	0.00000000	-7.25270600	-4.82283400
47.49999736	0.00000000	-2.22687000	-6.72982200
47.69999734	0.00000000	0.47367120	-9.09817800
47.89999733	0.00000000	0.00615157	-11.42347000
48.09999732	0.00000000	-4.26919300	-13.74262000
48.29999731	0.00000000	-11.57726000	-15.23130000
48.49999730	0.00000000	-20.08489000	-15.23130000
48.69999729	0.00000000	-27.81742000	-13.65650000
48.89999727	0.00000000	-33.21235000	-10.62992000
49.09999726	0.00000000	-34.65797000	-7.14812900
49.29999725	0.00000000	-31.20694000	-4.44758800
49.49999724	0.00000000	-23.48671000	-2.50369100
49.69999723	0.00000000	-13.85334000	-2.17150600
49.89999721	0.00000000	-4.22613100	-3.66633800
50.09999720	0.00000000	2.65748000	-6.40378900
50.29999719	0.00000000	4.61368100	-9.89173200
50.49999718	0.00000000	1.58710600	-13.74262000
50.69999717	0.00000000	-5.33956700	-16.76919000
50.89999715	0.00000000	-14.22859000	-17.92569000
51.09999714	0.00000000	-23.11762000	-16.76919000
51.29999713	0.00000000	-30.00123000	-13.74262000
51.49999712	0.00000000	-32.70177000	-9.84867000
51.69999711	0.00000000	-30.41954000	-5.98548200
51.89999710	0.00000000	-24.32333000	-2.50369100
52.09999708	0.00000000	-16.22785000	-0.63976370
52.29999707	0.00000000	-8.55068800	-1.01501000
52.49999706	0.00000000	-3.15575800	-3.66633800
52.69999705	0.00000000	-1.57480300	-7.47416300
52.89999704	0.00000000	-3.85088600	-11.00517000
53.09999702	0.00000000	-8.87672100	-14.07480000
53.29999701	-0.15871060	-15.80955000	-15.97564000
53.49999700	0.00000000	-22.65010000	-15.60654000
53.69999699	0.00000000	-26.88238000	-13.74262000
53.89999698	0.00000000	-27.30069000	-11.04823000
54.09999696	0.00000000	-24.27411000	-8.35383800
54.29999695	0.00000000	-18.87918000	-6.44685000
54.49999694	0.00000000	-12.73991000	-5.66560000
54.69999693	0.00000000	-7.38804100	-6.44685000
54.89999692	0.00000000	-4.69365100	-8.31077700
55.09999691	0.00000000	-5.43184000	-10.58686000
55.29999689	0.00000000	-8.83366100	-12.07554000
55.49999688	0.00000000	-13.85334000	-12.11860000
55.69999687	0.00000000	-18.87918000	-10.96211000
55.89999686	0.00000000	-23.11762000	-9.05511800
56.09999685	0.00000000	-25.39370000	-6.72982200
56.29999683	0.00000000	-24.60630000	-4.87204700
56.49999682	0.00000000	-21.20448000	-4.12770700
56.69999681	0.00000000	-16.22785000	-5.33341500
56.89999680	0.00000000	-11.62032000	-8.40305000
57.09999679	0.00000000	-8.45841400	-12.58612000
57.29999677	0.00000000	-6.92052100	-16.43701000
57.49999676	0.00000000	-7.34498000	-18.71924000
57.69999675	0.00000000	-9.99630800	-19.04527000
57.89999674	0.00000000	-13.81028000	-16.30167000
58.09999673	0.00000000	-17.29823000	-10.96211000
58.29999672	0.00000000	-19.99877000	-4.87204700
58.49999670	0.00000000	-21.16142000	0.18454720
58.69999669	0.00000000	-20.41708000	2.88508800
58.89999668	0.00000000	-18.55315000	3.25418300
59.09999667	0.00000000	-16.18479000	0.46751960
59.29999666	0.00000000	-13.89641000	-5.24729300
59.49999664	0.00000000	-11.95251000	-12.16781000
59.69999663	0.00000000	-11.20202000	-18.35015000
59.89999662	0.00000000	-11.53420000	-22.57628000
60.09999661	0.00000000	-12.69070000	-23.68971000
60.29999660	0.00000000	-14.22859000	-20.95226000
60.49999658	0.00000000	-15.76649000	-14.81299000
60.69999657	0.00000000	-16.87992000	-6.77903500
60.89999656	0.00000000	-16.87992000	0.51673230
61.09999655	0.00000000	-15.80955000	5.16117100
61.29999654	0.00000000	-14.64690000	6.32381900
61.49999653	0.00000000	-13.89641000	3.62942900
61.69999651	0.00000000	-13.48425000	-2.17765700
61.89999650	0.00000000	-13.89641000	-9.89173200
62.09999649	0.00000000	-14.64690000	-17.93184000
62.29999648	0.00000000	-15.85261000	-23.73892000
62.49999647	0.00000000	-17.34744000	-26.06422000
62.69999645	0.00000000	-18.50394000	-24.89542000
62.89999644	0.00000000	-18.87918000	-19.88189000
63.09999643	0.00000000	-18.46087000	-12.62918000
63.29999642	0.00000000	-16.92298000	-5.24729300
63.49999641	0.00000000	-14.64690000	0.93503930
63.69999639	0.00000000	-12.69070000	4.78592500
63.89999638	0.00000000	-11.15896000	5.16117100
64.09999637	0.00000000	-10.41462000	2.14074800
64.29999636	0.00000000	-11.20202000	-3.24803100
64.49999635	0.00000000	-13.06594000	-9.42421200
64.69999634	0.00000000	-15.39124000	-15.23130000
64.89999632	0.00000000	-17.34744000	-19.50664000
65.09999631	0.00000000	-18.87918000	-21.41363000
65.29999630	0.00000000	-19.62352000	-20.71235000
65.49999629	0.00000000	-18.83612000	-17.64887000
65.69999628	0.00000000	-16.97219000	-13.79183000
65.89999626	0.00000000	-14.69611000	-9.51648500
66.09999625	0.00000000	-13.15822000	-5.61638700
66.29999624	0.00000000	-12.73991000	-2.91584600
66.49999623	0.00000000	-13.11516000	-1.29798200
66.69999622	0.00000000	-14.27165000	-1.29183100
66.89999620	0.00000000	-15.80955000	-2.04232300
67.09999619	0.00000000	-17.34744000	-3.61712600
67.29999618	0.00000000	-18.46087000	-5.93626900
67.49999617	0.00000000	-18.41781000	-8.31077700
67.69999616	0.00000000	-16.87992000	-11.09744000
67.89999615	0.00000000	-14.22859000	-14.16092000
68.09999613	0.00000000	-11.53420000	-16.85531000
68.29999612	0.00000000	-9.66412400	-18.39321000
68.49999611	0.00000000	-9.25196800	-18.39321000
68.69999610	0.00000000	-10.86983000	-16.81225000
68.89999609	0.00000000	-13.90871000	-13.69956000
69.09999607	0.00000000	-18.17790000	-9.43036400
69.29999606	0.00000000	-21.99803000	-4.77977300
69.49999605	0.00000000	-24.69857000	-0.55364170
69.69999604	0.00000000	-25.43676000	2.09153500
69.89999603	0.00000000	-23.48671000	2.09153500
70.09999601	0.00000000	-19.62352000	-0.55364170
70.29999600	0.00000000	-14.18553000	-4.82898600
70.49999599	0.00000000	-8.45841400	-9.89173200
70.69999598	0.00000000	-4.22613100	-15.28051000
70.89999597	0.00000000	-2.68823800	-19.46358000
71.09999596	0.00000000	-4.22613100	-21.04454000
71.29999594	0.00000000	-8.45841400	-19.92495000
71.49999593	0.00000000	-14.27165000	-16.81225000
71.69999592	0.00000000	-20.46014000	-12.16166000
71.89999591	0.00000000	-25.85507000	-6.82209600
72.09999590	0.00000000	-28.93085000	-2.59596400
72.29999588	0.00000000	-28.97392000	-0.63976370
72.49999587	0.00000000	-26.23031000	-0.97194880
72.69999586	0.00000000	-21.20448000	-3.24803100
72.89999585	0.00000000	-14.64690000	-6.31151500
73.09999584	0.00000000	-8.50147600	-9.42421200
73.29999582	0.00000000	-4.22613100	-12.07554000
73.49999581	0.00000000	-2.64517700	-13.23819000
73.69999580	0.00000000	-3.85088600	-12.53691000
73.89999579	0.00000000	-7.67101300	-11.09744000
74.09999578	0.00000000	-13.43504000	-9.89173200
74.29999577	0.00000000	-18.79306000	-9.14124000
74.49999575	0.00000000	-22.78543000	-8.77829600
74.69999574	0.00000000	-25.06767000	-9.55954600
74.89999573	0.00000000	-25.43676000	-11.04823000
75.09999572	0.00000000	-23.11762000	-12.58612000
75.29999571	0.00000000	-18.97145000	-13.69956000
75.49999569	0.00000000	-14.69611000	-13.61343000
75.69999568	0.00000000	-11.20202000	-11.70029000
75.89999567	0.00000000	-8.87672100	-8.26771600
76.09999566	0.00000000	-8.50147600	-4.82283400
76.29999565	0.00000000	-9.95324800	-2.08538400
76.49999563	0.00000000	-12.22933000	-0.63976370
76.69999562	0.00000000	-14.18553000	-1.43946800
76.89999561	0.00000000	-15.76649000	-4.87204700
77.09999560	0.00000000	-16.92298000	-9.51648500
77.29999559	0.00000000	-17.29823000	-14.54232000
77.49999558	0.00000000	-16.97219000	-19.13140000
77.69999556	0.00000000	-16.22785000	-21.41363000
77.89999555	0.00000000	-15.85261000	-21.08760000
78.09999554	0.00000000	-15.85261000	-18.30093000
78.29999553	0.00000000	-16.22785000	-13.28125000
78.49999552	0.00000000	-16.97219000	-6.77903500
78.69999550	0.00000000	-17.29823000	-1.01501000
78.89999549	0.00000000	-16.92298000	2.46678100
79.09999548	0.00000000	-15.76649000	3.29724400
79.29999547	0.00000000	-14.22859000	1.35334600
79.49999546	0.00000000	-12.69070000	-2.50369100
79.69999544	0.00000000	-11.53420000	-7.93553100
79.89999543	0.00000000	-11.15896000	-13.65650000
80.09999542	0.00000000	-11.53420000	-17.93184000
80.29999541	0.00000000	-12.73991000	-19.93110000
80.49999540	0.00000000	-14.69611000	-19.97416000
80.69999539	0.00000000	-17.39050000	-18.39321000
80.89999537	0.00000000	-20.04183000	-15.27436000
81.09999536	0.00000000	-21.53666000	-11.04823000
81.29999535	0.00000000	-21.16142000	-6.82209600
81.49999534	0.00000000	-18.92839000	-3.70939900
81.69999533	0.00000000	-16.22785000	-2.08538400
81.89999531	0.00000000	-13.85334000	-1.66707700
82.09999530	0.00000000	-11.53420000	-2.08538400
82.29999529	0.00000000	-10.03937000	-3.61712600
82.49999528	0.00000000	-10.03937000	-5.93626900
82.69999527	0.00000000	-11.53420000	-8.31077700
82.89999525	0.00000000	-13.85334000	-11.04823000
83.09999524	0.00000000	-16.14173000	-13.79183000
83.29999523	0.00000000	-18.08563000	-16.07406000
83.49999522	0.00000000	-18.87918000	-17.59966000
83.69999521	0.00000000	-18.92839000	-17.18750000
83.89999520	0.00000000	-18.50394000	-15.32357000
84.09999518	0.00000000	-17.34744000	-12.53691000
84.29999517	0.00000000	-15.85261000	-9.05511800
84.49999516	0.00000000	-14.69611000	-5.19808000
84.69999515	0.00000000	-14.27165000	-2.12844500
84.89999514	0.00000000	-14.27165000	-0.55364170
85.09999512	0.00000000	-14.64690000	-0.59670270
85.29999511	0.00000000	-15.34203000	-2.54675200
85.49999510	0.00000000	-15.34203000	-6.40378900
85.69999509	0.00000000	-14.64690000	-11.00517000
85.89999508	0.00000000	-14.27165000	-15.27436000
86.09999506	0.00000000	-14.22859000	-18.35015000
86.29999505	0.00000000	-14.27165000	-19.50664000
86.49999504	0.00000000	-14.69611000	-18.35015000
86.69999503	0.00000000	-15.80955000	-15.27436000
86.89999502	0.00000000	-16.97219000	-11.00517000
87.09999501	0.00000000	-17.76575000	-6.35457700
87.29999499	0.00000000	-18.50394000	-2.12844500
87.49999498	0.00000000	-18.46087000	0.51673230
87.69999497	0.00000000	-17.34744000	0.51673230
87.89999496	0.00000000	-15.80955000	-2.17765700
88.09999495	0.00000000	-14.22859000	-6.77903500
88.29999493	0.00000000	-12.69070000	-12.11860000
88.49999492	0.00000000	-11.57726000	-16.35089000
88.69999491	0.00000000	-11.57726000	-18.35015000
88.89999490	0.00000000	-12.64764000	-18.35015000
89.09999489	0.00000000	-13.85334000	-16.39395000
89.29999487	0.00000000	-15.06521000	-12.53691000
89.49999486	0.00000000	-16.97219000	-7.93553100
89.69999485	0.00000000	-18.41781000	-3.70939900
89.89999484	0.00000000	-18.50394000	-1.06422200
90.09999483	0.00000000	-17.76575000	-1.06422200
90.29999482	0.00000000	-16.97219000	-3.70939900
90.49999480	0.00000000	-15.76649000	-7.89247000
90.69999479	0.00000000	-14.27165000	-12.16166000
90.89999478	0.00000000	-13.15822000	-15.60654000
91.09999477	0.00000000	-13.11516000	-17.55044000
91.29999476	0.00000000	-13.81028000	-17.13829000
91.49999474	0.00000000	-14.18553000	-14.85605000
91.69999473	0.00000000	-14.27165000	-10.95595000
91.89999472	0.00000000	-14.64690000	-6.40378900
92.09999471	0.00000000	-15.39124000	-2.59596400
92.29999470	0.00000000	-15.76649000	-1.05807100
92.49999468	0.00000000	-15.80955000	-2.17765700
92.69999467	0.00000000	-15.85261000	-5.24729300
92.89999466	0.00000000	-16.22785000	-9.47342500
93.09999465	0.00000000	-17.01525000	-13.69956000
93.29999464	0.00000000	-17.76575000	-16.76919000
93.49999463	0.00000000	-18.50394000	-17.92569000
93.69999461	0.00000000	-18.46087000	-16.76919000
93.89999460	0.00000000	-17.34744000	-13.69956000
94.09999459	0.00000000	-15.80955000	-9.47342500
94.29999458	0.00000000	-14.22859000	-5.29035400
94.49999457	0.00000000	-12.64764000	-2.59596400
94.69999455	0.00000000	-11.10974000	-2.17150600
94.89999454	0.00000000	-10.03937000	-3.70939900
95.09999453	0.00000000	-10.45768000	-6.82209600
95.29999452	0.00000000	-12.73991000	-11.00517000
95.49999451	0.00000000	-15.80955000	-14.81299000
95.69999449	0.00000000	-18.92839000	-16.76919000
95.89999448	0.00000000	-21.62278000	-16.76919000
96.09999447	0.00000000	-23.11762000	-14.85605000
96.29999446	0.00000000	-22.74237000	-11.42347000
96.49999445	0.00000000	-20.46014000	-7.98474400
96.69999444	0.00000000	-17.34744000	-5.24729300
96.89999442	0.00000000	-13.85334000	-3.70939900
97.09999441	0.00000000	-10.37155000	-3.70939900
97.29999440	0.00000000	-8.08316900	-5.24729300
97.49999439	0.00000000	-7.25270600	-7.89247000
97.69999438	0.00000000	-8.04010800	-10.58686000
97.89999436	0.00000000	-9.99630800	-12.53691000
98.09999435	0.00000000	-13.15822000	-13.69956000
98.29999434	0.00000000	-17.34744000	-13.69956000
98.49999433	0.00000000	-21.20448000	-12.58612000
98.69999432	0.00000000	-23.53592000	-11.04823000
98.89999430	0.00000000	-24.32333000	-9.51648500
99.09999429	0.00000000	-23.11762000	-8.35998900
99.29999428	0.00000000	-20.08489000	-7.98474400
99.49999427	0.00000000	-16.18479000	-8.31077700
99.69999426	0.00000000	-12.36466000	-9.00590400
99.89999425	0.00000000	-9.25196800	-9.00590400
100.09999423	0.00000000	-8.04010800	-8.31077700
100.29999422	0.00000000	-8.04010800	-7.93553100
100.49999421	0.00000000	-9.20890700	-7.89247000
100.69999420	0.00000000	-11.89715000	-7.89247000
100.89999419	0.00000000	-14.60384000	-7.98474400
101.09999417	0.00000000	-17.39050000	-8.77214500
101.29999416	0.00000000	-20.04183000	-10.67298000
101.49999415	0.00000000	-21.57972000	-12.53691000
101.69999414	0.00000000	-21.62278000	-13.69956000
101.89999413	0.00000000	-20.50935000	-13.69956000
102.09999411	0.00000000	-18.92839000	-12.53691000
102.29999410	0.00000000	-16.92298000	-10.58686000
102.49999409	0.00000000	-14.27165000	-7.89247000
102.69999408	0.00000000	-11.99557000	-5.24729300
102.89999407	0.00000000	-11.15896000	-3.66633800
103.09999406	0.00000000	-11.10974000	-3.29109200
103.29999404	0.00000000	-11.57726000	-4.08464600
103.49999403	0.00000000	-13.11516000	-6.40378900
103.69999402	0.00000000	-15.39124000	-9.47342500
103.89999401	0.00000000	-17.29823000	-12.53691000
104.09999400	0.00000000	-18.50394000	-14.85605000
104.29999398	0.00000000	-18.92839000	-15.64960000
104.49999397	0.00000000	-18.92839000	-15.27436000
104.69999396	0.00000000	-18.50394000	-13.69956000
104.89999395	0.00000000	-17.34744000	-11.00517000
105.09999394	0.00000000	-15.80955000	-7.93553100
105.29999392	0.00000000	-14.27165000	-5.24729300
105.49999391	0.00000000	-13.11516000	-3.75246000
105.69999390	0.00000000	-12.73991000	-4.08464600
105.89999389	0.00000000	-13.11516000	-5.98548200
106.09999388	0.00000000	-14.27165000	-8.26771600
106.29999387	0.00000000	-15.76649000	-10.62992000
106.49999385	0.00000000	-16.92298000	-12.49385000
106.69999384	0.00000000	-17.29823000	-13.28125000
106.89999383	0.00000000	-16.97219000	-12.53691000
107.09999382	0.00000000	-16.18479000	-11.04823000
107.29999381	0.00000000	-15.43430000	-9.47342500
107.49999379	0.00000000	-14.64690000	-7.93553100
107.69999378	0.00000000	-14.27165000	-6.77903500
107.89999377	0.00000000	-14.27165000	-6.44685000
108.09999376	0.00000000	-14.69611000	-7.19734200
108.29999375	0.00000000	-15.80955000	-9.05511800
108.49999374	0.00000000	-16.92298000	-10.58686000
108.69999372	0.00000000	-17.39050000	-11.42347000
108.89999371	0.00000000	-17.76575000	-12.16166000
109.09999370	0.00000000	-18.08563000	-12.11860000
109.29999369	0.00000000	-17.29823000	-11.00517000
109.49999368	0.00000000	-15.80955000	-9.47342500
109.69999366	0.00000000	-14.27165000	-7.89247000
109.89999365	0.00000000	-13.11516000	-6.40378900
110.09999364	0.00000000	-12.69070000	-5.61638700
110.29999363	0.00000000	-12.69070000	-5.98548200
110.49999362	0.00000000	-13.15822000	-6.77903500
110.69999360	0.00000000	-14.64690000	-8.31077700
110.89999359	0.00000000	-16.55389000	-10.21161000
111.09999358	0.00000000	-17.72268000	-11.38041000
111.29999357	0.00000000	-18.50394000	-12.21087000
111.49999356	0.00000000	-18.46087000	-12.53691000
111.69999355	0.00000000	-17.39050000	-12.16166000
111.89999353	0.00000000	-16.22785000	-11.04823000
112.09999352	0.00000000	-15.43430000	-9.89173200
112.29999351	0.00000000	-14.64690000	-9.09817800
112.49999350	0.00000000	-14.27165000	-8.31077700
112.69999349	0.00000000	-14.22859000	-7.93553100
112.89999347	0.00000000	-14.27165000	-7.89247000
113.09999346	0.00000000	-14.64690000	-7.93553100
113.29999345	0.00000000	-15.39124000	-8.31077700
113.49999344	0.00000000	-15.76649000	-9.05511800
113.69999343	0.00000000	-15.80955000	-9.43036400
113.89999341	0.00000000	-15.80955000	-9.47342500
114.09999340	0.00000000	-15.80955000	-9.51648500
114.29999339	0.00000000	-15.80955000	-9.89173200
114.49999338	0.00000000	-15.80955000	-10.62992000
114.69999337	0.00000000	-15.76649000	-11.00517000
114.89999336	0.00000000	-15.39124000	-11.04823000
115.09999334	0.00000000	-14.64690000	-11.04823000
115.29999333	0.00000000	-14.27165000	-11.00517000
115.49999332	0.00000000	-14.27165000	-10.62992000
115.69999331	0.00000000	-14.64690000	-9.84867000
115.89999330	0.00000000	-15.39124000	-9.09817800
116.09999328	0.00000000	-15.76649000	-8.31077700
116.29999327	0.00000000	-15.80955000	-7.93553100
116.49999326	0.00000000	-15.85261000	-7.89247000
116.69999325	0.00000000	-16.18479000	-7.89247000
116.89999324	0.00000000	-16.55389000	-7.93553100
117.09999322	0.00000000	-16.18479000	-8.35998900
117.29999321	0.00000000	-15.80955000	-9.47342500
117.49999320	0.00000000	-15.34203000	-10.58686000
117.69999319	0.00000000	-14.27165000	-11.04823000
117.89999318	0.00000000	-13.53346000	-11.42347000
118.09999317	0.00000000	-13.85334000	-11.74336000
118.29999315	0.00000000	-14.22859000	-11.00517000
118.49999314	0.00000000	-14.64690000	-9.93479300
118.69999313	0.00000000	-15.43430000	-9.47342500
118.89999312	0.00000000	-16.22785000	-9.00590400
119.09999311	0.00000000	-17.39050000	-7.89247000
119.29999309	0.00000000	-18.46087000	-6.82209600
119.49999308	0.00000000	-18.46087000	-6.77903500
119.69999307	0.00000000	-17.39050000	-7.51722400
119.89999306	0.00000000	-16.22785000	-8.26771600
120.09999305	0.00000000	-15.39124000	-9.05511800
120.29999303	0.00000000	-14.22859000	-9.43036400
120.49999302	0.00000000	-13.11516000	-9.51648500
120.69999301	0.00000000	-12.73991000	-9.89173200
120.89999300	0.00000000	-13.06594000	-10.62992000
121.09999299	0.00000000	-13.85334000	-11.00517000
121.29999298	0.00000000	-14.64690000	-11.04823000
121.49999296	0.00000000	-15.80955000	-11.04823000
121.69999295	0.00000000	-16.97219000	-11.00517000
121.89999294	0.00000000	-17.76575000	-10.62992000
122.09999293	0.00000000	-18.50394000	-9.84867000
122.29999292	0.00000000	-18.50394000	-9.09817800
122.49999290	0.00000000	-17.76575000	-8.31077700
122.69999289	0.00000000	-16.97219000	-7.93553100
122.89999288	0.00000000	-15.80955000	-7.89247000
123.09999287	0.00000000	-14.64690000	-7.93553100
123.29999286	0.00000000	-13.85334000	-8.31077700
123.49999284	0.00000000	-13.06594000	-9.05511800
123.69999283	0.00000000	-12.73991000	-9.47342500
123.89999282	0.00000000	-13.11516000	-9.89173200
124.09999281	0.00000000	-14.22859000	-10.62992000
124.29999280	0.00000000	-15.34203000	-11.00517000
124.49999279	0.00000000	-15.80955000	-11.04823000
124.69999277	0.00000000	-16.22785000	-11.00517000
124.89999276	0.00000000	-16.97219000	-10.62992000
125.09999275	0.00000000	-17.34744000	-9.89173200
125.29999274	0.00000000	-17.39050000	-9.47342500
125.49999273	0.00000000	-17.34744000	-9.05511800
125.69999271	0.00000000	-16.97219000	-8.31077700
125.89999270	0.00000000	-16.18479000	-7.93553100
126.09999269	0.00000000	-15.43430000	-7.93553100
126.29999268	0.00000000	-14.60384000	-8.31077700
126.49999267	0.00000000	-13.89641000	-9.05511800
126.69999265	0.00000000	-13.48425000	-9.43036400
126.89999264	0.00000000	-13.89641000	-9.51648500
127.09999263	0.00000000	-14.64690000	-9.89173200
127.29999262	0.00000000	-15.80955000	-10.62992000
127.49999261	0.00000000	-16.97219000	-11.00517000
127.69999260	0.00000000	-17.72268000	-11.00517000
127.89999258	0.00000000	-18.13484000	-10.62992000
128.09999257	0.00000000	-17.72268000	-9.89173200
128.29999256	0.00000000	-16.97219000	-9.51648500
128.49999255	0.00000000	-15.80955000	-9.43036400
128.69999254	0.00000000	-14.64690000	-9.09817800
128.89999252	0.00000000	-13.89641000	-8.72908400
129.09999251	0.00000000	-13.48425000	-9.09817800
129.29999250	0.00000000	-13.89641000	-9.47342500
129.49999249	0.00000000	-14.60384000	-9.89173200
129.69999248	0.00000000	-15.43430000	-10.62992000
129.89999246	0.00000000	-16.18479000	-10.95595000
130.09999245	0.00000000	-16.97219000	-10.62992000
130.29999244	0.00000000	-17.34744000	-9.89173200
130.49999243	0.00000000	-17.34744000	-9.51648500
130.69999242	0.00000000	-16.97219000	-9.47342500
130.89999241	0.00000000	-16.18479000	-9.47342500
131.09999239	0.00000000	-15.43430000	-9.47342500
131.29999238	0.00000000	-14.64690000	-9.47342500
131.49999237	0.00000000	-14.27165000	-9.51648500
131.69999236	0.00000000	-14.27165000	-9.89173200
131.89999235	0.00000000	-14.69611000	-10.62992000
132.09999233	0.00000000	-15.80955000	-11.00517000
132.29999232	0.00000000	-16.92298000	-11.04823000
132.49999231	0.00000000	-17.34744000	-11.00517000
132.69999230	0.00000000	-17.34744000	-10.62992000
132.89999229	0.00000000	-16.97219000	-9.84867000
133.09999227	0.00000000	-16.22785000	-9.09817800
133.29999226	0.00000000	-15.85261000	-8.31077700
133.49999225	0.00000000	-15.80955000	-7.93553100
133.69999224	0.00000000	-15.80955000	-7.89247000
133.89999223	0.00000000	-15.80955000	-7.93553100
134.09999222	0.00000000	-15.80955000	-8.35998900
134.29999220	0.00000000	-15.80955000	-9.47342500
134.49999219	0.00000000	-15.80955000	-10.58686000
134.69999218	0.00000000	-15.80955000	-11.00517000
134.89999217	0.00000000	-15.80955000	-11.04823000
135.09999216	0.00000000	-15.76649000	-11.04823000
135.29999214	0.00000000	-15.39124000	-11.00517000
135.49999213	0.00000000	-14.69611000	-10.62992000
135.69999212	0.00000000	-14.64690000	-9.84867000
135.89999211	0.00000000	-15.01599000	-9.09817800
136.09999210	0.00000000	-15.06521000	-8.31077700
136.29999208	0.00000000	-15.85261000	-7.93553100
136.49999207	0.00000000	-16.92298000	-7.89247000
136.69999206	0.00000000	-17.34744000	-7.93553100
136.89999205	0.00000000	-17.34744000	-8.31077700
137.09999204	0.00000000	-16.97219000	-9.05511800
137.29999203	0.00000000	-16.18479000	-9.47342500
137.49999201	0.00000000	-15.43430000	-9.89173200
137.69999200	0.00000000	-14.64690000	-10.62992000
137.89999199	0.00000000	-14.27165000	-11.00517000
138.09999198	0.00000000	-14.27165000	-11.04823000
138.29999197	0.00000000	-14.64690000	-11.04823000
138.49999195	0.00000000	-15.43430000	-11.00517000
138.69999194	0.00000000	-16.18479000	-10.62992000
138.89999193	0.00000000	-16.97219000	-9.84867000
139.09999192	0.00000000	-17.34744000	-9.09817800
139.29999191	0.00000000	-17.39050000	-8.31077700
139.49999189	0.00000000	-17.34744000	-7.93553100
139.69999188	0.00000000	-16.92298000	-7.89247000
139.89999187	0.00000000	-15.80955000	-7.89247000
140.09999186	0.00000000	-14.69611000	-7.93553100
140.29999185	0.00000000	-14.32087000	-8.35998900
140.49999184	0.00000000	-14.60384000	-9.47342500
140.69999182	0.00000000	-15.01599000	-10.58686000
140.89999181	0.00000000	-15.06521000	-11.00517000
141.09999180	0.00000000	-15.80955000	-11.04823000
141.29999179	0.00000000	-16.50467000	-11.00517000
141.49999178	0.00000000	-16.18479000	-10.62992000
141.69999176	0.00000000	-15.85261000	-9.84867000
141.89999175	0.00000000	-15.80955000	-9.09817800
142.09999174	0.00000000	-15.80955000	-8.31077700
142.29999173	0.00000000	-15.80955000	-7.93553100
142.49999172	0.00000000	-15.80955000	-7.93553100
142.69999170	0.00000000	-15.80955000	-8.31077700
142.89999169	0.00000000	-15.80955000	-9.09817800
143.09999168	0.00000000	-15.85261000	-9.84867000
143.29999167	0.00000000	-16.18479000	-10.67298000
143.49999166	0.00000000	-16.55389000	-11.38041000
143.69999165	0.00000000	-16.18479000	-11.79257000
143.89999163	0.00000000	-15.85261000	-11.42347000
144.09999162	0.00000000	-15.80955000	-11.04823000
144.29999161	0.00000000	-15.80955000	-10.62992000
144.49999160	0.00000000	-15.76649000	-9.84867000
144.69999159	0.00000000	-15.39124000	-9.09817800
144.89999157	0.00000000	-14.69611000	-8.35998900
145.09999156	0.00000000	-14.69611000	-8.35998900
145.29999155	0.00000000	-15.39124000	-9.05511800
145.49999154	0.00000000	-15.80955000	-9.47342500
145.69999153	0.00000000	-16.22785000	-9.89173200
145.89999151	0.00000000	-16.97219000	-10.62992000
146.09999150	0.00000000	-17.29823000	-11.04823000
146.29999149	0.00000000	-16.97219000	-11.42347000
146.49999148	0.00000000	-16.22785000	-11.79257000
146.69999147	0.00000000	-15.85261000	-11.42347000
146.89999146	0.00000000	-15.80955000	-11.09129000
147.09999144	0.00000000	-15.80955000	-11.04823000
147.29999143	0.00000000	-15.80955000	-11.00517000
147.49999142	0.00000000	-15.80955000	-10.62992000
147.69999141	0.00000000	-15.85261000	-9.89173200
147.89999140	0.00000000	-16.22785000	-9.51648500
148.09999138	0.00000000	-16.97219000	-9.47342500
148.29999137	0.00000000	-17.34744000	-9.47342500
148.49999136	0.00000000	-17.39050000	-9.51648500
148.69999135	0.00000000	-17.39050000	-9.89173200
148.89999134	0.00000000	-17.34744000	-10.62992000
149.09999132	0.00000000	-16.97219000	-11.00517000
149.29999131	0.00000000	-16.22785000	-11.04823000
149.49999130	0.00000000	-15.85261000	-11.04823000
149.69999129	0.00000000	-15.80955000	-11.04823000
149.89999128	0.00000000	-15.80955000	-11.00517000
150.09999127	0.00000000	-15.80955000	-10.62992000
150.29999125	0.00000000	-15.85261000	-9.89173200
150.49999124	0.00000000	-16.22785000	-9.51648500
150.69999123	0.00000000	-17.01525000	-9.51648500
150.89999122	0.00000000	-17.72268000	-9.84867000
151.09999121	0.00000000	-18.13484000	-10.21161000
151.29999119	0.00000000	-17.76575000	-9.89173200
151.49999118	0.00000000	-17.39050000	-9.93479300
151.69999117	0.00000000	-16.97219000	-10.62992000
151.89999116	0.00000000	-16.22785000	-11.00517000
152.09999115	0.00000000	-15.85261000	-11.04823000
152.29999113	0.00000000	-15.80955000	-11.04823000
152.49999112	0.00000000	-15.80955000	-11.04823000
152.69999111	0.00000000	-15.80955000	-11.00517000
152.89999110	0.00000000	-15.80955000	-10.62992000
153.09999109	0.00000000	-15.80955000	-9.89173200
153.29999108	0.00000000	-15.85261000	-9.51648500
153.49999106	0.00000000	-16.22785000	-9.47342500
153.69999105	0.00000000	-16.97219000	-9.47342500
153.89999104	0.00000000	-17.34744000	-9.47342500
154.09999103	0.00000000	-17.39050000	-9.47342500
154.29999102	0.00000000	-17.39050000	-9.47342500
154.49999100	0.00000000	-17.34744000	-9.47342500
154.69999099	0.00000000	-16.97219000	-9.51648500
154.89999098	0.00000000	-16.22785000	-9.89173200
155.09999097	0.00000000	-15.85261000	-10.62992000
155.29999096	0.00000000	-15.80955000	-11.00517000
155.49999094	0.00000000	-15.80955000	-11.04823000
155.69999093	0.00000000	-15.80955000	-11.04823000
155.89999092	0.00000000	-15.80955000	-11.04823000
156.09999091	0.00000000	-15.80955000	-11.00517000
156.29999090	0.00000000	-15.85261000	-10.62992000
156.49999089	0.00000000	-16.22785000	-9.89173200
156.69999087	0.00000000	-16.97219000	-9.51648500
156.89999086	0.00000000	-17.34744000	-9.47342500
157.09999085	0.00000000	-17.39050000	-9.47342500
157.29999084	0.00000000	-17.39050000	-9.47342500
157.49999083	0.00000000	-17.39050000	-9.51648500
157.69999081	0.00000000	-17.34744000	-9.89173200
157.89999080	0.00000000	-16.97219000	-10.62992000
158.09999079	0.00000000	-16.22785000	-11.00517000
158.29999078	0.00000000	-15.85261000	-11.04823000
158.49999077	0.00000000	-15.80955000	-11.04823000
158.69999075	0.00000000	-15.80955000	-11.04823000
158.89999074	0.00000000	-15.80955000	-11.04823000
159.09999073	0.00000000	-15.80955000	-11.00517000
159.29999072	0.00000000	-15.85261000	-10.62992000
159.49999071	0.00000000	-16.22785000	-9.89173200
159.69999070	0.00000000	-16.97219000	-9.51648500
159.89999068	0.00000000	-17.34744000	-9.47342500
160.09999067	0.00000000	-17.39050000	-9.47342500
160.29999066	0.00000000	-17.39050000	-9.51648500
160.49999065	0.00000000	-17.39050000	-9.89173200
160.69999064	0.00000000	-17.39050000	-10.62992000
160.89999062	0.00000000	-17.39050000	-11.04823000
161.09999061	0.00000000	-17.39050000	-11.42347000
161.29999060	0.00000000	-17.39050000	-11.79257000
161.49999059	0.00000000	-17.39050000	-11.42347000
161.69999058	0.00000000	-17.39050000	-11.09129000
161.89999056	0.00000000	-17.34744000	-11.04823000
162.09999055	0.00000000	-17.01525000	-11.04823000
162.29999054	0.00000000	-16.60310000	-11.04823000
162.49999053	0.00000000	-16.64001000	-11.04823000
162.69999052	0.00000000	-16.60310000	-11.04823000
162.89999051	0.00000000	-17.01525000	-11.04823000
163.09999049	0.00000000	-17.34744000	-11.04823000
163.29999048	0.00000000	-17.39050000	-11.04823000
163.49999047	0.00000000	-17.39050000	-11.04823000
163.69999046	0.00000000	-17.39050000	-11.04823000
163.89999045	0.00000000	-17.39050000	-11.04823000
164.09999043	0.00000000	-17.39050000	-11.04823000
164.29999042	0.00000000	-17.39050000	-11.04823000
164.49999041	0.00000000	-17.39050000	-11.04823000
164.69999040	0.00000000	-17.34744000	-11.04823000
164.89999039	0.00000000	-16.97219000	-11.04823000
165.09999037	0.00000000	-16.22785000	-11.04823000
165.29999036	0.00000000	-15.90182000	-11.04823000
165.49999035	0.00000000	-16.22785000	-11.04823000
165.69999034	0.00000000	-16.92298000	-11.04823000
165.89999033	0.00000000	-16.97219000	-11.09129000
166.09999032	0.00000000	-16.64616000	-11.42347000
166.29999030	0.00000000	-17.01525000	-11.79257000
166.49999029	0.00000000	-17.34744000	-11.42347000
166.69999028	0.00000000	-17.39050000	-11.09129000
166.89999027	0.00000000	-17.39050000	-11.04823000
167.09999026	0.00000000	-17.39050000	-11.04823000
167.29999024	0.00000000	-17.39050000	-11.04823000
167.49999023	0.00000000	-17.39050000	-11.04823000
167.69999022	0.00000000	-17.39050000	-11.04823000
167.89999021	0.00000000	-17.39050000	-11.04823000
168.09999020	0.00000000	-17.39050000	-11.04823000
168.29999018	0.00000000	-17.34744000	-11.04823000
168.49999017	0.00000000	-17.01525000	-11.04823000
168.69999016	0.00000000	-16.64616000	-11.04823000
168.89999015	0.00000000	-17.01525000	-11.04823000
169.09999014	0.00000000	-17.34744000	-11.04823000
169.29999013	0.00000000	-17.39050000	-11.04823000
169.49999011	0.00000000	-17.39050000	-11.04823000
169.69999010	0.00000000	-17.39050000	-11.04823000
169.89999009	0.00000000	-17.39050000	-11.04823000
170.09999008	0.00000000	-17.39050000	-11.04823000
170.29999007	0.00000000	-17.39050000	-11.04823000
170.49999005	0.00000000	-17.39050000	-11.04823000
170.69999004	0.00000000	-17.39050000	-11.04823000
170.89999003	0.00000000	-17.39050000	-11.04823000
171.09999002	0.00000000	-17.39050000	-11.04823000
171.29999001	0.00000000	-17.39050000	-11.04823000
171.49998999	0.00000000	-17.39050000	-11.04823000
171.69998998	0.00000000	-17.39050000	-11.04823000
171.89998997	0.00000000	-17.39050000	-11.04823000
172.09998996	0.00000000	-17.39050000	-11.04823000
172.29998995	0.00000000	-17.39050000	-11.04823000
172.49998994	0.00000000	-17.43356000	-11.04823000
172.69998992	0.00000000	-17.76575000	-11.04823000
172.89998991	0.00000000	-18.13484000	-11.04823000
173.09998990	0.00000000	-17.76575000	-11.04823000
173.29998989	0.00000000	-17.43356000	-11.04823000
173.49998988	0.00000000	-17.39050000	-11.04823000
173.69998986	0.00000000	-17.39050000	-11.04823000
173.89998985	0.00000000	-17.39050000	-11.04823000
174.09998984	0.00000000	-17.39050000	-11.04823000
174.29998983	0.00000000	-17.39050000	-11.04823000
174.49998982	0.00000000	-17.39050000	-11.04823000
174.69998980	0.00000000	-17.39050000	-11.04823000
174.89998979	0.00000000	-17.39050000	-11.04823000
175.09998978	0.00000000	-17.39050000	-11.04823000
175.29998977	0.00000000	-17.39050000	-11.04823000
175.49998976	0.00000000	-17.43356000	-11.04823000
175.69998975	0.00000000	-17.76575000	-11.04823000
175.89998973	0.00000000	-18.13484000	-11.04823000
176.09998972	0.00000000	-17.76575000	-11.04823000
176.29998971	0.00000000	-17.43356000	-11.04823000
176.49998970	0.00000000	-17.39050000	-11.04823000
176.69998969	0.00000000	-17.39050000	-11.04823000
176.89998967	0.00000000	-17.39050000	-11.09129000
177.09998966	0.00000000	-17.39050000	-11.46653000
177.29998965	0.00000000	-17.39050000	-12.16166000
177.49998964	0.00000000	-17.39050000	-12.16166000
177.69998963	0.00000000	-17.39050000	-11.51575000
177.89998961	0.00000000	-17.39050000	-11.51575000
178.09998960	0.00000000	-17.39050000	-12.16166000
178.29998959	0.00000000	-17.39050000	-12.16166000
178.49998958	0.00000000	-17.39050000	-11.46653000
178.69998957	0.00000000	-17.39050000	-11.09129000
178.89998956	0.00000000	-17.39050000	-11.04823000
179.09998954	0.00000000	-17.39050000	-11.04823000
179.29998953	0.00000000	-17.39050000	-11.04823000
179.49998952	0.00000000	-17.39050000	-11.04823000
179.69998951	0.00000000	-17.39050000	-11.04823000
179.89998950	0.00000000	-17.39050000	-11.09129000
180.09998948	0.00000000	-17.39050000	-11.46653000
180.29998947	0.00000000	-17.39050000	-12.21087000
180.49998946	0.00000000	-17.43356000	-12.58612000
180.69998945	0.00000000	-17.80881000	-12.58612000
180.89998944	0.00000000	-18.50394000	-12.21087000
181.09998942	0.00000000	-18.55315000	-11.46653000
181.29998941	0.00000000	-18.18405000	-11.09129000
181.49998940	0.00000000	-18.17790000	-11.04823000
181.69998939	0.00000000	-17.76575000	-11.04823000
181.89998938	0.00000000	-17.43356000	-11.04823000
182.09998937	0.00000000	-17.39050000	-11.04823000
182.29998935	0.00000000	-17.39050000	-11.04823000
182.49998934	0.00000000	-17.43356000	-11.09129000
182.69998933	0.00000000	-17.76575000	-11.42347000
182.89998932	0.00000000	-18.13484000	-11.83563000
183.09998931	0.00000000	-17.76575000	-11.84178000
183.29998929	0.00000000	-17.43356000	-12.21087000
183.49998928	0.00000000	-17.39050000	-12.16166000
183.69998927	0.00000000	-17.43356000	-11.46653000
183.89998926	0.00000000	-17.80881000	-11.09129000
184.09998925	0.00000000	-18.55315000	-11.00517000
184.29998923	0.00000000	-18.87918000	-10.67298000
184.49998922	0.00000000	-18.59621000	-10.26698000
184.69998921	0.00000000	-18.18405000	-10.30389000
184.89998920	0.00000000	-18.22096000	-10.26698000
185.09998919	0.00000000	-18.14099000	-10.67298000
185.29998918	0.00000000	-18.17790000	-11.00517000
185.49998916	0.00000000	-17.76575000	-11.09129000
185.69998915	0.00000000	-17.43356000	-11.46653000
185.89998914	0.00000000	-17.39050000	-12.21087000
186.09998913	0.00000000	-17.39050000	-12.58612000
186.29998912	0.00000000	-17.43356000	-12.62918000
186.49998910	0.00000000	-17.80881000	-12.62918000
186.69998909	0.00000000	-18.50394000	-12.58612000
186.89998908	0.00000000	-18.55315000	-12.21087000
187.09998907	0.00000000	-18.18405000	-11.46653000
187.29998906	0.00000000	-18.22096000	-11.09129000
187.49998904	0.00000000	-18.18405000	-11.04823000
187.69998903	0.00000000	-18.59621000	-11.04823000
187.89998902	0.00000000	-18.92839000	-11.04823000
188.09998901	0.00000000	-18.92839000	-11.04823000
188.29998900	0.00000000	-18.55315000	-11.04823000
188.49998899	0.00000000	-17.80881000	-11.04823000
188.69998897	0.00000000	-17.43356000	-11.04823000
188.89998896	0.00000000	-17.39050000	-11.09129000
189.09998895	0.00000000	-17.43356000	-11.46653000
189.29998894	0.00000000	-17.76575000	-12.16166000
189.49998893	0.00000000	-18.17790000	-12.21087000
189.69998891	0.00000000	-18.14099000	-11.84178000
189.89998890	0.00000000	-18.22096000	-11.83563000
190.09998889	0.00000000	-18.18405000	-11.42347000
190.29998888	0.00000000	-18.59621000	-11.09129000
190.49998887	0.00000000	-18.92839000	-11.04823000
190.69998885	0.00000000	-18.97145000	-11.04823000
190.89998884	0.00000000	-18.97145000	-11.04823000
191.09998883	0.00000000	-18.92839000	-11.04823000
191.29998882	0.00000000	-18.55315000	-11.04823000
191.49998881	0.00000000	-17.80881000	-11.04823000
191.69998880	0.00000000	-17.43356000	-11.04823000
191.89998878	0.00000000	-17.39050000	-11.04823000
192.09998877	0.00000000	-17.39050000	-11.04823000
192.29998876	0.00000000	-17.43356000	-11.09129000
192.49998875	0.00000000	-17.80881000	-11.46653000
192.69998874	0.00000000	-18.55315000	-12.21087000
192.89998872	0.00000000	-18.92839000	-12.58612000
193.09998871	0.00000000	-18.97145000	-12.58612000
193.29998870	0.00000000	-18.97145000	-12.21087000
193.49998869	0.00000000	-18.97145000	-11.46653000
193.69998868	0.00000000	-18.97145000	-11.09129000
193.89998866	0.00000000	-18.97145000	-11.04823000
194.09998865	0.00000000	-18.97145000	-11.04823000
194.29998864	0.00000000	-18.92839000	-11.09129000
194.49998863	0.00000000	-18.59621000	-11.42347000
194.69998862	0.00000000	-18.22711000	-11.83563000
194.89998861	0.00000000	-18.59621000	-11.84178000
195.09998859	0.00000000	-18.92839000	-12.25394000
195.29998858	0.00000000	-18.97145000	-12.58612000
195.49998857	0.00000000	-19.01451000	-12.67224000
195.69998856	0.00000000	-19.34670000	-13.00443000
195.89998855	0.00000000	-19.71580000	-13.37352000
196.09998853	0.00000000	-19.34670000	-13.00443000
