Time	Channel A	Channel B	Channel C
(us)	(V)	(mV)	(mV)

-4.49999956	0.00000000	11.81102000	-3.15575800
-4.29999957	0.00000000	11.44193000	-3.15575800
-4.09999958	0.00000000	11.10974000	-3.15575800
-3.89999959	0.00000000	11.06668000	-3.15575800
-3.69999960	0.00000000	11.10974000	-3.15575800
-3.49999962	0.00000000	11.44193000	-3.15575800
-3.29999963	0.00000000	11.81102000	-3.15575800
-3.09999964	0.00000000	11.44193000	-3.15575800
-2.89999965	0.00000000	11.10974000	-3.15575800
-2.69999966	0.00000000	11.06668000	-3.15575800
-2.49999968	0.00000000	11.06668000	-3.15575800
-2.29999969	0.00000000	11.06668000	-3.15575800
-2.09999970	0.00000000	11.06668000	-3.15575800
-1.89999971	0.00000000	11.06668000	-3.15575800
-1.69999972	0.00000000	11.06668000	-3.15575800
-1.49999973	0.00000000	11.06668000	-3.15575800
-1.29999975	0.00000000	11.10974000	-3.15575800
-1.09999976	0.00000000	11.48499000	-3.15575800
-0.89999977	0.00000000	12.18012000	-3.15575800
-0.69999978	0.00000000	12.18012000	-3.15575800
-0.49999979	0.00000000	11.48499000	-3.15575800
-0.29999981	0.31803640	11.15896000	-3.15575800
-0.09999982	0.63668800	11.44193000	-3.15575800
0.10000017	0.95533960	11.81102000	-3.15575800
0.30000016	0.95533960	11.44193000	-3.19881900
0.50000015	0.79601380	11.10974000	-3.53100400
0.70000013	0.31803640	11.06668000	-3.90009800
0.90000012	-0.47736220	11.06668000	-3.53100400
1.10000011	-1.43331700	11.06668000	-3.19881900
1.30000010	-2.38927200	11.06668000	-3.15575800
1.50000009	-2.70792300	11.10974000	-3.15575800
1.70000008	-2.38927200	11.48499000	-3.15575800
1.90000006	-1.27399100	12.18012000	-3.15575800
2.10000005	0.47736220	12.22933000	-3.15575800
2.30000004	2.70792300	11.86024000	-3.19881900
2.50000003	4.45989200	11.85408000	-3.57406500
2.70000002	5.25652100	11.44193000	-4.31840500
2.90000000	4.93786900	11.10974000	-4.69365100
3.09999999	3.02657500	11.06668000	-4.73671200
3.29999998	0.00000000	11.10974000	-4.69365100
3.49999997	-3.50393700	11.44193000	-4.31840500
3.69999996	-6.37180100	11.81102000	-3.57406500
3.89999994	-7.96444400	11.48499000	-3.19881900
4.09999993	-7.48646600	11.48499000	-3.15575800
4.29999992	-5.09719500	11.85408000	-3.15575800
4.49999991	-1.11466500	11.86024000	-3.15575800
4.69999990	3.34522600	12.22933000	-3.15575800
4.89999989	7.00848900	12.18012000	-3.15575800
5.09999987	9.23905000	11.48499000	-3.19881900
5.29999986	9.07972400	11.10974000	-3.57406500
5.49999985	6.53112700	11.06668000	-4.31840500
5.69999984	2.38927200	11.06668000	-4.69365100
5.89999983	-2.22994600	11.06668000	-4.69365100
6.09999981	-6.53112700	11.06668000	-4.31840500
6.29999980	-9.07972400	11.10974000	-3.53100400
6.49999979	-9.23905000	11.48499000	-2.82357300
6.69999978	-7.16781500	12.22933000	-2.41141700
6.89999977	-3.50393700	12.55536000	-2.78051200
7.09999975	0.79601380	12.22933000	-3.11269700
7.29999974	4.77854300	11.53420000	-3.19881900
7.49999973	7.16781500	11.48499000	-3.57406500
7.69999972	7.64579200	11.81102000	-4.31840500
7.89999971	6.37180100	11.44193000	-4.69365100
8.09999970	3.50393700	11.10974000	-4.73671200
8.29999968	0.15871060	11.06668000	-4.69365100
8.49999967	-2.86724900	11.10974000	-4.31840500
8.69999966	-4.61921700	11.44193000	-3.57406500
8.89999965	-5.25652100	11.85408000	-3.19881900
9.09999964	-4.45989200	11.81717000	-3.15575800
9.29999962	-2.70792300	11.85408000	-3.15575800
9.49999961	-0.63668800	11.44193000	-3.15575800
9.69999960	1.11466500	11.10974000	-3.15575800
9.89999959	2.22994600	11.06668000	-3.19881900
10.09999958	2.54859700	11.06668000	-3.53100400
10.29999956	2.22994600	11.06668000	-3.90009800
10.49999955	1.43331700	11.06668000	-3.53100400
10.69999954	0.63668800	11.06668000	-3.24803100
10.89999953	-0.15871060	11.10974000	-3.53100400
11.09999952	-0.79601380	11.44193000	-3.90009800
11.29999951	-0.95533960	11.85408000	-3.53100400
11.49999949	-0.95533960	11.81717000	-3.19881900
11.69999948	-0.79601380	11.85408000	-3.15575800
11.89999947	-0.47736220	11.44193000	-3.15575800
12.09999946	-0.15871060	11.10974000	-3.15575800
12.29999945	-0.15871060	11.06668000	-3.19881900
12.49999943	0.00000000	11.06668000	-3.53100400
12.69999942	0.00000000	11.06668000	-3.90009800
12.89999941	0.00000000	11.06668000	-3.53100400
13.09999940	0.15871060	11.06668000	-3.19881900
13.29999939	0.00000000	11.06668000	-3.15575800
13.49999937	0.00000000	11.06668000	-3.15575800
13.69999936	0.00000000	11.10974000	-3.15575800
13.89999935	0.00000000	11.44193000	-3.15575800
14.09999934	-0.15871060	11.81102000	-3.15575800
14.29999933	-0.15871060	11.44193000	-3.15575800
14.49999932	-0.15871060	11.10974000	-3.15575800
14.69999930	0.00000000	11.06668000	-3.15575800
14.89999929	0.00000000	11.06668000	-3.15575800
15.09999928	0.00000000	11.06668000	-3.15575800
15.29999927	0.00000000	11.06668000	-3.15575800
15.49999926	0.00000000	11.06668000	-3.15575800
15.69999924	0.00000000	11.06668000	-3.15575800
15.89999923	0.00000000	11.06668000	-3.15575800
16.09999922	0.00000000	11.06668000	-3.15575800
16.29999921	0.00000000	11.06668000	-3.15575800
16.49999920	0.00000000	11.10974000	-3.15575800
16.69999919	-0.15871060	11.48499000	-3.19881900
16.89999917	0.00000000	12.22933000	-3.53100400
17.09999916	0.00000000	12.60458000	-3.90009800
17.29999915	0.00000000	12.64764000	-3.53100400
17.49999914	0.00000000	12.64764000	-3.19881900
17.69999913	0.00000000	12.60458000	-3.15575800
17.89999911	0.00000000	12.18012000	-3.15575800
18.09999910	0.00000000	11.06668000	-3.15575800
18.29999909	0.00000000	9.90403500	-3.15575800
18.49999908	0.00000000	9.06742000	-3.15575800
18.69999907	0.00000000	7.90477300	-3.15575800
18.89999905	0.00000000	6.83439900	-3.15575800
19.09999904	0.00000000	6.83439900	-3.15575800
19.29999903	0.00000000	8.04010800	-3.15575800
19.49999902	0.00000000	10.37155000	-3.19881900
19.69999901	0.00000000	13.89641000	-3.53100400
19.89999900	0.00000000	17.72268000	-3.94315900
20.09999898	0.00000000	21.20448000	-3.90625000
20.29999897	0.00000000	23.02534000	-3.94315900
20.49999896	0.00000000	22.23179000	-3.53100400
20.69999895	0.00000000	18.32554000	-3.19881900
20.89999894	0.00000000	12.13706000	-3.15575800
21.09999892	0.00000000	4.74286400	-3.15575800
21.29999891	0.00000000	-2.56520700	-3.15575800
21.49999890	0.00000000	-7.91092400	-3.15575800
21.69999889	0.00000000	-9.40575800	-3.15575800
21.89999888	0.00000000	-6.24384800	-3.15575800
22.09999886	0.00000000	1.57480300	-3.19881900
22.29999885	0.00000000	13.15822000	-3.57406500
22.49999884	0.00000000	25.90428000	-4.26919300
22.69999883	0.00000000	36.65723000	-4.26919300
22.89999882	0.00000000	42.79650000	-3.57406500
23.09999881	0.00000000	41.91683000	-3.19881900
23.29999879	0.00000000	33.77214000	-3.11269700
23.49999878	0.00000000	19.40207000	-2.73745100
23.69999877	0.00000000	1.62401600	-1.99311000
23.89999876	0.00000000	-15.68036000	-1.61786400
24.09999875	0.00000000	-27.96506000	-1.61786400
24.29999873	0.00000000	-31.40994000	-2.04232300
24.49999872	0.00000000	-25.17839000	-3.19881900
24.69999871	0.00000000	-10.05167000	-4.73671200
24.89999870	0.00000000	11.15896000	-6.31151500
25.09999869	0.00000000	33.16929000	-7.84940900
25.29999867	0.00000000	50.94119000	-8.96284400
25.49999866	0.00000000	60.56840000	-8.96284400
25.69999865	0.00000000	59.31963000	-7.75713500
25.89999864	0.00000000	46.93651000	-5.38262700
26.09999863	0.00000000	25.67667000	-1.53174200
26.29999862	0.00000000	0.64591530	2.64517700
26.49999860	0.00000000	-22.15182000	5.75787400
26.69999859	0.00000000	-37.18011000	7.29576700
26.89999858	0.00000000	-41.08636000	6.87746000
27.09999857	0.00000000	-32.99704000	4.04773600
27.29999856	0.00000000	-15.21900000	-1.39025600
27.49999854	0.00000000	8.37229300	-9.09817800
27.69999853	0.00000000	32.65871000	-16.76919000
27.89999852	0.00000000	51.59325000	-22.52707000
28.09999851	0.00000000	60.94365000	-24.80315000
28.29999850	0.00000000	59.40575000	-22.44094000
28.49999848	0.00000000	47.44709000	-15.84030000
28.69999847	0.00000000	27.81742000	-5.71481200
28.89999846	0.00000000	5.80708600	6.22539300
29.09999845	0.00000000	-13.58883000	17.37205000
29.29999844	0.00000000	-26.80241000	24.66781000
29.49999843	0.00000000	-31.45915000	26.15649000
29.69999841	0.00000000	-26.89468000	21.09375000
29.89999840	0.00000000	-14.56693000	9.85482200
30.09999839	0.00000000	2.04847400	-5.15501900
30.29999838	0.00000000	19.48819000	-20.62008000
30.49999837	0.00000000	34.19045000	-32.98474000
30.69999835	0.00000000	43.17175000	-39.90526000
30.89999834	0.00000000	45.17101000	-39.44390000
31.09999833	0.00000000	40.51427000	-30.94242000
31.29999832	0.00000000	30.09350000	-16.30783000
31.49999831	0.00000000	16.18479000	1.11343500
31.69999829	0.00000000	2.26993100	17.74729000
31.89999828	0.00000000	-8.98129900	30.47490000
32.09999827	0.00000000	-15.16978000	36.23893000
32.29999826	0.00000000	-15.26206000	33.50147000
32.49999825	-0.15871060	-9.86712600	22.71777000
32.69999824	0.00000000	-0.60900590	6.13312000
32.89999822	0.00000000	10.59916000	-11.98942000
33.09999821	0.00000000	21.02608000	-27.92200000
33.29999820	0.00000000	28.46333000	-38.74877000
33.49999819	0.00000000	31.90822000	-42.60580000
33.69999818	0.00000000	30.78863000	-38.33046000
33.89999816	0.00000000	25.02460000	-26.75935000
34.09999815	0.00000000	16.97219000	-10.58686000
34.29999814	0.00000000	8.41535400	6.40994000
34.49999813	0.00000000	1.10728300	20.34941000
34.69999812	0.00000000	-3.12500000	28.90010000
34.89999810	0.00000000	-3.16806100	30.43184000
35.09999809	0.00000000	0.64591530	24.62475000
35.29999808	0.00000000	6.79133800	12.72761000
35.49999807	0.00000000	13.71801000	-2.31914400
35.69999806	0.00000000	19.44513000	-16.59080000
35.89999805	0.00000000	22.18258000	-27.41142000
36.09999803	0.00000000	21.48745000	-32.01279000
36.29999802	0.00000000	18.41781000	-29.40452000
36.49999801	0.00000000	13.76107000	-20.99532000
36.69999800	0.00000000	8.37229300	-9.43036400
36.89999799	0.00000000	3.80782500	2.55905500
37.09999797	0.00000000	1.48253000	12.50615000
37.29999796	0.00000000	2.22687000	17.51968000
37.49999795	0.00000000	5.25344500	16.03715000
37.69999794	0.00000000	9.52879000	9.56569900
37.89999793	0.00000000	14.13632000	-0.04306102
38.09999791	0.00000000	18.04257000	-9.99015700
38.29999790	0.00000000	20.32480000	-17.28592000
38.49999789	0.00000000	20.73696000	-19.98031000
38.69999788	0.00000000	18.83612000	-17.28592000
38.89999787	0.00000000	15.71727000	-10.07628000
39.09999786	0.00000000	11.81102000	-0.87967510
39.29999784	0.00000000	7.20964500	7.16043300
39.49999783	0.00000000	3.75861200	12.17397000
39.69999782	0.00000000	2.13459600	12.45694000
39.89999781	0.00000000	2.17765700	7.52952700
40.09999780	0.00000000	4.09079700	-1.29183100
40.29999778	0.00000000	7.57258800	-10.86983000
40.49999777	0.00000000	11.44193000	-18.95300000
40.69999776	0.00000000	15.39124000	-23.09301000
40.89999775	0.00000000	18.79306000	-21.60433000
41.09999774	0.00000000	20.73696000	-15.09596000
41.29999772	0.00000000	20.37401000	-5.89320800
41.49999771	0.00000000	18.50394000	3.76476400
41.69999770	0.00000000	15.71727000	11.42962000
41.89999769	0.00000000	12.22933000	15.28666000
42.09999768	0.00000000	8.37229300	14.12401000
42.29999767	0.00000000	5.29650500	8.40920300
42.49999765	0.00000000	3.67249000	-0.04306102
42.69999764	0.00000000	3.29724400	-8.87672100
42.89999763	0.00000000	4.09079700	-15.84030000
43.09999762	0.00000000	6.41609200	-19.32825000
43.29999761	0.00000000	9.44266700	-18.95300000
43.49999759	0.00000000	12.18012000	-14.76993000
43.69999758	0.00000000	14.13632000	-8.26771600
43.89999757	0.00000000	15.29897000	-1.75319900
44.09999756	0.00000000	15.34203000	3.34645700
44.29999755	0.00000000	14.64690000	6.04699800
44.49999753	0.00000000	14.27165000	6.50221400
44.69999752	0.00000000	14.18553000	4.55831700
44.89999751	0.00000000	13.81028000	1.11343500
45.09999750	0.00000000	13.06594000	-3.11269700
45.29999749	0.00000000	12.60458000	-6.96358300
45.49999748	0.00000000	11.71875000	-9.29502900
45.69999746	0.00000000	9.44266700	-10.11934000
45.89999745	0.00000000	6.74212600	-9.33809000
46.09999744	0.00000000	4.41067900	-7.43110200
46.29999743	0.00000000	2.50984200	-4.73671200
46.49999742	0.00000000	2.17765700	-2.08538400
46.69999740	0.00000000	3.75861200	-0.51058070
46.89999739	0.00000000	7.29576700	-0.04306102
47.09999738	0.00000000	12.69070000	-0.04306102
47.29999737	0.00000000	18.46087000	-0.51058070
47.49999736	0.00000000	23.11762000	-2.04232300
47.69999734	0.00000000	25.81201000	-4.31840500
47.89999733	0.00000000	25.71973000	-6.26845500
48.09999732	0.00000000	22.18258000	-7.84940900
48.29999731	0.00000000	15.25591000	-8.96284400
48.49999730	0.00000000	6.79133800	-8.91978400
48.69999729	0.00000000	-0.93503930	-7.38188900
48.89999727	0.00000000	-6.32997000	-4.68750000
49.09999726	0.00000000	-7.82480200	-1.62401600
49.29999725	0.00000000	-4.74901600	1.07037400
49.49999724	0.00000000	2.22687000	2.60211600
49.69999723	0.00000000	11.48499000	2.64517700
49.89999721	0.00000000	21.06914000	1.43946800
50.09999720	0.00000000	28.00197000	-0.88582670
50.29999719	0.00000000	30.32726000	-4.36146600
50.49999718	0.00000000	28.04503000	-7.80019600
50.69999717	0.00000000	21.48745000	-10.53765000
50.89999715	0.00000000	12.64764000	-12.03248000
51.09999714	0.00000000	3.75861200	-11.61417000
51.29999713	0.00000000	-3.12500000	-8.91978400
51.49999712	0.00000000	-5.86860200	-4.73671200
51.69999711	0.00000000	-3.96161400	-0.46751960
51.89999710	0.00000000	1.43946800	3.02042300
52.09999708	0.00000000	9.48572700	5.29650500
52.29999707	0.00000000	17.53199000	5.29650500
52.49999706	0.00000000	22.98228000	3.02042300
52.69999705	0.00000000	25.30143000	-0.46751960
52.89999704	0.00000000	23.72047000	-4.69365100
53.09999702	0.00000000	18.37475000	-8.50147600
53.29999701	0.00000000	11.10974000	-10.45152000
53.49999700	0.00000000	4.22613100	-10.49459000
53.69999699	0.00000000	-0.04921259	-8.96284400
53.89999698	0.00000000	-0.84891720	-6.31151500
54.09999696	0.00000000	1.43946800	-3.61712600
54.29999695	0.00000000	6.45915300	-1.66707700
54.49999694	0.00000000	12.55536000	-0.51058070
54.69999693	0.00000000	17.95029000	-0.51058070
54.89999692	0.00000000	21.02608000	-1.62401600
55.09999691	0.00000000	21.06914000	-3.15575800
55.29999689	0.00000000	18.37475000	-4.68750000
55.49999688	0.00000000	13.81028000	-5.80093500
55.69999687	0.00000000	8.74138700	-5.75787400
55.89999686	0.00000000	4.54601300	-4.26919300
56.09999685	0.00000000	1.85777500	-1.99311000
56.29999683	0.00000000	2.22687000	-0.13533460
56.49999682	0.00000000	4.87819900	0.65206690
56.69999681	0.00000000	8.74138700	-0.17839570
56.89999680	0.00000000	13.34276000	-2.46063000
57.09999679	0.00000000	16.79380000	-5.93626900
57.29999677	0.00000000	18.41781000	-9.33809000
57.49999676	0.00000000	18.37475000	-11.65723000
57.69999675	0.00000000	16.46161000	-11.98327000
57.89999674	0.00000000	13.02288000	-10.07628000
58.09999673	0.00000000	9.57800100	-6.17618100
58.29999672	0.00000000	6.83439900	-1.15649600
58.49999670	0.00000000	5.33956700	4.18307100
58.69999669	0.00000000	5.67175200	7.94783400
58.89999668	0.00000000	7.52952700	8.36614100
59.09999667	0.00000000	9.44266700	5.67175200
59.29999666	0.00000000	11.06668000	0.60285430
59.49999664	0.00000000	12.60458000	-6.31766700
59.69999663	0.00000000	13.71801000	-13.18898000
59.89999662	0.00000000	13.71801000	-17.79650000
60.09999661	0.00000000	12.64764000	-18.95300000
60.29999660	0.00000000	11.48499000	-16.25861000
60.49999658	0.00000000	10.69144000	-10.49459000
60.69999657	0.00000000	9.90403500	-3.15575800
60.89999656	0.00000000	9.57800100	4.18307100
61.09999655	0.00000000	9.95324800	9.94094400
61.29999654	0.00000000	11.06668000	12.59227000
61.49999653	0.00000000	12.18012000	11.06053000
61.69999651	0.00000000	12.55536000	5.67175200
61.89999650	0.00000000	12.18012000	-2.04232300
62.09999649	0.00000000	11.02362000	-10.49459000
62.29999648	0.00000000	9.52879000	-17.42126000
62.49999647	0.00000000	8.37229300	-20.85999000
62.69999645	0.00000000	7.94783400	-20.10950000
62.89999644	0.00000000	7.94783400	-15.14518000
63.09999643	0.00000000	8.41535400	-7.84940900
63.29999642	0.00000000	9.95324800	-0.09227362
63.49999641	0.00000000	12.22933000	6.87746000
63.69999639	0.00000000	14.13632000	11.42962000
63.89999638	0.00000000	15.29897000	12.26624000
64.09999637	0.00000000	15.29897000	9.20275500
64.29999636	0.00000000	14.18553000	3.85703700
64.49999635	0.00000000	12.60458000	-2.78051200
64.69999634	0.00000000	10.64838000	-9.29502900
64.89999632	0.00000000	8.37229300	-14.35162000
65.09999631	0.00000000	6.87746000	-16.67692000
65.29999630	0.00000000	6.83439900	-16.35089000
65.49999629	0.00000000	7.99704600	-13.65650000
65.69999628	0.00000000	9.90403500	-9.43036400
65.89999626	0.00000000	12.18012000	-4.77977300
66.09999625	0.00000000	13.71801000	-0.46751960
66.29999624	0.00000000	14.13632000	3.02042300
66.49999623	0.00000000	13.71801000	5.33956700
66.69999622	0.00000000	12.18012000	5.71481200
66.89999620	0.00000000	9.90403500	4.26919300
67.09999619	0.00000000	8.04010800	1.95004900
67.29999618	0.00000000	7.20964500	-0.46751960
67.49999617	0.00000000	7.66486200	-3.57406500
67.69999616	0.00000000	9.16584600	-7.05585600
67.89999615	0.00000000	11.89715000	-9.75639700
68.09999613	0.00000000	14.51156000	-11.74951000
68.29999612	0.00000000	16.46161000	-12.49385000
68.49999611	0.00000000	16.79380000	-12.11860000
68.69999610	0.00000000	15.25591000	-10.53765000
68.89999609	0.00000000	12.18012000	-7.75713500
69.09999607	0.00000000	8.32308000	-3.90009800
69.29999606	0.00000000	4.83513700	0.73818890
69.49999605	0.00000000	2.13459600	4.55831700
69.69999604	0.00000000	1.06422200	6.92052100
69.89999603	0.00000000	2.60211600	7.24655500
70.09999601	0.00000000	6.45915300	5.33956700
70.29999600	0.00000000	11.48499000	1.43946800
70.49999599	0.00000000	16.87992000	-3.57406500
70.69999598	0.00000000	21.06914000	-8.96284400
70.89999597	0.00000000	22.65010000	-13.18898000
71.09999596	0.00000000	21.53666000	-15.14518000
71.29999594	0.00000000	18.37475000	-14.76993000
71.49999593	0.00000000	13.34276000	-12.07554000
71.69999592	0.00000000	7.16043300	-7.84940900
71.89999591	0.00000000	1.80856300	-3.20497000
72.09999590	0.00000000	-1.67938000	1.07037400
72.29999588	0.00000000	-2.05462600	4.09079700
72.49999587	0.00000000	0.59670270	4.92125900
72.69999586	0.00000000	5.25344500	3.39566900
72.89999585	0.00000000	11.06668000	0.73818890
73.09999584	0.00000000	16.83686000	-2.73745100
73.29999582	0.00000000	21.06914000	-5.75787400
73.49999581	0.00000000	22.65010000	-7.38188900
73.69999580	0.00000000	21.53666000	-7.75713500
73.89999579	0.00000000	18.41781000	-7.01279500
74.09999578	0.00000000	13.81028000	-5.15501900
74.29999577	0.00000000	8.79060000	-3.66633800
74.49999575	0.00000000	4.92125900	-3.24803100
74.69999574	0.00000000	2.55290300	-3.62327700
74.89999573	0.00000000	2.17765700	-4.77977300
75.09999572	0.00000000	3.67249000	-6.26845500
75.29999571	0.00000000	6.36687900	-7.38188900
75.49999569	0.00000000	9.48572700	-7.33882900
75.69999568	0.00000000	12.55536000	-5.80093500
75.89999567	0.00000000	14.88066000	-3.11269700
76.09999566	0.00000000	15.67421000	-0.04306102
76.29999565	0.00000000	15.34203000	2.64517700
76.49999563	0.00000000	14.18553000	4.14000900
76.69999562	0.00000000	12.64764000	3.71555100
76.89999561	0.00000000	11.10974000	1.02116100
77.09999560	0.00000000	9.95324800	-3.20497000
77.29999559	0.00000000	9.57800100	-7.84940900
77.49999558	0.00000000	9.90403500	-12.07554000
77.69999556	0.00000000	10.59916000	-14.72072000
77.89999555	0.00000000	10.59916000	-14.76993000
78.09999554	0.00000000	9.86097400	-12.45079000
78.29999553	0.00000000	9.11048200	-8.54453700
78.49999552	0.00000000	8.32308000	-3.11269700
78.69999550	0.00000000	7.99704600	2.60211600
78.89999549	0.00000000	8.37229300	6.82824800
79.09999548	0.00000000	9.52879000	8.40920300
79.29999547	0.00000000	11.10974000	7.29576700
79.49999546	0.00000000	13.02288000	4.18307100
79.69999544	0.00000000	14.92372000	-0.46136810
79.89999543	0.00000000	15.67421000	-5.85014700
80.09999542	0.00000000	15.29897000	-10.49459000
80.29999541	0.00000000	13.71801000	-13.60728000
80.49999540	0.00000000	11.06668000	-14.76993000
80.69999539	0.00000000	8.37229300	-13.60728000
80.89999537	0.00000000	6.41609200	-10.53765000
81.09999536	0.00000000	5.25344500	-6.31151500
81.29999535	0.00000000	5.29650500	-2.08538400
81.49999534	0.00000000	6.79133800	1.07037400
81.69999533	0.00000000	9.11048200	3.06348400
81.89999531	0.00000000	11.44193000	4.22613100
82.09999530	0.00000000	13.76107000	4.18307100
82.29999529	0.00000000	15.25591000	2.64517700
82.49999528	0.00000000	15.29897000	0.00000000
82.69999527	0.00000000	14.18553000	-2.78051200
82.89999525	0.00000000	12.64764000	-5.53026500
83.09999524	0.00000000	11.06668000	-8.63681000
83.29999523	0.00000000	9.52879000	-10.91289000
83.49999522	0.00000000	8.37229300	-12.11860000
83.69999521	0.00000000	7.99704600	-12.07554000
83.89999520	0.00000000	8.32308000	-10.53765000
84.09999518	0.00000000	9.11048200	-7.80019600
84.29999517	0.00000000	9.86097400	-4.31840500
84.49999516	0.00000000	10.64838000	-0.41830710
84.69999515	0.00000000	11.02362000	3.02042300
84.89999514	0.00000000	11.06668000	5.29650500
85.09999512	0.00000000	11.06668000	5.29650500
85.29999511	0.00000000	11.06668000	3.02042300
85.49999510	0.00000000	11.10974000	-0.46751960
85.69999509	0.00000000	11.48499000	-4.73671200
85.89999508	0.00000000	12.22933000	-8.96284400
86.09999506	0.00000000	12.55536000	-12.07554000
86.29999505	0.00000000	12.22933000	-13.61343000
86.49999504	0.00000000	11.44193000	-13.18898000
86.69999503	0.00000000	10.64838000	-10.49459000
86.89999502	0.00000000	9.44266700	-6.26845500
87.09999501	0.00000000	7.99704600	-1.62401600
87.29999499	0.00000000	7.20964500	2.60211600
87.49999498	0.00000000	7.57258800	5.29650500
87.69999497	0.00000000	8.37229300	5.67175200
87.89999496	0.00000000	9.95324800	3.76476400
88.09999495	0.00000000	12.18012000	-0.09227362
88.29999493	0.00000000	13.71801000	-4.73671200
88.49999492	0.00000000	14.13632000	-9.33809000
88.69999491	0.00000000	13.76107000	-12.72761000
88.89999490	0.00000000	12.60458000	-13.14591000
89.09999489	0.00000000	11.06668000	-10.91289000
89.29999487	0.00000000	9.52879000	-7.43110200
89.49999486	0.00000000	8.37229300	-3.15575800
89.69999485	0.00000000	7.94783400	1.07037400
89.89999484	0.00000000	7.94783400	4.13385800
90.09999483	0.00000000	8.37229300	5.25344500
90.29999482	0.00000000	9.48572700	3.71555100
90.49999480	0.00000000	10.64838000	-0.13533460
90.69999479	0.00000000	11.44193000	-5.11195900
90.89999478	0.00000000	12.22933000	-10.07628000
91.09999477	0.00000000	12.55536000	-13.10285000
91.29999476	0.00000000	12.22933000	-13.14591000
91.49999474	0.00000000	11.48499000	-10.49459000
91.69999473	0.00000000	11.10974000	-6.26845500
91.89999472	0.00000000	11.06668000	-1.62401600
92.09999471	0.00000000	11.06668000	2.60211600
92.29999470	0.00000000	11.06668000	5.24729300
92.49999468	0.00000000	11.02362000	5.24729300
92.69999467	0.00000000	10.64838000	2.60211600
92.89999466	0.00000000	9.86097400	-1.62401600
93.09999465	0.00000000	9.11048200	-6.21924200
93.29999464	0.00000000	8.32308000	-10.07628000
93.49999463	0.00000000	7.94783400	-11.98327000
93.69999461	0.00000000	7.94783400	-11.61417000
93.89999460	0.00000000	8.41535400	-8.91978400
94.09999459	0.00000000	9.95324800	-4.73671200
94.29999458	0.00000000	12.22933000	-0.51058070
94.49999457	0.00000000	14.13632000	2.55905500
94.69999455	0.00000000	15.34203000	3.71555100
94.89999454	0.00000000	15.71727000	2.60211600
95.09999453	0.00000000	15.29897000	-0.09227362
95.29999452	0.00000000	13.71801000	-3.57406500
95.49999451	0.00000000	11.02362000	-7.42495000
95.69999449	0.00000000	7.94783400	-10.45152000
95.89999448	0.00000000	5.25344500	-11.60802000
96.09999447	0.00000000	3.71555100	-10.45152000
96.29999446	0.00000000	3.71555100	-7.42495000
96.49999445	0.00000000	5.25344500	-3.62327700
96.69999444	0.00000000	7.94783400	-0.55364170
96.89999442	0.00000000	11.10974000	1.02116100
97.09999441	0.00000000	14.60384000	1.06422200
97.29999440	0.00000000	17.99951000	-0.09227362
97.49999439	0.00000000	19.53125000	-1.99311000
97.69999438	0.00000000	18.79306000	-4.31840500
97.89999436	0.00000000	16.50467000	-6.22539300
98.09999435	0.00000000	12.97982000	-7.38188900
98.29999434	0.00000000	9.11048200	-7.38188900
98.49999433	0.00000000	5.25344500	-6.26845500
98.69999432	0.00000000	2.60211600	-4.77977300
98.89999430	0.00000000	2.13459600	-3.57406500
99.09999429	0.00000000	3.29724400	-2.82357300
99.29999428	0.00000000	5.62869100	-2.41141700
99.49999427	0.00000000	9.11048200	-2.78051200
99.69999426	0.00000000	12.60458000	-3.11269700
99.89999425	0.00000000	15.71727000	-3.15575800
100.09999423	0.00000000	17.99951000	-3.11269700
100.29999422	0.00000000	18.37475000	-2.73745100
100.49999421	0.00000000	16.87992000	-1.99311000
100.69999420	0.00000000	14.18553000	-1.66707700
100.89999419	0.00000000	11.10974000	-2.04232300
101.09999417	0.00000000	8.32308000	-3.19881900
101.29999416	0.00000000	5.99163300	-4.77977300
101.49999415	0.00000000	4.09079700	-6.68676100
101.69999414	0.00000000	3.71555100	-8.58759800
101.89999413	0.00000000	4.83513700	-9.29502900
102.09999411	0.00000000	6.74212600	-8.58759800
102.29999410	0.00000000	9.11048200	-6.64370100
102.49999409	0.00000000	11.44193000	-4.31840500
102.69999408	0.00000000	13.76107000	-1.58095500
102.89999407	0.00000000	15.29897000	1.07037400
103.09999406	0.00000000	15.67421000	2.55905500
103.29999404	0.00000000	14.92372000	2.18380900
103.49999403	0.00000000	13.02288000	-0.09227362
103.69999402	0.00000000	11.10974000	-3.15575800
103.89999401	0.00000000	9.48572700	-6.26845500
104.09999400	0.00000000	7.94783400	-8.96284400
104.29999398	0.00000000	6.79133800	-10.49459000
104.49999397	0.00000000	6.41609200	-10.49459000
104.69999396	0.00000000	6.79133800	-8.96284400
104.89999395	0.00000000	7.99704600	-6.26845500
105.09999394	0.00000000	9.86097400	-3.19881900
105.29999392	0.00000000	11.76181000	-0.51058070
105.49999391	0.00000000	12.55536000	1.02116100
105.69999390	0.00000000	12.60458000	1.06422200
105.89999389	0.00000000	12.22933000	-0.09227362
106.09999388	0.00000000	11.44193000	-1.99311000
106.29999387	0.00000000	10.64838000	-4.31840500
106.49999385	0.00000000	9.48572700	-6.22539300
106.69999384	0.00000000	8.41535400	-7.38188900
106.89999383	0.00000000	8.41535400	-7.38188900
107.09999382	0.00000000	9.48572700	-6.26845500
107.29999381	0.00000000	10.64838000	-4.73671200
107.49999379	0.00000000	11.44193000	-3.19881900
107.69999378	0.00000000	12.18012000	-2.04232300
107.89999377	0.00000000	12.18012000	-1.66707700
108.09999376	0.00000000	11.44193000	-2.04232300
108.29999375	0.00000000	10.64838000	-3.19881900
108.49999374	0.00000000	9.48572700	-4.73671200
108.69999372	0.00000000	8.37229300	-6.22539300
108.89999371	0.00000000	7.99704600	-7.00664300
109.09999370	0.00000000	8.32308000	-6.64370100
109.29999369	0.00000000	9.11048200	-5.89320800
109.49999368	0.00000000	9.90403500	-4.68750000
109.69999366	0.00000000	11.06668000	-3.15575800
109.89999365	0.00000000	12.18012000	-1.62401600
110.09999364	0.00000000	12.55536000	-0.51058070
110.29999363	0.00000000	12.22933000	-0.51058070
110.49999362	0.00000000	11.48499000	-1.62401600
110.69999360	0.00000000	11.02362000	-3.15575800
110.89999359	0.00000000	10.23007000	-4.68750000
111.09999358	0.00000000	8.74138700	-5.89320800
111.29999357	0.00000000	7.99704600	-6.64370100
111.49999356	0.00000000	7.94783400	-7.05585600
111.69999355	0.00000000	8.32308000	-6.64370100
111.89999353	0.00000000	9.11048200	-5.89320800
112.09999352	0.00000000	9.86097400	-4.73671200
112.29999351	0.00000000	10.69144000	-3.62327700
112.49999350	0.00000000	11.39887000	-3.19881900
112.69999349	0.00000000	11.81102000	-3.15575800
112.89999347	0.00000000	11.44193000	-3.15575800
113.09999346	0.00000000	11.06668000	-3.15575800
113.29999345	0.00000000	10.64838000	-3.15575800
113.49999344	0.00000000	9.90403500	-3.19881900
113.69999343	0.00000000	9.52879000	-3.57406500
113.89999341	0.00000000	9.48572700	-4.31840500
114.09999340	0.00000000	9.48572700	-4.69365100
114.29999339	0.00000000	9.52879000	-4.73671200
114.49999338	0.00000000	9.90403500	-4.73671200
114.69999337	0.00000000	10.64838000	-4.77977300
114.89999336	0.00000000	11.02362000	-5.15501900
115.09999334	0.00000000	11.06668000	-5.85014700
115.29999333	0.00000000	11.06668000	-5.85014700
115.49999332	0.00000000	11.06668000	-5.15501900
115.69999331	0.00000000	11.02362000	-4.73671200
115.89999330	0.00000000	10.64838000	-4.31840500
116.09999328	0.00000000	9.90403500	-3.53100400
116.29999327	0.00000000	9.52879000	-2.78051200
116.49999326	0.00000000	9.48572700	-2.04232300
116.69999325	0.00000000	9.48572700	-2.04232300
116.89999324	0.00000000	9.52879000	-2.73745100
117.09999322	0.00000000	9.90403500	-3.15575800
117.29999321	0.00000000	10.64838000	-3.57406500
117.49999320	0.00000000	11.06668000	-4.36146600
117.69999319	0.00000000	11.48499000	-5.11195900
117.89999318	0.00000000	12.22933000	-5.89320800
118.09999317	0.00000000	12.55536000	-6.21924200
118.29999315	0.00000000	12.22933000	-5.89320800
118.49999314	0.00000000	11.44193000	-5.11195900
118.69999313	0.00000000	10.64838000	-4.36146600
118.89999312	0.00000000	9.48572700	-3.57406500
119.09999311	0.00000000	8.37229300	-3.15575800
119.29999309	0.00000000	7.94783400	-2.73745100
119.49999308	0.00000000	7.94783400	-2.04232300
119.69999307	0.00000000	8.32308000	-2.04232300
119.89999306	0.00000000	9.11048200	-2.73745100
120.09999305	0.00000000	9.90403500	-3.11269700
120.29999303	0.00000000	11.10974000	-3.19881900
120.49999302	0.00000000	12.60458000	-3.57406500
120.69999301	0.00000000	13.71801000	-4.31840500
120.89999300	0.00000000	13.71801000	-4.69365100
121.09999299	0.00000000	12.60458000	-4.73671200
121.29999298	0.00000000	11.10974000	-4.73671200
121.49999296	0.00000000	9.90403500	-4.73671200
121.69999295	0.00000000	9.11048200	-4.73671200
121.89999294	0.00000000	8.28001900	-4.69365100
122.09999293	0.00000000	7.57258800	-4.31840500
122.29999292	0.00000000	7.20964500	-3.57406500
122.49999290	0.00000000	7.94783400	-3.19881900
122.69999289	0.00000000	9.06742000	-3.15575800
122.89999288	0.00000000	9.90403500	-3.15575800
123.09999287	0.00000000	11.06668000	-3.15575800
123.29999286	0.00000000	12.18012000	-3.15575800
123.49999284	0.00000000	12.60458000	-3.19881900
123.69999283	0.00000000	12.60458000	-3.57406500
123.89999282	0.00000000	12.22933000	-4.31840500
124.09999281	0.00000000	11.44193000	-4.69365100
124.29999280	0.00000000	10.69144000	-4.73671200
124.49999279	0.00000000	9.86097400	-4.73671200
124.69999277	0.00000000	9.11048200	-4.73671200
124.89999276	0.00000000	8.32308000	-4.69365100
125.09999275	0.00000000	7.94783400	-4.31840500
125.29999274	0.00000000	7.94783400	-3.57406500
125.49999273	0.00000000	8.32308000	-3.19881900
125.69999271	0.00000000	9.11048200	-3.15575800
125.89999270	0.00000000	9.86097400	-3.15575800
126.09999269	0.00000000	10.69144000	-3.15575800
126.29999268	0.00000000	11.44193000	-3.15575800
126.49999267	0.00000000	12.22933000	-3.19881900
126.69999265	0.00000000	12.55536000	-3.57406500
126.89999264	0.00000000	12.22933000	-4.31840500
127.09999263	0.00000000	11.44193000	-4.69365100
127.29999262	0.00000000	10.64838000	-4.73671200
127.49999261	0.00000000	9.48572700	-4.73671200
127.69999260	0.00000000	8.37229300	-4.73671200
127.89999258	0.00000000	7.94783400	-4.73671200
128.09999257	0.00000000	7.94783400	-4.69365100
128.29999256	0.00000000	8.37229300	-4.31840500
128.49999255	0.00000000	9.48572700	-3.57406500
128.69999254	0.00000000	10.64838000	-3.19881900
128.89999252	0.00000000	11.44193000	-3.15575800
129.09999251	0.00000000	12.22933000	-3.19881900
129.29999250	0.00000000	12.55536000	-3.57406500
129.49999249	0.00000000	12.18012000	-4.31840500
129.69999248	0.00000000	11.02362000	-4.69365100
129.89999246	0.00000000	9.52879000	-4.73671200
130.09999245	0.00000000	8.37229300	-4.73671200
130.29999244	0.00000000	7.99704600	-4.69365100
130.49999243	0.00000000	8.32308000	-4.31840500
130.69999242	0.00000000	9.11048200	-3.57406500
130.89999241	0.00000000	9.86097400	-3.19881900
131.09999239	0.00000000	10.64838000	-3.15575800
131.29999238	0.00000000	11.02362000	-3.19881900
131.49999237	0.00000000	11.06668000	-3.57406500
131.69999236	0.00000000	11.02362000	-4.31840500
131.89999235	0.00000000	10.64838000	-4.73671200
132.09999233	0.00000000	9.90403500	-5.11195900
132.29999232	0.00000000	9.48572700	-5.51796200
132.49999231	0.00000000	9.11048200	-5.48105300
132.69999230	0.00000000	8.74138700	-5.47490100
132.89999229	0.00000000	9.11048200	-4.68750000
133.09999227	0.00000000	9.44266700	-3.62327700
133.29999226	0.00000000	9.52879000	-3.15575800
133.49999225	0.00000000	9.86097400	-2.73745100
133.69999224	0.00000000	10.23007000	-2.04232300
133.89999223	0.00000000	9.86097400	-2.04232300
134.09999222	0.00000000	9.52879000	-2.78051200
134.29999220	0.00000000	9.48572700	-3.53100400
134.49999219	0.00000000	9.48572700	-4.36146600
134.69999218	0.00000000	9.52879000	-5.11195900
134.89999217	0.00000000	9.90403500	-5.89320800
135.09999216	0.00000000	10.64838000	-6.21924200
135.29999214	0.00000000	11.02362000	-5.89320800
135.49999213	0.00000000	11.06668000	-5.15501900
135.69999212	0.00000000	11.02362000	-4.73671200
135.89999211	0.00000000	10.64838000	-4.31840500
136.09999210	0.00000000	9.90403500	-3.57406500
136.29999208	0.00000000	9.48572700	-3.19881900
136.49999207	0.00000000	9.11048200	-3.15575800
136.69999206	0.00000000	8.74138700	-3.15575800
136.89999205	0.00000000	9.11048200	-3.19881900
137.09999204	0.00000000	9.48572700	-3.57406500
137.29999203	0.00000000	9.90403500	-4.31840500
137.49999201	0.00000000	10.64838000	-4.69365100
137.69999200	0.00000000	11.02362000	-4.77977300
137.89999199	0.00000000	11.06668000	-5.15501900
138.09999198	0.00000000	11.06668000	-5.85014700
138.29999197	0.00000000	11.02362000	-5.85014700
138.49999195	0.00000000	10.64838000	-5.15501900
138.69999194	0.00000000	9.86097400	-4.73671200
138.89999193	0.00000000	9.11048200	-4.31840500
139.09999192	0.00000000	8.37229300	-3.57406500
139.29999191	0.00000000	8.37229300	-3.19881900
139.49999189	0.00000000	9.06742000	-3.15575800
139.69999188	0.00000000	9.48572700	-3.15575800
139.89999187	0.00000000	9.90403500	-3.15575800
140.09999186	0.00000000	10.64838000	-3.19881900
140.29999185	0.00000000	11.02362000	-3.57406500
140.49999184	0.00000000	11.06668000	-4.36146600
140.69999182	0.00000000	11.02362000	-5.11195900
140.89999181	0.00000000	10.64838000	-5.89320800
141.09999180	0.00000000	9.90403500	-6.21924200
141.29999179	0.00000000	9.52879000	-5.89320800
141.49999178	0.00000000	9.48572700	-5.11195900
141.69999176	0.00000000	9.48572700	-4.36146600
141.89999175	0.00000000	9.52879000	-3.57406500
142.09999174	0.00000000	9.90403500	-3.15575800
142.29999173	0.00000000	10.59916000	-2.78051200
142.49999172	0.00000000	10.64838000	-2.41141700
142.69999170	0.00000000	10.27928000	-2.78051200
142.89999169	0.00000000	10.27313000	-3.15575800
143.09999168	0.00000000	9.86097400	-3.62327700
143.29999167	0.00000000	9.52879000	-4.73671200
143.49999166	0.00000000	9.44266700	-5.85014700
143.69999165	0.00000000	9.11048200	-6.21924200
143.89999163	0.00000000	8.79060000	-5.89320800
144.09999162	0.00000000	9.48572700	-5.15501900
144.29999161	0.00000000	10.23007000	-4.73671200
144.49999160	0.00000000	10.27928000	-4.31840500
144.69999159	0.00000000	10.69144000	-3.57406500
144.89999157	0.00000000	11.02362000	-3.19881900
145.09999156	0.00000000	11.02362000	-3.15575800
145.29999155	0.00000000	10.64838000	-3.15575800
145.49999154	0.00000000	9.90403500	-3.19881900
145.69999153	0.00000000	9.52879000	-3.57406500
145.89999151	0.00000000	9.48572700	-4.31840500
146.09999150	0.00000000	9.48572700	-4.69365100
146.29999149	0.00000000	9.48572700	-4.77977300
146.49999148	0.00000000	9.52879000	-5.11195900
146.69999147	0.00000000	9.90403500	-5.47490100
146.89999146	0.00000000	10.64838000	-5.11195900
147.09999144	0.00000000	11.02362000	-4.73671200
147.29999143	0.00000000	11.06668000	-4.31840500
147.49999142	0.00000000	11.02362000	-3.57406500
147.69999141	0.00000000	10.64838000	-3.19881900
147.89999140	0.00000000	9.90403500	-3.15575800
148.09999138	0.00000000	9.48572700	-3.19881900
148.29999137	0.00000000	9.11048200	-3.53100400
148.49999136	0.00000000	8.74138700	-3.94315900
148.69999135	0.00000000	9.11048200	-3.94931100
148.89999134	0.00000000	9.44266700	-4.36146600
149.09999132	0.00000000	9.52879000	-4.69365100
149.29999131	0.00000000	9.90403500	-4.73671200
149.49999130	0.00000000	10.64838000	-4.73671200
149.69999129	0.00000000	10.97441000	-4.73671200
149.89999128	0.00000000	10.69144000	-4.69365100
150.09999127	0.00000000	10.32234000	-4.31840500
150.29999125	0.00000000	10.64838000	-3.57406500
150.49999124	0.00000000	10.59916000	-3.19881900
150.69999123	0.00000000	9.90403500	-3.15575800
150.89999122	0.00000000	9.52879000	-3.15575800
151.09999121	0.00000000	9.48572700	-3.15575800
151.29999119	0.00000000	9.48572700	-3.19881900
151.49999118	0.00000000	9.48572700	-3.57406500
151.69999117	0.00000000	9.48572700	-4.31840500
151.89999116	0.00000000	9.48572700	-4.69365100
152.09999115	0.00000000	9.48572700	-4.73671200
152.29999113	0.00000000	9.52879000	-4.73671200
152.49999112	0.00000000	9.90403500	-4.73671200
152.69999111	0.00000000	10.64838000	-4.73671200
152.89999110	0.00000000	10.97441000	-4.69365100
153.09999109	0.00000000	10.64838000	-4.31840500
153.29999108	0.00000000	9.90403500	-3.57406500
153.49999106	0.00000000	9.52879000	-3.19881900
153.69999105	0.00000000	9.48572700	-3.15575800
153.89999104	0.00000000	9.44266700	-3.15575800
154.09999103	0.00000000	9.11048200	-3.15575800
154.29999102	0.00000000	8.69832600	-3.15575800
154.49999100	0.00000000	8.73523500	-3.19881900
154.69999099	0.00000000	8.69832600	-3.57406500
154.89999098	0.00000000	9.11048200	-4.31840500
155.09999097	0.00000000	9.48572700	-4.69365100
155.29999096	0.00000000	9.90403500	-4.73671200
155.49999094	0.00000000	10.64838000	-4.73671200
155.69999093	0.00000000	11.02362000	-4.73671200
155.89999092	0.00000000	11.02362000	-4.73671200
156.09999091	0.00000000	10.64838000	-4.69365100
156.29999090	0.00000000	9.90403500	-4.31840500
156.49999089	0.00000000	9.52879000	-3.57406500
156.69999087	0.00000000	9.48572700	-3.19881900
156.89999086	0.00000000	9.48572700	-3.15575800
157.09999085	0.00000000	9.44266700	-3.15575800
157.29999084	0.00000000	9.11048200	-3.15575800
157.49999083	0.00000000	8.74138700	-3.19881900
157.69999081	0.00000000	9.11048200	-3.57406500
157.89999080	0.00000000	9.44266700	-4.31840500
158.09999079	0.00000000	9.52879000	-4.69365100
158.29999078	0.00000000	9.90403500	-4.73671200
158.49999077	0.00000000	10.64838000	-4.73671200
158.69999075	0.00000000	11.02362000	-4.73671200
158.89999074	0.00000000	11.02362000	-4.73671200
159.09999073	0.00000000	10.64838000	-4.69365100
159.29999072	0.00000000	9.90403500	-4.31840500
159.49999071	0.00000000	9.52879000	-3.57406500
159.69999070	0.00000000	9.44266700	-3.19881900
159.89999068	0.00000000	9.11048200	-3.15575800
160.09999067	0.00000000	8.74138700	-3.15575800
160.29999066	0.00000000	9.11048200	-3.15575800
160.49999065	0.00000000	9.44266700	-3.19881900
160.69999064	0.00000000	9.48572700	-3.57406500
160.89999062	0.00000000	9.48572700	-4.31840500
161.09999061	0.00000000	9.52879000	-4.69365100
161.29999060	0.00000000	9.86097400	-4.73671200
161.49999059	0.00000000	10.23007000	-4.73671200
161.69999058	0.00000000	9.90403500	-4.73671200
161.89999056	0.00000000	9.90403500	-4.73671200
162.09999055	0.00000000	10.23007000	-4.69365100
162.29999054	0.00000000	9.86097400	-4.31840500
162.49999053	0.00000000	9.52879000	-3.57406500
162.69999052	0.00000000	9.48572700	-3.19881900
162.89999051	0.00000000	9.48572700	-3.15575800
163.09999049	0.00000000	9.44266700	-3.15575800
163.29999048	0.00000000	9.11048200	-3.19881900
163.49999047	0.00000000	8.74138700	-3.57406500
163.69999046	0.00000000	9.11048200	-4.31840500
163.89999045	0.00000000	9.44266700	-4.69365100
164.09999043	0.00000000	9.48572700	-4.73671200
164.29999042	0.00000000	9.48572700	-4.73671200
164.49999041	0.00000000	9.48572700	-4.73671200
164.69999040	0.00000000	9.52879000	-4.73671200
164.89999039	0.00000000	9.90403500	-4.73671200
165.09999037	0.00000000	10.64838000	-4.73671200
165.29999036	0.00000000	10.97441000	-4.73671200
165.49999035	0.00000000	10.64838000	-4.73671200
165.69999034	0.00000000	9.90403500	-4.69365100
165.89999033	0.00000000	9.52879000	-4.36146600
166.09999032	0.00000000	9.48572700	-3.94931100
166.29999030	0.00000000	9.48572700	-3.98622000
166.49999029	0.00000000	9.44266700	-3.94931100
166.69999028	0.00000000	9.11048200	-4.36146600
166.89999027	0.00000000	8.74138700	-4.64443900
167.09999026	0.00000000	9.11048200	-4.36146600
167.29999024	0.00000000	9.44266700	-3.99237200
167.49999023	0.00000000	9.48572700	-4.36146600
167.69999022	0.00000000	9.48572700	-4.69365100
167.89999021	0.00000000	9.48572700	-4.73671200
168.09999020	0.00000000	9.48572700	-4.73671200
168.29999018	0.00000000	9.52879000	-4.69365100
168.49999017	0.00000000	9.90403500	-4.36146600
168.69999016	0.00000000	10.59916000	-3.99237200
168.89999015	0.00000000	10.59916000	-4.36146600
169.09999014	0.00000000	9.90403500	-4.69365100
169.29999013	0.00000000	9.52879000	-4.73671200
169.49999011	0.00000000	9.48572700	-4.73671200
169.69999010	0.00000000	9.48572700	-4.73671200
169.89999009	0.00000000	9.48572700	-4.73671200
170.09999008	0.00000000	9.48572700	-4.73671200
170.29999007	0.00000000	9.48572700	-4.69365100
170.49999005	0.00000000	9.48572700	-4.31840500
170.69999004	0.00000000	9.48572700	-3.62327700
170.89999003	0.00000000	9.48572700	-3.62327700
171.09999002	0.00000000	9.48572700	-4.31840500
171.29999001	0.00000000	9.48572700	-4.69365100
171.49998999	0.00000000	9.48572700	-4.73671200
171.69998998	0.00000000	9.48572700	-4.73671200
171.89998997	0.00000000	9.48572700	-4.73671200
172.09998996	0.00000000	9.48572700	-4.73671200
172.29998995	0.00000000	9.48572700	-4.73671200
172.49998994	0.00000000	9.48572700	-4.73671200
172.69998992	0.00000000	9.48572700	-4.73671200
172.89998991	0.00000000	9.48572700	-4.73671200
173.09998990	0.00000000	9.48572700	-4.73671200
173.29998989	0.00000000	9.48572700	-4.73671200
173.49998988	0.00000000	9.48572700	-4.73671200
173.69998986	0.00000000	9.48572700	-4.73671200
173.89998985	0.00000000	9.48572700	-4.73671200
174.09998984	0.00000000	9.48572700	-4.73671200
174.29998983	0.00000000	9.48572700	-4.73671200
174.49998982	0.00000000	9.48572700	-4.73671200
174.69998980	0.00000000	9.48572700	-4.73671200
174.89998979	0.00000000	9.48572700	-4.73671200
175.09998978	0.00000000	9.48572700	-4.73671200
175.29998977	0.00000000	9.48572700	-4.73671200
175.49998976	0.00000000	9.48572700	-4.73671200
175.69998975	0.00000000	9.48572700	-4.73671200
175.89998973	0.00000000	9.48572700	-4.73671200
176.09998972	0.00000000	9.48572700	-4.73671200
176.29998971	0.00000000	9.48572700	-4.73671200
176.49998970	0.00000000	9.48572700	-4.73671200
176.69998969	0.00000000	9.48572700	-4.73671200
176.89998967	0.00000000	9.48572700	-4.73671200
177.09998966	0.00000000	9.48572700	-4.73671200
177.29998965	0.00000000	9.48572700	-4.73671200
177.49998964	0.00000000	9.48572700	-4.73671200
177.69998963	0.00000000	9.48572700	-4.73671200
177.89998961	0.00000000	9.48572700	-4.73671200
178.09998960	0.00000000	9.48572700	-4.73671200
178.29998959	0.00000000	9.48572700	-4.73671200
178.49998958	0.00000000	9.52879000	-4.73671200
178.69998957	0.00000000	9.86097400	-4.73671200
178.89998956	0.00000000	10.23007000	-4.69365100
179.09998954	0.00000000	9.86097400	-4.36146600
179.29998953	0.00000000	9.52879000	-3.99237200
179.49998952	0.00000000	9.48572700	-4.36146600
179.69998951	0.00000000	9.48572700	-4.69365100
179.89998950	0.00000000	9.48572700	-4.73671200
180.09998948	0.00000000	9.48572700	-4.73671200
180.29998947	0.00000000	9.48572700	-4.73671200
180.49998946	0.00000000	9.48572700	-4.73671200
180.69998945	0.00000000	9.48572700	-4.73671200
180.89998944	0.00000000	9.48572700	-4.69365100
181.09998942	0.00000000	9.48572700	-4.36146600
181.29998941	0.00000000	9.48572700	-3.94931100
181.49998940	0.00000000	9.48572700	-3.94315900
181.69998939	0.00000000	9.48572700	-3.53100400
181.89998938	0.00000000	9.48572700	-3.19881900
182.09998937	0.00000000	9.48572700	-3.15575800
182.29998935	0.00000000	9.48572700	-3.15575800
182.49998934	0.00000000	9.48572700	-3.19881900
182.69998933	0.00000000	9.48572700	-3.57406500
182.89998932	0.00000000	9.48572700	-4.31840500
183.09998931	0.00000000	9.48572700	-4.69365100
183.29998929	0.00000000	9.48572700	-4.73671200
183.49998928	0.00000000	9.48572700	-4.73671200
183.69998927	0.00000000	9.48572700	-4.73671200
183.89998926	0.00000000	9.48572700	-4.73671200
184.09998925	0.00000000	9.48572700	-4.73671200
184.29998923	0.00000000	9.48572700	-4.69365100
184.49998922	0.00000000	9.48572700	-4.31840500
184.69998921	0.00000000	9.48572700	-3.57406500
184.89998920	0.00000000	9.48572700	-3.19881900
185.09998919	0.00000000	9.48572700	-3.19881900
185.29998918	0.00000000	9.48572700	-3.57406500
185.49998916	0.00000000	9.48572700	-4.31840500
185.69998915	0.00000000	9.48572700	-4.69365100
185.89998914	0.00000000	9.48572700	-4.73671200
186.09998913	0.00000000	9.48572700	-4.73671200
186.29998912	0.00000000	9.48572700	-4.73671200
186.49998910	0.00000000	9.48572700	-4.73671200
186.69998909	0.00000000	9.48572700	-4.73671200
186.89998908	0.00000000	9.44266700	-4.73671200
187.09998907	0.00000000	9.11048200	-4.69365100
187.29998906	0.00000000	8.74138700	-4.31840500
187.49998904	0.00000000	9.11048200	-3.57406500
187.69998903	0.00000000	9.44266700	-3.19881900
187.89998902	0.00000000	9.48572700	-3.15575800
188.09998901	0.00000000	9.48572700	-3.19881900
188.29998900	0.00000000	9.48572700	-3.57406500
188.49998899	0.00000000	9.48572700	-4.31840500
188.69998897	0.00000000	9.48572700	-4.69365100
188.89998896	0.00000000	9.48572700	-4.73671200
189.09998895	0.00000000	9.48572700	-4.73671200
189.29998894	0.00000000	9.48572700	-4.73671200
189.49998893	0.00000000	9.48572700	-4.73671200
189.69998891	0.00000000	9.48572700	-4.73671200
189.89998890	0.00000000	9.48572700	-4.73671200
190.09998889	0.00000000	9.48572700	-4.69365100
190.29998888	0.00000000	9.48572700	-4.36146600
190.49998887	0.00000000	9.48572700	-3.99237200
190.69998885	0.00000000	9.48572700	-4.31840500
190.89998884	0.00000000	9.48572700	-4.26919300
191.09998883	0.00000000	9.48572700	-3.62327700
191.29998882	0.00000000	9.48572700	-3.62327700
191.49998881	0.00000000	9.48572700	-4.31840500
191.69998880	0.00000000	9.48572700	-4.69365100
191.89998878	0.00000000	9.48572700	-4.73671200
192.09998877	0.00000000	9.48572700	-4.73671200
192.29998876	0.00000000	9.48572700	-4.73671200
192.49998875	0.00000000	9.48572700	-4.73671200
192.69998874	0.00000000	9.48572700	-4.73671200
192.89998872	0.00000000	9.48572700	-4.73671200
193.09998871	0.00000000	9.48572700	-4.73671200
193.29998870	0.00000000	9.48572700	-4.73671200
193.49998869	0.00000000	9.48572700	-4.73671200
193.69998868	0.00000000	9.48572700	-4.73671200
193.89998866	0.00000000	9.48572700	-4.73671200
194.09998865	0.00000000	9.48572700	-4.69365100
194.29998864	0.00000000	9.48572700	-4.31840500
194.49998863	0.00000000	9.48572700	-3.57406500
194.69998862	0.00000000	9.48572700	-3.24803100
194.89998861	0.00000000	9.48572700	-3.57406500
195.09998859	0.00000000	9.48572700	-4.31840500
195.29998858	0.00000000	9.48572700	-4.69365100
195.49998857	0.00000000	9.48572700	-4.73671200
195.69998856	0.00000000	9.44266700	-4.73671200
195.89998855	0.00000000	9.06742000	-4.73671200
196.09998853	0.00000000	8.37229300	-4.73671200
