Time	Channel A	Channel B	Channel C
(us)	(V)	(mV)	(mV)

-4.49999956	0.00000000	9.48572700	-4.73671200
-4.29999957	0.00000000	9.48572700	-4.73671200
-4.09999958	0.00000000	9.48572700	-4.69365100
-3.89999959	0.00000000	9.48572700	-4.36146600
-3.69999960	0.00000000	9.48572700	-3.99237200
-3.49999962	0.00000000	9.48572700	-4.36146600
-3.29999963	0.00000000	9.48572700	-4.69365100
-3.09999964	0.00000000	9.48572700	-4.73671200
-2.89999965	0.00000000	9.48572700	-4.73671200
-2.69999966	0.00000000	9.48572700	-4.73671200
-2.49999968	0.00000000	9.48572700	-4.73671200
-2.29999969	0.00000000	9.48572700	-4.73671200
-2.09999970	0.00000000	9.48572700	-4.73671200
-1.89999971	0.00000000	9.48572700	-4.73671200
-1.69999972	0.00000000	9.48572700	-4.73671200
-1.49999973	0.00000000	9.48572700	-4.73671200
-1.29999975	0.00000000	9.48572700	-4.73671200
-1.09999976	0.00000000	9.48572700	-4.73671200
-0.89999977	0.00000000	9.48572700	-4.73671200
-0.69999978	0.00000000	9.48572700	-4.73671200
-0.49999979	0.00000000	9.48572700	-4.73671200
-0.29999981	0.31803640	9.48572700	-4.73671200
-0.09999982	0.63668800	9.48572700	-4.73671200
0.10000017	0.95533960	9.48572700	-4.73671200
0.30000016	0.95533960	9.48572700	-4.73671200
0.50000015	0.79601380	9.48572700	-4.73671200
0.70000013	0.31803640	9.48572700	-4.73671200
0.90000012	-0.63668800	9.48572700	-4.73671200
1.10000011	-1.59264300	9.48572700	-4.73671200
1.30000010	-2.38927200	9.48572700	-4.73671200
1.50000009	-2.70792300	9.48572700	-4.73671200
1.70000008	-2.38927200	9.48572700	-4.69365100
1.90000006	-1.11466500	9.48572700	-4.36146600
2.10000005	0.79601380	9.48572700	-3.99237200
2.30000004	3.02657500	9.48572700	-4.36146600
2.50000003	4.61921700	9.48572700	-4.69365100
2.70000002	5.41584600	9.48572700	-4.73671200
2.90000000	4.61921700	9.48572700	-4.73671200
3.09999999	2.54859700	9.48572700	-4.73671200
3.29999998	-0.63668800	9.48572700	-4.73671200
3.49999997	-3.98191400	9.48572700	-4.73671200
3.69999996	-6.69045300	9.48572700	-4.73671200
3.89999994	-7.96444400	9.48572700	-4.69365100
4.09999993	-7.16781500	9.48572700	-4.31840500
4.29999992	-4.45989200	9.48572700	-3.57406500
4.49999991	-0.47736220	9.48572700	-3.19881900
4.69999990	3.98191400	9.48572700	-3.19881900
4.89999989	7.64579200	9.48572700	-3.57406500
5.09999987	9.39837600	9.48572700	-4.36146600
5.29999986	8.92039900	9.48572700	-5.11195900
5.49999985	6.05315000	9.44266700	-5.89320800
5.69999984	1.75196900	9.11048200	-6.21924200
5.89999983	-3.02657500	8.74138700	-5.89320800
6.09999981	-7.16781500	9.11048200	-5.15501900
6.29999980	-9.23905000	9.44266700	-4.77977300
6.49999979	-9.07972400	9.48572700	-4.69365100
6.69999978	-6.69045300	9.48572700	-4.31840500
6.89999977	-2.70792300	9.48572700	-3.57406500
7.09999975	1.59264300	9.48572700	-3.24803100
7.29999974	5.25652100	9.48572700	-3.57406500
7.49999973	7.48646600	9.48572700	-4.31840500
7.69999972	7.64579200	9.48572700	-4.69365100
7.89999971	5.89382400	9.48572700	-4.73671200
8.09999970	2.86724900	9.48572700	-4.73671200
8.29999968	-0.31803640	9.48572700	-4.73671200
8.49999967	-3.18590100	9.48572700	-4.73671200
8.69999966	-4.77854300	9.48572700	-4.73671200
8.89999965	-5.09719500	9.48572700	-4.73671200
9.09999964	-4.14124000	9.48572700	-4.73671200
9.29999962	-2.38927200	9.48572700	-4.73671200
9.49999961	-0.47736220	9.48572700	-4.73671200
9.69999960	1.27399100	9.48572700	-4.73671200
9.89999959	2.22994600	9.48572700	-4.73671200
10.09999958	2.54859700	9.48572700	-4.73671200
10.29999956	2.07062000	9.48572700	-4.73671200
10.49999955	1.27399100	9.48572700	-4.73671200
10.69999954	0.47736220	9.48572700	-4.73671200
10.89999953	-0.31803640	9.48572700	-4.73671200
11.09999952	-0.79601380	9.48572700	-4.73671200
11.29999951	-0.95533960	9.48572700	-4.73671200
11.49999949	-0.95533960	9.48572700	-4.73671200
11.69999948	-0.79601380	9.48572700	-4.73671200
11.89999947	-0.31803640	9.48572700	-4.73671200
12.09999946	-0.15871060	9.48572700	-4.73671200
12.29999945	-0.15871060	9.48572700	-4.73671200
12.49999943	-0.15871060	9.48572700	-4.73671200
12.69999942	0.00000000	9.48572700	-4.73671200
12.89999941	0.00000000	9.48572700	-4.73671200
13.09999940	0.00000000	9.48572700	-4.73671200
13.29999939	0.00000000	9.48572700	-4.73671200
13.49999937	0.00000000	9.48572700	-4.73671200
13.69999936	0.00000000	9.48572700	-4.73671200
13.89999935	0.00000000	9.48572700	-4.73671200
14.09999934	-0.15871060	9.48572700	-4.73671200
14.29999933	-0.15871060	9.48572700	-4.73671200
14.49999932	-0.15871060	9.48572700	-4.73671200
14.69999930	0.00000000	9.48572700	-4.73671200
14.89999929	0.00000000	9.48572700	-4.73671200
15.09999928	0.00000000	9.48572700	-4.73671200
15.29999927	0.00000000	9.48572700	-4.73671200
15.49999926	0.00000000	9.48572700	-4.73671200
15.69999924	0.00000000	9.44266700	-4.73671200
15.89999923	0.00000000	9.11048200	-4.73671200
16.09999922	0.00000000	8.74138700	-4.73671200
16.29999921	0.00000000	9.11048200	-4.73671200
16.49999920	-0.15871060	9.44266700	-4.73671200
16.69999919	0.00000000	9.52879000	-4.73671200
16.89999917	0.00000000	9.86097400	-4.73671200
17.09999916	0.00000000	10.27313000	-4.73671200
17.29999915	0.00000000	10.27928000	-4.73671200
17.49999914	0.00000000	10.69144000	-4.73671200
17.69999913	0.00000000	10.97441000	-4.73671200
17.89999911	0.00000000	10.59916000	-4.73671200
18.09999910	0.00000000	9.44266700	-4.73671200
18.29999909	0.00000000	7.90477300	-4.73671200
18.49999908	0.00000000	6.36687900	-4.73671200
18.69999907	0.00000000	5.16117100	-4.73671200
18.89999905	0.00000000	4.45989200	-4.73671200
19.09999904	0.00000000	4.46604300	-4.73671200
19.29999903	0.00000000	6.08390700	-4.73671200
19.49999902	0.00000000	8.79060000	-4.73671200
19.69999901	0.00000000	12.64764000	-4.73671200
19.89999900	0.00000000	16.50467000	-4.73671200
20.09999898	0.00000000	19.21137000	-4.73671200
20.29999897	0.00000000	20.73696000	-4.73671200
20.49999896	0.00000000	19.82037000	-4.73671200
20.69999895	0.00000000	15.99409000	-4.73671200
20.89999894	0.00000000	9.72563900	-4.73671200
21.09999892	0.00000000	2.36835600	-4.73671200
21.29999891	0.00000000	-5.30265700	-4.73671200
21.49999890	0.00000000	-10.61147000	-4.73671200
21.69999889	0.00000000	-11.35581000	-4.73671200
21.89999888	0.00000000	-7.44955700	-4.73671200
22.09999886	0.00000000	1.15649600	-4.73671200
22.29999885	0.00000000	13.11516000	-4.73671200
22.49999884	0.00000000	25.86122000	-4.73671200
22.69999883	0.00000000	36.23893000	-4.73671200
22.89999882	0.00000000	41.54773000	-4.69365100
23.09999881	0.00000000	39.54232000	-4.31840500
23.29999879	0.00000000	29.82283000	-3.57406500
23.49999878	0.00000000	14.37008000	-3.19881900
23.69999877	0.00000000	-3.81397600	-3.11269700
23.89999876	0.00000000	-20.38017000	-2.78051200
24.09999875	0.00000000	-31.50221000	-2.46063000
24.29999873	0.00000000	-33.73523000	-3.24803100
24.49999872	0.00000000	-25.59670000	-4.73671200
24.69999871	0.00000000	-8.98129900	-6.31151500
24.89999870	0.00000000	12.69685000	-7.89247000
25.09999869	0.00000000	34.65797000	-9.38115100
25.29999867	0.00000000	51.63632000	-10.16855000
25.49999866	0.00000000	59.31963000	-9.75639700
25.69999865	0.00000000	55.82554000	-8.54453700
25.89999864	0.00000000	41.49852000	-5.75787400
26.09999863	0.00000000	19.48819000	-1.57480300
26.29999862	0.00000000	-5.25959600	2.64517700
26.49999860	0.00000000	-27.22072000	5.71481200
26.69999859	0.00000000	-41.12943000	6.87130900
26.89999858	0.00000000	-43.41781000	5.67175200
27.09999857	0.00000000	-33.82751000	2.14074800
27.29999856	0.00000000	-14.52387000	-3.70939900
27.49999854	0.00000000	9.39960600	-11.04823000
27.69999853	0.00000000	32.65871000	-18.35015000
27.89999852	0.00000000	50.38755000	-23.68971000
28.09999851	0.00000000	58.52608000	-25.17839000
28.29999850	0.00000000	55.13041000	-22.06570000
28.49999848	0.00000000	42.00910000	-14.67766000
28.69999847	0.00000000	22.32406000	-4.22613100
28.89999846	0.00000000	0.31988190	7.38188900
29.09999845	0.00000000	-18.28863000	17.74729000
29.29999844	0.00000000	-30.33957000	24.24951000
29.49999843	0.00000000	-33.82136000	24.58169000
29.69999841	0.00000000	-27.68824000	18.39936000
29.89999840	0.00000000	-14.28396000	6.74212600
30.09999839	0.00000000	2.78666300	-8.31077700
30.29999838	0.00000000	19.82037000	-23.73892000
30.49999837	0.00000000	33.82136000	-35.63607000
30.69999835	0.00000000	41.91683000	-41.06791000
30.89999834	0.00000000	42.75344000	-38.74877000
31.09999833	0.00000000	36.23893000	-29.40452000
31.29999832	0.00000000	24.69857000	-14.30241000
31.49999831	0.00000000	11.10974000	3.76476400
31.69999829	0.00000000	-2.05462600	19.98031000
31.89999828	0.00000000	-12.14321000	30.85015000
32.09999827	0.00000000	-17.21826000	34.70718000
32.29999826	0.00000000	-16.84301000	30.43184000
32.49999825	0.00000000	-11.02977000	18.86688000
32.69999824	0.00000000	-1.07037400	2.60211600
32.89999822	0.00000000	10.13779000	-15.18824000
33.09999821	0.00000000	19.86343000	-30.98548000
33.29999820	0.00000000	26.83932000	-41.02485000
33.49999819	0.00000000	29.53371000	-43.02411000
33.69999818	0.00000000	27.25763000	-37.21087000
33.89999816	0.00000000	21.11220000	-24.85236000
34.09999815	0.00000000	12.64764000	-8.26771600
34.29999814	0.00000000	4.13385800	8.32308000
34.49999813	0.00000000	-2.42987200	21.51206000
34.69999812	0.00000000	-5.91166300	28.85088000
34.89999810	0.00000000	-5.16732200	28.85088000
35.09999809	0.00000000	-0.98425190	21.55512000
35.29999808	0.00000000	5.21038300	8.83366100
35.49999807	0.00000000	12.09400000	-6.17618100
35.69999806	0.00000000	17.48893000	-20.10950000
35.89999805	0.00000000	19.82037000	-29.73671000
36.09999803	0.00000000	19.11294000	-33.26156000
36.29999802	0.00000000	15.63115000	-29.77977000
36.49999801	0.00000000	10.64838000	-20.62008000
36.69999800	0.00000000	5.25344500	-8.26771600
36.89999799	0.00000000	1.06422200	4.00467500
37.09999797	0.00000000	-0.51673230	13.28740000
37.29999796	0.00000000	0.59670270	17.10138000
37.49999795	0.00000000	3.67249000	14.86836000
37.69999794	0.00000000	7.94783400	7.20349400
37.89999793	0.00000000	12.55536000	-3.11269700
38.09999791	0.00000000	16.41855000	-13.10285000
38.29999790	0.00000000	18.32554000	-19.98031000
38.49999789	0.00000000	17.99951000	-21.55512000
38.69999788	0.00000000	15.67421000	-17.74729000
38.89999787	0.00000000	12.18012000	-10.07628000
39.09999786	0.00000000	7.90477300	-0.51058070
39.29999784	0.00000000	3.67249000	7.85556000
39.49999783	0.00000000	0.59670270	12.08169000
39.69999782	0.00000000	-0.60900590	10.96826000
39.89999781	0.00000000	0.17839570	5.20423200
40.09999780	0.00000000	2.46678100	-3.62327700
40.29999778	0.00000000	5.99163300	-13.18898000
40.49999777	0.00000000	9.86097400	-20.48474000
40.69999776	0.00000000	13.76107000	-23.55438000
40.89999775	0.00000000	16.83686000	-21.60433000
41.09999774	0.00000000	18.41781000	-14.72687000
41.29999772	0.00000000	18.37475000	-5.15501900
41.49999771	0.00000000	16.46161000	4.09079700
41.69999770	0.00000000	12.97982000	11.06053000
41.89999769	0.00000000	9.11048200	14.08095000
42.09999768	0.00000000	5.21038300	12.17397000
42.29999767	0.00000000	2.13459600	5.67175200
42.49999765	0.00000000	0.55364170	-3.11269700
42.69999764	0.00000000	0.55364170	-11.61417000
42.89999763	0.00000000	2.09153500	-17.79035000
43.09999762	0.00000000	4.78592500	-20.53395000
43.29999761	0.00000000	7.86171200	-19.37131000
43.49999759	0.00000000	10.59916000	-14.81299000
43.69999758	0.00000000	12.51230000	-8.31077700
43.89999757	0.00000000	13.34276000	-2.12844500
44.09999756	0.00000000	13.02288000	2.55905500
44.29999755	0.00000000	12.64764000	5.24729300
44.49999753	0.00000000	12.22933000	5.29650500
44.69999752	0.00000000	11.48499000	3.02042300
44.89999751	0.00000000	11.10974000	-0.46751960
45.09999750	0.00000000	11.02362000	-4.69365100
45.29999749	0.00000000	10.59916000	-8.50147600
45.49999748	0.00000000	9.39345400	-10.49459000
45.69999746	0.00000000	7.43725300	-10.91289000
45.89999745	0.00000000	4.69980300	-10.11934000
46.09999744	0.00000000	1.67322800	-7.84940900
46.29999743	0.00000000	-0.60900590	-5.19808000
46.49999742	0.00000000	-0.93503930	-3.19881900
46.69999740	0.00000000	1.02116100	-1.62401600
46.89999739	0.00000000	5.29650500	-0.51058070
47.09999738	0.00000000	11.06668000	-0.51058070
47.29999737	0.00000000	16.87992000	-1.62401600
47.49999736	0.00000000	21.53666000	-3.19881900
47.69999734	0.00000000	24.18799000	-5.15501900
47.89999733	0.00000000	23.72047000	-7.47416300
48.09999732	0.00000000	19.44513000	-9.33809000
48.29999731	0.00000000	12.13706000	-10.11934000
48.49999730	0.00000000	3.62942900	-9.33809000
48.69999729	0.00000000	-4.05388800	-7.43110200
48.89999727	0.00000000	-9.03051100	-4.68750000
49.09999726	0.00000000	-9.40575800	-1.62401600
49.29999725	0.00000000	-5.21653500	1.07037400
49.49999724	0.00000000	2.13459600	2.60211600
49.69999723	0.00000000	11.06668000	2.60211600
49.89999721	0.00000000	19.90650000	1.02116100
50.09999720	0.00000000	26.42101000	-2.08538400
50.29999719	0.00000000	28.32800000	-6.26845500
50.49999718	0.00000000	25.30143000	-10.11934000
50.69999717	0.00000000	18.37475000	-12.45079000
50.89999715	0.00000000	9.48572700	-13.23819000
51.09999714	0.00000000	0.64591530	-12.03248000
51.29999713	0.00000000	-5.91166300	-8.96284400
51.49999712	0.00000000	-8.19389700	-4.73671200
51.69999711	0.00000000	-5.91166300	-0.51058070
51.89999710	0.00000000	0.59670270	2.60211600
52.09999708	0.00000000	9.01820900	4.14000900
52.29999707	0.00000000	16.70152000	3.71555100
52.49999706	0.00000000	21.76427000	1.07037400
52.69999705	0.00000000	22.93307000	-2.78051200
52.89999704	0.00000000	20.65084000	-6.64370100
53.09999702	0.00000000	15.25591000	-10.11934000
53.29999701	0.00000000	8.32308000	-12.03248000
53.49999700	0.00000000	1.80856300	-12.03248000
53.69999699	0.00000000	-2.79281500	-10.11934000
53.89999698	0.00000000	-3.54330700	-6.72982200
54.09999696	0.00000000	-0.55979330	-3.66633800
54.29999695	0.00000000	4.83513700	-1.66707700
54.49999694	0.00000000	10.93135000	-0.55364170
54.69999693	0.00000000	15.99409000	-0.92888770
54.89999692	0.00000000	18.65773000	-2.78051200
55.09999691	0.00000000	18.69463000	-4.68750000
55.29999689	0.00000000	15.58194000	-6.22539300
55.49999688	0.00000000	10.64838000	-6.96358300
55.69999687	0.00000000	5.25344500	-6.22539300
55.89999686	0.00000000	1.06422200	-4.68750000
56.09999685	0.00000000	-0.51673230	-2.78051200
56.29999683	0.00000000	0.59670270	-0.92888770
56.49999682	0.00000000	3.67249000	-0.55364170
56.69999681	0.00000000	7.90477300	-1.71013800
56.89999680	0.00000000	12.13706000	-4.03543200
57.09999679	0.00000000	15.21284000	-7.51722400
57.29999677	0.00000000	16.41855000	-10.91289000
57.49999676	0.00000000	15.67421000	-13.18898000
57.69999675	0.00000000	13.71801000	-13.14591000
57.89999674	0.00000000	10.64838000	-10.45152000
58.09999673	0.00000000	7.20964500	-5.85014700
58.29999672	0.00000000	4.87819900	-0.46136810
58.49999670	0.00000000	3.67249000	4.18307100
58.69999669	0.00000000	3.71555100	7.20349400
58.89999668	0.00000000	5.21038300	7.52952700
59.09999667	0.00000000	7.48646600	4.09694900
59.29999666	0.00000000	9.44266700	-1.66707700
59.49999664	0.00000000	10.97441000	-8.21850300
59.69999663	0.00000000	11.76181000	-14.39468000
59.89999662	0.00000000	11.39887000	-18.21481000
60.09999661	0.00000000	10.64838000	-18.95300000
60.29999660	0.00000000	9.48572700	-15.84030000
60.49999658	0.00000000	8.37229300	-9.33809000
60.69999657	0.00000000	7.94783400	-1.62401600
60.89999656	0.00000000	7.94783400	5.67175200
61.09999655	0.00000000	8.32308000	10.68528000
61.29999654	0.00000000	9.06742000	11.80487000
61.49999653	0.00000000	9.44266700	9.14739100
61.69999651	0.00000000	9.48572700	2.97736200
61.89999650	0.00000000	9.44266700	-4.73671200
62.09999649	0.00000000	9.01820900	-12.49385000
62.29999648	0.00000000	7.86171200	-19.00221000
62.49999647	0.00000000	6.36687900	-22.02264000
62.69999645	0.00000000	5.25344500	-20.57702000
62.89999644	0.00000000	5.25344500	-15.56348000
63.09999643	0.00000000	6.36687900	-8.58759800
63.29999642	0.00000000	7.94783400	-0.51058070
63.49999641	0.00000000	9.86097400	6.40994000
63.69999639	0.00000000	11.76181000	10.27313000
63.89999638	0.00000000	12.55536000	10.68528000
64.09999637	0.00000000	12.55536000	7.24655500
64.29999636	0.00000000	11.76181000	1.48868100
64.49999635	0.00000000	9.86097400	-5.11195900
64.69999634	0.00000000	7.94783400	-11.65723000
64.89999632	0.00000000	6.36687900	-16.25861000
65.09999631	0.00000000	5.25344500	-17.92569000
65.29999630	0.00000000	5.25344500	-17.14444000
65.49999629	0.00000000	6.36687900	-14.43775000
65.69999628	0.00000000	7.90477300	-9.79945900
65.89999626	0.00000000	9.48572700	-4.82898600
66.09999625	0.00000000	10.97441000	-0.51058070
66.29999624	0.00000000	11.71875000	2.60211600
66.49999623	0.00000000	10.97441000	4.18307100
66.69999622	0.00000000	9.44266700	4.22613100
66.89999620	0.00000000	7.52952700	3.06348400
67.09999619	0.00000000	5.62869100	1.11343500
67.29999618	0.00000000	4.92125900	-1.62401600
67.49999617	0.00000000	5.62869100	-4.73671200
67.69999616	0.00000000	7.57258800	-7.84940900
67.89999615	0.00000000	9.86097400	-10.58686000
68.09999613	0.00000000	12.22933000	-12.53691000
68.29999612	0.00000000	14.09326000	-13.69956000
68.49999611	0.00000000	14.83760000	-13.61343000
68.69999610	0.00000000	13.63189000	-11.70029000
68.89999609	0.00000000	10.55610000	-8.17544300
69.09999607	0.00000000	6.32381900	-3.94315900
69.29999606	0.00000000	2.13459600	0.69512790
69.49999605	0.00000000	-0.55979330	4.13385800
69.69999604	0.00000000	-0.93503930	5.75787400
69.89999603	0.00000000	0.97194880	5.71481200
70.09999601	0.00000000	4.87819900	3.76476400
70.29999600	0.00000000	9.90403500	-0.13533460
70.49999599	0.00000000	15.29897000	-5.15501900
70.69999598	0.00000000	19.48819000	-10.53765000
70.89999597	0.00000000	21.02608000	-14.72072000
71.09999596	0.00000000	19.48819000	-16.30167000
71.29999594	0.00000000	15.25591000	-15.18824000
71.49999593	0.00000000	9.48572700	-12.11860000
71.69999592	0.00000000	3.67249000	-7.84940900
71.89999591	0.00000000	-0.98425190	-3.20497000
72.09999590	0.00000000	-3.67864200	1.02116100
72.29999588	0.00000000	-3.67864200	3.71555100
72.49999587	0.00000000	-0.98425190	4.14000900
72.69999586	0.00000000	3.67249000	2.60211600
72.89999585	0.00000000	9.44266700	-0.41830710
73.09999584	0.00000000	14.83760000	-3.90009800
73.29999582	0.00000000	18.37475000	-6.60063900
73.49999581	0.00000000	19.90650000	-8.54453700
73.69999580	0.00000000	19.11294000	-8.91978400
73.89999579	0.00000000	15.63115000	-7.84940900
74.09999578	0.00000000	10.69144000	-6.31151500
74.29999577	0.00000000	5.62869100	-4.82283400
74.49999575	0.00000000	1.80856300	-4.04158400
74.69999574	0.00000000	-0.18454720	-4.40452700
74.89999573	0.00000000	0.17839570	-5.15501900
75.09999572	0.00000000	2.04847400	-6.31151500
75.29999571	0.00000000	4.78592500	-7.38188900
75.49999569	0.00000000	7.90477300	-7.33882900
75.69999568	0.00000000	10.97441000	-5.80093500
75.89999567	0.00000000	13.20743000	-3.15575800
76.09999566	0.00000000	13.29970000	-0.46751960
76.29999565	0.00000000	11.86024000	1.48868100
76.49999563	0.00000000	10.69144000	2.60211600
76.69999562	0.00000000	9.48572700	2.14074800
76.89999561	0.00000000	8.37229300	-0.55364170
77.09999560	0.00000000	7.94783400	-4.77977300
77.29999559	0.00000000	7.94783400	-9.38115100
77.49999558	0.00000000	8.28001900	-13.28125000
77.69999556	0.00000000	8.64911400	-15.56348000
77.89999555	0.00000000	8.23695900	-15.92642000
78.09999554	0.00000000	7.52952700	-13.56422000
78.29999553	0.00000000	6.74212600	-8.96284400
78.49999552	0.00000000	6.36687900	-3.20497000
78.69999550	0.00000000	6.36687900	2.18380900
78.89999549	0.00000000	6.79133800	5.67175200
79.09999548	0.00000000	7.94783400	6.82824800
79.29999547	0.00000000	9.48572700	5.29650500
79.49999546	0.00000000	11.06668000	1.48868100
79.69999544	0.00000000	12.60458000	-3.15575800
79.89999543	0.00000000	13.67495000	-7.84940900
80.09999542	0.00000000	13.29970000	-12.07554000
80.29999541	0.00000000	11.39887000	-14.76993000
80.49999540	0.00000000	9.11048200	-15.18824000
80.69999539	0.00000000	6.74212600	-13.65650000
80.89999537	0.00000000	4.83513700	-10.53765000
81.09999536	0.00000000	3.67249000	-6.31151500
81.29999535	0.00000000	3.71555100	-2.08538400
81.49999534	0.00000000	5.21038300	1.02116100
81.69999533	0.00000000	7.52952700	2.64517700
81.89999531	0.00000000	9.86097400	3.06348400
82.09999530	0.00000000	12.18012000	2.68823800
82.29999529	0.00000000	13.67495000	1.43946800
82.49999528	0.00000000	13.67495000	-0.88582670
82.69999527	0.00000000	12.18012000	-4.31840500
82.89999525	0.00000000	9.90403500	-7.43110200
83.09999524	0.00000000	7.94783400	-9.79945900
83.29999523	0.00000000	6.36687900	-11.74951000
83.49999522	0.00000000	5.25344500	-12.49385000
83.69999521	0.00000000	5.25344500	-12.11860000
83.89999520	0.00000000	6.32381900	-10.53765000
84.09999518	0.00000000	7.43725300	-7.80019600
84.29999517	0.00000000	7.90477300	-4.31840500
84.49999516	0.00000000	8.32308000	-0.46751960
84.69999515	0.00000000	9.06742000	2.64517700
84.89999514	0.00000000	9.44266700	4.55831700
85.09999512	0.00000000	9.48572700	4.87819900
85.29999511	0.00000000	9.48572700	2.55905500
85.49999510	0.00000000	9.48572700	-1.57480300
85.69999509	0.00000000	9.52879000	-5.89320800
85.89999508	0.00000000	9.86097400	-9.79945900
86.09999506	0.00000000	10.23007000	-13.23819000
86.29999505	0.00000000	9.81791200	-14.76993000
86.49999504	0.00000000	9.06742000	-13.98253000
86.69999503	0.00000000	7.86171200	-11.28199000
86.89999502	0.00000000	6.36687900	-6.64370100
87.09999501	0.00000000	5.25344500	-1.71013800
87.29999499	0.00000000	5.21038300	2.22687000
87.49999498	0.00000000	5.94857300	4.50910400
87.69999497	0.00000000	6.79133800	4.87819900
87.89999496	0.00000000	8.32308000	2.55905500
88.09999495	0.00000000	10.23007000	-1.62401600
88.29999493	0.00000000	11.39887000	-6.26845500
88.49999492	0.00000000	12.18012000	-10.49459000
88.69999491	0.00000000	12.13706000	-13.18898000
88.89999490	0.00000000	11.02362000	-13.56422000
89.09999489	0.00000000	9.48572700	-11.65723000
89.29999487	0.00000000	7.90477300	-7.80019600
89.49999486	0.00000000	6.36687900	-3.20497000
89.69999485	0.00000000	5.25344500	1.02116100
89.89999484	0.00000000	5.25344500	3.71555100
90.09999483	0.00000000	6.32381900	4.09079700
90.29999482	0.00000000	7.48646600	2.18380900
90.49999480	0.00000000	8.28001900	-1.66707700
90.69999479	0.00000000	9.11048200	-6.26845500
90.89999478	0.00000000	9.81791200	-10.49459000
91.09999477	0.00000000	10.23007000	-13.14591000
91.29999476	0.00000000	9.86097400	-13.18898000
91.49999474	0.00000000	9.52879000	-10.86983000
91.69999473	0.00000000	9.48572700	-7.00664300
91.89999472	0.00000000	9.48572700	-2.04232300
92.09999471	0.00000000	9.44266700	2.14074800
92.29999470	0.00000000	9.06742000	4.09079700
92.49999468	0.00000000	8.32308000	3.71555100
92.69999467	0.00000000	7.90477300	1.02116100
92.89999466	0.00000000	7.48646600	-3.20497000
93.09999465	0.00000000	6.74212600	-7.80019600
93.29999464	0.00000000	6.32381900	-11.65723000
93.49999463	0.00000000	5.94857300	-13.56422000
93.69999461	0.00000000	5.62869100	-13.14591000
93.89999460	0.00000000	6.41609200	-10.07628000
94.09999459	0.00000000	7.90477300	-5.15501900
94.29999458	0.00000000	9.52879000	-0.59670270
94.49999457	0.00000000	11.44193000	2.14074800
94.69999455	0.00000000	13.34276000	2.55905500
94.89999454	0.00000000	14.05020000	1.07037400
95.09999453	0.00000000	13.29970000	-1.66707700
95.29999452	0.00000000	10.97441000	-5.15501900
95.49999451	0.00000000	7.90477300	-8.96284400
95.69999449	0.00000000	4.83513700	-11.61417000
95.89999448	0.00000000	2.50984200	-12.03248000
96.09999447	0.00000000	1.67322800	-10.49459000
96.29999446	0.00000000	1.71628900	-7.47416300
96.49999445	0.00000000	2.92814900	-3.99237200
96.69999444	0.00000000	5.99163300	-1.29183100
96.89999442	0.00000000	9.44266700	0.64591530
97.09999441	0.00000000	12.60458000	0.97810030
97.29999440	0.00000000	15.29897000	-0.51058070
97.49999439	0.00000000	16.79380000	-3.15575800
97.69999438	0.00000000	16.36934000	-5.85014700
97.89999436	0.00000000	13.71801000	-7.75713500
98.09999435	0.00000000	9.86097400	-8.58759800
98.29999434	0.00000000	5.99163300	-8.22465500
98.49999433	0.00000000	2.46678100	-7.47416300
98.69999432	0.00000000	0.17839570	-6.31151500
98.89999430	0.00000000	-0.60900590	-5.15501900
99.09999429	0.00000000	0.59670270	-4.40452700
99.29999428	0.00000000	3.62942900	-3.99237200
99.49999427	0.00000000	7.48646600	-4.36146600
99.69999426	0.00000000	10.97441000	-4.64443900
99.89999425	0.00000000	13.76107000	-4.31840500
100.09999423	0.00000000	15.63115000	-3.57406500
100.29999422	0.00000000	16.04331000	-3.15575800
100.49999421	0.00000000	14.51156000	-2.78051200
100.69999420	0.00000000	12.18012000	-2.46063000
100.89999419	0.00000000	9.06742000	-3.24803100
101.09999417	0.00000000	5.62869100	-4.73671200
101.29999416	0.00000000	3.29724400	-6.31151500
101.49999415	0.00000000	2.09153500	-7.84940900
101.69999414	0.00000000	2.09153500	-9.00590400
101.89999413	0.00000000	3.25418300	-9.38115100
102.09999411	0.00000000	5.16117100	-8.96284400
102.29999410	0.00000000	7.52952700	-7.38188900
102.49999409	0.00000000	9.81791200	-4.68750000
102.69999408	0.00000000	11.76181000	-1.66707700
102.89999407	0.00000000	12.55536000	0.64591530
103.09999406	0.00000000	12.60458000	1.43946800
103.29999404	0.00000000	12.18012000	1.02116100
103.49999403	0.00000000	10.97441000	-0.92888770
103.69999402	0.00000000	9.06742000	-4.36146600
103.89999401	0.00000000	6.79133800	-7.75713500
104.09999400	0.00000000	5.25344500	-10.11934000
104.29999398	0.00000000	4.78592500	-10.91289000
104.49999397	0.00000000	4.78592500	-10.53765000
104.69999396	0.00000000	5.21038300	-8.96284400
104.89999395	0.00000000	6.36687900	-6.26845500
105.09999394	0.00000000	7.90477300	-3.19881900
105.29999392	0.00000000	9.44266700	-0.51058070
105.49999391	0.00000000	10.59916000	1.02116100
105.69999390	0.00000000	10.97441000	1.02116100
105.89999389	0.00000000	10.59916000	-0.51058070
106.09999388	0.00000000	9.44266700	-3.15575800
106.29999387	0.00000000	7.94783400	-5.80093500
106.49999385	0.00000000	6.83439900	-7.38188900
106.69999384	0.00000000	6.79133800	-7.84940900
106.89999383	0.00000000	7.48646600	-7.84940900
107.09999382	0.00000000	7.90477300	-7.38188900
107.29999381	0.00000000	8.32308000	-5.85014700
107.49999379	0.00000000	9.06742000	-3.61712600
107.69999378	0.00000000	9.44266700	-2.12844500
107.89999377	0.00000000	9.44266700	-2.04232300
108.09999376	0.00000000	9.01820900	-2.82357300
108.29999375	0.00000000	7.90477300	-3.99237200
108.49999374	0.00000000	6.79133800	-5.89320800
108.69999372	0.00000000	6.36687900	-7.38188900
108.89999371	0.00000000	6.32381900	-7.80019600
109.09999370	0.00000000	6.36687900	-7.42495000
109.29999369	0.00000000	6.79133800	-6.26845500
109.49999368	0.00000000	7.90477300	-4.73671200
109.69999366	0.00000000	9.06742000	-3.19881900
109.89999365	0.00000000	9.86097400	-2.04232300
110.09999364	0.00000000	10.59916000	-1.66707700
110.29999363	0.00000000	10.55610000	-2.04232300
110.49999362	0.00000000	9.48572700	-3.19881900
110.69999360	0.00000000	8.32308000	-4.68750000
110.89999359	0.00000000	7.52952700	-5.89320800
111.09999358	0.00000000	6.74212600	-6.68676100
111.29999357	0.00000000	6.36687900	-7.47416300
111.49999356	0.00000000	6.36687900	-7.80019600
111.69999355	0.00000000	6.74212600	-7.47416300
111.89999353	0.00000000	7.52952700	-6.64370100
112.09999352	0.00000000	8.28001900	-5.51796200
112.29999351	0.00000000	9.06742000	-3.99237200
112.49999350	0.00000000	9.44266700	-3.24803100
112.69999349	0.00000000	9.44266700	-3.15575800
112.89999347	0.00000000	9.06742000	-3.19881900
113.09999346	0.00000000	8.32308000	-3.57406500
113.29999345	0.00000000	7.94783400	-4.31840500
113.49999344	0.00000000	7.90477300	-4.69365100
113.69999343	0.00000000	7.90477300	-4.77977300
113.89999341	0.00000000	7.90477300	-5.11195900
114.09999340	0.00000000	7.90477300	-5.51796200
114.29999339	0.00000000	7.90477300	-5.53026500
114.49999338	0.00000000	7.90477300	-5.93626900
114.69999337	0.00000000	7.90477300	-6.26845500
114.89999336	0.00000000	7.90477300	-6.31151500
115.09999334	0.00000000	7.90477300	-6.31151500
115.29999333	0.00000000	7.90477300	-6.31151500
115.49999332	0.00000000	7.90477300	-6.26845500
115.69999331	0.00000000	7.90477300	-5.89320800
115.89999330	0.00000000	7.90477300	-5.11195900
116.09999328	0.00000000	7.90477300	-4.36146600
116.29999327	0.00000000	7.86171200	-3.57406500
116.49999326	0.00000000	7.52952700	-3.19881900
116.69999325	0.00000000	7.16043300	-3.15575800
116.89999324	0.00000000	7.52952700	-3.19881900
117.09999322	0.00000000	7.86171200	-3.62327700
117.29999321	0.00000000	7.94783400	-4.73671200
117.49999320	0.00000000	8.32308000	-5.89320800
117.69999319	0.00000000	9.06742000	-6.68676100
117.89999318	0.00000000	9.44266700	-7.42495000
118.09999317	0.00000000	9.48572700	-7.42495000
118.29999315	0.00000000	9.44266700	-6.68676100
118.49999314	0.00000000	9.01820900	-5.93626900
118.69999313	0.00000000	7.90477300	-5.11195900
118.89999312	0.00000000	6.74212600	-4.36146600
119.09999311	0.00000000	5.94857300	-3.57406500
119.29999309	0.00000000	5.21038300	-3.19881900
119.49999308	0.00000000	5.25344500	-3.15575800
119.69999307	0.00000000	6.32381900	-3.15575800
119.89999306	0.00000000	7.48646600	-3.19881900
120.09999305	0.00000000	8.32308000	-3.57406500
120.29999303	0.00000000	9.48572700	-4.31840500
120.49999302	0.00000000	10.59916000	-4.73671200
120.69999301	0.00000000	11.02362000	-5.15501900
120.89999300	0.00000000	11.02362000	-5.89320800
121.09999299	0.00000000	10.59916000	-6.26845500
121.29999298	0.00000000	9.44266700	-6.31151500
121.49999296	0.00000000	7.90477300	-6.26845500
121.69999295	0.00000000	6.36687900	-5.89320800
121.89999294	0.00000000	5.21038300	-5.15501900
122.09999293	0.00000000	4.83513700	-4.77977300
122.29999292	0.00000000	5.16117100	-4.69365100
122.49999290	0.00000000	5.94857300	-4.31840500
122.69999289	0.00000000	6.74212600	-3.57406500
122.89999288	0.00000000	7.90477300	-3.19881900
123.09999287	0.00000000	9.01820900	-3.19881900
123.29999286	0.00000000	9.48572700	-3.57406500
123.49999284	0.00000000	9.86097400	-4.36146600
123.69999283	0.00000000	10.23007000	-5.11195900
123.89999282	0.00000000	9.86097400	-5.89320800
124.09999281	0.00000000	9.48572700	-6.26845500
124.29999280	0.00000000	9.01820900	-6.31151500
124.49999279	0.00000000	7.90477300	-6.31151500
124.69999277	0.00000000	6.79133800	-6.26845500
124.89999276	0.00000000	6.36687900	-5.89320800
125.09999275	0.00000000	6.32381900	-5.15501900
125.29999274	0.00000000	6.36687900	-4.73671200
125.49999273	0.00000000	6.74212600	-4.36146600
125.69999271	0.00000000	7.48646600	-3.94931100
125.89999270	0.00000000	7.90477300	-3.98622000
126.09999269	0.00000000	8.32308000	-3.94931100
126.29999268	0.00000000	9.11048200	-4.36146600
126.49999267	0.00000000	9.81791200	-4.69365100
126.69999265	0.00000000	10.23007000	-4.73671200
126.89999264	0.00000000	9.81791200	-4.77977300
127.09999263	0.00000000	9.06742000	-5.15501900
127.29999262	0.00000000	7.90477300	-5.89320800
127.49999261	0.00000000	6.74212600	-6.26845500
127.69999260	0.00000000	5.99163300	-6.26845500
127.89999258	0.00000000	5.57947800	-5.89320800
128.09999257	0.00000000	5.99163300	-5.15501900
128.29999256	0.00000000	6.69906400	-4.77977300
128.49999255	0.00000000	7.52952700	-4.73671200
128.69999254	0.00000000	8.32308000	-4.73671200
128.89999252	0.00000000	9.44266700	-4.73671200
129.09999251	0.00000000	10.18086000	-4.73671200
129.29999250	0.00000000	9.81791200	-4.73671200
129.49999249	0.00000000	9.11048200	-4.77977300
129.69999248	0.00000000	8.28001900	-5.15501900
129.89999246	0.00000000	7.52952700	-5.85014700
130.09999245	0.00000000	6.74212600	-5.85014700
130.29999244	0.00000000	6.36687900	-5.15501900
130.49999243	0.00000000	6.36687900	-4.77977300
130.69999242	0.00000000	6.74212600	-4.73671200
130.89999241	0.00000000	7.52952700	-4.73671200
131.09999239	0.00000000	8.28001900	-4.73671200
131.29999238	0.00000000	9.06742000	-4.73671200
131.49999237	0.00000000	9.44266700	-4.77977300
131.69999236	0.00000000	9.44266700	-5.15501900
131.89999235	0.00000000	9.06742000	-5.89320800
132.09999233	0.00000000	8.32308000	-6.26845500
132.29999232	0.00000000	7.90477300	-6.31151500
132.49999231	0.00000000	7.48646600	-6.26845500
132.69999230	0.00000000	6.79133800	-5.89320800
132.89999229	0.00000000	6.79133800	-5.11195900
133.09999227	0.00000000	7.48646600	-4.36146600
133.29999226	0.00000000	7.86171200	-3.57406500
133.49999225	0.00000000	7.90477300	-3.19881900
133.69999224	0.00000000	7.90477300	-3.19881900
133.89999223	0.00000000	7.90477300	-3.57406500
134.09999222	0.00000000	7.90477300	-4.31840500
134.29999220	0.00000000	7.90477300	-4.73671200
134.49999219	0.00000000	7.90477300	-5.15501900
134.69999218	0.00000000	7.90477300	-5.89320800
134.89999217	0.00000000	7.94783400	-6.26845500
135.09999216	0.00000000	8.32308000	-6.31151500
135.29999214	0.00000000	9.06742000	-6.26845500
135.49999213	0.00000000	9.39345400	-5.89320800
135.69999212	0.00000000	9.06742000	-5.11195900
135.89999211	0.00000000	8.32308000	-4.36146600
136.09999210	0.00000000	7.90477300	-3.57406500
136.29999208	0.00000000	7.48646600	-3.19881900
136.49999207	0.00000000	6.74212600	-3.19881900
136.69999206	0.00000000	6.36687900	-3.57406500
136.89999205	0.00000000	6.36687900	-4.31840500
137.09999204	0.00000000	6.74212600	-4.73671200
137.29999203	0.00000000	7.52952700	-5.15501900
137.49999201	0.00000000	8.28001900	-5.89320800
137.69999200	0.00000000	9.06742000	-6.26845500
137.89999199	0.00000000	9.44266700	-6.31151500
138.09999198	0.00000000	9.44266700	-6.31151500
138.29999197	0.00000000	9.01820900	-6.31151500
138.49999195	0.00000000	7.90477300	-6.26845500
138.69999194	0.00000000	6.79133800	-5.89320800
138.89999193	0.00000000	6.36687900	-5.11195900
139.09999192	0.00000000	6.32381900	-4.36146600
139.29999191	0.00000000	6.32381900	-3.57406500
139.49999189	0.00000000	6.36687900	-3.19881900
139.69999188	0.00000000	6.79133800	-3.15575800
139.89999187	0.00000000	7.90477300	-3.19881900
140.09999186	0.00000000	8.97514600	-3.57406500
140.29999185	0.00000000	9.06742000	-4.36146600
140.49999184	0.00000000	8.69832600	-5.11195900
140.69999182	0.00000000	8.69217500	-5.89320800
140.89999181	0.00000000	8.28001900	-6.26845500
141.09999180	0.00000000	7.90477300	-6.31151500
141.29999179	0.00000000	7.52952700	-6.26845500
141.49999178	0.00000000	7.16043300	-5.89320800
141.69999176	0.00000000	7.52952700	-5.11195900
141.89999175	0.00000000	7.86171200	-4.36146600
142.09999174	0.00000000	7.90477300	-3.57406500
142.29999173	0.00000000	7.90477300	-3.19881900
142.49999172	0.00000000	7.90477300	-3.19881900
142.69999170	0.00000000	7.90477300	-3.57406500
142.89999169	0.00000000	7.90477300	-4.36146600
143.09999168	0.00000000	7.90477300	-5.11195900
143.29999167	0.00000000	7.90477300	-5.89320800
143.49999166	0.00000000	7.90477300	-6.26845500
143.69999165	0.00000000	7.90477300	-6.31151500
143.89999163	0.00000000	7.90477300	-6.26845500
144.09999162	0.00000000	7.90477300	-5.89320800
144.29999161	0.00000000	7.90477300	-5.11195900
144.49999160	0.00000000	7.90477300	-4.36146600
144.69999159	0.00000000	7.90477300	-3.57406500
144.89999157	0.00000000	7.90477300	-3.19881900
145.09999156	0.00000000	7.90477300	-3.19881900
145.29999155	0.00000000	7.90477300	-3.57406500
145.49999154	0.00000000	7.86171200	-4.31840500
145.69999153	0.00000000	7.52952700	-4.69365100
145.89999151	0.00000000	7.11737200	-4.77977300
146.09999150	0.00000000	7.15428100	-5.15501900
146.29999149	0.00000000	7.11737200	-5.89320800
146.49999148	0.00000000	7.52952700	-6.26845500
146.69999147	0.00000000	7.86171200	-6.26845500
146.89999146	0.00000000	7.90477300	-5.89320800
147.09999144	0.00000000	7.90477300	-5.15501900
147.29999143	0.00000000	7.90477300	-4.77977300
147.49999142	0.00000000	7.90477300	-4.73671200
147.69999141	0.00000000	7.90477300	-4.73671200
147.89999140	0.00000000	7.86171200	-4.73671200
148.09999138	0.00000000	7.48646600	-4.73671200
148.29999137	0.00000000	6.74212600	-4.73671200
148.49999136	0.00000000	6.41609200	-4.77977300
148.69999135	0.00000000	6.74212600	-5.11195900
148.89999134	0.00000000	7.43725300	-5.51796200
149.09999132	0.00000000	7.48646600	-5.53026500
149.29999131	0.00000000	7.20964500	-5.93626900
149.49999130	0.00000000	7.90477300	-6.21924200
149.69999129	0.00000000	8.59990100	-5.89320800
149.89999128	0.00000000	8.28001900	-5.15501900
150.09999127	0.00000000	7.94783400	-4.77977300
150.29999125	0.00000000	7.90477300	-4.73671200
150.49999124	0.00000000	7.90477300	-4.69365100
150.69999123	0.00000000	7.90477300	-4.36146600
150.89999122	0.00000000	7.90477300	-3.94931100
151.09999121	0.00000000	7.90477300	-3.98622000
151.29999119	0.00000000	7.86171200	-3.94931100
151.49999118	0.00000000	7.52952700	-4.36146600
151.69999117	0.00000000	7.16043300	-4.69365100
151.89999116	0.00000000	7.52952700	-4.73671200
152.09999115	0.00000000	7.86171200	-4.77977300
152.29999113	0.00000000	7.90477300	-5.15501900
152.49999112	0.00000000	7.94783400	-5.85014700
152.69999111	0.00000000	8.28001900	-5.85014700
152.89999110	0.00000000	8.64911400	-5.15501900
153.09999109	0.00000000	8.28001900	-4.77977300
153.29999108	0.00000000	7.94783400	-4.73671200
153.49999106	0.00000000	7.86171200	-4.73671200
153.69999105	0.00000000	7.48646600	-4.73671200
153.89999104	0.00000000	6.74212600	-4.73671200
154.09999103	0.00000000	6.36687900	-4.73671200
154.29999102	0.00000000	6.32381900	-4.73671200
154.49999100	0.00000000	6.32381900	-4.73671200
154.69999099	0.00000000	6.36687900	-4.73671200
154.89999098	0.00000000	6.74212600	-4.73671200
155.09999097	0.00000000	7.48646600	-4.77977300
155.29999096	0.00000000	7.86171200	-5.15501900
155.49999094	0.00000000	7.90477300	-5.89320800
155.69999093	0.00000000	7.94783400	-6.21924200
155.89999092	0.00000000	8.28001900	-5.89320800
156.09999091	0.00000000	8.64911400	-5.15501900
156.29999090	0.00000000	8.28001900	-4.77977300
156.49999089	0.00000000	7.94783400	-4.73671200
156.69999087	0.00000000	7.86171200	-4.69365100
156.89999086	0.00000000	7.48646600	-4.36146600
157.09999085	0.00000000	6.74212600	-3.99237200
157.29999084	0.00000000	6.36687900	-4.36146600
157.49999083	0.00000000	6.36687900	-4.69365100
157.69999081	0.00000000	6.74212600	-4.73671200
157.89999080	0.00000000	7.48646600	-4.77977300
158.09999079	0.00000000	7.86171200	-5.15501900
158.29999078	0.00000000	7.90477300	-5.89320800
158.49999077	0.00000000	7.90477300	-6.26845500
158.69999075	0.00000000	7.90477300	-6.26845500
158.89999074	0.00000000	7.90477300	-5.89320800
159.09999073	0.00000000	7.90477300	-5.15501900
159.29999072	0.00000000	7.90477300	-4.73671200
159.49999071	0.00000000	7.86171200	-4.31840500
159.69999070	0.00000000	7.52952700	-3.57406500
159.89999068	0.00000000	7.11737200	-3.24803100
160.09999067	0.00000000	7.11122000	-3.57406500
160.29999066	0.00000000	6.69906400	-4.31840500
160.49999065	0.00000000	6.41609200	-4.69365100
160.69999064	0.00000000	6.74212600	-4.73671200
160.89999062	0.00000000	7.48646600	-4.77977300
161.09999061	0.00000000	7.86171200	-5.15501900
161.29999060	0.00000000	7.90477300	-5.89320800
161.49999059	0.00000000	7.90477300	-6.21924200
161.69999058	0.00000000	7.90477300	-5.89320800
161.89999056	0.00000000	7.90477300	-5.15501900
162.09999055	0.00000000	7.90477300	-4.77977300
162.29999054	0.00000000	7.90477300	-4.73671200
162.49999053	0.00000000	7.90477300	-4.73671200
162.69999052	0.00000000	7.90477300	-4.73671200
162.89999051	0.00000000	7.86171200	-4.73671200
163.09999049	0.00000000	7.48646600	-4.73671200
163.29999048	0.00000000	6.74212600	-4.73671200
163.49999047	0.00000000	6.36687900	-4.73671200
163.69999046	0.00000000	6.32381900	-4.73671200
163.89999045	0.00000000	6.32381900	-4.73671200
164.09999043	0.00000000	6.36687900	-4.73671200
164.29999042	0.00000000	6.74212600	-4.73671200
164.49999041	0.00000000	7.48646600	-4.77977300
164.69999040	0.00000000	7.86171200	-5.11195900
164.89999039	0.00000000	7.90477300	-5.47490100
165.09999037	0.00000000	7.90477300	-5.11195900
165.29999036	0.00000000	7.90477300	-4.77977300
165.49999035	0.00000000	7.90477300	-4.73671200
165.69999034	0.00000000	7.90477300	-4.73671200
165.89999033	0.00000000	7.86171200	-4.73671200
166.09999032	0.00000000	7.48646600	-4.73671200
166.29999030	0.00000000	6.74212600	-4.73671200
166.49999029	0.00000000	6.36687900	-4.73671200
166.69999028	0.00000000	6.32381900	-4.73671200
166.89999027	0.00000000	6.36687900	-4.73671200
167.09999026	0.00000000	6.74212600	-4.73671200
167.29999024	0.00000000	7.48646600	-4.73671200
167.49999023	0.00000000	7.86171200	-4.77977300
167.69999022	0.00000000	7.90477300	-5.11195900
167.89999021	0.00000000	7.90477300	-5.47490100
168.09999020	0.00000000	7.90477300	-5.11195900
168.29999018	0.00000000	7.90477300	-4.77977300
168.49999017	0.00000000	7.90477300	-4.73671200
168.69999016	0.00000000	7.90477300	-4.73671200
168.89999015	0.00000000	7.90477300	-4.73671200
169.09999014	0.00000000	7.90477300	-4.73671200
169.29999013	0.00000000	7.90477300	-4.73671200
169.49999011	0.00000000	7.86171200	-4.73671200
169.69999010	0.00000000	7.52952700	-4.73671200
169.89999009	0.00000000	7.11737200	-4.73671200
170.09999008	0.00000000	7.15428100	-4.73671200
170.29999007	0.00000000	7.11737200	-4.73671200
170.49999005	0.00000000	7.52952700	-4.73671200
170.69999004	0.00000000	7.86171200	-4.73671200
170.89999003	0.00000000	7.90477300	-4.73671200
171.09999002	0.00000000	7.90477300	-4.77977300
171.29999001	0.00000000	7.90477300	-5.11195900
171.49998999	0.00000000	7.90477300	-5.51796200
171.69998998	0.00000000	7.90477300	-5.53026500
171.89998997	0.00000000	7.90477300	-5.89320800
172.09998996	0.00000000	7.86171200	-5.85014700
172.29998995	0.00000000	7.52952700	-5.15501900
172.49998994	0.00000000	7.16043300	-4.77977300
172.69998992	0.00000000	7.48646600	-4.73671200
172.89998991	0.00000000	7.48646600	-4.73671200
173.09998990	0.00000000	7.16043300	-4.73671200
173.29998989	0.00000000	7.52952700	-4.73671200
173.49998988	0.00000000	7.86171200	-4.73671200
173.69998986	0.00000000	7.90477300	-4.73671200
173.89998985	0.00000000	7.90477300	-4.73671200
174.09998984	0.00000000	7.90477300	-4.73671200
174.29998983	0.00000000	7.90477300	-4.73671200
174.49998982	0.00000000	7.90477300	-4.73671200
174.69998980	0.00000000	7.90477300	-4.73671200
174.89998979	0.00000000	7.86171200	-4.73671200
175.09998978	0.00000000	7.52952700	-4.73671200
175.29998977	0.00000000	7.16043300	-4.73671200
175.49998976	0.00000000	7.52952700	-4.73671200
175.69998975	0.00000000	7.86171200	-4.73671200
175.89998973	0.00000000	7.90477300	-4.73671200
176.09998972	0.00000000	7.90477300	-4.73671200
176.29998971	0.00000000	7.90477300	-4.73671200
176.49998970	0.00000000	7.90477300	-4.73671200
176.69998969	0.00000000	7.90477300	-4.73671200
176.89998967	0.00000000	7.86171200	-4.73671200
177.09998966	0.00000000	7.48646600	-4.77977300
177.29998965	0.00000000	6.79133800	-5.11195900
177.49998964	0.00000000	6.74212600	-5.47490100
177.69998963	0.00000000	7.11122000	-5.11195900
177.89998961	0.00000000	7.11737200	-4.77977300
178.09998960	0.00000000	7.52952700	-4.73671200
178.29998959	0.00000000	7.86171200	-4.73671200
178.49998958	0.00000000	7.90477300	-4.73671200
178.69998957	0.00000000	7.90477300	-4.73671200
178.89998956	0.00000000	7.90477300	-4.73671200
179.09998954	0.00000000	7.90477300	-4.73671200
179.29998953	0.00000000	7.90477300	-4.73671200
179.49998952	0.00000000	7.90477300	-4.73671200
179.69998951	0.00000000	7.90477300	-4.77977300
179.89998950	0.00000000	7.90477300	-5.11195900
180.09998948	0.00000000	7.90477300	-5.51796200
180.29998947	0.00000000	7.90477300	-5.48105300
180.49998946	0.00000000	7.90477300	-5.51796200
180.69998945	0.00000000	7.90477300	-5.11195900
180.89998944	0.00000000	7.86171200	-4.77977300
181.09998942	0.00000000	7.48646600	-4.73671200
181.29998941	0.00000000	6.79133800	-4.73671200
181.49998940	0.00000000	6.79133800	-4.73671200
181.69998939	0.00000000	7.43725300	-4.73671200
181.89998938	0.00000000	7.48646600	-4.73671200
182.09998937	0.00000000	7.16043300	-4.73671200
182.29998935	0.00000000	7.52952700	-4.73671200
182.49998934	0.00000000	7.86171200	-4.73671200
182.69998933	0.00000000	7.90477300	-4.73671200
182.89998932	0.00000000	7.90477300	-4.77977300
183.09998931	0.00000000	7.90477300	-5.11195900
183.29998929	0.00000000	7.90477300	-5.47490100
183.49998928	0.00000000	7.90477300	-5.15501900
183.69998927	0.00000000	7.86171200	-5.15501900
183.89998926	0.00000000	7.48646600	-5.47490100
184.09998925	0.00000000	6.74212600	-5.11195900
184.29998923	0.00000000	6.36687900	-4.77977300
184.49998922	0.00000000	6.36687900	-4.73671200
184.69998921	0.00000000	6.74212600	-4.73671200
184.89998920	0.00000000	7.48646600	-4.73671200
185.09998919	0.00000000	7.86171200	-4.73671200
185.29998918	0.00000000	7.90477300	-4.73671200
185.49998916	0.00000000	7.90477300	-4.73671200
185.69998915	0.00000000	7.90477300	-4.77977300
185.89998914	0.00000000	7.90477300	-5.15501900
186.09998913	0.00000000	7.90477300	-5.89320800
186.29998912	0.00000000	7.90477300	-6.26845500
186.49998910	0.00000000	7.90477300	-6.26845500
186.69998909	0.00000000	7.86171200	-5.89320800
186.89998908	0.00000000	7.48646600	-5.15501900
187.09998907	0.00000000	6.74212600	-4.77977300
187.29998906	0.00000000	6.36687900	-4.73671200
187.49998904	0.00000000	6.36687900	-4.73671200
187.69998903	0.00000000	6.74212600	-4.73671200
187.89998902	0.00000000	7.48646600	-4.73671200
188.09998901	0.00000000	7.86171200	-4.73671200
188.29998900	0.00000000	7.90477300	-4.73671200
188.49998899	0.00000000	7.90477300	-4.77977300
188.69998897	0.00000000	7.90477300	-5.15501900
188.89998896	0.00000000	7.90477300	-5.89320800
189.09998895	0.00000000	7.90477300	-6.26845500
189.29998894	0.00000000	7.90477300	-6.31151500
189.49998893	0.00000000	7.86171200	-6.31151500
189.69998891	0.00000000	7.52952700	-6.26845500
189.89998890	0.00000000	7.11737200	-5.89320800
190.09998889	0.00000000	7.11122000	-5.15501900
190.29998888	0.00000000	6.69906400	-4.77977300
190.49998887	0.00000000	6.36687900	-4.73671200
190.69998885	0.00000000	6.32381900	-4.73671200
190.89998884	0.00000000	6.36687900	-4.73671200
191.09998883	0.00000000	6.74212600	-4.73671200
191.29998882	0.00000000	7.48646600	-4.73671200
191.49998881	0.00000000	7.86171200	-4.73671200
191.69998880	0.00000000	7.90477300	-4.73671200
191.89998878	0.00000000	7.90477300	-4.73671200
192.09998877	0.00000000	7.90477300	-4.73671200
192.29998876	0.00000000	7.90477300	-4.77977300
192.49998875	0.00000000	7.86171200	-5.15501900
192.69998874	0.00000000	7.48646600	-5.89320800
192.89998872	0.00000000	6.74212600	-6.21924200
193.09998871	0.00000000	6.36687900	-5.89320800
193.29998870	0.00000000	6.32381900	-5.15501900
193.49998869	0.00000000	6.32381900	-4.77977300
193.69998868	0.00000000	6.32381900	-4.73671200
193.89998866	0.00000000	6.36687900	-4.73671200
194.09998865	0.00000000	6.74212600	-4.73671200
194.29998864	0.00000000	7.48646600	-4.73671200
194.49998863	0.00000000	7.86171200	-4.73671200
194.69998862	0.00000000	7.90477300	-4.73671200
194.89998861	0.00000000	7.90477300	-4.73671200
195.09998859	0.00000000	7.90477300	-4.73671200
195.29998858	0.00000000	7.90477300	-4.73671200
195.49998857	0.00000000	7.86171200	-4.77977300
195.69998856	0.00000000	7.48646600	-5.11195900
195.89998855	0.00000000	6.74212600	-5.47490100
196.09998853	0.00000000	6.36687900	-5.15501900
