Time	Channel A	Channel B	Channel C
(us)	(V)	(mV)	(mV)

-4.49999956	0.00000000	12.64764000	-3.15575800
-4.29999957	0.00000000	12.64764000	-3.15575800
-4.09999958	0.00000000	12.64764000	-3.15575800
-3.89999959	0.00000000	12.64764000	-3.15575800
-3.69999960	0.00000000	12.64764000	-3.15575800
-3.49999962	0.00000000	12.64764000	-3.15575800
-3.29999963	0.00000000	12.64764000	-3.15575800
-3.09999964	0.00000000	12.64764000	-3.15575800
-2.89999965	0.00000000	12.64764000	-3.15575800
-2.69999966	0.00000000	12.64764000	-3.15575800
-2.49999968	0.00000000	12.64764000	-3.15575800
-2.29999969	0.00000000	12.64764000	-3.15575800
-2.09999970	0.00000000	12.64764000	-3.15575800
-1.89999971	0.00000000	12.64764000	-3.15575800
-1.69999972	0.00000000	12.64764000	-3.15575800
-1.49999973	0.00000000	12.64764000	-3.15575800
-1.29999975	0.00000000	12.64764000	-3.15575800
-1.09999976	0.00000000	12.64764000	-3.15575800
-0.89999977	0.00000000	12.64764000	-3.15575800
-0.69999978	0.00000000	12.64764000	-3.15575800
-0.49999979	0.00000000	12.64764000	-3.15575800
-0.29999981	0.31803640	12.64764000	-3.15575800
-0.09999982	0.63668800	12.64764000	-3.15575800
0.10000017	0.95533960	12.64764000	-3.15575800
0.30000016	0.95533960	12.64764000	-3.15575800
0.50000015	0.95533960	12.64764000	-3.15575800
0.70000013	0.47736220	12.64764000	-3.15575800
0.90000012	-0.31803640	12.64764000	-3.15575800
1.10000011	-1.27399100	12.64764000	-3.15575800
1.30000010	-2.22994600	12.60458000	-3.15575800
1.50000009	-2.70792300	12.27239000	-3.15575800
1.70000008	-2.54859700	11.90330000	-3.15575800
1.90000006	-1.59264300	12.27239000	-3.15575800
2.10000005	0.31803640	12.60458000	-3.15575800
2.30000004	2.38927200	12.64764000	-3.15575800
2.50000003	4.30056600	12.64764000	-3.15575800
2.70000002	5.25652100	12.64764000	-3.19881900
2.90000000	5.09719500	12.64764000	-3.53100400
3.09999999	3.34522600	12.64764000	-3.94315900
3.29999998	0.31803640	12.64764000	-3.90625000
3.49999997	-3.02657500	12.64764000	-3.94315900
3.69999996	-6.05315000	12.64764000	-3.53100400
3.89999994	-7.80511800	12.64764000	-3.19881900
4.09999993	-7.64579200	12.64764000	-3.15575800
4.29999992	-5.41584600	12.64764000	-3.15575800
4.49999991	-1.59264300	12.64764000	-3.15575800
4.69999990	2.70792300	12.64764000	-3.15575800
4.89999989	6.69045300	12.64764000	-3.15575800
5.09999987	9.07972400	12.64764000	-3.19881900
5.29999986	9.23905000	12.64764000	-3.57406500
5.49999985	7.00848900	12.64764000	-4.31840500
5.69999984	3.02657500	12.64764000	-4.69365100
5.89999983	-1.75196900	12.64764000	-4.69365100
6.09999981	-6.05315000	12.64764000	-4.31840500
6.29999980	-8.92039900	12.64764000	-3.57406500
6.49999979	-9.39837600	12.64764000	-3.19881900
6.69999978	-7.64579200	12.64764000	-3.15575800
6.89999977	-3.98191400	12.64764000	-3.15575800
7.09999975	0.31803640	12.64764000	-3.15575800
7.29999974	4.45989200	12.64764000	-3.19881900
7.49999973	7.00848900	12.64764000	-3.53100400
7.69999972	7.80511800	12.64764000	-3.90009800
7.89999971	6.53112700	12.64764000	-3.53100400
8.09999970	3.82258900	12.64764000	-3.19881900
8.29999968	0.47736220	12.64764000	-3.15575800
8.49999967	-2.54859700	12.64764000	-3.15575800
8.69999966	-4.45989200	12.64764000	-3.15575800
8.89999965	-5.25652100	12.60458000	-3.15575800
9.09999964	-4.45989200	12.27239000	-3.15575800
9.29999962	-2.86724900	11.90330000	-3.15575800
9.49999961	-0.95533960	12.27239000	-3.15575800
9.69999960	0.95533960	12.60458000	-3.15575800
9.89999959	2.07062000	12.64764000	-3.15575800
10.09999958	2.54859700	12.64764000	-3.15575800
10.29999956	2.22994600	12.69070000	-3.15575800
10.49999955	1.59264300	13.02288000	-3.15575800
10.69999954	0.63668800	13.34276000	-3.15575800
10.89999953	-0.15871060	12.64764000	-3.15575800
11.09999952	-0.63668800	11.95251000	-3.15575800
11.29999951	-0.95533960	12.27239000	-3.15575800
11.49999949	-0.95533960	12.60458000	-3.15575800
11.69999948	-0.79601380	12.64764000	-3.15575800
11.89999947	-0.47736220	12.64764000	-3.15575800
12.09999946	-0.15871060	12.64764000	-3.15575800
12.29999945	-0.15871060	12.64764000	-3.15575800
12.49999943	-0.15871060	12.64764000	-3.15575800
12.69999942	0.00000000	12.64764000	-3.15575800
12.89999941	0.00000000	12.64764000	-3.15575800
13.09999940	0.15871060	12.64764000	-3.15575800
13.29999939	0.00000000	12.64764000	-3.15575800
13.49999937	0.00000000	12.64764000	-3.15575800
13.69999936	0.00000000	12.64764000	-3.15575800
13.89999935	0.00000000	12.64764000	-3.15575800
14.09999934	-0.15871060	12.64764000	-3.15575800
14.29999933	-0.15871060	12.64764000	-3.15575800
14.49999932	-0.15871060	12.64764000	-3.15575800
14.69999930	0.00000000	12.64764000	-3.15575800
14.89999929	0.00000000	12.64764000	-3.15575800
15.09999928	0.00000000	12.64764000	-3.15575800
15.29999927	0.00000000	12.64764000	-3.15575800
15.49999926	0.00000000	12.64764000	-3.15575800
15.69999924	0.00000000	12.60458000	-3.15575800
15.89999923	0.00000000	12.27239000	-3.15575800
16.09999922	0.00000000	11.90330000	-3.15575800
16.29999921	0.00000000	12.27239000	-3.15575800
16.49999920	0.00000000	12.60458000	-3.15575800
16.69999919	-0.15871060	12.69070000	-3.15575800
16.89999917	0.00000000	13.06594000	-3.15575800
17.09999916	0.00000000	13.81028000	-3.15575800
17.29999915	0.00000000	14.18553000	-3.15575800
17.49999914	0.00000000	14.22859000	-3.15575800
17.69999913	0.00000000	14.18553000	-3.15575800
17.89999911	0.00000000	13.76107000	-3.15575800
18.09999910	0.00000000	12.60458000	-3.15575800
18.29999909	0.00000000	11.06668000	-3.15575800
18.49999908	0.00000000	9.48572700	-3.15575800
18.69999907	0.00000000	7.94783400	-3.15575800
18.89999905	0.00000000	6.83439900	-3.15575800
19.09999904	0.00000000	6.87746000	-3.15575800
19.29999903	0.00000000	8.41535400	-3.15575800
19.49999902	0.00000000	11.15896000	-3.15575800
19.69999901	0.00000000	14.64690000	-3.19881900
19.89999900	0.00000000	18.55315000	-3.53100400
20.09999898	0.00000000	21.95497000	-3.90009800
20.29999897	0.00000000	23.85581000	-3.53100400
20.49999896	0.00000000	23.02534000	-3.19881900
20.69999895	0.00000000	19.53125000	-3.15575800
20.89999894	0.00000000	13.67495000	-3.15575800
21.09999892	0.00000000	6.32381900	-3.15575800
21.29999891	0.00000000	-0.98425190	-3.15575800
21.49999890	0.00000000	-6.37303100	-3.15575800
21.69999889	0.00000000	-8.24311000	-3.15575800
21.89999888	0.00000000	-5.81938900	-3.15575800
22.09999886	0.00000000	1.57480300	-3.15575800
22.29999885	0.00000000	12.78297000	-3.15575800
22.49999884	0.00000000	25.15994000	-3.15575800
22.69999883	0.00000000	36.33120000	-3.15575800
22.89999882	0.00000000	43.17175000	-3.15575800
23.09999881	0.00000000	43.12869000	-3.15575800
23.29999879	0.00000000	35.72834000	-3.11269700
23.49999878	0.00000000	22.13952000	-2.73745100
23.69999877	0.00000000	4.74286400	-1.99311000
23.89999876	0.00000000	-12.56767000	-1.61786400
24.09999875	0.00000000	-25.26452000	-1.61786400
24.29999873	0.00000000	-29.87205000	-2.04232300
24.49999872	0.00000000	-25.17224000	-3.19881900
24.69999871	0.00000000	-11.54650000	-4.73671200
24.89999870	0.00000000	8.92593500	-6.31151500
25.09999869	0.00000000	31.62524000	-7.84940900
25.29999867	0.00000000	50.51673000	-8.96284400
25.49999866	0.00000000	60.98671000	-8.91978400
25.69999865	0.00000000	60.94365000	-7.38188900
25.89999864	0.00000000	50.01230000	-4.68750000
26.09999863	0.00000000	29.58292000	-1.53174200
26.29999862	0.00000000	4.50910400	1.99311000
26.49999860	0.00000000	-18.66388000	5.80093500
26.69999859	0.00000000	-35.27313000	8.40920300
26.89999858	0.00000000	-41.04330000	8.36614100
27.09999857	0.00000000	-34.48573000	5.25344500
27.29999856	0.00000000	-17.54429000	-0.55364170
27.49999854	0.00000000	6.04084600	-7.89247000
27.69999853	0.00000000	30.33341000	-15.23130000
27.89999852	0.00000000	50.09842000	-20.99532000
28.09999851	0.00000000	60.94365000	-23.64665000
28.29999850	0.00000000	60.98671000	-22.02264000
28.49999848	0.00000000	50.56594000	-15.84030000
28.69999847	0.00000000	32.04970000	-6.13312000
28.89999846	0.00000000	10.03937000	5.11195900
29.09999845	0.00000000	-10.42692000	16.25861000
29.29999844	0.00000000	-24.80315000	24.24951000
29.49999843	0.00000000	-30.29035000	26.15649000
29.69999841	0.00000000	-26.88853000	21.51206000
29.89999840	0.00000000	-15.68036000	11.06053000
30.09999839	0.00000000	0.55364170	-3.24803100
30.29999838	0.00000000	18.33169000	-18.30093000
30.49999837	0.00000000	33.82136000	-31.07775000
30.69999835	0.00000000	43.54699000	-38.74877000
30.89999834	0.00000000	46.33366000	-39.44390000
31.09999833	0.00000000	42.09522000	-32.05585000
31.29999832	0.00000000	32.04970000	-17.79650000
31.49999831	0.00000000	18.55315000	-0.04306102
31.69999829	0.00000000	4.60137700	17.32899000
31.89999828	0.00000000	-6.61294300	30.43184000
32.09999827	0.00000000	-13.26279000	36.28199000
32.29999826	0.00000000	-14.05635000	33.96284000
32.49999825	0.00000000	-9.49187900	24.29257000
32.69999824	0.00000000	-0.93503930	8.78444900
32.89999822	0.00000000	9.86097400	-9.33809000
33.09999821	0.00000000	20.69390000	-26.34104000
33.29999820	0.00000000	28.79552000	-38.28740000
33.49999819	0.00000000	32.70177000	-42.60580000
33.69999818	0.00000000	31.58218000	-38.74877000
33.89999816	0.00000000	26.23031000	-27.92200000
34.09999815	0.00000000	18.50394000	-12.07554000
34.29999814	0.00000000	9.99630800	5.25344500
34.49999813	0.00000000	2.68823800	19.93110000
34.69999812	0.00000000	-1.58710600	28.90010000
34.89999810	0.00000000	-2.00541300	30.85015000
35.09999809	0.00000000	1.06422200	25.83046000
35.29999808	0.00000000	6.83439900	14.59153000
35.49999807	0.00000000	13.71801000	-0.37524600
35.69999806	0.00000000	19.48819000	-15.42200000
35.89999805	0.00000000	22.60704000	-26.62401000
36.09999803	0.00000000	22.65010000	-32.05585000
36.29999802	0.00000000	19.95571000	-30.52411000
36.49999801	0.00000000	15.34203000	-22.48400000
36.69999800	0.00000000	9.95324800	-10.58686000
36.89999799	0.00000000	5.33956700	2.14074800
37.09999797	0.00000000	2.64517700	12.50615000
37.29999796	0.00000000	2.64517700	17.93799000
37.49999795	0.00000000	5.29650500	17.19365000
37.69999794	0.00000000	9.52879000	11.10359000
37.89999793	0.00000000	14.18553000	1.48868100
38.09999791	0.00000000	18.41781000	-8.83366100
38.29999790	0.00000000	21.11220000	-16.91068000
38.49999789	0.00000000	21.48745000	-20.35556000
38.69999788	0.00000000	19.58046000	-18.49163000
38.89999787	0.00000000	15.76649000	-11.94021000
39.09999786	0.00000000	11.48499000	-2.78051200
39.29999784	0.00000000	7.57258800	6.36687900
39.49999783	0.00000000	4.09079700	12.08169000
39.69999782	0.00000000	2.22687000	12.50615000
39.89999781	0.00000000	2.55290300	7.94783400
40.09999780	0.00000000	4.83513700	-0.13533460
40.29999778	0.00000000	7.94783400	-9.38115100
40.49999777	0.00000000	11.53420000	-17.79650000
40.69999776	0.00000000	15.76649000	-22.71777000
40.89999775	0.00000000	19.58046000	-21.93036000
41.09999774	0.00000000	21.53666000	-15.88336000
41.29999772	0.00000000	21.57972000	-6.64370100
41.49999771	0.00000000	20.04183000	2.97736200
41.69999770	0.00000000	17.29823000	11.06053000
41.89999769	0.00000000	13.81028000	15.23745000
42.09999768	0.00000000	9.90403500	14.16708000
42.29999767	0.00000000	6.45915300	8.82750900
42.49999765	0.00000000	4.13385800	1.11343500
42.69999764	0.00000000	3.71555100	-7.38188900
42.89999763	0.00000000	4.83513700	-14.67766000
43.09999762	0.00000000	6.79133800	-18.90994000
43.29999761	0.00000000	9.52879000	-18.95300000
43.49999759	0.00000000	12.60458000	-15.14518000
43.69999758	0.00000000	15.25591000	-9.05511800
43.89999757	0.00000000	16.46161000	-2.50369100
44.09999756	0.00000000	16.18479000	2.55905500
44.29999755	0.00000000	15.85261000	5.67175200
44.49999753	0.00000000	15.76649000	6.45300100
44.69999752	0.00000000	15.39124000	4.55831700
44.89999751	0.00000000	14.64690000	1.15649600
45.09999750	0.00000000	14.22859000	-2.73745100
45.29999749	0.00000000	13.76107000	-6.17618100
45.49999748	0.00000000	12.55536000	-8.54453700
45.69999746	0.00000000	10.59916000	-9.33809000
45.89999745	0.00000000	7.90477300	-8.96284400
46.09999744	0.00000000	5.21038300	-7.43110200
46.29999743	0.00000000	3.29724400	-5.11195900
46.49999742	0.00000000	2.55290300	-2.82972400
46.69999740	0.00000000	3.80782500	-0.83661410
46.89999739	0.00000000	7.29576700	0.28297240
47.09999738	0.00000000	12.73991000	0.69512790
47.29999737	0.00000000	18.87918000	-0.09227362
47.49999736	0.00000000	24.27411000	-1.62401600
47.69999734	0.00000000	27.34990000	-3.57406500
47.89999733	0.00000000	27.30069000	-5.89320800
48.09999732	0.00000000	23.76353000	-7.80019600
48.29999731	0.00000000	16.83686000	-8.96284400
48.49999730	0.00000000	8.37229300	-8.91978400
48.69999729	0.00000000	0.64591530	-7.38188900
48.89999727	0.00000000	-4.79207600	-4.68750000
49.09999726	0.00000000	-6.66215500	-1.62401600
49.29999725	0.00000000	-4.33070900	1.11343500
49.49999724	0.00000000	2.26993100	3.02042300
49.69999723	0.00000000	11.48499000	3.76476400
49.89999721	0.00000000	21.11220000	2.60211600
50.09999720	0.00000000	28.42027000	-0.09227362
50.29999719	0.00000000	31.53912000	-3.57406500
50.49999718	0.00000000	29.95817000	-7.42495000
50.69999717	0.00000000	23.81275000	-10.49459000
50.89999715	0.00000000	14.60384000	-12.03248000
51.09999714	0.00000000	5.38877900	-11.61417000
51.29999713	0.00000000	-1.58710600	-8.91978400
51.49999712	0.00000000	-4.70595500	-4.73671200
51.69999711	0.00000000	-3.54330700	-0.46751960
51.89999710	0.00000000	1.43946800	3.02042300
52.09999708	0.00000000	9.15354300	5.29650500
52.29999707	0.00000000	17.16289000	5.29650500
52.49999706	0.00000000	23.34522000	3.02042300
52.69999705	0.00000000	25.67667000	-0.41830710
52.89999704	0.00000000	24.18799000	-4.31840500
53.09999702	0.00000000	19.53125000	-7.75713500
53.29999701	0.00000000	12.64764000	-10.07628000
53.49999700	0.00000000	5.76402500	-10.45152000
53.69999699	0.00000000	1.15649600	-8.96284400
53.89999698	0.00000000	-0.04921259	-6.31151500
54.09999696	0.00000000	2.22687000	-3.61712600
54.29999695	0.00000000	6.83439900	-1.66707700
54.49999694	0.00000000	12.64764000	-0.51058070
54.69999693	0.00000000	18.37475000	-0.51058070
54.89999692	0.00000000	22.18258000	-1.66707700
55.09999691	0.00000000	22.60704000	-3.53100400
55.29999689	0.00000000	19.95571000	-5.38262700
55.49999688	0.00000000	15.34203000	-5.80093500
55.69999687	0.00000000	9.95324800	-5.06274600
55.89999686	0.00000000	5.33956700	-3.90009800
56.09999685	0.00000000	2.64517700	-1.95004900
56.29999683	0.00000000	2.64517700	-0.13533460
56.49999682	0.00000000	5.29650500	0.65206690
56.69999681	0.00000000	9.48572700	-0.13533460
56.89999680	0.00000000	13.76107000	-2.08538400
57.09999679	0.00000000	17.25517000	-5.19808000
57.29999677	0.00000000	19.58046000	-8.96284400
57.49999676	0.00000000	19.90650000	-11.61417000
57.69999675	0.00000000	18.04257000	-12.03248000
57.89999674	0.00000000	14.60384000	-10.40846000
58.09999673	0.00000000	11.15896000	-6.54527500
58.29999672	0.00000000	8.41535400	-0.79355310
58.49999670	0.00000000	6.87746000	4.51525500
58.69999669	0.00000000	6.83439900	8.03395600
58.89999668	0.00000000	7.99704600	8.74138700
59.09999667	0.00000000	9.90403500	6.45300100
59.29999666	0.00000000	12.18012000	1.39640700
59.49999664	0.00000000	13.71801000	-5.11195900
59.69999663	0.00000000	14.18553000	-11.65723000
59.89999662	0.00000000	14.18553000	-16.25861000
60.09999661	0.00000000	13.76107000	-17.83957000
60.29999660	0.00000000	12.64764000	-16.21555000
60.49999658	0.00000000	11.53420000	-11.18971000
60.69999657	0.00000000	11.10974000	-3.53100400
60.89999656	0.00000000	11.10974000	4.14000900
61.09999655	0.00000000	11.48499000	9.94094400
61.29999654	0.00000000	12.22933000	12.59227000
61.49999653	0.00000000	12.60458000	11.06053000
61.69999651	0.00000000	12.64764000	5.67175200
61.89999650	0.00000000	12.60458000	-1.99311000
62.09999649	0.00000000	12.18012000	-10.11934000
62.29999648	0.00000000	11.02362000	-16.67692000
62.49999647	0.00000000	9.52879000	-20.52780000
62.69999645	0.00000000	8.41535400	-20.48474000
62.89999644	0.00000000	8.41535400	-16.30167000
63.09999643	0.00000000	9.52879000	-9.38115100
63.29999642	0.00000000	11.06668000	-1.62401600
63.49999641	0.00000000	12.64764000	5.67175200
63.69999639	0.00000000	14.18553000	10.68528000
63.89999638	0.00000000	15.34203000	11.84793000
64.09999637	0.00000000	15.71727000	9.61491000
64.29999636	0.00000000	15.29897000	4.55831700
64.49999635	0.00000000	13.76107000	-1.95004900
64.69999634	0.00000000	11.48499000	-8.54453700
64.89999632	0.00000000	9.57800100	-13.56422000
65.09999631	0.00000000	8.37229300	-16.30167000
65.29999630	0.00000000	7.99704600	-16.35089000
65.49999629	0.00000000	8.41535400	-14.03174000
65.69999628	0.00000000	9.95324800	-10.16855000
65.89999626	0.00000000	12.18012000	-5.15501900
66.09999625	0.00000000	13.76107000	-0.51058070
66.29999624	0.00000000	14.51156000	3.02042300
66.49999623	0.00000000	14.50541000	5.33956700
66.69999622	0.00000000	12.97982000	5.75787400
66.89999620	0.00000000	11.10974000	4.64443900
67.09999619	0.00000000	9.52879000	2.69439000
67.29999618	0.00000000	8.41535400	-0.04306102
67.49999617	0.00000000	8.45841400	-3.15575800
67.69999616	0.00000000	9.95324800	-6.31151500
67.89999615	0.00000000	12.27239000	-9.38115100
68.09999613	0.00000000	14.60384000	-11.74951000
68.29999612	0.00000000	16.87992000	-12.91215000
68.49999611	0.00000000	17.95029000	-13.28125000
68.69999610	0.00000000	16.79380000	-11.98942000
68.89999609	0.00000000	13.76107000	-8.58759800
69.09999607	0.00000000	9.90403500	-3.94931100
69.29999606	0.00000000	6.41609200	0.33218500
69.49999605	0.00000000	3.67249000	4.22613100
69.69999604	0.00000000	2.22687000	6.87746000
69.89999603	0.00000000	3.02042300	7.29576700
70.09999601	0.00000000	6.50221400	5.71481200
70.29999600	0.00000000	11.48499000	2.22687000
70.49999599	0.00000000	16.87992000	-2.78051200
70.69999598	0.00000000	21.16142000	-7.80019600
70.89999597	0.00000000	23.44365000	-12.07554000
71.09999596	0.00000000	23.39444000	-14.72072000
71.29999594	0.00000000	19.90650000	-14.72072000
71.49999593	0.00000000	14.22859000	-12.07554000
71.69999592	0.00000000	8.37229300	-7.84940900
71.89999591	0.00000000	3.29724400	-3.20497000
72.09999590	0.00000000	-0.51673230	1.02116100
72.29999588	0.00000000	-1.63016700	3.76476400
72.49999587	0.00000000	0.64591530	4.55831700
72.69999586	0.00000000	5.25344500	3.80782500
72.89999585	0.00000000	11.06668000	1.48868100
73.09999584	0.00000000	16.83686000	-1.58095500
73.29999582	0.00000000	21.11220000	-4.64443900
73.49999581	0.00000000	23.06841000	-6.96358300
73.69999580	0.00000000	22.69316000	-7.75713500
73.89999579	0.00000000	19.95571000	-7.38188900
74.09999578	0.00000000	15.39124000	-5.89320800
74.29999577	0.00000000	10.32234000	-4.08464600
74.49999575	0.00000000	6.08390700	-3.66633800
74.69999574	0.00000000	3.02042300	-4.36146600
74.89999573	0.00000000	2.60211600	-5.15501900
75.09999572	0.00000000	4.45989200	-6.31151500
75.29999571	0.00000000	7.16043300	-7.38188900
75.49999569	0.00000000	10.69144000	-7.33882900
75.69999568	0.00000000	14.09326000	-5.80093500
75.89999567	0.00000000	16.46161000	-3.11269700
76.09999566	0.00000000	17.25517000	-0.04306102
76.29999565	0.00000000	16.92298000	2.64517700
76.49999563	0.00000000	15.71727000	4.18307100
76.69999562	0.00000000	13.85334000	4.14000900
76.89999561	0.00000000	11.95251000	2.18380900
77.09999560	0.00000000	11.15896000	-1.71013800
77.29999559	0.00000000	11.06668000	-6.68676100
77.49999558	0.00000000	11.06668000	-11.65723000
77.69999556	0.00000000	11.06668000	-14.72072000
77.89999555	0.00000000	11.02362000	-15.14518000
78.09999554	0.00000000	10.64838000	-13.18898000
78.29999553	0.00000000	9.86097400	-8.91978400
78.49999552	0.00000000	9.11048200	-3.20497000
78.69999550	0.00000000	8.37229300	2.22687000
78.89999549	0.00000000	8.41535400	6.09005900
79.09999548	0.00000000	9.57800100	8.03395600
79.29999547	0.00000000	11.48499000	7.25270600
79.49999546	0.00000000	13.81028000	4.22613100
79.69999544	0.00000000	15.71727000	-0.09227362
79.89999543	0.00000000	16.87992000	-5.11195900
80.09999542	0.00000000	16.83686000	-10.11934000
80.29999541	0.00000000	15.29897000	-13.56422000
80.49999540	0.00000000	12.60458000	-14.76993000
80.69999539	0.00000000	9.52879000	-13.60728000
80.89999537	0.00000000	6.83439900	-10.58686000
81.09999536	0.00000000	5.29650500	-6.68676100
81.29999535	0.00000000	5.29650500	-2.82972400
81.49999534	0.00000000	6.83439900	0.69512790
81.69999533	0.00000000	9.52879000	3.02042300
81.89999531	0.00000000	12.60458000	4.22613100
82.09999530	0.00000000	15.25591000	4.22613100
82.29999529	0.00000000	16.46161000	3.06348400
82.49999528	0.00000000	16.14173000	1.11343500
82.69999527	-0.15871060	15.34203000	-1.62401600
82.89999525	0.00000000	13.76107000	-4.73671200
83.09999524	0.00000000	11.48499000	-7.84940900
83.29999523	0.00000000	9.57800100	-10.53765000
83.49999522	0.00000000	8.37229300	-12.07554000
83.69999521	0.00000000	7.99704600	-12.07554000
83.89999520	0.00000000	8.37229300	-10.53765000
84.09999518	0.00000000	9.48572700	-7.80019600
84.29999517	0.00000000	10.64838000	-4.31840500
84.49999516	0.00000000	11.44193000	-0.41830710
84.69999515	0.00000000	12.22933000	3.02042300
84.89999514	0.00000000	12.55536000	5.33956700
85.09999512	0.00000000	12.27239000	5.71481200
85.29999511	0.00000000	11.90330000	4.18307100
85.49999510	0.00000000	12.27239000	1.07037400
85.69999509	0.00000000	12.64764000	-3.20497000
85.89999508	0.00000000	13.02288000	-7.80019600
86.09999506	0.00000000	13.39198000	-11.65723000
86.29999505	0.00000000	12.97982000	-13.61343000
86.49999504	0.00000000	12.22933000	-13.61343000
86.69999503	0.00000000	11.02362000	-11.61417000
86.89999502	0.00000000	9.52879000	-7.38188900
87.09999501	0.00000000	8.37229300	-2.04232300
87.29999499	0.00000000	7.94783400	2.55905500
87.49999498	0.00000000	7.99704600	5.33956700
87.69999497	0.00000000	8.79060000	6.09005900
87.89999496	0.00000000	10.69144000	4.87204700
88.09999495	0.00000000	12.60458000	1.02116100
88.29999493	0.00000000	14.13632000	-4.27534400
88.49999492	0.00000000	14.92372000	-8.91978400
88.69999491	0.00000000	14.56078000	-12.03248000
88.89999490	0.00000000	13.81028000	-13.18898000
89.09999489	0.00000000	12.60458000	-11.98942000
89.29999487	0.00000000	11.06668000	-8.54453700
89.49999486	0.00000000	9.52879000	-3.57406500
89.69999485	0.00000000	8.41535400	1.02116100
89.89999484	0.00000000	8.37229300	4.13385800
90.09999483	0.00000000	9.11048200	5.29650500
90.29999482	0.00000000	9.90403500	4.09079700
90.49999480	0.00000000	11.06668000	0.64591530
90.69999479	0.00000000	12.18012000	-4.31840500
90.89999478	0.00000000	12.60458000	-8.91978400
91.09999477	0.00000000	12.64764000	-12.03248000
91.29999476	0.00000000	12.64764000	-13.14591000
91.49999474	0.00000000	12.60458000	-11.56496000
91.69999473	0.00000000	12.22933000	-7.43110200
91.89999472	0.00000000	11.48499000	-2.46063000
92.09999471	0.00000000	11.10974000	1.44562000
92.29999470	0.00000000	11.06668000	4.13385800
92.49999468	0.00000000	11.06668000	4.82898600
92.69999467	0.00000000	11.06668000	2.55905500
92.89999466	0.00000000	11.02362000	-1.57480300
93.09999465	0.00000000	10.64838000	-5.85014700
93.29999464	0.00000000	9.90403500	-9.33809000
93.49999463	0.00000000	9.52879000	-11.61417000
93.69999461	0.00000000	9.52879000	-11.61417000
93.89999460	0.00000000	9.95324800	-9.29502900
94.09999459	0.00000000	11.10974000	-5.47490100
94.29999458	0.00000000	12.64764000	-0.87967510
94.49999457	0.00000000	14.22859000	2.55905500
94.69999455	0.00000000	15.76649000	4.14000900
94.89999454	0.00000000	16.83686000	3.71555100
95.09999453	0.00000000	16.46161000	1.02116100
95.29999452	0.00000000	14.56078000	-3.15575800
95.49999451	0.00000000	12.22933000	-7.33882900
95.69999449	0.00000000	9.44266700	-10.07628000
95.89999448	0.00000000	6.41609200	-10.86983000
96.09999447	0.00000000	4.13385800	-10.07628000
96.29999446	0.00000000	3.75861200	-7.38188900
96.49999445	0.00000000	5.25344500	-3.62327700
96.69999444	0.00000000	7.99704600	-0.55364170
96.89999442	0.00000000	11.48499000	1.06422200
97.09999441	0.00000000	15.34203000	1.43946800
97.29999440	0.00000000	18.41781000	0.64591530
97.49999439	0.00000000	19.99877000	-1.62401600
97.69999438	0.00000000	19.95571000	-4.26919300
97.89999436	0.00000000	17.99951000	-6.22539300
98.09999435	0.00000000	14.18553000	-7.42495000
98.29999434	0.00000000	9.95324800	-7.75713500
98.49999433	0.00000000	6.45915300	-7.05585600
98.69999432	0.00000000	4.09079700	-5.53026500
98.89999430	0.00000000	3.29724400	-4.40452700
99.09999429	0.00000000	3.71555100	-3.57406500
99.29999428	0.00000000	5.67175200	-3.19881900
99.49999427	0.00000000	9.15354300	-3.15575800
99.69999426	0.00000000	12.97982000	-3.15575800
99.89999425	0.00000000	16.50467000	-3.15575800
100.09999423	0.00000000	18.74385000	-3.11269700
100.29999422	0.00000000	19.20522000	-2.73745100
100.49999421	0.00000000	17.67347000	-1.99311000
100.69999420	0.00000000	15.39124000	-1.61786400
100.89999419	0.00000000	12.60458000	-1.66707700
101.09999417	0.00000000	9.52879000	-2.46063000
101.29999416	0.00000000	6.83439900	-4.36146600
101.49999415	0.00000000	5.25344500	-6.22539300
101.69999414	0.00000000	4.87819900	-7.47416300
101.89999413	0.00000000	5.62869100	-8.17544300
102.09999411	0.00000000	7.57258800	-8.16929100
102.29999410	0.00000000	9.86097400	-6.60063900
102.49999409	0.00000000	12.22933000	-4.31840500
102.69999408	0.00000000	14.13632000	-1.58095500
102.89999407	0.00000000	15.34203000	1.02116100
103.09999406	0.00000000	15.71727000	2.22687000
103.29999404	0.00000000	15.34203000	1.85777500
103.49999403	0.00000000	14.13632000	0.64591530
103.69999402	0.00000000	12.22933000	-2.04232300
103.89999401	0.00000000	9.90403500	-5.47490100
104.09999400	0.00000000	7.99704600	-8.17544300
104.29999398	0.00000000	6.83439900	-10.11934000
104.49999397	0.00000000	6.83439900	-10.45152000
104.69999396	0.00000000	7.94783400	-8.96284400
104.89999395	0.00000000	9.48572700	-6.26845500
105.09999394	0.00000000	11.02362000	-3.19881900
105.29999392	0.00000000	12.22933000	-0.51058070
105.49999391	0.00000000	13.02288000	1.02116100
105.69999390	0.00000000	13.76107000	1.06422200
105.89999389	0.00000000	13.71801000	-0.09227362
106.09999388	0.00000000	12.60458000	-1.99311000
106.29999387	0.00000000	11.10974000	-4.31840500
106.49999385	0.00000000	9.95324800	-6.22539300
106.69999384	0.00000000	9.52879000	-7.38188900
106.89999383	0.00000000	9.52879000	-7.38188900
107.09999382	0.00000000	9.90403500	-6.26845500
107.29999381	0.00000000	10.69144000	-4.73671200
107.49999379	0.00000000	11.44193000	-3.15575800
107.69999378	0.00000000	12.22933000	-1.62401600
107.89999377	0.00000000	12.60458000	-0.51058070
108.09999376	0.00000000	12.60458000	-0.51058070
108.29999375	0.00000000	12.18012000	-1.62401600
108.49999374	0.00000000	11.06668000	-3.15575800
108.69999372	0.00000000	9.90403500	-4.68750000
108.89999371	0.00000000	9.15354300	-5.85014700
109.09999370	0.00000000	8.79060000	-6.21924200
109.29999369	0.00000000	9.57800100	-5.85014700
109.49999368	0.00000000	11.02362000	-4.68750000
109.69999366	0.00000000	12.22933000	-3.15575800
109.89999365	0.00000000	13.02288000	-1.62401600
110.09999364	0.00000000	13.76107000	-0.51058070
110.29999363	0.00000000	13.71801000	-0.51058070
110.49999362	0.00000000	12.64764000	-1.62401600
110.69999360	0.00000000	11.48499000	-3.15575800
110.89999359	0.00000000	10.69144000	-4.73671200
111.09999358	0.00000000	9.86097400	-6.26845500
111.29999357	0.00000000	9.15354300	-7.38188900
111.49999356	0.00000000	8.79060000	-7.38188900
111.69999355	0.00000000	9.52879000	-6.31151500
111.89999353	0.00000000	10.59916000	-5.15501900
112.09999352	0.00000000	11.06668000	-4.36146600
112.29999351	0.00000000	11.48499000	-3.53100400
112.49999350	0.00000000	12.22933000	-2.82357300
112.69999349	0.00000000	12.55536000	-2.41141700
112.89999347	0.00000000	12.22933000	-2.78051200
113.09999346	0.00000000	11.48499000	-3.11269700
113.29999345	0.00000000	11.10974000	-3.19881900
113.49999344	0.00000000	11.02362000	-3.57406500
113.69999343	0.00000000	10.69144000	-4.31840500
113.89999341	0.00000000	10.32234000	-4.69365100
114.09999340	0.00000000	10.69144000	-4.73671200
114.29999339	0.00000000	11.02362000	-4.73671200
114.49999338	0.00000000	11.06668000	-4.73671200
114.69999337	0.00000000	11.06668000	-4.73671200
114.89999336	0.00000000	11.06668000	-4.73671200
115.09999334	0.00000000	11.06668000	-4.73671200
115.29999333	0.00000000	11.06668000	-4.73671200
115.49999332	0.00000000	11.06668000	-4.73671200
115.69999331	0.00000000	11.06668000	-4.69365100
115.89999330	0.00000000	11.06668000	-4.26919300
116.09999328	0.00000000	11.02362000	-3.15575800
116.29999327	0.00000000	10.69144000	-2.04232300
116.49999326	0.00000000	10.32234000	-1.61786400
116.69999325	0.00000000	10.69144000	-1.61786400
116.89999324	0.00000000	11.02362000	-2.04232300
117.09999322	0.00000000	11.06668000	-3.15575800
117.29999321	0.00000000	11.10974000	-4.26919300
117.49999320	0.00000000	11.48499000	-4.73671200
117.69999319	0.00000000	12.22933000	-5.15501900
117.89999318	0.00000000	12.60458000	-5.89320800
118.09999317	0.00000000	12.64764000	-6.21924200
118.29999315	0.00000000	12.60458000	-5.89320800
118.49999314	0.00000000	12.22933000	-5.11195900
118.69999313	0.00000000	11.44193000	-4.36146600
118.89999312	0.00000000	10.64838000	-3.53100400
119.09999311	0.00000000	9.48572700	-2.78051200
119.29999309	0.00000000	8.37229300	-1.99311000
119.49999308	0.00000000	7.99704600	-1.66707700
119.69999307	0.00000000	8.37229300	-1.99311000
119.89999306	0.00000000	9.52879000	-2.73745100
120.09999305	0.00000000	11.02362000	-3.11269700
120.29999303	0.00000000	12.27239000	-3.15575800
120.49999302	0.00000000	13.39813000	-3.19881900
120.69999301	0.00000000	14.54847000	-3.57406500
120.89999300	0.00000000	14.51156000	-4.31840500
121.09999299	0.00000000	13.81028000	-4.69365100
121.29999298	0.00000000	12.60458000	-4.73671200
121.49999296	0.00000000	11.10974000	-4.73671200
121.69999295	0.00000000	9.90403500	-4.73671200
121.89999294	0.00000000	9.11048200	-4.69365100
122.09999293	0.00000000	8.32308000	-4.31840500
122.29999292	0.00000000	7.99704600	-3.57406500
122.49999290	0.00000000	8.37229300	-3.15575800
122.69999289	0.00000000	9.52879000	-2.73745100
122.89999288	0.00000000	11.02362000	-2.04232300
123.09999287	0.00000000	12.18012000	-2.04232300
123.29999286	0.00000000	12.60458000	-2.73745100
123.49999284	0.00000000	12.64764000	-3.15575800
123.69999283	0.00000000	12.64764000	-3.57406500
123.89999282	0.00000000	12.60458000	-4.31840500
124.09999281	0.00000000	12.22933000	-4.69365100
124.29999280	0.00000000	11.44193000	-4.73671200
124.49999279	0.00000000	10.69144000	-4.73671200
124.69999277	0.00000000	9.90403500	-4.73671200
124.89999276	0.00000000	9.52879000	-4.69365100
125.09999275	0.00000000	9.48572700	-4.31840500
125.29999274	0.00000000	9.48572700	-3.57406500
125.49999273	0.00000000	9.52879000	-3.19881900
125.69999271	0.00000000	9.90403500	-3.15575800
125.89999270	0.00000000	10.69144000	-3.15575800
126.09999269	0.00000000	11.48499000	-3.15575800
126.29999268	0.00000000	12.64764000	-3.15575800
126.49999267	0.00000000	13.71801000	-3.19881900
126.69999265	0.00000000	13.76107000	-3.57406500
126.89999264	0.00000000	13.02288000	-4.31840500
127.09999263	0.00000000	12.22933000	-4.69365100
127.29999262	0.00000000	11.06668000	-4.73671200
127.49999261	0.00000000	9.90403500	-4.73671200
127.69999260	0.00000000	9.15354300	-4.73671200
127.89999258	0.00000000	8.74138700	-4.69365100
128.09999257	0.00000000	9.11048200	-4.31840500
128.29999256	0.00000000	9.48572700	-3.57406500
128.49999255	0.00000000	9.95324800	-3.19881900
128.69999254	0.00000000	11.06668000	-3.15575800
128.89999252	0.00000000	12.18012000	-3.15575800
129.09999251	0.00000000	12.60458000	-3.15575800
129.29999250	0.00000000	12.64764000	-3.19881900
129.49999249	0.00000000	12.60458000	-3.57406500
129.69999248	0.00000000	12.13706000	-4.31840500
129.89999246	0.00000000	10.69144000	-4.69365100
130.09999245	0.00000000	9.16584600	-4.69365100
130.29999244	0.00000000	8.77829600	-4.31840500
130.49999243	0.00000000	8.69832600	-3.57406500
130.69999242	0.00000000	9.15354300	-3.19881900
130.89999241	0.00000000	9.86097400	-3.15575800
131.09999239	0.00000000	10.69144000	-3.15575800
131.29999238	0.00000000	11.44193000	-3.15575800
131.49999237	0.00000000	12.22933000	-3.19881900
131.69999236	0.00000000	12.55536000	-3.57406500
131.89999235	0.00000000	12.18012000	-4.36146600
132.09999233	0.00000000	11.06668000	-5.06274600
132.29999232	0.00000000	9.95324800	-5.51796200
132.49999231	0.00000000	9.52879000	-5.48105300
132.69999230	0.00000000	9.48572700	-5.47490100
132.89999229	0.00000000	9.52879000	-4.68750000
133.09999227	0.00000000	9.90403500	-3.62327700
133.29999226	0.00000000	10.64838000	-3.19881900
133.49999225	0.00000000	11.02362000	-3.11269700
133.69999224	0.00000000	11.06668000	-2.78051200
133.89999223	0.00000000	11.06668000	-2.41141700
134.09999222	0.00000000	11.06668000	-2.82357300
134.29999220	0.00000000	11.06668000	-3.53100400
134.49999219	0.00000000	11.06668000	-4.36146600
134.69999218	0.00000000	11.06668000	-5.11195900
134.89999217	0.00000000	11.06668000	-5.89320800
135.09999216	0.00000000	11.06668000	-6.21924200
135.29999214	0.00000000	11.06668000	-5.89320800
135.49999213	0.00000000	11.06668000	-5.11195900
135.69999212	0.00000000	11.06668000	-4.36146600
135.89999211	0.00000000	11.02362000	-3.57406500
136.09999210	0.00000000	10.64838000	-3.15575800
136.29999208	0.00000000	9.90403500	-2.78051200
136.49999207	0.00000000	9.52879000	-2.41141700
136.69999206	0.00000000	9.48572700	-2.78051200
136.89999205	0.00000000	9.48572700	-3.11269700
137.09999204	0.00000000	9.52879000	-3.19881900
137.29999203	0.00000000	9.95324800	-3.57406500
137.49999201	0.00000000	11.06668000	-4.31840500
137.69999200	0.00000000	12.13706000	-4.73671200
137.89999199	0.00000000	12.22933000	-5.11195900
138.09999198	0.00000000	11.86024000	-5.47490100
138.29999197	0.00000000	11.85408000	-5.11195900
138.49999195	0.00000000	11.44193000	-4.73671200
138.69999194	0.00000000	11.02362000	-4.31840500
138.89999193	0.00000000	10.27313000	-3.57406500
139.09999192	0.00000000	9.16584600	-3.19881900
139.29999191	0.00000000	9.15354300	-3.15575800
139.49999189	0.00000000	9.48572700	-3.11269700
139.69999188	0.00000000	9.90403500	-2.78051200
139.89999187	0.00000000	10.64838000	-2.41141700
140.09999186	0.00000000	11.06668000	-2.82357300
140.29999185	0.00000000	11.44193000	-3.53100400
140.49999184	0.00000000	11.81102000	-4.36146600
140.69999182	0.00000000	11.44193000	-5.11195900
140.89999181	0.00000000	11.10974000	-5.89320800
141.09999180	0.00000000	11.02362000	-6.21924200
141.29999179	0.00000000	10.64838000	-5.89320800
141.49999178	0.00000000	9.95324800	-5.11195900
141.69999176	0.00000000	9.95324800	-4.36146600
141.89999175	0.00000000	10.64838000	-3.53100400
142.09999174	0.00000000	11.02362000	-2.78051200
142.29999173	0.00000000	11.06668000	-1.99311000
142.49999172	0.00000000	11.06668000	-1.66707700
142.69999170	0.00000000	11.06668000	-1.99311000
142.89999169	0.00000000	11.06668000	-2.78051200
143.09999168	0.00000000	11.06668000	-3.53100400
143.29999167	0.00000000	11.06668000	-4.36146600
143.49999166	0.00000000	11.02362000	-5.11195900
143.69999165	0.00000000	10.64838000	-5.89320800
143.89999163	0.00000000	9.95324800	-6.21924200
144.09999162	0.00000000	9.95324800	-5.89320800
144.29999161	0.00000000	10.64838000	-5.11195900
144.49999160	0.00000000	11.02362000	-4.36146600
144.69999159	0.00000000	11.06668000	-3.57406500
144.89999157	0.00000000	11.06668000	-3.19881900
145.09999156	0.00000000	11.06668000	-3.15575800
145.29999155	0.00000000	11.06668000	-3.15575800
145.49999154	0.00000000	11.02362000	-3.19881900
145.69999153	0.00000000	10.64838000	-3.57406500
145.89999151	0.00000000	9.90403500	-4.36146600
146.09999150	0.00000000	9.52879000	-5.06274600
146.29999149	0.00000000	9.52879000	-5.47490100
146.49999148	0.00000000	9.90403500	-5.11195900
146.69999147	0.00000000	10.64838000	-4.77977300
146.89999146	0.00000000	11.02362000	-4.73671200
147.09999144	0.00000000	11.06668000	-4.69365100
147.29999143	0.00000000	11.06668000	-4.31840500
147.49999142	0.00000000	11.06668000	-3.57406500
147.69999141	0.00000000	11.06668000	-3.19881900
147.89999140	0.00000000	11.06668000	-3.15575800
148.09999138	0.00000000	11.02362000	-3.15575800
148.29999137	0.00000000	10.64838000	-3.15575800
148.49999136	0.00000000	9.95324800	-3.19881900
148.69999135	0.00000000	9.95324800	-3.57406500
148.89999134	0.00000000	10.59916000	-4.31840500
149.09999132	0.00000000	10.64838000	-4.69365100
149.29999131	0.00000000	10.32234000	-4.73671200
149.49999130	0.00000000	10.69144000	-4.73671200
149.69999129	0.00000000	11.02362000	-4.69365100
149.89999128	0.00000000	11.06668000	-4.31840500
150.09999127	0.00000000	11.06668000	-3.57406500
150.29999125	0.00000000	11.06668000	-3.19881900
150.49999124	0.00000000	11.02362000	-3.15575800
150.69999123	0.00000000	10.69144000	-3.15575800
150.89999122	0.00000000	10.27928000	-3.15575800
151.09999121	0.00000000	10.27313000	-3.15575800
151.29999119	0.00000000	9.86097400	-3.19881900
151.49999118	0.00000000	9.52879000	-3.57406500
151.69999117	0.00000000	9.52879000	-4.31840500
151.89999116	0.00000000	9.90403500	-4.69365100
152.09999115	0.00000000	10.64838000	-4.73671200
152.29999113	0.00000000	11.02362000	-4.73671200
152.49999112	0.00000000	11.06668000	-4.73671200
152.69999111	0.00000000	11.06668000	-4.73671200
152.89999110	0.00000000	11.06668000	-4.73671200
153.09999109	0.00000000	11.06668000	-4.69365100
153.29999108	0.00000000	11.06668000	-4.31840500
153.49999106	0.00000000	11.02362000	-3.57406500
153.69999105	0.00000000	10.64838000	-3.19881900
153.89999104	0.00000000	9.90403500	-3.15575800
154.09999103	0.00000000	9.52879000	-3.15575800
154.29999102	0.00000000	9.48572700	-3.19881900
154.49999100	0.00000000	9.48572700	-3.53100400
154.69999099	0.00000000	9.52879000	-3.94315900
154.89999098	0.00000000	9.90403500	-3.94931100
155.09999097	0.00000000	10.64838000	-4.36146600
155.29999096	0.00000000	11.02362000	-4.69365100
155.49999094	0.00000000	11.06668000	-4.73671200
155.69999093	0.00000000	11.06668000	-4.73671200
155.89999092	0.00000000	11.06668000	-4.73671200
156.09999091	0.00000000	11.06668000	-4.69365100
156.29999090	0.00000000	11.06668000	-4.31840500
156.49999089	0.00000000	11.02362000	-3.57406500
156.69999087	0.00000000	10.64838000	-3.19881900
156.89999086	0.00000000	9.90403500	-3.15575800
157.09999085	0.00000000	9.52879000	-3.15575800
157.29999084	0.00000000	9.48572700	-3.15575800
157.49999083	0.00000000	9.48572700	-3.15575800
157.69999081	0.00000000	9.52879000	-3.15575800
157.89999080	0.00000000	9.90403500	-3.19881900
158.09999079	0.00000000	10.64838000	-3.57406500
158.29999078	0.00000000	11.02362000	-4.31840500
158.49999077	0.00000000	11.06668000	-4.69365100
158.69999075	0.00000000	11.06668000	-4.73671200
158.89999074	0.00000000	11.06668000	-4.69365100
159.09999073	0.00000000	11.06668000	-4.36146600
159.29999072	0.00000000	11.06668000	-3.94931100
159.49999071	0.00000000	11.02362000	-3.94315900
159.69999070	0.00000000	10.64838000	-3.53100400
159.89999068	0.00000000	9.90403500	-3.19881900
160.09999067	0.00000000	9.52879000	-3.15575800
160.29999066	0.00000000	9.48572700	-3.15575800
160.49999065	0.00000000	9.48572700	-3.19881900
160.69999064	0.00000000	9.52879000	-3.57406500
160.89999062	0.00000000	9.86097400	-4.31840500
161.09999061	0.00000000	10.27313000	-4.69365100
161.29999060	0.00000000	10.27928000	-4.73671200
161.49999059	0.00000000	10.69144000	-4.73671200
161.69999058	0.00000000	11.06668000	-4.73671200
161.89999056	0.00000000	11.44193000	-4.73671200
162.09999055	0.00000000	11.81102000	-4.69365100
162.29999054	0.00000000	11.44193000	-4.31840500
162.49999053	0.00000000	11.10974000	-3.57406500
162.69999052	0.00000000	11.06668000	-3.19881900
162.89999051	0.00000000	11.02362000	-3.15575800
163.09999049	0.00000000	10.64838000	-3.19881900
163.29999048	0.00000000	9.90403500	-3.57406500
163.49999047	0.00000000	9.52879000	-4.31840500
163.69999046	0.00000000	9.48572700	-4.69365100
163.89999045	0.00000000	9.48572700	-4.73671200
164.09999043	0.00000000	9.52879000	-4.73671200
164.29999042	0.00000000	9.90403500	-4.73671200
164.49999041	0.00000000	10.64838000	-4.73671200
164.69999040	0.00000000	11.02362000	-4.73671200
164.89999039	0.00000000	11.06668000	-4.73671200
165.09999037	0.00000000	11.06668000	-4.73671200
165.29999036	0.00000000	11.06668000	-4.73671200
165.49999035	0.00000000	11.06668000	-4.69365100
165.69999034	0.00000000	11.06668000	-4.31840500
165.89999033	0.00000000	11.02362000	-3.57406500
166.09999032	0.00000000	10.64838000	-3.19881900
166.29999030	0.00000000	9.90403500	-3.15575800
166.49999029	0.00000000	9.52879000	-3.15575800
166.69999028	0.00000000	9.48572700	-3.19881900
166.89999027	0.00000000	9.48572700	-3.57406500
167.09999026	0.00000000	9.48572700	-4.31840500
167.29999024	0.00000000	9.52879000	-4.69365100
167.49999023	0.00000000	9.90403500	-4.73671200
167.69999022	0.00000000	10.64838000	-4.73671200
167.89999021	0.00000000	11.02362000	-4.73671200
168.09999020	0.00000000	11.06668000	-4.73671200
168.29999018	0.00000000	11.06668000	-4.73671200
168.49999017	0.00000000	11.06668000	-4.69365100
168.69999016	0.00000000	11.06668000	-4.36146600
168.89999015	0.00000000	11.02362000	-3.99237200
169.09999014	0.00000000	10.64838000	-4.36146600
169.29999013	0.00000000	9.90403500	-4.69365100
169.49999011	0.00000000	9.52879000	-4.73671200
169.69999010	0.00000000	9.52879000	-4.73671200
169.89999009	0.00000000	9.86097400	-4.73671200
170.09999008	0.00000000	10.23007000	-4.73671200
170.29999007	0.00000000	9.86097400	-4.69365100
170.49999005	0.00000000	9.57800100	-4.31840500
170.69999004	0.00000000	9.90403500	-3.57406500
170.89999003	0.00000000	10.59916000	-3.24803100
171.09999002	0.00000000	10.64838000	-3.57406500
171.29999001	0.00000000	10.32234000	-4.31840500
171.49998999	0.00000000	10.69144000	-4.69365100
171.69998998	0.00000000	11.02362000	-4.73671200
171.89998997	0.00000000	11.06668000	-4.73671200
172.09998996	0.00000000	11.06668000	-4.73671200
172.29998995	0.00000000	11.06668000	-4.73671200
172.49998994	0.00000000	11.02362000	-4.73671200
172.69998992	0.00000000	10.69144000	-4.69365100
172.89998991	0.00000000	10.27928000	-4.31840500
173.09998990	0.00000000	10.31619000	-3.57406500
173.29998989	0.00000000	10.27928000	-3.19881900
173.49998988	0.00000000	10.69144000	-3.19881900
173.69998986	0.00000000	11.02362000	-3.57406500
173.89998985	0.00000000	11.06668000	-4.31840500
174.09998984	0.00000000	11.06668000	-4.69365100
174.29998983	0.00000000	11.06668000	-4.73671200
174.49998982	0.00000000	11.06668000	-4.73671200
174.69998980	0.00000000	11.06668000	-4.73671200
174.89998979	0.00000000	11.02362000	-4.73671200
175.09998978	0.00000000	10.69144000	-4.73671200
175.29998977	0.00000000	10.32234000	-4.73671200
175.49998976	0.00000000	10.69144000	-4.73671200
175.69998975	0.00000000	11.02362000	-4.69365100
175.89998973	0.00000000	11.06668000	-4.36146600
176.09998972	0.00000000	11.06668000	-3.99237200
176.29998971	0.00000000	11.06668000	-4.36146600
176.49998970	0.00000000	11.06668000	-4.69365100
176.69998969	0.00000000	11.06668000	-4.69365100
176.89998967	0.00000000	11.06668000	-4.36146600
177.09998966	0.00000000	11.06668000	-3.99237200
177.29998965	0.00000000	11.02362000	-4.36146600
177.49998964	0.00000000	10.64838000	-4.69365100
177.69998963	0.00000000	9.95324800	-4.73671200
177.89998961	0.00000000	9.90403500	-4.73671200
178.09998960	0.00000000	10.23007000	-4.73671200
178.29998959	0.00000000	9.90403500	-4.69365100
178.49998958	0.00000000	9.95324800	-4.31840500
178.69998957	0.00000000	10.64838000	-3.57406500
178.89998956	0.00000000	11.02362000	-3.19881900
179.09998954	0.00000000	11.06668000	-3.15575800
179.29998953	0.00000000	11.06668000	-3.19881900
179.49998952	0.00000000	11.06668000	-3.57406500
179.69998951	0.00000000	11.06668000	-4.31840500
179.89998950	0.00000000	11.06668000	-4.69365100
180.09998948	0.00000000	11.02362000	-4.73671200
180.29998947	0.00000000	10.64838000	-4.73671200
180.49998946	0.00000000	9.90403500	-4.73671200
180.69998945	0.00000000	9.52879000	-4.73671200
180.89998944	0.00000000	9.48572700	-4.73671200
181.09998942	0.00000000	9.48572700	-4.69365100
181.29998941	0.00000000	9.48572700	-4.31840500
181.49998940	0.00000000	9.48572700	-3.57406500
181.69998939	0.00000000	9.48572700	-3.19881900
181.89998938	0.00000000	9.52879000	-3.19881900
182.09998937	0.00000000	9.90403500	-3.57406500
182.29998935	0.00000000	10.59916000	-4.31840500
182.49998934	0.00000000	10.64838000	-4.69365100
182.69998933	0.00000000	10.32234000	-4.73671200
182.89998932	0.00000000	10.69144000	-4.73671200
183.09998931	0.00000000	11.02362000	-4.73671200
183.29998929	0.00000000	11.02362000	-4.73671200
183.49998928	0.00000000	10.64838000	-4.73671200
183.69998927	0.00000000	9.90403500	-4.73671200
183.89998926	0.00000000	9.57800100	-4.69365100
184.09998925	0.00000000	9.86097400	-4.31840500
184.29998923	0.00000000	10.23007000	-3.57406500
184.49998922	0.00000000	9.86097400	-3.19881900
184.69998921	0.00000000	9.52879000	-3.15575800
184.89998920	0.00000000	9.48572700	-3.15575800
185.09998919	0.00000000	9.52879000	-3.15575800
185.29998918	0.00000000	9.90403500	-3.15575800
185.49998916	0.00000000	10.64838000	-3.19881900
185.69998915	0.00000000	11.02362000	-3.57406500
185.89998914	0.00000000	11.06668000	-4.31840500
186.09998913	0.00000000	11.06668000	-4.69365100
186.29998912	0.00000000	11.06668000	-4.73671200
186.49998910	0.00000000	11.02362000	-4.73671200
186.69998909	0.00000000	10.64838000	-4.73671200
186.89998908	0.00000000	9.90403500	-4.69365100
187.09998907	0.00000000	9.52879000	-4.31840500
187.29998906	0.00000000	9.48572700	-3.57406500
187.49998904	0.00000000	9.48572700	-3.19881900
187.69998903	0.00000000	9.48572700	-3.15575800
187.89998902	0.00000000	9.48572700	-3.15575800
188.09998901	0.00000000	9.52879000	-3.15575800
188.29998900	0.00000000	9.90403500	-3.19881900
188.49998899	0.00000000	10.64838000	-3.57406500
188.69998897	0.00000000	11.02362000	-4.31840500
188.89998896	0.00000000	11.06668000	-4.69365100
189.09998895	0.00000000	11.06668000	-4.73671200
189.29998894	0.00000000	11.02362000	-4.73671200
189.49998893	0.00000000	10.64838000	-4.73671200
189.69998891	0.00000000	9.90403500	-4.73671200
189.89998890	0.00000000	9.52879000	-4.73671200
190.09998889	0.00000000	9.48572700	-4.73671200
190.29998888	0.00000000	9.48572700	-4.69365100
190.49998887	0.00000000	9.48572700	-4.31840500
190.69998885	0.00000000	9.48572700	-3.57406500
190.89998884	0.00000000	9.48572700	-3.19881900
191.09998883	0.00000000	9.52879000	-3.15575800
191.29998882	0.00000000	9.90403500	-3.19881900
191.49998881	0.00000000	10.64838000	-3.53100400
191.69998880	0.00000000	11.02362000	-3.94315900
191.89998878	0.00000000	11.06668000	-3.94931100
192.09998877	0.00000000	11.02362000	-4.36146600
192.29998876	0.00000000	10.69144000	-4.69365100
192.49998875	0.00000000	10.27928000	-4.73671200
192.69998874	0.00000000	10.27313000	-4.73671200
192.89998872	0.00000000	9.86097400	-4.73671200
193.09998871	0.00000000	9.52879000	-4.73671200
193.29998870	0.00000000	9.48572700	-4.69365100
193.49998869	0.00000000	9.48572700	-4.31840500
193.69998868	0.00000000	9.52879000	-3.57406500
193.89998866	0.00000000	9.86097400	-3.24803100
194.09998865	0.00000000	10.23007000	-3.53100400
194.29998864	0.00000000	9.90403500	-3.90009800
194.49998863	0.00000000	9.95324800	-3.57406500
194.69998862	0.00000000	10.64838000	-3.62327700
194.89998861	0.00000000	10.97441000	-4.26919300
195.09998859	0.00000000	10.69144000	-4.31840500
195.29998858	0.00000000	10.27928000	-3.99237200
195.49998857	0.00000000	10.27313000	-4.36146600
195.69998856	0.00000000	9.86097400	-4.69365100
195.89998855	0.00000000	9.52879000	-4.73671200
196.09998853	0.00000000	9.48572700	-4.73671200
