Time	Channel A	Channel B	Channel C
(us)	(V)	(mV)	(mV)

-4.59999956	0.00000000	37.15551000	11.04823000
-4.39999957	0.00000000	37.11860000	11.04823000
-4.19999958	0.00000000	37.19857000	11.09129000
-3.99999959	0.00000000	37.11860000	11.42347000
-3.79999960	0.00000000	37.15551000	11.79257000
-3.59999962	0.00000000	36.74335000	11.42347000
-3.39999963	0.00000000	36.41117000	11.04823000
-3.19999964	0.00000000	36.36811000	10.67298000
-2.99999965	0.00000000	36.41117000	10.35310000
-2.79999966	0.00000000	36.78642000	11.09744000
-2.59999968	0.00000000	37.48154000	12.16166000
-2.39999969	0.00000000	37.48154000	12.53691000
-2.19999970	0.00000000	36.78642000	12.21087000
-1.99999971	0.00000000	36.41117000	11.46653000
-1.79999972	0.00000000	36.36811000	11.09129000
-1.59999973	0.00000000	36.41117000	11.04823000
-1.39999975	0.00000000	36.78642000	11.09129000
-1.19999976	0.00000000	37.53075000	11.46653000
-0.99999977	0.00000000	37.90600000	12.21087000
-0.79999978	0.00000000	37.90600000	12.53691000
-0.59999979	0.00000000	37.53075000	12.25394000
-0.39999981	0.15871060	36.83563000	11.84178000
-0.19999982	0.47736220	36.78642000	11.83563000
0.00000017	0.79601380	37.11245000	11.42347000
0.20000016	0.95533960	36.74335000	11.09129000
0.40000015	0.95533960	36.41117000	11.04823000
0.60000013	0.47736220	36.36811000	11.04823000
0.80000012	-0.15871060	36.36811000	11.04823000
1.00000011	-1.11466500	36.36811000	11.04823000
1.20000010	-2.07062000	36.36811000	11.04823000
1.40000009	-2.70792300	36.41117000	11.04823000
1.60000008	-2.70792300	36.74335000	11.04823000
1.80000006	-1.91129400	37.11245000	11.04823000
2.00000005	-0.31803640	36.74335000	11.04823000
2.20000004	1.75196900	36.41117000	11.04823000
2.40000003	3.82258900	36.36811000	11.04823000
2.60000002	5.09719500	36.36811000	11.04823000
2.80000000	5.25652100	36.41117000	11.04823000
2.99999999	3.98191400	36.74335000	11.04823000
3.19999998	1.27399100	37.15551000	11.04823000
3.39999997	-2.07062000	37.11860000	11.04823000
3.59999996	-5.41584600	37.15551000	11.09129000
3.79999994	-7.48646600	36.78642000	11.46653000
3.99999993	-7.96444400	36.83563000	12.21087000
4.19999992	-6.37180100	37.53075000	12.58612000
4.39999991	-2.86724900	37.90600000	12.62918000
4.59999990	1.43331700	37.94907000	12.62918000
4.79999989	5.73449800	37.90600000	12.58612000
4.99999987	8.60174700	37.53075000	12.21087000
5.19999986	9.39837600	36.78642000	11.46653000
5.39999985	7.96444400	36.41117000	11.09129000
5.59999984	4.30056600	36.36811000	11.04823000
5.79999983	-0.47736220	36.36811000	11.04823000
5.99999981	-4.93786900	36.41117000	11.04823000
6.19999980	-8.28309500	36.78642000	11.09129000
6.39999979	-9.55770200	37.53075000	11.46653000
6.59999978	-8.28309500	37.90600000	12.21087000
6.79999977	-5.09719500	37.94907000	12.58612000
6.99999975	-0.95533960	37.94907000	12.62918000
7.19999974	3.34522600	37.90600000	12.58612000
7.39999973	6.37180100	37.53075000	12.21087000
7.59999972	7.80511800	36.78642000	11.46653000
7.79999971	7.00848900	36.41117000	11.09129000
7.99999970	4.77854300	36.36811000	11.04823000
8.19999968	1.59264300	36.36811000	11.04823000
8.39999967	-1.75196900	36.36811000	11.04823000
8.59999966	-4.14124000	36.36811000	11.09129000
8.79999965	-5.09719500	36.36811000	11.46653000
8.99999964	-4.93786900	36.36811000	12.21087000
9.19999962	-3.50393700	36.36811000	12.53691000
9.39999961	-1.59264300	36.36811000	12.21087000
9.59999960	0.47736220	36.36811000	11.46653000
9.79999959	1.75196900	36.36811000	11.09129000
9.99999958	2.54859700	36.36811000	11.04823000
10.19999956	2.38927200	36.41117000	11.04823000
10.39999955	1.75196900	36.74335000	11.04823000
10.59999954	0.95533960	37.11245000	11.00517000
10.79999953	0.00000000	36.74335000	10.62992000
10.99999952	-0.63668800	36.41117000	9.98400600
11.19999951	-0.95533960	36.36811000	10.35310000
11.39999949	-0.95533960	36.36811000	11.74951000
11.59999948	-0.79601380	36.36811000	12.11860000
11.79999947	-0.63668800	36.36811000	11.46653000
11.99999946	-0.31803640	36.36811000	11.09129000
12.19999945	-0.15871060	36.36811000	11.04823000
12.39999943	-0.15871060	36.36811000	11.04823000
12.59999942	0.00000000	36.36811000	11.04823000
12.79999941	0.00000000	36.36811000	11.04823000
12.99999940	0.00000000	36.36811000	11.04823000
13.19999939	0.00000000	36.36811000	11.04823000
13.39999937	0.00000000	36.36811000	11.04823000
13.59999936	0.00000000	36.36811000	11.04823000
13.79999935	-0.15871060	36.36811000	11.04823000
13.99999934	0.00000000	36.36811000	11.04823000
14.19999933	-0.15871060	36.36811000	11.04823000
14.39999932	-0.15871060	36.36811000	11.04823000
14.59999930	-0.15871060	36.36811000	11.04823000
14.79999929	0.00000000	36.36811000	11.04823000
14.99999928	0.00000000	36.36811000	11.04823000
15.19999927	0.00000000	36.36811000	11.09129000
15.39999926	0.00000000	36.36811000	11.46653000
15.59999924	0.00000000	36.36811000	12.16166000
15.79999923	0.00000000	36.36811000	12.16166000
15.99999922	0.00000000	36.36811000	11.46653000
16.19999921	-0.15871060	36.36811000	11.09129000
16.39999920	-0.15871060	36.41117000	11.04823000
16.59999919	-0.15871060	36.78642000	11.04823000
16.79999917	-0.15871060	37.53075000	11.04823000
16.99999916	-0.15871060	37.90600000	11.04823000
17.19999915	0.00000000	37.94907000	11.04823000
17.39999914	0.00000000	37.94907000	11.04823000
17.59999913	0.00000000	37.94907000	11.09129000
17.79999911	0.00000000	37.90600000	11.46653000
17.99999910	0.00000000	37.48154000	12.16166000
18.19999909	0.00000000	36.32505000	12.16166000
18.39999908	0.00000000	34.78716000	11.46653000
18.59999907	0.00000000	33.24926000	11.09129000
18.79999905	-0.15871060	32.08661000	11.04823000
18.99999904	-0.15871060	31.71137000	11.04823000
19.19999903	0.00000000	32.17273000	11.04823000
19.39999902	0.00000000	34.17815000	11.04823000
19.59999901	0.00000000	37.99213000	11.09129000
19.79999900	0.00000000	42.22441000	11.42347000
19.99999898	0.00000000	45.71850000	11.79257000
20.19999897	0.00000000	47.99458000	11.42347000
20.39999896	0.00000000	47.95152000	11.09129000
20.59999895	0.00000000	45.20792000	11.04823000
20.79999894	0.00000000	40.13287000	11.04823000
20.99999892	0.00000000	33.11393000	11.04823000
21.19999891	0.00000000	25.43061000	11.04823000
21.39999890	0.00000000	18.92224000	11.04823000
21.59999889	0.00000000	15.88952000	11.04823000
21.79999888	0.00000000	17.51968000	11.04823000
21.99999886	0.00000000	24.12647000	11.04823000
22.19999885	0.00000000	35.00861000	11.04823000
22.39999884	0.00000000	47.71776000	11.04823000
22.59999883	0.00000000	59.67027000	11.04823000
22.79999882	0.00000000	67.31053000	11.04823000
22.99999881	-0.15871060	68.42396000	11.09129000
23.19999879	0.00000000	62.14320000	11.46653000
23.39999878	0.00000000	48.97884000	12.21087000
23.59999877	0.00000000	31.57603000	12.58612000
23.79999876	0.00000000	13.84719000	12.62918000
23.99999875	0.00000000	-0.01230315	12.58612000
24.19999873	0.00000000	-6.11466500	12.16166000
24.39999872	0.00000000	-2.57751000	11.04823000
24.59999871	0.00000000	10.58686000	9.89173200
24.79999870	0.00000000	30.68405000	9.05511800
24.99999869	0.00000000	53.06963000	7.89247000
25.19999867	0.00000000	72.74852000	6.77903500
25.39999866	0.00000000	84.70718000	6.44685000
25.59999865	0.00000000	86.20201000	7.24040300
25.79999864	-0.15871060	76.47022000	9.60875900
25.99999863	0.00000000	56.79134000	13.04749000
26.19999862	0.00000000	32.08661000	16.94759000
26.39999860	0.00000000	8.16929100	20.39247000
26.59999859	0.00000000	-9.63951700	22.66855000
26.79999858	0.00000000	-16.91068000	22.61934000
26.99999857	0.00000000	-12.29700000	19.88189000
27.19999856	0.00000000	3.93700800	14.81299000
27.39999854	0.00000000	27.42987000	7.84940900
27.59999853	0.00000000	52.55905000	0.55364170
27.79999852	0.00000000	73.77583000	-5.25344500
27.99999851	0.00000000	85.77755000	-8.27386800
28.19999850	0.00000000	86.28813000	-7.43725300
28.39999848	0.00000000	76.28567000	-1.96235200
28.59999847	0.00000000	58.46457000	7.33267600
28.79999846	0.00000000	36.45423000	18.89764000
28.99999845	0.00000000	15.19439000	30.09350000
29.19999844	0.00000000	-0.25221450	38.13976000
29.39999843	0.00000000	-6.94512700	41.16019000
29.59999841	0.00000000	-3.88164400	37.26009000
29.79999840	0.00000000	7.24655500	27.22072000
29.99999839	0.00000000	23.89271000	13.28125000
30.19999838	0.00000000	42.04601000	-2.18380900
30.39999837	0.00000000	57.95398000	-15.61270000
30.59999835	0.00000000	68.42396000	-23.73892000
30.79999834	0.00000000	71.59202000	-24.48942000
30.99999833	0.00000000	67.35358000	-17.88878000
31.19999832	0.00000000	56.97588000	-4.69980300
31.39999831	0.00000000	43.06717000	12.62918000
31.59999829	0.00000000	29.10310000	30.00738000
31.79999828	0.00000000	17.47047000	43.52854000
31.99999827	0.00000000	10.50074000	50.49828000
32.19999826	-0.15871060	9.70103300	49.29256000
32.39999825	0.00000000	14.64075000	40.04060000
32.59999824	0.00000000	23.89271000	24.57554000
32.79999822	0.00000000	34.73794000	6.49606300
32.99999821	0.00000000	45.20792000	-10.17470000
33.19999820	0.00000000	53.30339000	-21.79503000
33.39999819	0.00000000	56.79134000	-26.85777000
33.59999818	0.00000000	55.34571000	-24.11417000
33.79999816	0.00000000	49.95078000	-14.08095000
33.99999815	0.00000000	42.22441000	0.97194880
34.19999814	0.00000000	33.75369000	17.97490000
34.39999813	0.00000000	26.82701000	33.03395000
34.59999812	0.00000000	23.28986000	43.06717000
34.79999810	0.00000000	23.24065000	45.80462000
34.99999809	0.00000000	26.31643000	40.83415000
35.19999808	0.00000000	31.75443000	30.05044000
35.39999807	0.00000000	38.23203000	15.74188000
35.59999806	0.00000000	43.95300000	1.10728300
35.79999805	0.00000000	46.32751000	-10.45768000
35.99999803	0.00000000	45.62623000	-16.26476000
36.19999802	0.00000000	42.92569000	-15.19439000
36.39999801	0.00000000	38.27509000	-8.27386800
36.59999800	0.00000000	33.33538000	2.54675200
36.79999799	0.00000000	29.42913000	15.18824000
36.99999797	0.00000000	27.52214000	25.91658000
37.19999796	0.00000000	27.89739000	31.36073000
37.39999795	0.00000000	30.64099000	31.07775000
37.59999794	0.00000000	35.20546000	25.63976000
37.79999793	0.00000000	40.18209000	16.48622000
37.99999791	0.00000000	43.67618000	6.12696800
38.19999790	0.00000000	45.25713000	-1.87007900
38.39999789	0.00000000	44.88189000	-5.34571800
38.59999788	0.00000000	42.55659000	-3.07578700
38.79999787	0.00000000	39.11171000	3.80167300
38.99999786	0.00000000	35.20546000	12.96137000
39.19999784	0.00000000	31.71137000	21.78272000
39.39999783	0.00000000	28.96776000	27.13459000
39.59999782	0.00000000	27.47293000	27.92200000
39.79999781	0.00000000	27.84818000	23.64665000
39.99999780	0.00000000	30.17347000	15.23130000
40.19999778	0.00000000	33.61835000	5.29035400
40.39999777	0.00000000	37.53075000	-3.16806100
40.59999776	0.00000000	41.06791000	-7.72022600
40.79999775	0.00000000	44.13755000	-6.96973400
40.99999774	0.00000000	46.03838000	-0.84276570
41.19999772	0.00000000	45.67544000	8.31077700
41.39999771	0.00000000	43.76230000	17.97490000
41.59999770	0.00000000	40.64345000	25.68897000
41.79999769	0.00000000	36.78642000	29.91511000
41.99999768	0.00000000	33.29232000	29.49680000
42.19999767	0.00000000	30.54872000	24.15108000
42.39999765	0.00000000	29.01082000	15.74188000
42.59999764	0.00000000	28.96776000	6.86515700
42.79999763	0.00000000	30.13041000	-0.42445860
42.99999762	0.00000000	32.08661000	-4.27534400
43.19999761	0.00000000	34.78716000	-3.58021600
43.39999759	0.00000000	37.43848000	0.55364170
43.59999758	0.00000000	39.06250000	6.36072800
43.79999757	0.00000000	39.86220000	12.53691000
43.99999756	0.00000000	40.27436000	17.92569000
44.19999755	0.00000000	39.86220000	21.03838000
44.39999753	0.00000000	39.19783000	21.46284000
44.59999752	0.00000000	38.78568000	19.59892000
44.79999751	0.00000000	39.11171000	16.11712000
44.99999750	0.00000000	39.06250000	12.25394000
45.19999749	0.00000000	38.32431000	8.40305000
45.39999748	0.00000000	37.48154000	5.70866100
45.59999746	0.00000000	35.85752000	4.87204700
45.79999745	0.00000000	33.15699000	5.24729300
45.99999744	0.00000000	30.08120000	6.82209600
46.19999743	0.00000000	27.38681000	9.47342500
46.39999742	0.00000000	25.94119000	12.16781000
46.59999740	0.00000000	26.77780000	14.11786000
46.79999739	0.00000000	30.64099000	15.32357000
46.99999738	0.00000000	36.41117000	15.69267000
47.19999737	0.00000000	42.59965000	15.27436000
47.39999736	0.00000000	48.04380000	13.74262000
47.59999734	0.00000000	51.44561000	11.42347000
47.79999733	0.00000000	51.76550000	9.09817800
47.99999732	0.00000000	47.90846000	6.77903500
48.19999731	0.00000000	40.97564000	5.33341500
48.39999730	0.00000000	32.82480000	5.66560000
48.59999729	0.00000000	24.68627000	7.56643700
48.79999727	0.00000000	18.59006000	9.89173200
48.99999726	0.00000000	16.31397000	12.62918000
49.19999725	0.00000000	19.05143000	15.32357000
49.39999724	0.00000000	26.35950000	17.23056000
49.59999723	0.00000000	36.36811000	17.97490000
49.79999721	0.00000000	46.37057000	16.81225000
49.99999720	0.00000000	53.67864000	14.11786000
50.19999719	0.00000000	56.41609000	10.62992000
50.39999718	0.00000000	54.09695000	6.77903500
50.59999717	0.00000000	47.53321000	3.75246000
50.79999715	0.00000000	37.89985000	2.54675200
50.99999714	0.00000000	27.94045000	3.33415300
51.19999713	0.00000000	20.63238000	5.66560000
51.39999712	0.00000000	17.89493000	9.56569900
51.59999711	0.00000000	20.17101000	14.11786000
51.79999710	0.00000000	26.27337000	17.97490000
51.99999708	0.00000000	34.41191000	19.93110000
52.19999707	0.00000000	42.46432000	19.97416000
52.39999706	0.00000000	48.64665000	18.35015000
52.59999705	0.00000000	50.93504000	14.90526000
52.79999704	0.00000000	49.06496000	10.35310000
52.99999702	0.00000000	43.67618000	6.86515700
53.19999701	0.00000000	36.36811000	4.87204700
53.39999700	0.00000000	29.10310000	4.12770700
53.59999699	0.00000000	24.12647000	5.29035400
53.79999698	0.00000000	23.28986000	7.93553100
53.99999696	0.00000000	25.94119000	11.00517000
54.19999695	0.00000000	30.96703000	13.69956000
54.39999694	0.00000000	37.53075000	15.23130000
54.59999693	0.00000000	43.62696000	15.27436000
54.79999692	0.00000000	47.44094000	14.11786000
54.99999691	0.00000000	47.48400000	12.25394000
55.19999689	0.00000000	44.09449000	10.35310000
55.39999688	0.00000000	39.06250000	9.56569900
55.59999687	0.00000000	33.24926000	9.56569900
55.79999686	0.00000000	27.94045000	10.35310000
55.99999685	0.00000000	25.24606000	12.25394000
56.19999683	0.00000000	25.98425000	14.11786000
56.39999682	0.00000000	29.38607000	15.23130000
56.59999681	0.00000000	34.41191000	14.81299000
56.79999680	0.00000000	39.39468000	12.53691000
56.99999679	0.00000000	43.30093000	9.47342500
57.19999677	0.00000000	45.20792000	6.36072800
57.39999676	0.00000000	44.83267000	3.75246000
57.59999675	0.00000000	42.13828000	3.01427100
57.79999674	0.00000000	37.94907000	4.95816900
57.99999673	0.00000000	33.71063000	8.77829600
58.19999672	0.00000000	30.59178000	13.83489000
58.39999670	0.00000000	29.05389000	18.76845000
58.59999669	0.00000000	29.42913000	22.20103000
58.79999668	0.00000000	31.71137000	22.57628000
58.99999667	-0.15871060	34.73794000	19.92495000
59.19999666	0.00000000	37.48154000	15.28051000
59.39999664	0.00000000	39.43774000	9.42421200
59.59999663	0.00000000	40.55733000	3.33415300
59.79999662	0.00000000	40.18209000	-1.25492100
59.99999661	0.00000000	38.32431000	-2.37450800
60.19999660	0.00000000	36.41117000	-0.09227362
60.39999658	0.00000000	34.83022000	5.33341500
60.59999657	0.00000000	33.71063000	12.58612000
60.79999656	0.00000000	33.71063000	19.55585000
60.99999655	0.00000000	34.78716000	24.57554000
61.19999654	0.00000000	35.94980000	26.85162000
61.39999653	0.00000000	36.74335000	25.27067000
61.59999651	0.00000000	37.53075000	19.88189000
61.79999650	0.00000000	37.85679000	12.21087000
61.99999649	0.00000000	37.48154000	4.12770700
62.19999648	0.00000000	36.36811000	-2.00541300
62.39999647	0.00000000	35.20546000	-4.74286400
62.59999645	0.00000000	34.41191000	-3.62942900
62.79999644	0.00000000	33.66756000	0.59670270
62.99999643	0.00000000	33.71063000	6.82209600
63.19999642	0.00000000	34.83022000	14.16092000
63.39999641	0.00000000	36.36811000	21.03838000
63.59999639	0.00000000	37.90600000	25.31373000
63.79999638	0.00000000	39.06250000	26.10728000
63.99999637	0.00000000	39.43774000	23.82505000
64.19999636	0.00000000	39.06250000	18.76845000
64.39999635	0.00000000	37.90600000	12.25394000
64.59999634	0.00000000	36.36811000	5.66560000
64.79999632	0.00000000	34.83022000	0.68897630
64.99999631	0.00000000	33.66756000	-1.71628900
65.19999630	0.00000000	33.29232000	-1.31028500
65.39999629	0.00000000	33.66756000	1.34719500
65.59999628	0.00000000	34.83022000	5.98548200
65.79999626	0.00000000	36.32505000	10.95595000
65.99999625	0.00000000	37.48154000	15.23130000
66.19999624	0.00000000	37.85679000	18.01796000
66.39999623	0.00000000	37.48154000	19.27903000
66.59999622	0.00000000	36.32505000	20.06029000
66.79999620	0.00000000	34.83022000	19.93110000
66.99999619	0.00000000	33.66756000	18.01796000
67.19999618	0.00000000	33.29232000	14.58538000
67.39999617	0.00000000	33.66756000	11.09744000
67.59999616	0.00000000	34.92249000	7.89247000
67.79999615	0.00000000	37.16166000	4.82283400
67.99999613	0.00000000	39.80684000	2.50369100
68.19999612	0.00000000	40.97564000	1.71013800
68.39999611	0.00000000	40.97564000	2.08538400
68.59999610	0.00000000	39.76377000	3.70939900
68.79999609	0.00000000	36.69414000	6.86515700
68.99999607	0.00000000	33.24926000	11.46653000
69.19999606	0.00000000	30.13041000	16.48622000
69.39999605	0.00000000	27.84818000	20.34941000
69.59999604	0.00000000	27.47293000	22.71161000
69.79999603	0.00000000	29.05389000	23.03765000
69.99999601	0.00000000	32.54798000	21.08760000
70.19999600	0.00000000	37.57381000	16.81225000
70.39999599	0.00000000	42.55659000	11.04823000
70.59999598	0.00000000	46.46284000	5.29035400
70.79999597	0.00000000	48.32677000	1.02116100
70.99999596	0.00000000	47.53321000	-0.93503930
71.19999594	0.00000000	43.62696000	-0.55979330
71.39999593	0.00000000	37.53075000	2.17765700
71.59999592	0.00000000	30.96703000	6.77903500
71.79999591	0.00000000	25.94119000	12.16166000
71.99999590	0.00000000	23.19759000	16.76919000
72.19999588	0.00000000	23.19759000	19.50664000
72.39999587	0.00000000	25.89198000	19.93110000
72.59999586	0.00000000	30.54872000	18.39321000
72.79999585	0.00000000	36.36811000	15.32357000
72.99999584	0.00000000	42.09522000	11.51575000
73.19999582	0.00000000	45.99532000	8.44611200
73.39999581	0.00000000	47.16412000	6.82209600
73.59999580	0.00000000	46.03838000	6.44685000
73.79999579	0.00000000	42.55659000	7.19734200
73.99999578	0.00000000	37.94907000	9.09817800
74.19999577	0.00000000	33.29232000	10.96211000
74.39999575	0.00000000	29.42913000	12.11860000
74.59999574	0.00000000	27.47293000	12.11860000
74.79999573	0.00000000	27.47293000	11.00517000
74.99999572	0.00000000	29.38607000	9.51648500
75.19999571	0.00000000	32.82480000	8.40305000
75.39999569	0.00000000	36.27584000	8.40305000
75.59999568	0.00000000	39.01944000	9.55954600
75.79999567	0.00000000	40.60039000	11.51575000
75.99999566	0.00000000	41.01870000	14.21014000
76.19999565	0.00000000	40.64345000	16.85531000
76.39999563	0.00000000	39.43774000	18.35015000
76.59999562	0.00000000	37.57381000	17.97490000
76.79999561	0.00000000	35.67298000	15.60654000
76.99999560	0.00000000	34.92249000	11.79257000
77.19999559	0.00000000	35.20546000	7.14812900
77.39999558	0.00000000	35.94980000	3.33415300
77.59999556	0.00000000	36.27584000	0.97194880
77.79999555	0.00000000	35.94980000	0.68897630
77.99999554	0.00000000	35.16240000	2.97121000
78.19999553	0.00000000	34.41191000	7.60949800
78.39999552	0.00000000	33.61835000	12.96137000
78.59999550	0.00000000	33.29232000	18.01796000
78.79999549	0.00000000	33.66756000	21.41363000
78.99999548	0.00000000	34.87328000	22.29331000
79.19999547	0.00000000	36.78642000	20.71850000
79.39999546	0.00000000	39.06250000	17.64272000
79.59999544	0.00000000	40.60039000	12.96137000
79.79999543	0.00000000	41.01870000	8.02780400
79.99999542	0.00000000	40.60039000	4.08464600
80.19999541	0.00000000	39.01944000	1.75319900
80.39999540	0.00000000	36.31890000	1.01501000
80.59999539	0.00000000	33.24926000	2.54675200
80.79999537	0.00000000	30.59178000	5.93626900
80.99999536	0.00000000	29.42913000	9.42421200
81.19999535	0.00000000	30.17347000	12.58612000
81.39999534	0.00000000	32.08661000	15.32357000
81.59999533	0.00000000	34.78716000	17.23056000
81.79999531	0.00000000	37.48154000	18.06102000
81.99999530	0.00000000	39.43774000	17.64887000
82.19999529	0.00000000	40.60039000	16.48622000
82.39999528	0.00000000	40.60039000	14.16092000
82.59999527	0.00000000	39.43774000	11.46653000
82.79999525	0.00000000	37.53075000	9.09817800
82.99999524	0.00000000	35.20546000	6.72982200
83.19999523	0.00000000	33.29232000	4.82283400
83.39999522	0.00000000	32.12967000	3.66633800
83.59999521	0.00000000	32.08661000	3.66633800
83.79999520	0.00000000	32.82480000	4.87204700
83.99999518	0.00000000	33.61835000	7.19734200
84.19999517	0.00000000	34.78716000	10.67298000
84.39999516	0.00000000	35.90059000	14.16092000
84.59999515	0.00000000	36.32505000	17.27977000
84.79999514	0.00000000	36.36811000	19.55585000
84.99999512	0.00000000	36.36811000	19.88189000
85.19999511	0.00000000	36.36811000	17.97490000
85.39999510	0.00000000	36.36811000	14.16708000
85.59999509	0.00000000	36.41117000	9.89173200
85.79999508	0.00000000	36.78642000	5.98548200
85.99999506	0.00000000	37.48154000	2.54675200
86.19999505	0.00000000	37.43848000	1.05807100
86.39999504	0.00000000	36.32505000	2.17765700
86.59999503	0.00000000	34.83022000	5.24729300
86.79999502	0.00000000	33.66756000	9.51648500
86.99999501	0.00000000	33.24311000	14.11786000
87.19999499	0.00000000	33.24311000	17.97490000
87.39999498	0.00000000	33.66756000	19.93110000
87.59999497	0.00000000	34.83022000	19.93110000
87.79999496	0.00000000	36.32505000	17.93184000
87.99999495	0.00000000	37.53075000	13.74262000
88.19999493	0.00000000	38.28125000	8.77829600
88.39999492	0.00000000	38.69341000	4.91510800
88.59999491	0.00000000	38.28125000	2.59596400
88.79999490	0.00000000	37.53075000	2.59596400
88.99999489	0.00000000	36.32505000	4.91510800
89.19999487	0.00000000	34.83022000	8.72908400
89.39999486	0.00000000	33.66756000	13.37352000
89.59999485	0.00000000	33.29232000	17.18750000
89.79999484	0.00000000	33.61835000	19.50664000
89.99999483	0.00000000	34.41191000	19.46358000
90.19999482	0.00000000	35.16240000	16.81225000
90.39999480	0.00000000	35.94980000	12.58612000
90.59999479	0.00000000	36.32505000	7.98474400
90.79999478	0.00000000	36.36811000	4.12770700
90.99999477	0.00000000	36.36811000	2.22071800
91.19999476	0.00000000	36.32505000	2.59596400
91.39999474	0.00000000	35.99286000	5.29035400
91.59999473	0.00000000	35.62377000	9.51648500
91.79999472	0.00000000	35.99286000	14.11786000
91.99999471	0.00000000	36.32505000	17.97490000
92.19999470	0.00000000	36.36811000	19.83883000
92.39999468	0.00000000	36.36811000	19.08834000
92.59999467	0.00000000	36.32505000	15.64960000
92.79999466	0.00000000	35.90059000	11.09129000
92.99999465	0.00000000	34.78716000	6.82209600
93.19999464	0.00000000	33.61835000	3.70939900
93.39999463	0.00000000	32.86786000	2.17150600
93.59999461	0.00000000	32.50492000	2.63902500
93.79999460	0.00000000	33.29232000	5.70866100
93.99999459	0.00000000	34.78716000	10.58686000
94.19999458	0.00000000	36.41117000	14.85605000
94.39999457	0.00000000	38.32431000	17.60581000
94.59999455	0.00000000	40.22515000	19.08834000
94.79999454	0.00000000	40.97564000	17.88263000
94.99999453	0.00000000	40.60039000	14.16708000
95.19999452	0.00000000	39.01944000	9.93479300
95.39999451	0.00000000	36.31890000	6.44685000
95.59999449	0.00000000	33.20005000	4.12770700
95.79999448	0.00000000	30.13041000	3.75246000
95.99999447	0.00000000	27.84818000	5.24729300
96.19999446	0.00000000	27.47293000	7.93553100
96.39999445	0.00000000	29.01082000	11.00517000
96.59999444	0.00000000	32.12967000	13.74262000
96.79999442	0.00000000	36.36811000	15.64960000
96.99999441	0.00000000	40.60039000	16.39395000
97.19999440	0.00000000	43.67618000	15.23130000
97.39999439	0.00000000	44.83267000	12.62918000
97.59999438	0.00000000	43.71924000	9.93479300
97.79999436	0.00000000	41.01870000	8.02780400
97.99999435	0.00000000	37.53075000	7.19734200
98.19999434	0.00000000	33.61835000	7.56028500
98.39999433	0.00000000	30.13041000	8.31077700
98.59999432	0.00000000	27.42987000	9.51648500
98.79999430	0.00000000	26.31643000	11.00517000
98.99999429	0.00000000	27.47293000	12.16166000
99.19999428	0.00000000	30.50566000	12.58612000
99.39999427	0.00000000	34.36884000	12.62918000
99.59999426	0.00000000	37.90600000	12.62918000
99.79999425	0.00000000	40.97564000	12.62918000
99.99999423	0.00000000	42.92569000	12.67224000
100.19999422	0.00000000	42.93184000	13.04749000
100.39999421	0.00000000	41.80610000	13.74262000
100.59999420	0.00000000	39.43774000	13.69956000
100.79999419	0.00000000	36.41117000	12.58612000
100.99999417	0.00000000	33.61835000	11.04823000
101.19999416	0.00000000	31.33612000	9.47342500
101.39999415	0.00000000	29.76132000	7.93553100
101.59999414	0.00000000	29.75517000	6.82209600
101.79999413	0.00000000	30.50566000	6.82209600
101.99999411	0.00000000	32.08661000	7.98474400
102.19999410	0.00000000	34.41191000	9.93479300
102.39999409	0.00000000	36.74335000	12.62918000
102.59999408	0.00000000	39.06250000	15.27436000
102.79999407	0.00000000	40.55733000	16.81225000
102.99999406	0.00000000	40.60039000	16.85531000
103.19999404	0.00000000	39.48696000	15.69882000
103.39999403	0.00000000	37.90600000	13.74262000
103.59999402	0.00000000	35.94980000	11.00517000
103.79999401	0.00000000	33.66756000	7.93553100
103.99999400	0.00000000	32.12967000	5.29035400
104.19999398	0.00000000	31.66215000	4.12770700
104.39999397	0.00000000	31.66215000	4.87204700
104.59999396	0.00000000	32.08661000	6.77903500
104.79999395	0.00000000	33.24926000	9.47342500
104.99999394	0.00000000	34.78716000	12.21087000
105.19999392	0.00000000	36.32505000	14.49311000
105.39999391	0.00000000	37.48154000	16.01870000
105.59999390	0.00000000	37.85679000	15.64960000
105.79999389	0.00000000	37.48154000	14.16092000
105.99999388	0.00000000	36.32505000	12.21087000
106.19999387	0.00000000	34.83022000	9.89173200
106.39999385	0.00000000	33.66756000	7.98474400
106.59999384	0.00000000	33.29232000	6.82209600
106.79999383	0.00000000	33.61835000	6.86515700
106.99999382	0.00000000	34.41191000	8.35383800
107.19999381	0.00000000	35.16240000	10.58686000
107.39999379	0.00000000	35.94980000	12.16166000
107.59999378	0.00000000	36.32505000	12.96137000
107.79999377	0.00000000	36.36811000	13.37352000
107.99999376	0.00000000	36.32505000	12.91215000
108.19999375	0.00000000	35.90059000	11.83563000
108.39999374	0.00000000	34.78716000	10.26698000
108.59999372	0.00000000	33.66756000	9.09817800
108.79999371	0.00000000	33.24311000	7.93553100
108.99999370	0.00000000	33.24311000	7.24040300
109.19999369	0.00000000	33.66756000	8.02780400
109.39999368	0.00000000	34.78716000	9.84867000
109.59999366	0.00000000	35.94980000	11.79257000
109.79999365	0.00000000	36.74335000	12.96137000
109.99999364	0.00000000	37.48154000	13.79183000
110.19999363	0.00000000	37.48154000	14.07480000
110.39999362	0.00000000	36.74335000	13.32431000
110.59999360	0.00000000	35.94980000	11.46653000
110.79999359	0.00000000	34.78716000	9.93479300
110.99999358	0.00000000	33.66756000	9.09817800
111.19999357	0.00000000	33.24311000	8.31077700
111.39999356	0.00000000	33.24311000	7.98474400
111.59999355	0.00000000	33.61835000	8.31077700
111.79999353	0.00000000	34.41191000	9.09817800
111.99999352	0.00000000	35.16240000	9.89173200
112.19999351	0.00000000	35.94980000	11.04823000
112.39999350	0.00000000	36.32505000	12.16166000
112.59999349	0.00000000	36.36811000	12.58612000
112.79999347	0.00000000	36.36811000	12.62918000
112.99999346	0.00000000	36.36811000	12.58612000
113.19999345	0.00000000	36.32505000	12.21087000
113.39999344	0.00000000	35.94980000	11.46653000
113.59999343	0.00000000	35.20546000	11.09129000
113.79999341	0.00000000	34.83022000	11.00517000
113.99999340	0.00000000	34.78716000	10.62992000
114.19999339	0.00000000	34.78716000	9.89173200
114.39999338	0.00000000	34.78716000	9.51648500
114.59999337	0.00000000	34.78716000	9.47342500
114.79999336	0.00000000	34.78716000	9.47342500
114.99999334	0.00000000	34.83022000	9.47342500
115.19999333	0.00000000	35.16240000	9.47342500
115.39999332	0.00000000	35.53149000	9.51648500
115.59999331	0.00000000	35.16240000	9.89173200
115.79999330	0.00000000	34.83022000	10.67298000
115.99999328	0.00000000	34.78716000	11.42347000
116.19999327	0.00000000	34.78716000	12.21087000
116.39999326	0.00000000	34.78716000	12.58612000
116.59999325	0.00000000	34.78716000	12.58612000
116.79999324	0.00000000	34.78716000	12.21087000
116.99999322	0.00000000	34.78716000	11.42347000
117.19999321	0.00000000	34.83022000	10.62992000
117.39999320	0.00000000	35.20546000	9.47342500
117.59999319	0.00000000	35.94980000	8.35998900
117.79999318	0.00000000	36.32505000	7.98474400
117.99999317	0.00000000	36.36811000	8.31077700
118.19999315	0.00000000	36.36811000	9.09817800
118.39999314	0.00000000	36.32505000	9.89173200
118.59999313	0.00000000	35.90059000	11.04823000
118.79999312	0.00000000	34.78716000	12.16166000
118.99999311	0.00000000	33.61835000	12.62918000
119.19999309	0.00000000	32.86786000	13.00443000
119.39999308	0.00000000	32.45571000	13.37352000
119.59999307	0.00000000	32.86786000	12.96137000
119.79999306	0.00000000	33.61835000	12.25394000
119.99999305	0.00000000	34.83022000	11.42347000
120.19999303	0.00000000	36.32505000	10.67298000
120.39999302	0.00000000	37.48154000	9.89173200
120.59999301	0.00000000	37.90600000	9.51648500
120.79999300	0.00000000	37.90600000	9.47342500
120.99999299	0.00000000	37.48154000	9.47342500
121.19999298	0.00000000	36.32505000	9.47342500
121.39999296	0.00000000	34.78716000	9.47342500
121.59999295	0.00000000	33.24926000	9.51648500
121.79999294	0.00000000	32.08661000	9.89173200
121.99999293	0.00000000	31.71137000	10.62992000
122.19999292	0.00000000	32.08661000	11.04823000
122.39999290	0.00000000	33.20005000	11.42347000
122.59999289	0.00000000	34.31963000	11.79257000
122.79999288	0.00000000	34.83022000	11.46653000
122.99999287	0.00000000	35.58071000	11.46653000
123.19999286	0.00000000	36.73720000	11.79257000
123.39999284	0.00000000	37.11860000	11.42347000
123.59999283	0.00000000	37.53075000	11.04823000
123.79999282	0.00000000	37.48154000	10.62992000
123.99999281	0.00000000	36.74335000	9.89173200
124.19999280	0.00000000	35.99286000	9.51648500
124.39999279	0.00000000	35.16240000	9.47342500
124.59999277	0.00000000	34.41191000	9.51648500
124.79999276	0.00000000	33.61835000	9.89173200
124.99999275	0.00000000	33.24311000	10.62992000
125.19999274	0.00000000	33.20005000	11.00517000
125.39999273	0.00000000	33.24311000	11.09129000
125.59999271	0.00000000	33.66756000	11.46653000
125.79999270	0.00000000	34.78716000	12.21087000
125.99999269	0.00000000	35.94980000	12.53691000
126.19999268	0.00000000	36.74335000	12.25394000
126.39999267	0.00000000	37.48154000	11.84178000
126.59999265	0.00000000	37.48154000	11.83563000
126.79999264	0.00000000	36.74335000	11.38041000
126.99999263	0.00000000	35.94980000	10.67298000
127.19999262	0.00000000	34.78716000	9.93479300
127.39999261	0.00000000	33.66756000	9.93479300
127.59999260	0.00000000	33.24311000	10.58686000
127.79999258	0.00000000	33.20005000	10.62992000
127.99999257	0.00000000	33.24311000	10.31004000
128.19999256	0.00000000	33.66756000	10.67298000
128.39999255	0.00000000	34.78716000	11.00517000
128.59999254	0.00000000	35.94980000	11.04823000
128.79999252	0.00000000	36.74335000	11.04823000
128.99999251	0.00000000	37.48154000	11.04823000
129.19999250	0.00000000	37.43848000	11.00517000
129.39999249	0.00000000	36.36811000	10.62992000
129.59999248	0.00000000	35.20546000	9.89173200
129.79999246	0.00000000	34.36884000	9.51648500
129.99999245	0.00000000	33.24926000	9.51648500
130.19999244	0.00000000	32.50492000	9.84867000
130.39999243	0.00000000	32.86786000	10.25467000
130.59999242	0.00000000	33.57529000	10.26698000
130.79999241	0.00000000	34.41191000	10.67298000
130.99999239	0.00000000	35.16240000	11.00517000
131.19999238	0.00000000	35.94980000	11.04823000
131.39999237	0.00000000	36.32505000	11.00517000
131.59999236	0.00000000	36.36811000	10.62992000
131.79999235	0.00000000	36.32505000	9.89173200
131.99999233	0.00000000	35.90059000	9.51648500
132.19999232	0.00000000	34.83022000	9.47342500
132.39999231	0.00000000	34.08588000	9.47342500
132.59999230	0.00000000	34.41191000	9.47342500
132.79999229	0.00000000	34.74409000	9.51648500
132.99999227	-0.15871060	34.78716000	9.89173200
133.19999226	0.00000000	34.78716000	10.67298000
133.39999225	0.00000000	34.78716000	11.42347000
133.59999224	0.00000000	34.78716000	12.16166000
133.79999223	0.00000000	34.78716000	12.16166000
133.99999222	0.00000000	34.78716000	11.42347000
134.19999220	0.00000000	34.78716000	10.67298000
134.39999219	0.00000000	34.78716000	9.89173200
134.59999218	0.00000000	34.83022000	9.51648500
134.79999217	0.00000000	35.16240000	9.43036400
134.99999216	0.00000000	35.53149000	9.09817800
135.19999214	0.00000000	35.20546000	8.77829600
135.39999213	0.00000000	35.20546000	9.47342500
135.59999212	0.00000000	35.53149000	10.21161000
135.79999211	0.00000000	35.11934000	10.31004000
135.99999210	0.00000000	34.41191000	11.09744000
136.19999208	0.00000000	33.61835000	12.16166000
136.39999207	0.00000000	33.24311000	12.53691000
136.59999206	0.00000000	33.24311000	12.21087000
136.79999205	0.00000000	33.61835000	11.46653000
136.99999204	0.00000000	34.41191000	11.04823000
137.19999203	0.00000000	35.16240000	10.62992000
137.39999201	0.00000000	35.94980000	9.89173200
137.59999200	0.00000000	36.32505000	9.51648500
137.79999199	0.00000000	36.36811000	9.47342500
137.99999198	0.00000000	36.32505000	9.47342500
138.19999197	0.00000000	35.94980000	9.47342500
138.39999195	0.00000000	35.16240000	9.51648500
138.59999194	0.00000000	34.41191000	9.89173200
138.79999193	0.00000000	33.61835000	10.62992000
138.99999192	0.00000000	33.29232000	11.00517000
139.19999191	0.00000000	33.61835000	11.09129000
139.39999189	0.00000000	34.36884000	11.42347000
139.59999188	0.00000000	34.78716000	11.79257000
139.79999187	0.00000000	35.20546000	11.42347000
139.99999186	0.00000000	35.90059000	11.09129000
140.19999185	0.00000000	35.90059000	11.00517000
140.39999184	0.00000000	35.20546000	10.58686000
140.59999182	0.00000000	34.83022000	9.47342500
140.79999181	0.00000000	34.78716000	8.40305000
140.99999180	0.00000000	34.78716000	8.35998900
141.19999179	0.00000000	34.78716000	9.05511800
141.39999178	0.00000000	34.78716000	9.47342500
141.59999176	0.00000000	34.78716000	9.93479300
141.79999175	0.00000000	34.78716000	11.04823000
141.99999174	0.00000000	34.78716000	12.16166000
142.19999173	0.00000000	34.78716000	12.58612000
142.39999172	0.00000000	34.78716000	12.58612000
142.59999170	0.00000000	34.78716000	12.16166000
142.79999169	0.00000000	34.78716000	11.04823000
142.99999168	0.00000000	34.78716000	9.93479300
143.19999167	0.00000000	34.78716000	9.47342500
143.39999166	0.00000000	34.78716000	9.09817800
143.59999165	0.00000000	34.78716000	8.72908400
143.79999163	0.00000000	34.78716000	9.09817800
143.99999162	0.00000000	34.78716000	9.47342500
144.19999161	0.00000000	34.78716000	9.89173200
144.39999160	0.00000000	34.78716000	10.62992000
144.59999159	0.00000000	34.78716000	11.00517000
144.79999157	0.00000000	34.78716000	11.04823000
144.99999156	0.00000000	34.78716000	11.04823000
145.19999155	0.00000000	34.78716000	11.04823000
145.39999154	0.00000000	34.74409000	11.00517000
145.59999153	0.00000000	34.36884000	10.62992000
145.79999151	0.00000000	33.61835000	9.89173200
145.99999150	0.00000000	33.29232000	9.51648500
146.19999149	0.00000000	33.61835000	9.47342500
146.39999148	0.00000000	34.36884000	9.47342500
146.59999147	0.00000000	34.74409000	9.51648500
146.79999146	0.00000000	34.78716000	9.89173200
146.99999144	0.00000000	34.78716000	10.62992000
147.19999143	0.00000000	34.78716000	11.00517000
147.39999142	0.00000000	34.78716000	11.04823000
147.59999141	0.00000000	34.78716000	11.04823000
147.79999140	0.00000000	34.74409000	11.04823000
147.99999138	0.00000000	34.36884000	11.04823000
148.19999137	0.00000000	33.61835000	11.04823000
148.39999136	0.00000000	33.29232000	11.04823000
148.59999135	0.00000000	33.61835000	11.00517000
148.79999134	0.00000000	34.36884000	10.62992000
148.99999132	0.00000000	34.74409000	9.89173200
149.19999131	0.00000000	34.78716000	9.51648500
149.39999130	0.00000000	34.78716000	9.47342500
149.59999129	0.00000000	34.83022000	9.51648500
149.79999128	0.00000000	35.16240000	9.89173200
149.99999127	0.00000000	35.53149000	10.62992000
150.19999125	0.00000000	35.16240000	11.00517000
150.39999124	0.00000000	34.83022000	11.04823000
150.59999123	0.00000000	34.78716000	11.04823000
150.79999122	0.00000000	34.74409000	11.04823000
150.99999121	0.00000000	34.36884000	11.04823000
151.19999119	0.00000000	33.66756000	11.04823000
151.39999118	0.00000000	33.66756000	11.04823000
151.59999117	0.00000000	34.36884000	11.00517000
151.79999116	0.00000000	34.74409000	10.62992000
151.99999115	0.00000000	34.78716000	9.89173200
152.19999113	0.00000000	34.78716000	9.51648500
152.39999112	0.00000000	34.78716000	9.51648500
152.59999111	0.00000000	34.78716000	9.89173200
152.79999110	0.00000000	34.78716000	10.62992000
152.99999109	0.00000000	34.78716000	11.00517000
153.19999108	0.00000000	34.74409000	11.04823000
153.39999106	0.00000000	34.36884000	11.04823000
153.59999105	0.00000000	33.61835000	11.04823000
153.79999104	0.00000000	33.24311000	11.04823000
153.99999103	0.00000000	33.20005000	11.04823000
154.19999102	0.00000000	33.20005000	11.04823000
154.39999100	0.00000000	33.24311000	11.00517000
154.59999099	0.00000000	33.61835000	10.62992000
154.79999098	0.00000000	34.41191000	9.89173200
154.99999097	0.00000000	35.11934000	9.51648500
155.19999096	0.00000000	35.57455000	9.47342500
155.39999094	0.00000000	35.53765000	9.47342500
155.59999093	0.00000000	35.57455000	9.47342500
155.79999092	0.00000000	35.16240000	9.51648500
155.99999091	0.00000000	34.83022000	9.89173200
156.19999090	0.00000000	34.78716000	10.62992000
156.39999089	0.00000000	34.74409000	11.00517000
156.59999087	0.00000000	34.36884000	11.04823000
156.79999086	0.00000000	33.61835000	11.04823000
156.99999085	0.00000000	33.29232000	11.04823000
157.19999084	0.00000000	33.61835000	11.04823000
157.39999083	0.00000000	34.36884000	11.00517000
157.59999081	0.00000000	34.74409000	10.62992000
157.79999080	0.00000000	34.78716000	9.89173200
157.99999079	0.00000000	34.78716000	9.51648500
158.19999078	0.00000000	34.78716000	9.47342500
158.39999077	0.00000000	34.78716000	9.47342500
158.59999075	0.00000000	34.78716000	9.51648500
158.79999074	0.00000000	34.78716000	9.89173200
158.99999073	0.00000000	34.78716000	10.62992000
159.19999072	0.00000000	34.78716000	11.00517000
159.39999071	0.00000000	34.74409000	11.04823000
159.59999070	0.00000000	34.41191000	11.04823000
159.79999068	0.00000000	33.99975000	11.04823000
159.99999067	0.00000000	34.03666000	11.04823000
160.19999066	0.00000000	33.99975000	11.04823000
160.39999065	0.00000000	34.36884000	11.04823000
160.59999064	0.00000000	34.36884000	11.00517000
160.79999062	0.00000000	34.04282000	10.62992000
160.99999061	0.00000000	34.41191000	9.89173200
161.19999060	0.00000000	34.74409000	9.51648500
161.39999059	0.00000000	34.78716000	9.51648500
161.59999058	0.00000000	34.78716000	9.89173200
161.79999056	0.00000000	34.78716000	10.62992000
161.99999055	0.00000000	34.78716000	11.00517000
162.19999054	0.00000000	34.78716000	11.04823000
162.39999053	0.00000000	34.78716000	11.04823000
162.59999052	0.00000000	34.78716000	11.04823000
162.79999051	0.00000000	34.74409000	11.00517000
162.99999049	0.00000000	34.36884000	10.67298000
163.19999048	0.00000000	33.61835000	10.26698000
163.39999047	0.00000000	33.24311000	10.30389000
163.59999046	0.00000000	33.24311000	10.26698000
163.79999045	0.00000000	33.57529000	10.62992000
163.99999043	0.00000000	33.98745000	10.58686000
164.19999042	0.00000000	33.99975000	9.89173200
164.39999041	0.00000000	34.41191000	9.51648500
164.59999040	0.00000000	34.74409000	9.47342500
164.79999039	0.00000000	34.78716000	9.47342500
164.99999037	0.00000000	34.78716000	9.51648500
165.19999036	0.00000000	34.78716000	9.84867000
165.39999035	0.00000000	34.74409000	10.25467000
165.59999034	0.00000000	34.41191000	10.21776000
165.79999033	0.00000000	33.99975000	10.30389000
165.99999032	0.00000000	33.98745000	10.26698000
166.19999030	0.00000000	33.57529000	10.62992000
166.39999029	0.00000000	33.29232000	10.62992000
166.59999028	0.00000000	33.57529000	10.26698000
166.79999027	0.00000000	33.98745000	10.25467000
166.99999026	0.00000000	33.99975000	9.84867000
167.19999024	0.00000000	34.41191000	9.51648500
167.39999023	0.00000000	34.74409000	9.47342500
167.59999022	0.00000000	34.78716000	9.47342500
167.79999021	0.00000000	34.78716000	9.47342500
167.99999020	0.00000000	34.78716000	9.47342500
168.19999018	0.00000000	34.78716000	9.47342500
168.39999017	0.00000000	34.78716000	9.47342500
168.59999016	0.00000000	34.78716000	9.47342500
168.79999015	0.00000000	34.78716000	9.47342500
168.99999014	0.00000000	34.78716000	9.51648500
169.19999013	0.00000000	34.74409000	9.84867000
169.39999011	0.00000000	34.41191000	10.21161000
169.59999010	0.00000000	34.04282000	9.84867000
169.79999009	0.00000000	34.41191000	9.51648500
169.99999008	0.00000000	34.74409000	9.47342500
170.19999007	0.00000000	34.78716000	9.47342500
170.39999005	0.00000000	34.78716000	9.47342500
170.59999004	0.00000000	34.78716000	9.51648500
170.79999003	0.00000000	34.78716000	9.84867000
170.99999002	0.00000000	34.78716000	10.25467000
171.19999001	0.00000000	34.78716000	10.21776000
171.39998999	0.00000000	34.78716000	10.25467000
171.59998998	0.00000000	34.78716000	9.84867000
171.79998997	0.00000000	34.78716000	9.51648500
171.99998996	0.00000000	34.78716000	9.47342500
172.19998995	0.00000000	34.78716000	9.51648500
172.39998994	0.00000000	34.78716000	9.89173200
172.59998992	0.00000000	34.74409000	10.58686000
172.79998991	0.00000000	34.41191000	10.62992000
172.99998990	0.00000000	34.04282000	10.31004000
173.19998989	0.00000000	34.36884000	10.62992000
173.39998988	0.00000000	34.36884000	10.58686000
173.59998986	0.00000000	34.04282000	9.93479300
173.79998985	0.00000000	34.41191000	9.89173200
173.99998984	0.00000000	34.74409000	10.21161000
174.19998983	0.00000000	34.78716000	9.84867000
174.39998982	0.00000000	34.78716000	9.51648500
174.59998980	0.00000000	34.78716000	9.47342500
174.79998979	0.00000000	34.78716000	9.51648500
174.99998978	0.00000000	34.78716000	9.89173200
175.19998977	0.00000000	34.78716000	10.58686000
175.39998976	0.00000000	34.78716000	10.58686000
175.59998975	0.00000000	34.78716000	9.89173200
175.79998973	0.00000000	34.78716000	9.56569900
175.99998972	0.00000000	34.78716000	9.89173200
176.19998971	0.00000000	34.78716000	10.62992000
176.39998970	0.00000000	34.74409000	10.95595000
176.59998969	0.00000000	34.41191000	10.67298000
176.79998967	0.00000000	34.04282000	10.26698000
176.99998966	0.00000000	34.36884000	10.25467000
177.19998965	0.00000000	34.36884000	9.89173200
177.39998964	0.00000000	34.04282000	9.93479300
177.59998963	0.00000000	34.41191000	10.62992000
177.79998961	0.00000000	34.74409000	10.95595000
177.99998960	0.00000000	34.78716000	10.62992000
178.19998959	0.00000000	34.78716000	9.93479300
178.39998958	0.00000000	34.78716000	9.93479300
178.59998957	0.00000000	34.78716000	10.62992000
178.79998956	0.00000000	34.78716000	11.00517000
178.99998954	0.00000000	34.78716000	11.04823000
179.19998953	0.00000000	34.78716000	11.00517000
179.39998952	0.00000000	34.78716000	10.62992000
179.59998951	0.00000000	34.78716000	9.89173200
179.79998950	0.00000000	34.78716000	9.56569900
179.99998948	0.00000000	34.78716000	9.84867000
180.19998947	0.00000000	34.74409000	10.21161000
180.39998946	0.00000000	34.41191000	9.84867000
180.59998945	0.00000000	34.04282000	9.51648500
180.79998944	0.00000000	34.36884000	9.51648500
180.99998942	0.00000000	34.31963000	9.84867000
181.19998941	0.00000000	33.61835000	10.25467000
181.39998940	0.00000000	33.29232000	10.26698000
181.59998939	0.00000000	33.61835000	10.67298000
181.79998938	0.00000000	34.36884000	11.00517000
181.99998937	0.00000000	34.69488000	11.04823000
182.19998935	0.00000000	34.41191000	11.00517000
182.39998934	0.00000000	34.04282000	10.62992000
182.59998933	0.00000000	34.41191000	9.89173200
182.79998932	0.00000000	34.74409000	9.51648500
182.99998931	0.00000000	34.78716000	9.47342500
183.19998929	0.00000000	34.78716000	9.47342500
183.39998928	0.00000000	34.74409000	9.47342500
183.59998927	0.00000000	34.41191000	9.47342500
183.79998926	0.00000000	33.99975000	9.51648500
183.99998925	0.00000000	33.98745000	9.89173200
184.19998923	0.00000000	33.57529000	10.62992000
184.39998922	0.00000000	33.29232000	11.00517000
184.59998921	0.00000000	33.57529000	11.04823000
184.79998920	0.00000000	33.98745000	11.00517000
184.99998919	0.00000000	33.99975000	10.62992000
185.19998918	0.00000000	34.36884000	9.89173200
185.39998916	0.00000000	34.36884000	9.51648500
185.59998915	0.00000000	34.04282000	9.47342500
185.79998914	0.00000000	34.41191000	9.47342500
185.99998913	0.00000000	34.74409000	9.47342500
186.19998912	0.00000000	34.74409000	9.47342500
186.39998910	0.00000000	34.36884000	9.47342500
186.59998909	0.00000000	33.61835000	9.47342500
186.79998908	0.00000000	33.24311000	9.51648500
186.99998907	0.00000000	33.24311000	9.89173200
187.19998906	0.00000000	33.57529000	10.62992000
187.39998904	0.00000000	33.94439000	11.00517000
187.59998903	0.00000000	33.57529000	11.04823000
187.79998902	0.00000000	33.29232000	11.00517000
187.99998901	0.00000000	33.61835000	10.67298000
188.19998900	0.00000000	34.36884000	10.26698000
188.39998899	0.00000000	34.74409000	10.25467000
188.59998897	0.00000000	34.78716000	9.84867000
188.79998896	0.00000000	34.78716000	9.51648500
188.99998895	0.00000000	34.78716000	9.47342500
189.19998894	0.00000000	34.74409000	9.47342500
189.39998893	0.00000000	34.41191000	9.47342500
189.59998891	0.00000000	33.99975000	9.47342500
189.79998890	0.00000000	33.98745000	9.51648500
189.99998889	0.00000000	33.57529000	9.89173200
190.19998888	0.00000000	33.24311000	10.62992000
190.39998887	0.00000000	33.20005000	10.95595000
190.59998885	0.00000000	33.20005000	10.67298000
190.79998884	0.00000000	33.24311000	10.26698000
190.99998883	0.00000000	33.61835000	10.30389000
191.19998882	0.00000000	34.36884000	10.26698000
191.39998881	0.00000000	34.74409000	10.67298000
191.59998880	0.00000000	34.78716000	10.95595000
191.79998878	0.00000000	34.78716000	10.62992000
191.99998877	0.00000000	34.78716000	9.89173200
192.19998876	0.00000000	34.74409000	9.51648500
192.39998875	0.00000000	34.41191000	9.47342500
192.59998874	0.00000000	33.99975000	9.47342500
192.79998872	0.00000000	33.98745000	9.47342500
192.99998871	0.00000000	33.57529000	9.47342500
193.19998870	0.00000000	33.24311000	9.47342500
193.39998869	0.00000000	33.20005000	9.51648500
193.59998868	0.00000000	33.24311000	9.89173200
193.79998866	0.00000000	33.61835000	10.62992000
193.99998865	0.00000000	34.36884000	11.00517000
194.19998864	0.00000000	34.74409000	11.04823000
194.39998863	0.00000000	34.78716000	11.04823000
194.59998862	0.00000000	34.78716000	11.00517000
194.79998861	0.00000000	34.74409000	10.62992000
194.99998859	0.00000000	34.36884000	9.89173200
195.19998858	0.00000000	33.66756000	9.51648500
195.39998857	0.00000000	33.61835000	9.47342500
195.59998856	0.00000000	33.94439000	9.43036400
195.79998855	0.00000000	33.57529000	9.09817800
195.99998853	0.00000000	33.29232000	8.72908400
