Time	Channel A	Channel B	Channel C
(us)	(V)	(mV)	(mV)

-4.49999956	0.00000000	25.29527000	5.93626900
-4.29999957	0.00000000	25.29527000	5.57332700
-4.09999958	0.00000000	25.29527000	5.93626900
-3.89999959	0.00000000	25.29527000	6.26845500
-3.69999960	0.00000000	25.29527000	6.31151500
-3.49999962	0.00000000	25.29527000	6.31151500
-3.29999963	0.00000000	25.29527000	6.31151500
-3.09999964	0.00000000	25.29527000	6.31151500
-2.89999965	0.00000000	25.29527000	6.31151500
-2.69999966	0.00000000	25.29527000	6.31151500
-2.49999968	0.00000000	25.29527000	6.31151500
-2.29999969	0.00000000	25.29527000	6.31151500
-2.09999970	0.00000000	25.29527000	6.31151500
-1.89999971	0.00000000	25.29527000	6.31151500
-1.69999972	0.00000000	25.29527000	6.31151500
-1.49999973	0.00000000	25.29527000	6.31151500
-1.29999975	0.00000000	25.33834000	6.31151500
-1.09999976	0.00000000	25.67052000	6.31151500
-0.89999977	0.00000000	26.03961000	6.31151500
-0.69999978	0.00000000	25.67052000	6.31151500
-0.49999979	0.00000000	25.33834000	6.31151500
-0.29999981	0.31803640	25.33834000	6.31151500
-0.09999982	0.63668800	25.67052000	6.31151500
0.10000017	0.95533960	26.03961000	6.31151500
0.30000016	1.11466500	25.67052000	6.31151500
0.50000015	0.95533960	25.33834000	6.31151500
0.70000013	0.31803640	25.29527000	6.31151500
0.90000012	-0.47736220	25.29527000	6.31151500
1.10000011	-1.43331700	25.29527000	6.31151500
1.30000010	-2.38927200	25.29527000	6.31151500
1.50000009	-2.70792300	25.29527000	6.31151500
1.70000008	-2.54859700	25.29527000	6.31151500
1.90000006	-1.27399100	25.29527000	6.31151500
2.10000005	0.47736220	25.29527000	6.31151500
2.30000004	2.54859700	25.29527000	6.31151500
2.50000003	4.30056600	25.29527000	6.31151500
2.70000002	5.25652100	25.29527000	6.26845500
2.90000000	4.93786900	25.29527000	5.89320800
3.09999999	3.02657500	25.29527000	5.15501900
3.29999998	0.00000000	25.29527000	4.82898600
3.49999997	-3.34522600	25.29527000	5.15501900
3.69999996	-6.37180100	25.29527000	5.89320800
3.89999994	-7.96444400	25.29527000	6.26845500
4.09999993	-7.48646600	25.29527000	6.31151500
4.29999992	-5.25652100	25.29527000	6.31151500
4.49999991	-1.43331700	25.33834000	6.31151500
4.69999990	3.18590100	25.67052000	6.31151500
4.89999989	7.00848900	26.03961000	6.31151500
5.09999987	9.23905000	25.67052000	6.26845500
5.29999986	9.07972400	25.33834000	5.89320800
5.49999985	6.69045300	25.29527000	5.15501900
5.69999984	2.54859700	25.29527000	4.77977300
5.89999983	-2.22994600	25.29527000	4.77977300
6.09999981	-6.53112700	25.29527000	5.15501900
6.29999980	-9.07972400	25.29527000	5.89320800
6.49999979	-9.39837600	25.29527000	6.26845500
6.69999978	-7.32714100	25.29527000	6.31151500
6.89999977	-3.50393700	25.29527000	6.31151500
7.09999975	0.79601380	25.29527000	6.31151500
7.29999974	4.61921700	25.29527000	6.31151500
7.49999973	7.16781500	25.29527000	6.31151500
7.69999972	7.64579200	25.29527000	6.31151500
7.89999971	6.37180100	25.29527000	6.31151500
8.09999970	3.50393700	25.29527000	6.31151500
8.29999968	0.31803640	25.29527000	6.31151500
8.49999967	-2.70792300	25.29527000	6.31151500
8.69999966	-4.61921700	25.29527000	6.31151500
8.89999965	-5.25652100	25.29527000	6.31151500
9.09999964	-4.45989200	25.29527000	6.31151500
9.29999962	-2.86724900	25.29527000	6.31151500
9.49999961	-0.79601380	25.29527000	6.31151500
9.69999960	0.95533960	25.29527000	6.31151500
9.89999959	2.07062000	25.29527000	6.31151500
10.09999958	2.54859700	25.29527000	6.31151500
10.29999956	2.22994600	25.29527000	6.31151500
10.49999955	1.43331700	25.29527000	6.31151500
10.69999954	0.63668800	25.29527000	6.31151500
10.89999953	-0.15871060	25.29527000	6.31151500
11.09999952	-0.79601380	25.29527000	6.31151500
11.29999951	-0.95533960	25.29527000	6.31151500
11.49999949	-0.95533960	25.29527000	6.31151500
11.69999948	-0.79601380	25.29527000	6.31151500
11.89999947	-0.47736220	25.29527000	6.31151500
12.09999946	-0.15871060	25.29527000	6.31151500
12.29999945	-0.15871060	25.29527000	6.31151500
12.49999943	-0.15871060	25.29527000	6.31151500
12.69999942	0.00000000	25.29527000	6.31151500
12.89999941	0.00000000	25.29527000	6.31151500
13.09999940	0.00000000	25.29527000	6.31151500
13.29999939	0.00000000	25.29527000	6.31151500
13.49999937	0.00000000	25.29527000	6.31151500
13.69999936	0.00000000	25.29527000	6.31151500
13.89999935	0.00000000	25.29527000	6.31151500
14.09999934	-0.15871060	25.29527000	6.31151500
14.29999933	-0.15871060	25.29527000	6.31151500
14.49999932	-0.15871060	25.29527000	6.31151500
14.69999930	-0.15871060	25.29527000	6.31151500
14.89999929	0.00000000	25.29527000	6.31151500
15.09999928	0.00000000	25.29527000	6.31151500
15.29999927	0.00000000	25.29527000	6.31151500
15.49999926	0.00000000	25.29527000	6.31151500
15.69999924	0.00000000	25.29527000	6.31151500
15.89999923	0.00000000	25.29527000	6.31151500
16.09999922	0.00000000	25.29527000	6.31151500
16.29999921	-0.15871060	25.29527000	6.31151500
16.49999920	-0.15871060	25.29527000	6.31151500
16.69999919	-0.15871060	25.33834000	6.31151500
16.89999917	-0.15871060	25.71358000	6.31151500
17.09999916	0.00000000	26.45792000	6.31151500
17.29999915	0.00000000	26.83317000	6.31151500
17.49999914	0.00000000	26.87623000	6.31151500
17.69999913	0.00000000	26.83317000	6.31151500
17.89999911	0.00000000	26.45792000	6.31151500
18.09999910	0.00000000	25.62746000	6.31151500
18.29999909	0.00000000	24.45866000	6.31151500
18.49999908	0.00000000	22.50861000	6.31151500
18.69999907	0.00000000	20.68774000	6.31151500
18.89999905	0.00000000	19.85728000	6.31151500
19.09999904	0.00000000	20.26944000	6.31151500
19.29999903	-0.15871060	21.48130000	6.31151500
19.49999902	0.00000000	24.22490000	6.31151500
19.69999901	0.00000000	28.08194000	6.31151500
19.89999900	0.00000000	31.95128000	6.31151500
20.09999898	0.00000000	35.39001000	6.31151500
20.29999897	0.00000000	36.88484000	6.31151500
20.49999896	0.00000000	35.67913000	6.31151500
20.69999895	0.00000000	31.76058000	6.31151500
20.89999894	0.00000000	25.20300000	6.31151500
21.09999892	0.00000000	17.85802000	6.31151500
21.29999891	0.00000000	11.24508000	6.31151500
21.49999890	0.00000000	6.27460600	6.31151500
21.69999889	0.00000000	4.87204700	6.31151500
21.89999888	0.00000000	8.40920300	6.26845500
22.09999886	0.00000000	16.96604000	5.93626900
22.29999885	0.00000000	28.92470000	5.57332700
22.49999884	0.00000000	41.67076000	5.93626900
22.69999883	0.00000000	52.04847000	6.26845500
22.89999882	0.00000000	57.40034000	6.31151500
23.09999881	0.00000000	55.77633000	6.35457700
23.29999879	0.00000000	46.79502000	6.72982200
23.49999878	0.00000000	31.71752000	7.47416300
23.69999877	0.00000000	13.57652000	7.84940900
23.89999876	0.00000000	-2.98966500	7.89247000
24.09999875	0.00000000	-14.19783000	7.84940900
24.29999873	0.00000000	-17.18135000	7.42495000
24.49999872	0.00000000	-10.52534000	6.26845500
24.69999871	0.00000000	5.33341500	4.73671200
24.89999870	0.00000000	26.92544000	3.15575800
25.09999869	0.00000000	48.93578000	1.62401600
25.29999867	0.00000000	66.28937000	0.51058070
25.49999866	0.00000000	74.76009000	0.55364170
25.69999865	0.00000000	72.01648000	2.08538400
25.89999864	0.00000000	58.42765000	4.82283400
26.09999863	0.00000000	36.41732000	8.31077700
26.29999862	0.00000000	10.96826000	12.21087000
26.49999860	0.00000000	-11.41117000	15.60654000
26.69999859	0.00000000	-25.68897000	17.50738000
26.89999858	0.00000000	-28.38951000	16.67692000
27.09999857	0.00000000	-18.76230000	13.18898000
27.29999856	0.00000000	0.50442900	7.33882900
27.49999854	0.00000000	24.87697000	0.00000000
27.69999853	0.00000000	48.84350000	-7.29576700
27.89999852	0.00000000	67.35974000	-12.68455000
28.09999851	0.00000000	75.87352000	-14.54232000
28.29999850	0.00000000	72.47785000	-12.12475000
28.49999848	0.00000000	59.02436000	-4.74286400
28.69999847	0.00000000	38.92716000	6.40378900
28.89999846	0.00000000	16.87377000	18.35015000
29.09999845	0.00000000	-2.47908400	28.42643000
29.29999844	0.00000000	-15.22515000	34.51648000
29.49999843	0.00000000	-18.38706000	34.88558000
29.69999841	0.00000000	-11.92175000	28.62328000
29.89999840	0.00000000	1.61786400	17.04601000
30.09999839	0.00000000	19.38976000	1.95004900
30.29999838	0.00000000	37.53691000	-13.05979000
30.49999837	0.00000000	51.49483000	-24.62475000
30.69999835	0.00000000	58.93824000	-30.01353000
30.89999834	0.00000000	58.98130000	-27.69439000
31.09999833	0.00000000	52.04847000	-18.39936000
31.29999832	0.00000000	40.08981000	-3.67249000
31.49999831	0.00000000	25.76279000	13.69956000
31.69999829	0.00000000	12.22318000	29.91511000
31.89999828	0.00000000	2.12844500	41.44316000
32.09999827	0.00000000	-2.52214600	45.33710000
32.29999826	0.00000000	-1.03346500	40.69882000
32.49999825	0.00000000	5.89936000	29.12155000
32.69999824	0.00000000	16.27707000	12.49385000
32.89999822	0.00000000	27.48524000	-5.25344500
33.09999821	0.00000000	36.83563000	-20.39862000
33.29999820	0.00000000	43.07332000	-30.38878000
33.49999819	0.00000000	45.34940000	-32.70792000
33.69999818	0.00000000	42.65502000	-26.58095000
33.89999816	0.00000000	35.81446000	-14.25935000
34.09999815	0.00000000	27.34375000	1.62401600
34.29999814	0.00000000	19.56816000	17.83957000
34.49999813	0.00000000	13.75492000	30.98548000
34.69999812	0.00000000	11.06053000	38.37352000
34.89999810	0.00000000	12.17397000	38.74877000
35.09999809	0.00000000	16.36319000	32.19119000
35.29999808	0.00000000	22.17643000	19.83883000
35.49999807	0.00000000	28.32185000	4.87204700
35.69999806	0.00000000	33.30462000	-9.06126900
35.89999805	0.00000000	35.21161000	-18.68233000
36.09999803	0.00000000	33.76599000	-22.21334000
36.29999802	0.00000000	29.95201000	-18.77460000
36.49999801	0.00000000	25.29527000	-9.94709500
36.69999800	0.00000000	20.64468000	1.99311000
36.89999799	0.00000000	16.87377000	14.25935000
37.09999797	0.00000000	15.71112000	23.13607000
37.29999796	0.00000000	17.56890000	26.62401000
37.49999795	0.00000000	21.01993000	24.34178000
37.69999794	0.00000000	25.29527000	16.67692000
37.89999793	0.00000000	29.52756000	6.40378900
38.09999791	0.00000000	32.60334000	-3.21112200
38.29999790	0.00000000	33.80905000	-9.34424200
38.49999789	0.00000000	33.02165000	-10.54995000
38.69999788	0.00000000	30.69020000	-6.69291300
38.89999787	0.00000000	26.78395000	0.97194880
39.09999786	0.00000000	22.22564000	10.49459000
39.29999784	0.00000000	18.31939000	18.53469000
39.49999783	0.00000000	15.98794000	22.34867000
39.69999782	-0.15871060	15.20054000	21.22908000
39.89999781	0.00000000	16.40625000	15.05290000
40.09999780	0.00000000	19.43897000	5.89320800
40.29999778	0.00000000	23.29601000	-3.72170300
40.49999777	0.00000000	26.87623000	-10.96826000
40.69999776	0.00000000	30.37032000	-13.66265000
40.89999775	0.00000000	33.39075000	-10.96826000
41.09999774	0.00000000	34.18430000	-3.72170300
41.29999772	0.00000000	33.06471000	5.89320800
41.49999771	0.00000000	30.73326000	15.14518000
41.69999770	0.00000000	27.25147000	22.06570000
41.89999769	0.00000000	23.75738000	24.76009000
42.09999768	0.00000000	20.59547000	22.48400000
42.29999767	0.00000000	17.94414000	16.35089000
42.49999765	0.00000000	16.78149000	7.89247000
42.69999764	0.00000000	17.52584000	-0.55979330
42.89999763	0.00000000	19.43897000	-6.74212600
43.09999762	0.00000000	22.13336000	-9.47957600
43.29999761	0.00000000	24.82775000	-8.31692900
43.49999759	0.00000000	26.78395000	-3.76476400
43.69999758	0.00000000	27.98966000	2.73745100
43.89999757	0.00000000	28.41412000	8.87672100
44.09999756	0.00000000	28.41412000	13.23819000
44.29999755	0.00000000	28.03888000	15.56348000
44.49999753	0.00000000	27.29453000	15.92642000
44.69999752	0.00000000	26.91929000	13.61343000
44.89999751	0.00000000	26.87623000	9.47342500
45.09999750	0.00000000	26.83317000	5.24729300
45.29999749	0.00000000	26.40871000	2.08538400
45.49999748	0.00000000	25.20300000	0.13533460
45.69999746	-0.15871060	23.24680000	-0.60285430
45.89999745	0.00000000	20.50935000	0.51058070
46.09999744	0.00000000	17.48277000	2.78051200
46.29999743	0.00000000	15.20054000	5.11195900
46.49999742	0.00000000	14.87451000	7.47416300
46.69999740	0.00000000	16.83071000	9.38115100
46.89999739	0.00000000	21.14911000	10.53765000
47.09999738	0.00000000	27.29453000	10.49459000
47.29999737	0.00000000	33.85827000	9.00590400
47.49999736	0.00000000	38.84104000	6.68676100
47.69999734	0.00000000	41.16019000	4.36146600
47.89999733	0.00000000	39.91141000	2.04232300
48.09999732	0.00000000	34.88558000	0.51058070
48.29999731	0.00000000	26.79011000	0.13533460
48.49999730	0.00000000	17.90108000	0.92888770
48.69999729	0.00000000	10.21776000	3.24803100
48.89999727	0.00000000	5.62253900	6.26845500
49.09999726	0.00000000	6.03469500	9.00590400
49.29999725	0.00000000	11.01747000	10.96211000
49.49999724	0.00000000	19.52510000	12.11860000
49.69999723	0.00000000	29.52756000	12.03248000
49.89999721	0.00000000	38.37352000	10.11934000
50.09999720	0.00000000	43.81766000	6.68676100
50.29999719	0.00000000	44.56200000	3.19881900
50.49999718	0.00000000	40.69882000	0.09227362
50.69999717	0.00000000	32.60334000	-2.18380900
50.89999715	0.00000000	22.64394000	-2.55905500
51.09999714	0.00000000	13.75492000	-1.02116100
51.29999713	0.00000000	7.98474400	2.08538400
51.49999712	0.00000000	6.82824800	6.31151500
51.69999711	0.00000000	10.64222000	10.53765000
51.89999710	0.00000000	17.90108000	13.60728000
52.09999708	0.00000000	26.36565000	14.76993000
52.29999707	0.00000000	33.72293000	13.65650000
52.49999706	0.00000000	38.33046000	10.96211000
52.69999705	0.00000000	39.11786000	7.47416300
52.89999704	0.00000000	35.62992000	3.62327700
53.09999702	0.00000000	29.15846000	0.55364170
53.29999701	0.00000000	21.43824000	-1.02116100
53.49999700	0.00000000	14.96063000	-1.02116100
53.69999699	0.00000000	11.47884000	0.51058070
53.89999698	0.00000000	12.22318000	3.19881900
54.09999696	0.00000000	16.40625000	6.22539300
54.29999695	0.00000000	22.55167000	8.54453700
54.49999694	0.00000000	29.10925000	9.33809000
54.69999693	0.00000000	34.09818000	9.00590400
54.89999692	0.00000000	36.41732000	7.84940900
55.09999691	0.00000000	35.25467000	6.31151500
55.29999689	0.00000000	31.06545000	4.77977300
55.49999688	0.00000000	25.29527000	3.70939900
55.69999687	0.00000000	19.52510000	4.08464600
55.89999686	0.00000000	15.29281000	5.93626900
56.09999685	0.00000000	13.75492000	7.80019600
56.29999683	0.00000000	15.24975000	9.00590400
56.49999682	0.00000000	19.10679000	9.33809000
56.69999681	0.00000000	24.08957000	8.50147600
56.89999680	0.00000000	29.10925000	5.85014700
57.09999679	0.00000000	32.55413000	2.41141700
57.29999677	0.00000000	33.76599000	-0.28297240
57.49999676	0.00000000	32.60334000	-2.18380900
57.69999675	0.00000000	29.52756000	-2.09153500
57.89999674	0.00000000	25.33834000	0.59670270
58.09999673	0.00000000	21.48130000	5.19808000
58.29999672	0.00000000	19.14985000	10.53765000
58.49999670	0.00000000	18.31939000	14.76993000
58.69999669	0.00000000	19.10679000	16.71998000
58.89999668	0.00000000	21.01993000	16.30167000
59.09999667	0.00000000	23.71432000	13.14591000
59.29999666	0.00000000	26.36565000	7.43110200
59.49999664	0.00000000	27.94660000	0.87967510
59.69999663	0.00000000	28.36491000	-4.51525500
59.89999662	0.00000000	27.94660000	-7.94783400
60.09999661	0.00000000	26.45792000	-7.90477300
60.29999660	0.00000000	24.55093000	-4.09694900
60.49999658	0.00000000	23.38214000	2.08538400
60.69999657	0.00000000	22.60088000	9.42421200
60.89999656	0.00000000	22.60088000	16.30167000
61.09999655	0.00000000	23.33907000	20.53395000
61.29999654	0.00000000	24.13263000	20.95226000
61.49999653	0.00000000	25.29527000	17.83957000
61.69999651	0.00000000	26.36565000	11.65723000
61.89999650	0.00000000	26.36565000	3.62327700
62.09999649	0.00000000	25.25221000	-3.72170300
62.29999648	0.00000000	23.75738000	-8.74138700
62.49999647	0.00000000	22.60088000	-10.64222000
62.69999645	0.00000000	22.17643000	-8.36614100
62.89999644	0.00000000	22.17643000	-2.97736200
63.09999643	0.00000000	22.60088000	3.99237200
63.29999642	0.00000000	23.75738000	11.70029000
63.49999641	0.00000000	25.25221000	17.83957000
63.69999639	0.00000000	26.45792000	20.95226000
63.89999638	0.00000000	27.20841000	20.57702000
64.09999637	0.00000000	27.57136000	16.71998000
64.29999636	0.00000000	26.83317000	10.62992000
64.49999635	0.00000000	25.67052000	4.04158400
64.69999634	0.00000000	24.45866000	-1.39640700
64.89999632	0.00000000	22.60088000	-5.29650500
65.09999631	0.00000000	21.48130000	-6.82824800
65.29999630	0.00000000	21.80118000	-5.71481200
65.49999629	0.00000000	22.55167000	-2.64517700
65.69999628	0.00000000	23.75738000	1.62401600
65.89999626	0.00000000	25.25221000	6.26845500
66.09999625	0.00000000	26.36565000	10.53765000
66.29999624	0.00000000	26.36565000	13.65650000
66.49999623	0.00000000	25.25221000	15.23130000
66.69999622	0.00000000	23.75738000	15.23130000
66.89999620	0.00000000	22.55167000	13.69956000
67.09999619	0.00000000	21.85039000	11.04823000
67.29999618	0.00000000	21.81348000	8.26771600
67.49999617	0.00000000	23.00689000	5.47490100
67.69999616	0.00000000	24.55093000	1.99311000
67.89999615	0.00000000	26.87623000	-1.07037400
68.09999613	0.00000000	29.10925000	-3.02042300
68.29999612	0.00000000	29.85974000	-3.76476400
68.49999611	0.00000000	29.10925000	-2.60211600
68.69999610	0.00000000	26.78395000	0.09227362
68.89999609	0.00000000	23.67126000	3.62327700
69.09999607	0.00000000	20.17716000	7.93553100
69.29999606	0.00000000	16.73843000	12.53691000
69.49999605	0.00000000	14.87451000	16.35089000
69.69999604	0.00000000	15.24975000	17.88263000
69.89999603	0.00000000	17.98720000	16.76919000
70.09999601	0.00000000	22.60088000	13.65650000
70.29999600	0.00000000	27.98966000	8.96284400
70.49999599	0.00000000	32.60334000	3.20497000
70.69999598	0.00000000	35.34695000	-2.14074800
70.89999597	0.00000000	35.72219000	-5.29650500
71.09999596	0.00000000	33.76599000	-6.09005900
71.29999594	0.00000000	29.48450000	-4.92125900
71.49999593	0.00000000	23.71432000	-1.39640700
71.69999592	0.00000000	17.90108000	3.57406500
71.89999591	0.00000000	13.29355000	8.96284400
72.09999590	0.00000000	11.01747000	13.18898000
72.29999588	0.00000000	12.13091000	15.14518000
72.49999587	0.00000000	15.94488000	14.81299000
72.69999586	0.00000000	21.01993000	12.49385000
72.89999585	0.00000000	26.78395000	9.05511800
73.09999584	0.00000000	31.80979000	5.19808000
73.29999582	0.00000000	34.55955000	2.17765700
73.49999581	0.00000000	35.34695000	0.97194880
73.69999580	0.00000000	33.72293000	1.62401600
73.89999579	0.00000000	29.52756000	2.78051200
74.09999578	0.00000000	24.18184000	3.94931100
74.29999577	0.00000000	19.52510000	5.47490100
74.49999575	0.00000000	16.40625000	6.17618100
74.69999574	0.00000000	15.24975000	5.85014700
74.89999573	0.00000000	16.36319000	4.68750000
75.09999572	0.00000000	19.01451000	3.24803100
75.29999571	0.00000000	22.13336000	2.50369100
75.49999569	0.00000000	25.25221000	3.24803100
75.69999568	0.00000000	27.90354000	4.77977300
75.89999567	0.00000000	29.10925000	6.77903500
76.09999566	0.00000000	28.74015000	9.47342500
76.29999565	0.00000000	27.62057000	12.07554000
76.49999563	0.00000000	25.71358000	13.18898000
76.69999562	0.00000000	24.18184000	12.03248000
76.89999561	0.00000000	23.38214000	8.96284400
77.09999560	0.00000000	22.96998000	4.69365100
77.29999559	0.00000000	23.33907000	0.09227362
77.49999558	0.00000000	23.67126000	-3.71555100
77.69999556	0.00000000	23.71432000	-5.25344500
77.89999555	0.00000000	23.67126000	-4.13385800
78.09999554	0.00000000	23.24680000	-1.02116100
78.29999553	0.00000000	22.13336000	3.62327700
78.49999552	0.00000000	21.06299000	9.00590400
78.69999550	0.00000000	21.06299000	13.61343000
78.89999549	0.00000000	22.17643000	16.30167000
79.09999548	0.00000000	23.71432000	16.35089000
79.29999547	0.00000000	25.33834000	14.03174000
79.49999546	0.00000000	27.25147000	10.16855000
79.69999544	0.00000000	29.10925000	5.15501900
79.89999543	0.00000000	29.48450000	0.55364170
80.09999542	0.00000000	28.36491000	-2.60211600
80.29999541	0.00000000	26.40871000	-4.14000900
80.49999540	0.00000000	23.71432000	-3.76476400
80.69999539	0.00000000	21.01993000	-1.48868100
80.89999537	0.00000000	19.10679000	1.62401600
81.09999536	0.00000000	18.31939000	5.11195900
81.29999535	0.00000000	19.06373000	8.58759800
81.49999534	0.00000000	20.64468000	10.91289000
81.69999533	0.00000000	23.01919000	12.16166000
81.89999531	0.00000000	26.40871000	12.53691000
82.09999530	0.00000000	29.06619000	12.11860000
82.29999529	0.00000000	29.85974000	10.58686000
82.49999528	0.00000000	29.15231000	8.26771600
82.69999527	0.00000000	27.20841000	5.89320800
82.89999525	-0.15871060	24.92003000	3.15575800
83.09999524	0.00000000	22.55167000	0.51058070
83.29999523	0.00000000	20.64468000	-1.11343500
83.49999522	0.00000000	19.52510000	-1.85777500
83.69999521	0.00000000	19.85728000	-1.80856300
83.89999520	0.00000000	21.33981000	0.13533460
84.09999518	0.00000000	22.50861000	3.19881900
84.29999517	0.00000000	23.71432000	6.72982200
84.49999516	0.00000000	24.82775000	10.53765000
84.69999515	0.00000000	25.25221000	13.23819000
84.89999514	0.00000000	25.29527000	14.07480000
85.09999512	0.00000000	25.29527000	13.65650000
85.29999511	0.00000000	25.29527000	11.65723000
85.49999510	0.00000000	25.29527000	7.80019600
85.69999509	0.00000000	25.29527000	3.20497000
85.89999508	0.00000000	25.25221000	-1.02116100
86.09999506	0.00000000	24.87697000	-3.71555100
86.29999505	0.00000000	24.08957000	-4.14000900
86.49999504	0.00000000	23.33907000	-2.60211600
86.69999503	0.00000000	22.50861000	0.55364170
86.89999502	0.00000000	21.75812000	5.15501900
87.09999501	0.00000000	21.01993000	10.11934000
87.29999499	0.00000000	21.01993000	13.56422000
87.49999498	0.00000000	21.75812000	14.76993000
87.69999497	0.00000000	22.55167000	13.60728000
87.89999496	0.00000000	23.75738000	10.53765000
88.09999495	0.00000000	25.25221000	6.26845500
88.29999493	0.00000000	26.40871000	1.66707700
88.49999492	0.00000000	26.78395000	-2.14074800
88.69999491	0.00000000	26.40871000	-3.67249000
88.89999490	0.00000000	25.25221000	-2.55905500
89.09999489	0.00000000	23.71432000	0.51058070
89.29999487	0.00000000	22.17643000	4.77977300
89.49999486	0.00000000	21.06299000	9.38115100
89.69999485	0.00000000	21.01993000	13.18898000
89.89999484	0.00000000	21.75812000	14.67766000
90.09999483	0.00000000	22.55167000	13.23819000
90.29999482	0.00000000	23.71432000	9.75639700
90.49999480	0.00000000	24.82775000	5.51796200
90.69999479	0.00000000	25.25221000	0.87967510
90.89999478	0.00000000	25.25221000	-2.51599400
91.09999477	0.00000000	24.87697000	-3.71555100
91.29999476	0.00000000	24.13263000	-2.51599400
91.49999474	0.00000000	23.75738000	0.92888770
91.69999473	0.00000000	23.75738000	5.89320800
91.89999472	0.00000000	24.13263000	10.49459000
92.09999471	0.00000000	24.87697000	13.60728000
92.29999470	0.00000000	25.20300000	14.72687000
92.49999468	0.00000000	24.87697000	13.18898000
92.69999467	0.00000000	24.08957000	9.38115100
92.89999466	0.00000000	23.29601000	4.77977300
93.09999465	0.00000000	22.13336000	0.51058070
93.29999464	0.00000000	21.01993000	-2.51599400
93.49999463	0.00000000	20.59547000	-3.29724400
93.69999461	0.00000000	20.64468000	-1.39640700
93.89999460	0.00000000	21.43824000	2.04232300
94.09999459	0.00000000	23.33907000	6.26845500
94.29999458	0.00000000	25.29527000	10.11934000
94.49999457	0.00000000	27.25147000	12.40157000
94.69999455	0.00000000	29.10925000	12.77067000
94.89999454	0.00000000	29.48450000	10.49459000
95.09999453	0.00000000	28.32185000	6.72982200
95.29999452	0.00000000	25.99040000	3.19881900
95.49999451	0.00000000	22.55167000	0.13533460
95.69999449	0.00000000	19.48204000	-1.76550200
95.89999448	0.00000000	17.48277000	-1.39640700
96.09999447	0.00000000	16.36319000	0.51058070
96.29999446	0.00000000	16.78149000	3.62327700
96.49999445	0.00000000	19.10679000	7.38188900
96.69999444	0.00000000	22.55167000	10.07628000
96.89999442	0.00000000	26.45792000	10.91289000
97.09999441	0.00000000	29.90280000	10.53765000
97.29999440	0.00000000	32.22810000	8.96284400
97.49999439	0.00000000	32.60334000	6.31151500
97.69999438	0.00000000	31.06545000	3.66633800
97.89999436	0.00000000	27.94660000	2.08538400
98.09999435	0.00000000	23.71432000	1.66707700
98.29999434	0.00000000	19.48204000	2.04232300
98.49999433	0.00000000	16.36319000	3.15575800
98.69999432	0.00000000	14.78223000	4.31840500
98.89999430	0.00000000	14.82529000	5.11195900
99.09999429	0.00000000	16.73843000	5.89320800
99.29999428	0.00000000	20.22022000	6.26845500
99.49999427	0.00000000	24.04650000	6.31151500
99.69999426	0.00000000	27.57136000	6.31151500
99.89999425	0.00000000	29.90280000	6.35457700
100.09999423	0.00000000	31.10851000	6.72982200
100.29999422	0.00000000	31.06545000	7.47416300
100.49999421	0.00000000	29.52756000	7.80019600
100.69999420	0.00000000	26.83317000	7.42495000
100.89999419	0.00000000	23.75738000	6.26845500
101.09999417	0.00000000	21.01993000	4.73671200
101.29999416	0.00000000	19.06373000	3.15575800
101.49999415	0.00000000	17.90108000	1.62401600
101.69999414	0.00000000	17.90108000	0.51058070
101.89999413	0.00000000	19.06373000	0.55364170
102.09999411	0.00000000	20.97072000	2.08538400
102.29999410	0.00000000	23.33907000	4.73671200
102.49999409	0.00000000	25.62746000	7.43110200
102.69999408	0.00000000	27.57136000	9.42421200
102.89999407	0.00000000	28.32185000	10.96211000
103.09999406	0.00000000	27.98966000	11.65723000
103.29999404	0.00000000	26.83317000	10.45152000
103.49999403	0.00000000	25.25221000	7.47416300
103.69999402	0.00000000	23.33907000	4.03543200
103.89999401	0.00000000	21.38902000	1.66707700
104.09999400	0.00000000	20.22022000	0.09227362
104.29999398	0.00000000	19.43897000	-0.60285430
104.49999397	0.00000000	19.48204000	0.51058070
104.69999396	0.00000000	20.59547000	2.78051200
104.89999395	0.00000000	22.13336000	5.15501900
105.09999394	0.00000000	23.71432000	7.84940900
105.29999392	0.00000000	25.25221000	10.07628000
105.49999391	0.00000000	26.36565000	10.49459000
105.69999390	0.00000000	26.36565000	9.42421200
105.89999389	0.00000000	25.25221000	7.84940900
106.09999388	0.00000000	23.75738000	5.89320800
106.29999387	0.00000000	22.60088000	3.61712600
106.49999385	0.00000000	22.17643000	2.08538400
106.69999384	0.00000000	22.13336000	1.66707700
106.89999383	0.00000000	22.17643000	2.04232300
107.09999382	0.00000000	22.60088000	3.24803100
107.29999381	0.00000000	23.71432000	5.11195900
107.49999379	0.00000000	24.82775000	7.01279500
107.69999378	0.00000000	25.25221000	7.80019600
107.89999377	0.00000000	25.25221000	7.84940900
108.09999376	0.00000000	24.82775000	7.38188900
108.29999375	0.00000000	23.71432000	5.89320800
108.49999374	0.00000000	22.55167000	3.99237200
108.69999372	0.00000000	21.75812000	2.82357300
108.89999371	0.00000000	21.01993000	2.04232300
109.09999370	0.00000000	21.01993000	2.08538400
109.29999369	0.00000000	21.75812000	3.19881900
109.49999368	0.00000000	22.55167000	4.73671200
109.69999366	0.00000000	23.71432000	6.26845500
109.89999365	0.00000000	24.82775000	7.42495000
110.09999364	0.00000000	25.25221000	7.84940900
110.29999363	0.00000000	25.25221000	7.84940900
110.49999362	0.00000000	24.82775000	7.42495000
110.69999360	0.00000000	23.71432000	6.26845500
110.89999359	0.00000000	22.60088000	4.73671200
111.09999358	0.00000000	22.17643000	3.19881900
111.29999357	0.00000000	22.13336000	2.08538400
111.49999356	0.00000000	22.13336000	2.04232300
111.69999355	0.00000000	22.17643000	2.78051200
111.89999353	0.00000000	22.55167000	3.57406500
112.09999352	0.00000000	23.29601000	4.73671200
112.29999351	0.00000000	23.71432000	5.89320800
112.49999350	0.00000000	24.08957000	6.64370100
112.69999349	0.00000000	24.45866000	7.05585600
112.89999347	0.00000000	24.08957000	6.68676100
113.09999346	0.00000000	23.75738000	6.31151500
113.29999345	0.00000000	23.71432000	5.89320800
113.49999344	0.00000000	23.71432000	5.15501900
113.69999343	0.00000000	23.67126000	4.77977300
113.89999341	0.00000000	23.33907000	4.73671200
114.09999340	0.00000000	22.96998000	4.69365100
114.29999339	0.00000000	23.33907000	4.31840500
114.49999338	0.00000000	23.67126000	3.57406500
114.69999337	0.00000000	23.71432000	3.19881900
114.89999336	0.00000000	23.71432000	3.15575800
115.09999334	0.00000000	23.71432000	3.19881900
115.29999333	0.00000000	23.71432000	3.57406500
115.49999332	0.00000000	23.71432000	4.36146600
115.69999331	0.00000000	23.71432000	5.11195900
115.89999330	0.00000000	23.71432000	5.93626900
116.09999328	0.00000000	23.71432000	6.68676100
116.29999327	0.00000000	23.67126000	7.47416300
116.49999326	0.00000000	23.29601000	7.80019600
116.69999325	0.00000000	22.55167000	7.47416300
116.89999324	0.00000000	22.22564000	6.68676100
117.09999322	0.00000000	22.55167000	5.89320800
117.29999321	0.00000000	23.29601000	4.73671200
117.49999320	0.00000000	23.71432000	3.62327700
117.69999319	0.00000000	24.13263000	3.19881900
117.89999318	0.00000000	24.87697000	3.15575800
118.09999317	0.00000000	25.20300000	3.19881900
118.29999315	0.00000000	24.87697000	3.57406500
118.49999314	0.00000000	24.08957000	4.36146600
118.69999313	0.00000000	23.29601000	5.11195900
118.89999312	0.00000000	22.13336000	5.93626900
119.09999311	0.00000000	21.01993000	6.64370100
119.29999309	0.00000000	20.64468000	7.05585600
119.49999308	0.00000000	20.97072000	6.68676100
119.69999307	0.00000000	21.75812000	6.31151500
119.89999306	0.00000000	22.55167000	5.89320800
120.09999305	0.00000000	23.71432000	5.15501900
120.29999303	0.00000000	24.87697000	4.77977300
120.49999302	0.00000000	25.62746000	4.73671200
120.69999301	0.00000000	26.03961000	4.73671200
120.89999300	0.00000000	25.62746000	4.73671200
121.09999299	0.00000000	24.87697000	4.73671200
121.29999298	0.00000000	23.71432000	4.73671200
121.49999296	0.00000000	22.55167000	4.73671200
121.69999295	0.00000000	21.75812000	4.73671200
121.89999294	0.00000000	20.97072000	4.73671200
122.09999293	0.00000000	20.59547000	4.77977300
122.29999292	0.00000000	20.59547000	5.15501900
122.49999290	0.00000000	21.01993000	5.89320800
122.69999289	0.00000000	22.13336000	6.26845500
122.89999288	0.00000000	23.29601000	6.31151500
123.09999287	0.00000000	24.08957000	6.26845500
123.29999286	0.00000000	24.87697000	5.89320800
123.49999284	0.00000000	25.25221000	5.11195900
123.69999283	0.00000000	25.25221000	4.40452700
123.89999282	0.00000000	24.87697000	3.99237200
124.09999281	0.00000000	24.08957000	4.31840500
124.29999280	0.00000000	23.33907000	4.26919300
124.49999279	0.00000000	22.50861000	3.62327700
124.69999277	0.00000000	21.75812000	3.62327700
124.89999276	0.00000000	20.97072000	4.31840500
125.09999275	0.00000000	20.59547000	4.73671200
125.29999274	0.00000000	20.59547000	5.15501900
125.49999273	0.00000000	21.01993000	5.89320800
125.69999271	0.00000000	22.13336000	6.26845500
125.89999270	0.00000000	23.29601000	6.31151500
126.09999269	0.00000000	24.08957000	6.31151500
126.29999268	0.00000000	24.87697000	6.26845500
126.49999267	0.00000000	25.25221000	5.89320800
126.69999265	0.00000000	25.25221000	5.15501900
126.89999264	0.00000000	24.82775000	4.77977300
127.09999263	0.00000000	23.71432000	4.73671200
127.29999262	0.00000000	22.55167000	4.73671200
127.49999261	0.00000000	21.75812000	4.73671200
127.69999260	0.00000000	20.97072000	4.77977300
127.89999258	0.00000000	20.64468000	5.11195900
128.09999257	0.00000000	21.01993000	5.47490100
128.29999256	0.00000000	22.13336000	5.11195900
128.49999255	0.00000000	23.29601000	4.77977300
128.69999254	0.00000000	24.08957000	4.73671200
128.89999252	0.00000000	24.87697000	4.73671200
129.09999251	0.00000000	25.20300000	4.73671200
129.29999250	0.00000000	24.82775000	4.73671200
129.49999249	0.00000000	23.71432000	4.73671200
129.69999248	0.00000000	22.55167000	4.73671200
129.89999246	0.00000000	21.75812000	4.69365100
130.09999245	0.00000000	20.97072000	4.36146600
130.29999244	0.00000000	20.64468000	3.99237200
130.49999243	0.00000000	20.97072000	4.36146600
130.69999242	0.00000000	21.75812000	4.73671200
130.89999241	0.00000000	22.50861000	5.15501900
131.09999239	0.00000000	23.33907000	5.85014700
131.29999238	0.00000000	24.04650000	5.85014700
131.49999237	0.00000000	24.45866000	5.15501900
131.69999236	0.00000000	24.08957000	4.73671200
131.89999235	0.00000000	23.71432000	4.31840500
132.09999233	0.00000000	23.29601000	3.57406500
132.29999232	0.00000000	22.55167000	3.19881900
132.49999231	0.00000000	22.17643000	3.19881900
132.69999230	0.00000000	22.13336000	3.57406500
132.89999229	0.00000000	22.13336000	4.36146600
133.09999227	0.00000000	22.13336000	5.11195900
133.29999226	0.00000000	22.13336000	5.89320800
133.49999225	0.00000000	22.13336000	6.26845500
133.69999224	0.00000000	22.13336000	6.26845500
133.89999223	0.00000000	22.13336000	5.89320800
134.09999222	0.00000000	22.13336000	5.11195900
134.29999220	0.00000000	22.17643000	4.36146600
134.49999219	0.00000000	22.55167000	3.57406500
134.69999218	0.00000000	23.29601000	3.19881900
134.89999217	0.00000000	23.67126000	3.15575800
135.09999216	0.00000000	23.71432000	3.19881900
135.29999214	0.00000000	23.71432000	3.57406500
135.49999213	0.00000000	23.67126000	4.31840500
135.69999212	0.00000000	23.29601000	4.73671200
135.89999211	0.00000000	22.55167000	5.15501900
136.09999210	0.00000000	22.13336000	5.89320800
136.29999208	0.00000000	21.71506000	6.21924200
136.49999207	0.00000000	20.97072000	5.89320800
136.69999206	0.00000000	20.64468000	5.15501900
136.89999205	0.00000000	21.01993000	4.77977300
137.09999204	0.00000000	22.13336000	4.73671200
137.29999203	0.00000000	23.24680000	4.73671200
137.49999201	0.00000000	23.71432000	4.69365100
137.69999200	0.00000000	24.08957000	4.31840500
137.89999199	0.00000000	24.45866000	3.57406500
138.09999198	0.00000000	24.04650000	3.19881900
138.29999197	0.00000000	23.33907000	3.19881900
138.49999195	0.00000000	22.55167000	3.57406500
138.69999194	0.00000000	22.13336000	4.31840500
138.89999193	0.00000000	21.75812000	4.73671200
139.09999192	0.00000000	21.38902000	5.15501900
139.29999191	0.00000000	21.80118000	5.89320800
139.49999189	0.00000000	22.46555000	6.26845500
139.69999188	0.00000000	22.92076000	6.31151500
139.89999187	0.00000000	22.92692000	6.26845500
140.09999186	0.00000000	23.33907000	5.89320800
140.29999185	0.00000000	23.67126000	5.11195900
140.49999184	0.00000000	23.67126000	4.36146600
140.69999182	0.00000000	23.29601000	3.57406500
140.89999181	0.00000000	22.55167000	3.19881900
141.09999180	0.00000000	22.17643000	3.19881900
141.29999179	0.00000000	22.13336000	3.57406500
141.49999178	0.00000000	22.13336000	4.36146600
141.69999176	0.00000000	22.17643000	5.11195900
141.89999175	0.00000000	22.55167000	5.89320800
142.09999174	0.00000000	23.29601000	6.26845500
142.29999173	0.00000000	23.67126000	6.31151500
142.49999172	0.00000000	23.67126000	6.26845500
142.69999170	0.00000000	23.29601000	5.89320800
142.89999169	0.00000000	22.55167000	5.11195900
143.09999168	0.00000000	22.17643000	4.36146600
143.29999167	0.00000000	22.13336000	3.57406500
143.49999166	0.00000000	22.13336000	3.19881900
143.69999165	0.00000000	22.13336000	3.19881900
143.89999163	0.00000000	22.13336000	3.57406500
144.09999162	0.00000000	22.17643000	4.31840500
144.29999161	0.00000000	22.55167000	4.73671200
144.49999160	0.00000000	23.29601000	5.15501900
144.69999159	0.00000000	23.67126000	5.89320800
144.89999157	0.00000000	23.71432000	6.26845500
145.09999156	0.00000000	23.67126000	6.26845500
145.29999155	0.00000000	23.29601000	5.89320800
145.49999154	0.00000000	22.50861000	5.15501900
145.69999153	0.00000000	21.80118000	4.73671200
145.89999151	0.00000000	21.43824000	4.31840500
146.09999150	0.00000000	22.17643000	3.57406500
146.29999149	0.00000000	23.20374000	3.24803100
146.49999148	0.00000000	23.29601000	3.57406500
146.69999147	0.00000000	22.96998000	4.31840500
146.89999146	0.00000000	23.33907000	4.69365100
147.09999144	0.00000000	23.67126000	4.73671200
147.29999143	0.00000000	23.67126000	4.77977300
147.49999142	0.00000000	23.29601000	5.15501900
147.69999141	0.00000000	22.55167000	5.89320800
147.89999140	0.00000000	22.17643000	6.21924200
148.09999138	0.00000000	22.13336000	5.89320800
148.29999137	0.00000000	22.13336000	5.15501900
148.49999136	0.00000000	22.13336000	4.77977300
148.69999135	0.00000000	22.13336000	4.73671200
148.89999134	0.00000000	22.13336000	4.73671200
149.09999132	0.00000000	22.17643000	4.69365100
149.29999131	0.00000000	22.55167000	4.36146600
149.49999130	0.00000000	23.29601000	3.99237200
149.69999129	0.00000000	23.67126000	4.36146600
149.89999128	0.00000000	23.71432000	4.69365100
150.09999127	0.00000000	23.67126000	4.77977300
150.29999125	0.00000000	23.29601000	5.15501900
150.49999124	0.00000000	22.55167000	5.89320800
150.69999123	0.00000000	22.17643000	6.21924200
150.89999122	0.00000000	22.13336000	5.89320800
151.09999121	0.00000000	22.13336000	5.15501900
151.29999119	0.00000000	22.13336000	4.77977300
151.49999118	0.00000000	22.13336000	4.73671200
151.69999117	0.00000000	22.13336000	4.73671200
151.89999116	0.00000000	22.17643000	4.73671200
152.09999115	0.00000000	22.55167000	4.73671200
152.29999113	0.00000000	23.29601000	4.73671200
152.49999112	0.00000000	23.67126000	4.73671200
152.69999111	0.00000000	23.71432000	4.73671200
152.89999110	0.00000000	23.71432000	4.73671200
153.09999109	0.00000000	23.67126000	4.73671200
153.29999108	0.00000000	23.29601000	4.73671200
153.49999106	0.00000000	22.55167000	4.73671200
153.69999105	0.00000000	22.17643000	4.73671200
153.89999104	0.00000000	22.13336000	4.73671200
154.09999103	0.00000000	22.13336000	4.73671200
154.29999102	0.00000000	22.13336000	4.73671200
154.49999100	0.00000000	22.13336000	4.73671200
154.69999099	0.00000000	22.13336000	4.73671200
154.89999098	0.00000000	22.17643000	4.73671200
155.09999097	0.00000000	22.55167000	4.73671200
155.29999096	0.00000000	23.29601000	4.73671200
155.49999094	0.00000000	23.67126000	4.73671200
155.69999093	0.00000000	23.71432000	4.73671200
155.89999092	0.00000000	23.71432000	4.73671200
156.09999091	0.00000000	23.67126000	4.73671200
156.29999090	0.00000000	23.29601000	4.73671200
156.49999089	0.00000000	22.55167000	4.77977300
156.69999087	0.00000000	22.17643000	5.15501900
156.89999086	0.00000000	22.13336000	5.89320800
157.09999085	0.00000000	22.13336000	6.21924200
157.29999084	0.00000000	22.13336000	5.89320800
157.49999083	0.00000000	22.13336000	5.15501900
157.69999081	0.00000000	22.13336000	4.73671200
157.89999080	0.00000000	22.17643000	4.31840500
158.09999079	0.00000000	22.55167000	3.62327700
158.29999078	0.00000000	23.29601000	3.62327700
158.49999077	0.00000000	23.67126000	4.31840500
158.69999075	0.00000000	23.67126000	4.69365100
158.89999074	0.00000000	23.29601000	4.73671200
159.09999073	0.00000000	22.55167000	4.77977300
159.29999072	0.00000000	22.17643000	5.15501900
159.49999071	0.00000000	22.13336000	5.89320800
159.69999070	0.00000000	22.13336000	6.26845500
159.89999068	0.00000000	22.13336000	6.26845500
160.09999067	0.00000000	22.13336000	5.89320800
160.29999066	0.00000000	22.13336000	5.15501900
160.49999065	-0.15871060	22.13336000	4.77977300
160.69999064	0.00000000	22.13336000	4.73671200
160.89999062	0.00000000	22.13336000	4.69365100
161.09999061	0.00000000	22.17643000	4.31840500
161.29999060	0.00000000	22.50861000	3.62327700
161.49999059	0.00000000	22.87770000	3.62327700
161.69999058	0.00000000	22.50861000	4.31840500
161.89999056	0.00000000	22.17643000	4.69365100
162.09999055	0.00000000	22.13336000	4.73671200
162.29999054	0.00000000	22.17643000	4.73671200
162.49999053	0.00000000	22.50861000	4.73671200
162.69999052	0.00000000	22.87770000	4.73671200
162.89999051	0.00000000	22.50861000	4.73671200
163.09999049	0.00000000	22.17643000	4.73671200
163.29999048	0.00000000	22.13336000	4.73671200
163.49999047	0.00000000	22.13336000	4.73671200
163.69999046	0.00000000	22.13336000	4.73671200
163.89999045	0.00000000	22.13336000	4.73671200
164.09999043	0.00000000	22.13336000	4.73671200
164.29999042	0.00000000	22.17643000	4.73671200
164.49999041	0.00000000	22.50861000	4.73671200
164.69999040	0.00000000	22.92076000	4.73671200
164.89999039	0.00000000	22.92692000	4.73671200
165.09999037	0.00000000	23.29601000	4.73671200
165.29999036	0.00000000	23.24680000	4.73671200
165.49999035	0.00000000	22.55167000	4.73671200
165.69999034	0.00000000	22.17643000	4.73671200
165.89999033	0.00000000	22.13336000	4.73671200
166.09999032	0.00000000	22.09030000	4.73671200
166.29999030	0.00000000	21.75812000	4.73671200
166.49999029	0.00000000	21.38902000	4.73671200
166.69999028	0.00000000	21.75812000	4.73671200
166.89999027	0.00000000	22.09030000	4.73671200
167.09999026	0.00000000	22.13336000	4.73671200
167.29999024	0.00000000	22.13336000	4.73671200
167.49999023	0.00000000	22.13336000	4.73671200
167.69999022	0.00000000	22.13336000	4.73671200
167.89999021	0.00000000	22.13336000	4.73671200
168.09999020	0.00000000	22.13336000	4.73671200
168.29999018	0.00000000	22.13336000	4.73671200
168.49999017	0.00000000	22.17643000	4.73671200
168.69999016	0.00000000	22.50861000	4.73671200
168.89999015	0.00000000	22.87770000	4.73671200
169.09999014	0.00000000	22.50861000	4.73671200
169.29999013	0.00000000	22.17643000	4.73671200
169.49999011	0.00000000	22.13336000	4.73671200
169.69999010	0.00000000	22.13336000	4.73671200
169.89999009	0.00000000	22.13336000	4.73671200
170.09999008	0.00000000	22.13336000	4.73671200
170.29999007	0.00000000	22.13336000	4.73671200
170.49999005	0.00000000	22.13336000	4.73671200
170.69999004	0.00000000	22.13336000	4.73671200
170.89999003	0.00000000	22.13336000	4.73671200
171.09999002	0.00000000	22.13336000	4.73671200
171.29999001	0.00000000	22.17643000	4.73671200
171.49998999	0.00000000	22.50861000	4.73671200
171.69998998	0.00000000	22.87770000	4.73671200
171.89998997	0.00000000	22.50861000	4.73671200
172.09998996	0.00000000	22.17643000	4.73671200
172.29998995	0.00000000	22.13336000	4.73671200
172.49998994	0.00000000	22.13336000	4.73671200
172.69998992	0.00000000	22.13336000	4.73671200
172.89998991	0.00000000	22.13336000	4.73671200
173.09998990	0.00000000	22.13336000	4.73671200
173.29998989	0.00000000	22.13336000	4.73671200
173.49998988	0.00000000	22.13336000	4.73671200
173.69998986	0.00000000	22.13336000	4.73671200
173.89998985	0.00000000	22.13336000	4.73671200
174.09998984	0.00000000	22.13336000	4.73671200
174.29998983	0.00000000	22.13336000	4.73671200
174.49998982	0.00000000	22.13336000	4.73671200
174.69998980	0.00000000	22.13336000	4.73671200
174.89998979	0.00000000	22.13336000	4.73671200
175.09998978	0.00000000	22.13336000	4.73671200
175.29998977	0.00000000	22.13336000	4.73671200
175.49998976	0.00000000	22.13336000	4.73671200
175.69998975	0.00000000	22.13336000	4.73671200
175.89998973	0.00000000	22.13336000	4.73671200
176.09998972	0.00000000	22.13336000	4.73671200
176.29998971	0.00000000	22.13336000	4.73671200
176.49998970	0.00000000	22.13336000	4.73671200
176.69998969	0.00000000	22.13336000	4.73671200
176.89998967	0.00000000	22.13336000	4.73671200
177.09998966	0.00000000	22.09030000	4.73671200
177.29998965	0.00000000	21.75812000	4.73671200
177.49998964	0.00000000	21.38902000	4.73671200
177.69998963	0.00000000	21.71506000	4.73671200
177.89998961	0.00000000	21.71506000	4.73671200
178.09998960	0.00000000	21.38902000	4.73671200
178.29998959	0.00000000	21.75812000	4.73671200
178.49998958	0.00000000	22.09030000	4.73671200
178.69998957	0.00000000	22.13336000	4.69365100
178.89998956	0.00000000	22.13336000	4.36146600
179.09998954	0.00000000	22.13336000	3.99237200
179.29998953	0.00000000	22.13336000	4.36146600
179.49998952	0.00000000	22.13336000	4.69365100
179.69998951	0.00000000	22.13336000	4.73671200
179.89998950	0.00000000	22.13336000	4.73671200
180.09998948	0.00000000	22.13336000	4.73671200
180.29998947	0.00000000	22.13336000	4.73671200
180.49998946	0.00000000	22.13336000	4.73671200
180.69998945	0.00000000	22.13336000	4.73671200
180.89998944	0.00000000	22.13336000	4.73671200
181.09998942	0.00000000	22.13336000	4.73671200
181.29998941	0.00000000	22.13336000	4.73671200
181.49998940	0.00000000	22.13336000	4.73671200
181.69998939	0.00000000	22.13336000	4.73671200
181.89998938	0.00000000	22.13336000	4.73671200
182.09998937	0.00000000	22.13336000	4.73671200
182.29998935	0.00000000	22.13336000	4.73671200
182.49998934	0.00000000	22.13336000	4.73671200
182.69998933	0.00000000	22.13336000	4.69365100
182.89998932	0.00000000	22.13336000	4.31840500
183.09998931	0.00000000	22.13336000	3.62327700
183.29998929	0.00000000	22.13336000	3.62327700
183.49998928	0.00000000	22.13336000	4.31840500
183.69998927	0.00000000	22.13336000	4.69365100
183.89998926	0.00000000	22.13336000	4.73671200
184.09998925	0.00000000	22.13336000	4.73671200
184.29998923	0.00000000	22.13336000	4.77977300
184.49998922	0.00000000	22.13336000	5.11195900
184.69998921	0.00000000	22.13336000	5.47490100
184.89998920	0.00000000	22.13336000	5.11195900
185.09998919	0.00000000	22.13336000	4.77977300
185.29998918	0.00000000	22.13336000	4.73671200
185.49998916	0.00000000	22.13336000	4.73671200
185.69998915	0.00000000	22.13336000	4.73671200
185.89998914	0.00000000	22.13336000	4.69365100
186.09998913	0.00000000	22.13336000	4.31840500
186.29998912	0.00000000	22.13336000	3.62327700
186.49998910	0.00000000	22.13336000	3.62327700
186.69998909	0.00000000	22.13336000	4.31840500
186.89998908	0.00000000	22.13336000	4.69365100
187.09998907	0.00000000	22.13336000	4.73671200
187.29998906	0.00000000	22.13336000	4.77977300
187.49998904	0.00000000	22.13336000	5.11195900
187.69998903	0.00000000	22.13336000	5.47490100
187.89998902	0.00000000	22.13336000	5.11195900
188.09998901	0.00000000	22.13336000	4.77977300
188.29998900	0.00000000	22.13336000	4.69365100
188.49998899	0.00000000	22.13336000	4.36146600
188.69998897	0.00000000	22.13336000	3.94931100
188.89998896	0.00000000	22.13336000	3.98622000
189.09998895	0.00000000	22.13336000	3.94931100
189.29998894	0.00000000	22.13336000	4.36146600
189.49998893	0.00000000	22.13336000	4.69365100
189.69998891	0.00000000	22.13336000	4.73671200
189.89998890	0.00000000	22.13336000	4.73671200
190.09998889	0.00000000	22.09030000	4.73671200
190.29998888	0.00000000	21.75812000	4.73671200
190.49998887	0.00000000	21.38902000	4.73671200
190.69998885	0.00000000	21.75812000	4.73671200
190.89998884	0.00000000	22.09030000	4.73671200
191.09998883	0.00000000	22.13336000	4.73671200
191.29998882	0.00000000	22.13336000	4.73671200
191.49998881	0.00000000	22.13336000	4.69365100
191.69998880	0.00000000	22.13336000	4.36146600
191.89998878	0.00000000	22.13336000	3.99237200
192.09998877	0.00000000	22.13336000	4.36146600
192.29998876	0.00000000	22.13336000	4.64443900
192.49998875	0.00000000	22.09030000	4.36146600
192.69998874	0.00000000	21.71506000	3.94931100
192.89998872	0.00000000	20.97072000	3.98622000
193.09998871	0.00000000	20.59547000	3.94931100
193.29998870	0.00000000	20.59547000	4.36146600
193.49998869	0.00000000	20.97072000	4.69365100
193.69998868	0.00000000	21.71506000	4.73671200
193.89998866	0.00000000	22.09030000	4.73671200
194.09998865	0.00000000	22.13336000	4.73671200
194.29998864	0.00000000	22.13336000	4.73671200
194.49998863	0.00000000	22.13336000	4.73671200
194.69998862	0.00000000	22.13336000	4.73671200
194.89998861	0.00000000	22.13336000	4.73671200
195.09998859	0.00000000	22.13336000	4.73671200
195.29998858	0.00000000	22.09030000	4.73671200
195.49998857	0.00000000	21.75812000	4.73671200
195.69998856	0.00000000	21.34596000	4.73671200
195.89998855	0.00000000	21.38287000	4.73671200
196.09998853	0.00000000	21.34596000	4.73671200
