Time	Channel A	Channel B	Channel C
(us)	(V)	(mV)	(mV)

-4.49999956	0.00000000	31.57603000	8.35998900
-4.29999957	0.00000000	31.24384000	9.00590400
-4.09999958	0.00000000	30.87475000	9.00590400
-3.89999959	0.00000000	31.20078000	8.31077700
-3.69999960	0.00000000	31.15157000	7.93553100
-3.49999962	0.00000000	30.50566000	7.89247000
-3.29999963	0.00000000	30.45644000	7.89247000
-3.09999964	0.00000000	30.78248000	7.89247000
-2.89999965	0.00000000	30.45644000	7.93553100
-2.69999966	0.00000000	30.45644000	8.31077700
-2.49999968	0.00000000	30.78248000	9.00590400
-2.29999969	0.00000000	30.45644000	9.05511800
-2.09999970	0.00000000	30.50566000	8.68602300
-1.89999971	0.00000000	31.20078000	8.72293300
-1.69999972	0.00000000	31.57603000	8.68602300
-1.49999973	0.00000000	31.57603000	9.05511800
-1.29999975	0.00000000	31.24384000	9.00590400
-1.09999976	0.00000000	30.87475000	8.35998900
-0.89999977	0.00000000	31.20078000	8.31077700
-0.69999978	0.00000000	31.20078000	8.67987200
-0.49999979	0.00000000	30.87475000	8.64296200
-0.29999981	0.15871060	31.24384000	8.67987200
-0.09999982	0.63668800	31.57603000	8.26771600
0.10000017	0.95533960	31.57603000	7.93553100
0.30000016	0.95533960	31.20078000	7.89247000
0.50000015	0.79601380	30.45644000	7.89247000
0.70000013	0.31803640	30.08120000	7.89247000
0.90000012	-0.47736220	30.08120000	7.89247000
1.10000011	-1.43331700	30.45644000	7.89247000
1.30000010	-2.22994600	31.15157000	7.93553100
1.50000009	-2.70792300	31.20078000	8.31077700
1.70000008	-2.54859700	30.87475000	9.05511800
1.90000006	-1.43331700	31.24384000	9.43036400
2.10000005	0.31803640	31.57603000	9.43036400
2.30000004	2.38927200	31.57603000	9.05511800
2.50000003	4.30056600	31.20078000	8.31077700
2.70000002	5.25652100	30.50566000	7.93553100
2.90000000	4.93786900	30.45644000	7.89247000
3.09999999	3.18590100	30.82554000	7.89247000
3.29999998	0.31803640	30.78863000	7.89247000
3.49999997	-3.18590100	30.82554000	7.89247000
3.69999996	-6.21247500	30.45644000	7.93553100
3.89999994	-7.80511800	30.50566000	8.31077700
4.09999993	-7.64579200	31.20078000	9.05511800
4.29999992	-5.41584600	31.57603000	9.47342500
4.49999991	-1.59264300	31.61909000	9.84867000
4.69999990	2.86724900	31.61909000	10.21161000
4.89999989	6.69045300	31.57603000	9.79945900
5.09999987	9.07972400	31.20078000	9.09817800
5.29999986	9.23905000	30.45644000	8.31077700
5.49999985	7.00848900	30.08120000	7.93553100
5.69999984	2.86724900	30.03814000	7.89247000
5.89999983	-1.91129400	30.08120000	7.89247000
6.09999981	-6.21247500	30.41338000	7.89247000
6.29999980	-8.92039900	30.82554000	7.93553100
6.49999979	-9.39837600	30.83169000	8.31077700
6.69999978	-7.48646600	31.24384000	9.05511800
6.89999977	-3.98191400	31.52682000	9.43036400
7.09999975	0.47736220	31.20078000	9.47342500
7.29999974	4.45989200	30.45644000	9.43036400
7.49999973	7.00848900	30.08120000	9.05511800
7.69999972	7.80511800	30.03814000	8.31077700
7.89999971	6.53112700	30.03814000	7.93553100
8.09999970	3.66326300	30.03814000	7.89247000
8.29999968	0.47736220	30.03814000	7.89247000
8.49999967	-2.54859700	30.08120000	7.89247000
8.69999966	-4.61921700	30.41338000	7.89247000
8.89999965	-5.25652100	30.78248000	7.93553100
9.09999964	-4.45989200	30.41338000	8.31077700
9.29999962	-2.86724900	30.08120000	9.05511800
9.49999961	-0.95533960	30.03814000	9.38115100
9.69999960	0.79601380	30.03814000	9.05511800
9.89999959	2.07062000	30.08120000	8.31077700
10.09999958	2.54859700	30.41338000	7.98474400
10.29999956	2.22994600	30.78248000	8.26771600
10.49999955	1.59264300	30.41338000	8.63681000
10.69999954	0.63668800	30.08120000	8.26771600
10.89999953	-0.15871060	30.03814000	7.93553100
11.09999952	-0.79601380	30.03814000	7.93553100
11.29999951	-0.95533960	30.03814000	8.26771600
11.49999949	-0.95533960	30.03814000	8.63681000
11.69999948	-0.79601380	30.08120000	8.26771600
11.89999947	-0.47736220	30.41338000	7.93553100
12.09999946	-0.31803640	30.78248000	7.89247000
12.29999945	-0.15871060	30.41338000	7.89247000
12.49999943	-0.15871060	30.08120000	7.89247000
12.69999942	0.00000000	30.03814000	7.89247000
12.89999941	0.00000000	30.03814000	7.89247000
13.09999940	0.00000000	30.03814000	7.89247000
13.29999939	0.00000000	30.03814000	7.93553100
13.49999937	0.00000000	30.03814000	8.26771600
13.69999936	0.00000000	30.03814000	8.63681000
13.89999935	0.00000000	30.03814000	8.26771600
14.09999934	-0.15871060	30.03814000	7.93553100
14.29999933	-0.15871060	30.03814000	7.89247000
14.49999932	-0.15871060	30.03814000	7.89247000
14.69999930	0.00000000	30.03814000	7.89247000
14.89999929	0.00000000	30.03814000	7.89247000
15.09999928	0.00000000	30.03814000	7.89247000
15.29999927	0.00000000	30.03814000	7.89247000
15.49999926	0.00000000	30.03814000	7.89247000
15.69999924	0.00000000	30.03814000	7.89247000
15.89999923	0.00000000	30.03814000	7.89247000
16.09999922	0.00000000	30.03814000	7.89247000
16.29999921	-0.15871060	30.03814000	7.89247000
16.49999920	-0.15871060	30.08120000	7.89247000
16.69999919	-0.15871060	30.45644000	7.89247000
16.89999917	-0.15871060	31.20078000	7.89247000
17.09999916	0.00000000	31.57603000	7.89247000
17.29999915	0.00000000	31.66215000	7.89247000
17.49999914	0.00000000	31.99434000	7.89247000
17.69999913	0.00000000	32.36343000	7.89247000
17.89999911	0.00000000	31.90207000	7.89247000
18.09999910	0.00000000	30.82554000	7.89247000
18.29999909	0.00000000	29.25074000	7.89247000
18.49999908	0.00000000	28.03888000	7.89247000
18.69999907	0.00000000	26.50098000	7.93553100
18.89999905	0.00000000	25.06151000	8.31077700
19.09999904	-0.15871060	25.43061000	9.00590400
19.29999903	0.00000000	26.96850000	9.00590400
19.49999902	0.00000000	29.34301000	8.31077700
19.69999901	0.00000000	32.87401000	7.93553100
19.89999900	0.00000000	36.69414000	7.89247000
20.09999898	0.00000000	40.18209000	7.89247000
20.29999897	0.00000000	42.00295000	7.93553100
20.49999896	0.00000000	41.20940000	8.26771600
20.69999895	0.00000000	37.30315000	8.63681000
20.89999894	0.00000000	31.15772000	8.26771600
21.09999892	0.00000000	24.08957000	7.93553100
21.29999891	-0.15871060	17.15059000	7.89247000
21.49999890	0.00000000	11.43578000	7.89247000
21.69999889	0.00000000	9.61491000	7.89247000
21.89999888	0.00000000	12.72761000	7.89247000
22.09999886	0.00000000	20.54626000	7.89247000
22.29999885	0.00000000	32.17273000	7.89247000
22.49999884	0.00000000	45.25098000	7.89247000
22.69999883	0.00000000	56.37303000	7.89247000
22.89999882	0.00000000	62.10014000	7.89247000
23.09999881	0.00000000	60.56225000	7.93553100
23.29999879	0.00000000	51.96235000	8.31077700
23.49999878	0.00000000	37.62303000	9.09817800
23.69999877	-0.15871060	19.81422000	9.79945900
23.89999876	0.00000000	2.91584600	10.21161000
24.09999875	0.00000000	-9.03666200	9.84867000
24.29999873	0.00000000	-12.43848000	9.47342500
24.49999872	0.00000000	-6.20078700	8.96284400
24.69999871	0.00000000	8.96284400	7.43110200
24.89999870	0.00000000	30.54872000	5.19808000
25.09999869	0.00000000	53.30339000	3.66633800
25.29999867	0.00000000	71.40748000	3.19881900
25.49999866	0.00000000	80.66560000	3.24803100
25.69999865	-0.15871060	78.29724000	4.12770700
25.89999864	0.00000000	64.80068000	6.82209600
26.09999863	0.00000000	43.11638000	10.67298000
26.29999862	0.00000000	18.03642000	14.53617000
26.49999860	0.00000000	-4.71210600	18.01796000
26.69999859	0.00000000	-19.36516000	19.88189000
26.89999858	0.00000000	-22.52707000	19.42052000
27.09999857	0.00000000	-14.01944000	15.88336000
27.29999856	0.00000000	4.17691900	9.38115100
27.49999854	0.00000000	28.45718000	1.99311000
27.69999853	0.00000000	52.79281000	-4.97662400
27.89999852	0.00000000	71.36441000	-10.68528000
28.09999851	0.00000000	80.66560000	-12.50000000
28.29999850	0.00000000	78.34030000	-9.43036400
28.49999848	0.00000000	65.31126000	-2.04847400
28.69999847	0.00000000	45.20792000	8.40305000
28.89999846	0.00000000	22.82234000	19.97416000
29.09999845	0.00000000	3.05733300	30.00738000
29.29999844	0.00000000	-9.73794300	36.18971000
29.49999843	0.00000000	-13.64419000	37.26009000
29.69999841	0.00000000	-7.87401500	32.10507000
29.89999840	0.00000000	5.94242000	20.53395000
30.09999839	0.00000000	23.71432000	5.15501900
30.29999838	0.00000000	41.53543000	-9.94094400
30.49999837	0.00000000	55.86245000	-21.93036000
30.69999835	0.00000000	63.68110000	-28.38951000
30.89999834	0.00000000	64.14247000	-26.80856000
31.09999833	0.00000000	57.95398000	-17.19365000
31.29999832	0.00000000	46.37057000	-2.14074800
31.49999831	0.00000000	32.08661000	15.28051000
31.69999829	0.00000000	18.54700000	31.49606000
31.89999828	0.00000000	8.40920300	43.11023000
32.09999827	0.00000000	3.37721400	47.71161000
32.29999826	0.00000000	4.12770700	44.22367000
32.49999825	0.00000000	10.68528000	33.02780000
32.69999824	0.00000000	21.01993000	16.81225000
32.89999822	0.00000000	32.27116000	-0.97810030
33.09999821	0.00000000	41.95374000	-16.81841000
33.29999820	0.00000000	48.56053000	-27.27608000
33.49999819	0.00000000	50.51673000	-30.34572000
33.69999818	0.00000000	47.85925000	-25.31988000
33.89999816	0.00000000	41.67076000	-13.01058000
34.09999815	0.00000000	33.20005000	3.15575800
34.29999814	0.00000000	24.73548000	19.46358000
34.49999813	0.00000000	18.54700000	32.98474000
34.69999812	0.00000000	15.80339000	41.06791000
34.89999810	0.00000000	16.91683000	41.48622000
35.09999809	0.00000000	21.14911000	34.60876000
35.29999808	0.00000000	27.29453000	22.61934000
35.49999807	0.00000000	33.80905000	7.94168200
35.69999806	0.00000000	38.42273000	-6.27460600
35.89999805	0.00000000	40.04675000	-16.31397000
36.09999803	0.00000000	38.88410000	-19.84498000
36.29999802	0.00000000	35.43922000	-16.81841000
36.49999801	0.00000000	30.41338000	-8.32308000
36.69999800	0.00000000	25.47367000	3.57406500
36.89999799	0.00000000	21.99188000	15.88336000
37.09999797	0.00000000	21.19833000	25.08612000
37.29999796	-0.15871060	22.68701000	28.98622000
37.49999795	0.00000000	25.80585000	26.71629000
37.69999794	0.00000000	30.08735000	19.50664000
37.89999793	0.00000000	34.69488000	9.89173200
38.09999791	0.00000000	38.50886000	0.64591530
38.29999790	0.00000000	40.04675000	-6.23154500
38.49999789	0.00000000	38.93332000	-8.50147600
38.69999788	0.00000000	35.85752000	-5.06889700
38.89999787	0.00000000	31.61909000	2.55290300
39.09999786	0.00000000	27.34375000	12.11860000
39.29999784	0.00000000	23.80659000	20.48474000
39.49999783	0.00000000	21.10605000	24.71703000
39.69999782	-0.15871060	19.99262000	23.60359000
39.89999781	0.00000000	21.14911000	17.83957000
40.09999780	0.00000000	24.18184000	9.01205700
40.29999778	0.00000000	28.08194000	-0.55979330
40.49999777	0.00000000	31.99434000	-7.85556000
40.69999776	0.00000000	35.85752000	-10.92520000
40.89999775	0.00000000	38.55807000	-8.96899500
41.09999774	0.00000000	39.35162000	-2.04847400
41.29999772	0.00000000	38.60113000	7.84940900
41.49999771	0.00000000	36.23277000	17.46432000
41.69999770	-0.15871060	32.78174000	24.06496000
41.89999769	0.00000000	28.87549000	26.75935000
42.09999768	0.00000000	25.43061000	24.80315000
42.29999767	0.00000000	23.06225000	18.35015000
42.49999765	0.00000000	22.26870000	9.89173200
42.69999764	0.00000000	22.64394000	1.75935000
42.89999763	0.00000000	24.22490000	-4.78592500
43.09999762	0.00000000	26.87623000	-7.85556000
43.29999761	0.00000000	29.57062000	-6.74212600
43.49999759	0.00000000	31.52682000	-2.18380900
43.69999758	0.00000000	32.78174000	4.36146600
43.89999757	0.00000000	33.53223000	10.86983000
44.09999756	-0.15871060	33.90133000	15.92642000
44.29999755	0.00000000	33.15699000	18.25787000
44.49999753	0.00000000	32.08661000	17.92569000
44.69999752	0.00000000	31.66215000	15.27436000
44.89999751	0.00000000	31.66215000	11.42347000
45.09999750	0.00000000	31.95128000	7.56028500
45.29999749	0.00000000	31.89591000	4.08464600
45.49999748	0.00000000	30.32111000	2.12844500
45.69999746	0.00000000	28.03888000	1.71013800
45.89999745	0.00000000	25.25221000	2.50369100
46.09999744	0.00000000	22.22564000	4.77977300
46.29999743	0.00000000	19.94340000	7.47416300
46.49999742	0.00000000	19.61737000	9.79945900
46.69999740	0.00000000	21.57357000	11.74951000
46.89999739	0.00000000	25.84892000	12.53691000
47.09999738	0.00000000	31.66830000	12.53691000
47.29999737	0.00000000	37.85679000	11.70029000
47.49999736	0.00000000	43.20866000	9.42421200
47.69999734	0.00000000	45.85999000	6.77903500
47.89999733	0.00000000	44.69734000	4.77977300
48.09999732	0.00000000	39.99754000	3.24803100
48.29999731	0.00000000	32.27116000	2.50369100
48.49999730	-0.15871060	23.06225000	3.29109200
48.69999729	0.00000000	15.38509000	5.19808000
48.89999727	0.00000000	11.06053000	7.93553100
49.09999726	0.00000000	10.72835000	11.00517000
49.29999725	0.00000000	14.64075000	13.69956000
49.49999724	0.00000000	22.73007000	15.23130000
49.69999723	0.00000000	32.73868000	15.18824000
49.89999721	0.00000000	42.00295000	13.28125000
50.09999720	0.00000000	48.51131000	9.79945900
50.29999719	0.00000000	50.04921000	5.98548200
50.49999718	-0.15871060	46.23523000	2.46063000
50.69999717	0.00000000	38.50886000	0.17839570
50.89999715	0.00000000	28.50640000	-0.60285430
51.09999714	0.00000000	18.92224000	0.59670270
51.29999713	0.00000000	12.72761000	3.66633800
51.49999712	0.00000000	11.14665000	7.89247000
51.69999711	0.00000000	14.22244000	12.11860000
51.89999710	0.00000000	21.14911000	15.23130000
52.09999708	0.00000000	29.95201000	16.76919000
52.29999707	0.00000000	38.04749000	16.35089000
52.49999706	0.00000000	43.07332000	13.65650000
52.69999705	0.00000000	44.23597000	9.47342500
52.89999704	0.00000000	41.16019000	5.24729300
53.09999702	0.00000000	34.65182000	2.12844500
53.29999701	0.00000000	27.01156000	0.55364170
53.49999700	-0.15871060	20.45399000	0.55364170
53.69999699	0.00000000	17.00910000	2.08538400
53.89999698	0.00000000	17.34129000	4.77977300
54.09999696	0.00000000	21.14911000	7.84940900
54.29999695	0.00000000	26.91929000	10.49459000
54.49999694	0.00000000	33.11393000	11.65723000
54.69999693	0.00000000	38.46580000	10.96211000
54.89999692	0.00000000	41.11712000	9.47342500
55.09999691	0.00000000	40.00369000	7.89247000
55.29999689	0.00000000	35.81446000	6.40378900
55.49999688	0.00000000	30.03814000	5.66560000
55.69999687	0.00000000	24.26796000	6.40378900
55.89999686	0.00000000	20.03568000	7.93553100
56.09999685	0.00000000	18.49778000	9.84867000
56.29999683	0.00000000	19.99262000	11.70029000
56.49999682	0.00000000	23.84965000	12.03248000
56.69999681	0.00000000	28.83243000	10.53765000
56.89999680	0.00000000	33.85827000	7.84940900
57.09999679	0.00000000	37.30315000	4.73671200
57.29999677	0.00000000	38.50886000	1.71013800
57.49999676	0.00000000	37.35236000	-0.18454720
57.69999675	0.00000000	34.27657000	0.22145670
57.89999674	0.00000000	30.08735000	2.54675200
58.09999673	0.00000000	26.22416000	6.82209600
58.29999672	0.00000000	23.89271000	12.16166000
58.49999670	0.00000000	23.06225000	16.76919000
58.69999669	0.00000000	23.84965000	19.42052000
58.89999668	0.00000000	25.76279000	19.04527000
59.09999667	0.00000000	28.45718000	15.56348000
59.29999666	0.00000000	31.15157000	10.16855000
59.49999664	0.00000000	33.11393000	3.62327700
59.69999663	-0.15871060	34.18430000	-2.14074800
59.89999662	0.00000000	33.48302000	-5.57947800
60.09999661	0.00000000	31.25615000	-5.94857300
60.29999660	0.00000000	29.70595000	-2.46678100
60.49999658	0.00000000	28.45718000	3.66633800
60.69999657	0.00000000	27.38681000	11.00517000
60.89999656	0.00000000	27.38681000	17.92569000
61.09999655	0.00000000	28.45718000	22.48400000
61.29999654	0.00000000	29.61983000	23.27141000
61.49999653	0.00000000	30.41338000	19.83883000
61.69999651	0.00000000	31.15157000	13.69956000
61.89999650	0.00000000	31.10851000	6.31766700
62.09999649	0.00000000	29.99508000	-0.97810030
62.29999648	0.00000000	28.50024000	-6.36687900
62.49999647	0.00000000	27.29453000	-8.27386800
62.69999645	0.00000000	26.54404000	-6.36687900
62.89999644	-0.15871060	26.18110000	-0.97810030
63.09999643	0.00000000	26.96850000	6.31766700
63.29999642	0.00000000	28.45718000	13.65650000
63.49999641	0.00000000	30.03814000	19.46358000
63.69999639	0.00000000	31.57603000	22.53322000
63.89999638	0.00000000	32.68946000	22.20103000
64.09999637	0.00000000	32.68946000	18.71924000
64.29999636	0.00000000	31.57603000	13.32431000
64.49999635	0.00000000	30.03814000	6.72982200
64.69999634	0.00000000	28.50024000	0.59670270
64.89999632	0.00000000	27.29453000	-3.67249000
65.09999631	0.00000000	26.54404000	-5.25344500
65.29999630	0.00000000	26.18110000	-4.13385800
65.49999629	0.00000000	26.96850000	-1.07037400
65.69999628	0.00000000	28.45718000	3.20497000
65.89999626	0.00000000	29.99508000	7.84940900
66.09999625	0.00000000	31.10851000	12.11860000
66.29999624	0.00000000	31.10851000	15.23130000
66.49999623	-0.15871060	29.99508000	16.81225000
66.69999622	0.00000000	28.50024000	16.85531000
66.89999620	0.00000000	27.29453000	15.69882000
67.09999619	0.00000000	26.54404000	13.74262000
67.29999618	0.00000000	26.18110000	10.96211000
67.49999617	0.00000000	27.01156000	7.47416300
67.69999616	0.00000000	28.92470000	3.62327700
67.89999615	0.00000000	31.57603000	0.51058070
68.09999613	0.00000000	33.85827000	-1.43946800
68.29999612	0.00000000	34.65182000	-2.22687000
68.49999611	-0.15871060	34.23351000	-1.39640700
68.69999610	0.00000000	32.27116000	0.92888770
68.89999609	0.00000000	28.78937000	4.82898600
69.09999607	0.00000000	24.96309000	9.47342500
69.29999606	0.00000000	21.48130000	14.11786000
69.49999605	0.00000000	19.61737000	17.97490000
69.69999604	0.00000000	19.99262000	19.88189000
69.89999603	0.00000000	22.68701000	19.46358000
70.09999601	0.00000000	26.96850000	16.39395000
70.29999600	0.00000000	31.99434000	11.38041000
70.49999599	0.00000000	36.97096000	5.98548200
70.69999598	0.00000000	40.04675000	0.92888770
70.89999597	0.00000000	40.46506000	-2.51599400
71.09999596	0.00000000	38.50886000	-3.71555100
71.29999594	0.00000000	34.23351000	-2.51599400
71.49999593	0.00000000	28.45718000	0.92888770
71.69999592	0.00000000	22.64394000	5.93626900
71.89999591	0.00000000	18.03642000	10.91289000
72.09999590	0.00000000	15.71112000	14.81299000
72.29999588	0.00000000	16.49852000	16.71998000
72.49999587	0.00000000	19.94340000	16.39395000
72.69999586	0.00000000	25.38755000	14.11786000
72.89999585	0.00000000	31.53297000	11.04823000
73.09999584	0.00000000	36.92790000	7.93553100
73.29999582	0.00000000	40.04675000	5.24729300
73.49999581	0.00000000	40.46506000	3.70939900
73.69999580	0.00000000	38.55807000	3.66633800
73.89999579	0.00000000	34.65182000	4.77977300
74.09999578	0.00000000	29.66289000	6.26845500
74.29999577	0.00000000	24.64321000	7.42495000
74.49999575	0.00000000	21.19833000	7.80019600
74.69999574	0.00000000	19.94340000	7.47416300
74.89999573	0.00000000	20.73080000	6.68676100
75.09999572	0.00000000	23.01919000	5.93626900
75.29999571	0.00000000	26.45792000	5.19808000
75.49999569	0.00000000	29.57062000	5.29035400
75.69999568	0.00000000	31.95128000	6.82209600
75.89999567	0.00000000	33.85827000	9.47342500
76.09999566	0.00000000	34.18430000	12.16781000
76.29999565	0.00000000	32.78174000	14.07480000
76.49999563	0.00000000	30.87475000	14.81299000
76.69999562	0.00000000	29.70595000	13.60728000
76.89999561	0.00000000	28.87549000	10.53765000
77.09999560	0.00000000	28.50024000	6.31151500
77.29999559	0.00000000	28.45718000	2.08538400
77.49999558	0.00000000	28.45718000	-1.02116100
77.69999556	0.00000000	28.45718000	-2.55905500
77.89999555	0.00000000	28.41412000	-2.09153500
78.09999554	0.00000000	28.03888000	0.97194880
78.29999553	0.00000000	27.25147000	5.93626900
78.49999552	0.00000000	26.54404000	10.95595000
78.69999550	0.00000000	26.18110000	15.23130000
78.89999549	0.00000000	26.96850000	17.92569000
79.09999548	0.00000000	28.50024000	18.30093000
79.29999547	0.00000000	30.45644000	16.39395000
79.49999546	0.00000000	32.73868000	12.53691000
79.69999544	0.00000000	34.27657000	7.89247000
79.89999543	0.00000000	34.65182000	3.24803100
80.09999542	0.00000000	33.85827000	-0.55979330
80.29999541	0.00000000	31.53297000	-2.13459600
80.49999540	0.00000000	28.45718000	-1.43946800
80.69999539	0.00000000	25.38755000	0.46751960
80.89999537	0.00000000	23.10531000	3.24803100
81.09999536	0.00000000	22.68701000	6.68676100
81.29999535	0.00000000	23.80659000	10.16855000
81.49999534	0.00000000	25.76279000	12.53691000
81.69999533	0.00000000	28.45718000	14.11786000
81.89999531	0.00000000	31.15157000	14.85605000
82.09999530	0.00000000	33.11393000	14.11786000
82.29999529	0.00000000	34.27657000	12.58612000
82.49999528	0.00000000	34.23351000	10.62992000
82.69999527	0.00000000	32.64640000	8.21850300
82.89999525	0.00000000	29.70595000	5.56102300
83.09999524	0.00000000	27.01772000	2.82972400
83.29999523	0.00000000	26.16880000	1.29183100
83.49999522	0.00000000	25.71358000	0.46136810
83.69999521	0.00000000	25.76279000	0.55364170
83.89999520	0.00000000	26.50098000	2.08538400
84.09999518	0.00000000	27.29453000	4.82283400
84.29999517	0.00000000	28.45718000	8.31077700
84.49999516	0.00000000	29.57062000	12.16166000
84.69999515	0.00000000	29.99508000	15.18824000
84.89999514	0.00000000	30.03814000	16.39395000
85.09999512	0.00000000	29.99508000	15.60654000
85.29999511	0.00000000	29.66289000	13.28125000
85.49999510	0.00000000	29.29380000	9.38115100
85.69999509	0.00000000	29.66289000	4.82898600
85.89999508	0.00000000	29.99508000	0.92888770
86.09999506	0.00000000	29.99508000	-1.39640700
86.29999505	0.00000000	29.57062000	-2.18380900
86.49999504	0.00000000	28.45718000	-0.93503930
86.69999503	0.00000000	27.29453000	2.50369100
86.89999502	0.00000000	26.50098000	7.47416300
87.09999501	0.00000000	25.76279000	12.07554000
87.29999499	0.00000000	25.80585000	15.23130000
87.49999498	0.00000000	26.87623000	16.76919000
87.69999497	0.00000000	28.03888000	16.35089000
87.89999496	0.00000000	28.87549000	13.61343000
88.09999495	0.00000000	30.03814000	9.05511800
88.29999493	0.00000000	31.10851000	4.08464600
88.49999492	0.00000000	31.15157000	0.55364170
88.69999491	0.00000000	30.41338000	-1.35334600
88.89999490	0.00000000	29.61983000	-1.29798200
89.09999489	0.00000000	28.45718000	1.75319900
89.29999487	0.00000000	27.29453000	6.31151500
89.49999486	0.00000000	26.50098000	10.95595000
89.69999485	0.00000000	25.76279000	14.76993000
89.89999484	0.00000000	25.80585000	16.30167000
90.09999483	0.00000000	26.91929000	15.18824000
90.29999482	0.00000000	28.41412000	12.11860000
90.49999480	0.00000000	29.57062000	7.84940900
90.69999479	0.00000000	29.99508000	3.29109200
90.89999478	0.00000000	29.99508000	-0.18454720
91.09999477	0.00000000	29.61983000	-1.30413400
91.29999476	0.00000000	28.87549000	-0.18454720
91.49999474	0.00000000	28.50024000	3.29109200
91.69999473	0.00000000	28.50024000	7.84940900
91.89999472	0.00000000	28.83243000	12.11860000
92.09999471	0.00000000	29.20152000	15.18824000
92.29999470	0.00000000	28.87549000	16.34473000
92.49999468	0.00000000	28.87549000	15.14518000
92.69999467	0.00000000	29.20152000	11.70029000
92.89999466	0.00000000	28.74015000	6.72982200
93.09999465	0.00000000	27.66363000	2.17765700
93.29999464	0.00000000	26.13189000	-0.55979330
93.49999463	0.00000000	25.38755000	-0.97810030
93.69999461	0.00000000	25.33834000	0.55364170
93.89999460	0.00000000	25.80585000	3.66633800
94.09999459	0.00000000	27.38681000	7.89247000
94.29999458	0.00000000	30.03814000	12.07554000
94.49999457	-0.15871060	32.68946000	14.76993000
94.69999455	0.00000000	34.23351000	15.14518000
94.89999454	0.00000000	34.27657000	13.23819000
95.09999453	0.00000000	33.11393000	9.43036400
95.29999452	0.00000000	31.15157000	5.24729300
95.49999451	0.00000000	28.41412000	2.12844500
95.69999449	0.00000000	25.33834000	0.55364170
95.89999448	0.00000000	22.64394000	0.55364170
96.09999447	0.00000000	21.14911000	2.12844500
96.29999446	0.00000000	21.52436000	5.15501900
96.49999445	0.00000000	23.80659000	8.63681000
96.69999444	0.00000000	26.91929000	11.28814000
96.89999442	0.00000000	30.45644000	12.86294000
97.09999441	0.00000000	34.27657000	12.49385000
97.29999440	0.00000000	36.92790000	11.00517000
97.49999439	0.00000000	37.35236000	9.05511800
97.69999438	0.00000000	35.81446000	6.72982200
97.89999436	0.00000000	32.73868000	4.82283400
98.09999435	0.00000000	28.83243000	3.66633800
98.29999434	0.00000000	24.96309000	3.66633800
98.49999433	0.00000000	21.48130000	4.77977300
98.69999432	0.00000000	19.56816000	6.26845500
98.89999430	0.00000000	19.52510000	7.42495000
99.09999429	0.00000000	21.10605000	7.84940900
99.29999428	0.00000000	24.22490000	7.89247000
99.49999427	0.00000000	28.41412000	7.89247000
99.69999426	0.00000000	32.27116000	7.93553100
99.89999425	0.00000000	34.65182000	8.31077700
100.09999423	0.00000000	35.85752000	9.05511800
100.29999422	0.00000000	35.81446000	9.43036400
100.49999421	0.00000000	34.27657000	9.47342500
100.69999420	0.00000000	31.57603000	9.38115100
100.89999419	0.00000000	28.45718000	8.58759800
101.09999417	0.00000000	25.38755000	6.68676100
101.29999416	0.00000000	23.06225000	4.82283400
101.49999415	0.00000000	22.26870000	3.62327700
101.69999414	0.00000000	22.60088000	3.19881900
101.89999413	0.00000000	23.80659000	3.24803100
102.09999411	0.00000000	25.71358000	4.08464600
102.29999410	0.00000000	28.03888000	6.40378900
102.49999409	0.00000000	29.99508000	9.42421200
102.69999408	0.00000000	31.57603000	12.11860000
102.89999407	0.00000000	32.73252000	13.65650000
103.09999406	0.00000000	33.06471000	13.65650000
103.29999404	0.00000000	32.31422000	12.11860000
103.49999403	0.00000000	30.41338000	9.42421200
103.69999402	0.00000000	28.50024000	6.36072800
103.89999401	0.00000000	26.87623000	3.61712600
104.09999400	0.00000000	25.33834000	1.71013800
104.29999398	0.00000000	24.22490000	0.92888770
104.49999397	0.00000000	24.22490000	1.71013800
104.69999396	0.00000000	25.33834000	3.61712600
104.89999395	0.00000000	26.87623000	6.36072800
105.09999394	0.00000000	28.45718000	9.38115100
105.29999392	0.00000000	29.99508000	11.70029000
105.49999391	0.00000000	31.10851000	12.49385000
105.69999390	0.00000000	31.10851000	12.11860000
105.89999389	0.00000000	29.99508000	10.53765000
106.09999388	0.00000000	28.50024000	7.89247000
106.29999387	0.00000000	27.29453000	5.24729300
106.49999385	0.00000000	26.54404000	3.66633800
106.69999384	0.00000000	26.13189000	3.24803100
106.89999383	0.00000000	26.54404000	3.66633800
107.09999382	0.00000000	27.25147000	5.19808000
107.29999381	0.00000000	28.08194000	7.47416300
107.49999379	0.00000000	28.83243000	9.38115100
107.69999378	0.00000000	29.61983000	10.53765000
107.89999377	0.00000000	29.94586000	10.53765000
108.09999376	0.00000000	29.57062000	9.42421200
108.29999375	0.00000000	28.45718000	7.89247000
108.49999374	0.00000000	27.29453000	6.31151500
108.69999372	0.00000000	26.50098000	4.82283400
108.89999371	0.00000000	25.76279000	4.04158400
109.09999370	0.00000000	25.76279000	4.45374000
109.29999369	0.00000000	26.50098000	5.53026500
109.49999368	0.00000000	27.29453000	7.14197800
109.69999366	0.00000000	28.45718000	8.64296200
109.89999365	0.00000000	29.57062000	10.21161000
110.09999364	0.00000000	29.99508000	10.91289000
110.29999363	0.00000000	29.99508000	10.58686000
110.49999362	0.00000000	29.57062000	9.42421200
110.69999360	0.00000000	28.45718000	7.89247000
110.89999359	0.00000000	27.34375000	6.36072800
111.09999358	0.00000000	26.91929000	5.19808000
111.29999357	-0.15871060	26.87623000	4.77977300
111.49999356	0.00000000	26.87623000	4.77977300
111.69999355	0.00000000	26.91929000	5.15501900
111.89999353	0.00000000	27.29453000	5.93626900
112.09999352	0.00000000	28.03888000	6.72982200
112.29999351	0.00000000	28.41412000	7.89247000
112.49999350	0.00000000	28.45718000	9.00590400
112.69999349	0.00000000	28.45718000	9.38115100
112.89999347	0.00000000	28.41412000	9.05511800
113.09999346	0.00000000	28.08194000	8.31077700
113.29999345	0.00000000	27.71284000	7.93553100
113.49999344	0.00000000	28.03888000	7.84940900
113.69999343	0.00000000	27.98966000	7.47416300
113.89999341	0.00000000	27.29453000	6.72982200
114.09999340	0.00000000	26.91929000	6.35457700
114.29999339	0.00000000	26.87623000	6.31151500
114.49999338	0.00000000	26.91929000	6.31151500
114.69999337	0.00000000	27.29453000	6.31151500
114.89999336	0.00000000	27.98966000	6.31151500
115.09999334	0.00000000	28.03888000	6.31151500
115.29999333	0.00000000	27.71284000	6.35457700
115.49999332	0.00000000	28.08194000	6.72982200
115.69999331	0.00000000	28.41412000	7.47416300
115.89999330	0.00000000	28.45718000	7.89247000
116.09999328	0.00000000	28.41412000	8.31077700
116.29999327	0.00000000	28.03888000	9.05511800
116.49999326	0.00000000	27.29453000	9.38115100
116.69999325	0.00000000	26.91929000	9.05511800
116.89999324	0.00000000	26.91929000	8.26771600
117.09999322	0.00000000	27.29453000	7.47416300
117.29999321	-0.15871060	28.08194000	6.31151500
117.49999320	0.00000000	28.83243000	5.19808000
117.69999319	0.00000000	29.61983000	4.77977300
117.89999318	0.00000000	29.99508000	4.73671200
118.09999317	0.00000000	29.99508000	4.77977300
118.29999315	0.00000000	29.61983000	5.19808000
118.49999314	0.00000000	28.83243000	6.31151500
118.69999313	0.00000000	28.08194000	7.47416300
118.89999312	0.00000000	27.25147000	8.22465500
119.09999311	0.00000000	26.50098000	8.67987200
119.29999309	0.00000000	25.71358000	8.64296200
119.49999308	0.00000000	25.38755000	8.67987200
119.69999307	0.00000000	25.76279000	8.26771600
119.89999306	0.00000000	26.91929000	7.89247000
120.09999305	0.00000000	28.41412000	7.47416300
120.29999303	0.00000000	29.57062000	6.72982200
120.49999302	0.00000000	29.99508000	6.35457700
120.69999301	0.00000000	30.03814000	6.31151500
120.89999300	0.00000000	29.99508000	6.31151500
121.09999299	0.00000000	29.57062000	6.31151500
121.29999298	0.00000000	28.41412000	6.31151500
121.49999296	0.00000000	26.91929000	6.31151500
121.69999295	0.00000000	25.76279000	6.35457700
121.89999294	0.00000000	25.33834000	6.72982200
122.09999293	0.00000000	25.29527000	7.47416300
122.29999292	0.00000000	25.33834000	7.84940900
122.49999290	0.00000000	25.71358000	7.89247000
122.69999289	0.00000000	26.50098000	7.89247000
122.89999288	0.00000000	27.29453000	7.89247000
123.09999287	0.00000000	28.45718000	7.89247000
123.29999286	0.00000000	29.57062000	7.89247000
123.49999284	0.00000000	29.99508000	7.84940900
123.69999283	0.00000000	30.03814000	7.47416300
123.89999282	0.00000000	29.99508000	6.72982200
124.09999281	0.00000000	29.57062000	6.35457700
124.29999280	0.00000000	28.45718000	6.31151500
124.49999279	0.00000000	27.29453000	6.31151500
124.69999277	0.00000000	26.50098000	6.31151500
124.89999276	0.00000000	25.71358000	6.35457700
125.09999275	0.00000000	25.33834000	6.72982200
125.29999274	-0.15871060	25.33834000	7.47416300
125.49999273	0.00000000	25.76279000	7.84940900
125.69999271	0.00000000	26.87623000	7.93553100
125.89999270	0.00000000	28.03888000	8.26771600
126.09999269	0.00000000	28.83243000	8.63681000
126.29999268	0.00000000	29.61983000	8.26771600
126.49999267	0.00000000	29.99508000	7.89247000
126.69999265	0.00000000	29.99508000	7.47416300
126.89999264	0.00000000	29.57062000	6.72982200
127.09999263	0.00000000	28.45718000	6.35457700
127.29999262	0.00000000	27.29453000	6.31151500
127.49999261	0.00000000	26.50098000	6.31151500
127.69999260	0.00000000	25.71358000	6.31151500
127.89999258	0.00000000	25.38755000	6.35457700
128.09999257	-0.15871060	25.71358000	6.72982200
128.29999256	0.00000000	26.50098000	7.47416300
128.49999255	0.00000000	27.29453000	7.84940900
128.69999254	0.00000000	28.45718000	7.89247000
128.89999252	0.00000000	29.57062000	7.89247000
129.09999251	0.00000000	29.94586000	7.84940900
129.29999250	0.00000000	29.61983000	7.47416300
129.49999249	0.00000000	28.83243000	6.72982200
129.69999248	0.00000000	28.03888000	6.35457700
129.89999246	0.00000000	26.87623000	6.31151500
130.09999245	0.00000000	25.76279000	6.31151500
130.29999244	0.00000000	25.38755000	6.35457700
130.49999243	0.00000000	25.71358000	6.72982200
130.69999242	0.00000000	26.50098000	7.47416300
130.89999241	0.00000000	27.25147000	7.89247000
131.09999239	0.00000000	28.03888000	8.26771600
131.29999238	0.00000000	28.41412000	8.58759800
131.49999237	0.00000000	28.45718000	7.84940900
131.69999236	0.00000000	28.41412000	6.77903500
131.89999235	0.00000000	28.08194000	6.35457700
132.09999233	0.00000000	27.66978000	6.31151500
132.29999232	0.00000000	27.66363000	6.31151500
132.49999231	0.00000000	27.25147000	6.31151500
132.69999230	0.00000000	26.91929000	6.35457700
132.89999229	0.00000000	26.87623000	6.72982200
133.09999227	0.00000000	26.87623000	7.47416300
133.29999226	0.00000000	26.87623000	7.89247000
133.49999225	0.00000000	26.87623000	8.26771600
133.69999224	0.00000000	26.87623000	8.63681000
133.89999223	0.00000000	26.87623000	8.22465500
134.09999222	0.00000000	26.87623000	7.51722400
134.29999220	0.00000000	26.87623000	6.68676100
134.49999219	0.00000000	26.87623000	5.93626900
134.69999218	0.00000000	26.91929000	5.15501900
134.89999217	0.00000000	27.29453000	4.77977300
135.09999216	0.00000000	28.03888000	4.77977300
135.29999214	0.00000000	28.41412000	5.15501900
135.49999213	0.00000000	28.45718000	5.93626900
135.69999212	0.00000000	28.41412000	6.68676100
135.89999211	0.00000000	28.03888000	7.47416300
136.09999210	0.00000000	27.29453000	7.84940900
136.29999208	0.00000000	26.87623000	7.89247000
136.49999207	0.00000000	26.50098000	7.89247000
136.69999206	0.00000000	26.13189000	7.89247000
136.89999205	0.00000000	26.54404000	7.84940900
137.09999204	0.00000000	27.25147000	7.47416300
137.29999203	0.00000000	28.03888000	6.72982200
137.49999201	0.00000000	28.41412000	6.35457700
137.69999200	0.00000000	28.45718000	6.31151500
137.89999199	0.00000000	28.45718000	6.26845500
138.09999198	0.00000000	28.41412000	5.93626900
138.29999197	0.00000000	28.03888000	5.57332700
138.49999195	0.00000000	27.25147000	5.93626900
138.69999194	0.00000000	26.50098000	6.31151500
138.89999193	0.00000000	25.76279000	6.72982200
139.09999192	0.00000000	25.76279000	7.47416300
139.29999191	0.00000000	26.45792000	7.84940900
139.49999189	0.00000000	26.87623000	7.89247000
139.69999188	0.00000000	27.29453000	7.89247000
139.89999187	0.00000000	28.03888000	7.84940900
140.09999186	0.00000000	28.41412000	7.47416300
140.29999185	0.00000000	28.45718000	6.68676100
140.49999184	0.00000000	28.41412000	5.93626900
140.69999182	0.00000000	28.03888000	5.15501900
140.89999181	0.00000000	27.29453000	4.82898600
141.09999180	0.00000000	26.91929000	5.15501900
141.29999179	0.00000000	26.87623000	5.89320800
141.49999178	0.00000000	26.87623000	6.31151500
141.69999176	0.00000000	26.91929000	6.72982200
141.89999175	0.00000000	27.29453000	7.47416300
142.09999174	0.00000000	28.03888000	7.89247000
142.29999173	0.00000000	28.41412000	8.26771600
142.49999172	0.00000000	28.41412000	8.63681000
142.69999170	0.00000000	28.03888000	8.22465500
142.89999169	0.00000000	27.29453000	7.51722400
143.09999168	0.00000000	26.91929000	6.68676100
143.29999167	0.00000000	26.87623000	5.93626900
143.49999166	0.00000000	26.87623000	5.19808000
143.69999165	0.00000000	26.87623000	5.19808000
143.89999163	0.00000000	26.91929000	5.89320800
144.09999162	0.00000000	27.29453000	6.31151500
144.29999161	0.00000000	28.03888000	6.72982200
144.49999160	0.00000000	28.41412000	7.51722400
144.69999159	0.00000000	28.45718000	8.26771600
144.89999157	0.00000000	28.41412000	9.00590400
145.09999156	0.00000000	28.03888000	9.00590400
145.29999155	0.00000000	27.29453000	8.26771600
145.49999154	0.00000000	26.91929000	7.51722400
145.69999153	0.00000000	26.87623000	6.72982200
145.89999151	0.00000000	26.87623000	6.31151500
146.09999150	0.00000000	26.87623000	5.89320800
146.29999149	0.00000000	26.87623000	5.19808000
146.49999148	0.00000000	26.87623000	5.19808000
146.69999147	0.00000000	26.91929000	5.89320800
146.89999146	0.00000000	27.29453000	6.31151500
147.09999144	0.00000000	27.98966000	6.72982200
147.29999143	0.00000000	28.03888000	7.47416300
147.49999142	0.00000000	27.66978000	7.84940900
147.69999141	0.00000000	27.66363000	7.89247000
147.89999140	0.00000000	27.25147000	7.89247000
148.09999138	0.00000000	26.91929000	7.84940900
148.29999137	0.00000000	26.87623000	7.47416300
148.49999136	0.00000000	26.87623000	6.72982200
148.69999135	0.00000000	26.87623000	6.35457700
148.89999134	0.00000000	26.87623000	6.31151500
149.09999132	0.00000000	26.87623000	6.31151500
149.29999131	0.00000000	26.91929000	6.31151500
149.49999130	0.00000000	27.29453000	6.31151500
149.69999129	0.00000000	28.03888000	6.31151500
149.89999128	0.00000000	28.36491000	6.35457700
150.09999127	0.00000000	28.03888000	6.72982200
150.29999125	0.00000000	27.29453000	7.47416300
150.49999124	0.00000000	26.91929000	7.84940900
150.69999123	0.00000000	26.83317000	7.89247000
150.89999122	0.00000000	26.50098000	7.89247000
151.09999121	0.00000000	26.13189000	7.84940900
151.29999119	0.00000000	26.50098000	7.47416300
151.49999118	0.00000000	26.83317000	6.72982200
151.69999117	0.00000000	26.87623000	6.35457700
151.89999116	0.00000000	26.87623000	6.31151500
152.09999115	0.00000000	26.87623000	6.31151500
152.29999113	0.00000000	26.91929000	6.31151500
152.49999112	0.00000000	27.29453000	6.31151500
152.69999111	0.00000000	27.98966000	6.31151500
152.89999110	0.00000000	27.98966000	6.31151500
153.09999109	0.00000000	27.29453000	6.31151500
153.29999108	0.00000000	26.91929000	6.35457700
153.49999106	0.00000000	26.87623000	6.72982200
153.69999105	0.00000000	26.87623000	7.47416300
153.89999104	0.00000000	26.83317000	7.84940900
154.09999103	0.00000000	26.45792000	7.84940900
154.29999102	0.00000000	25.76279000	7.47416300
154.49999100	0.00000000	25.76279000	6.72982200
154.69999099	0.00000000	26.45792000	6.35457700
154.89999098	0.00000000	26.83317000	6.31151500
155.09999097	0.00000000	26.91929000	6.31151500
155.29999096	0.00000000	27.29453000	6.31151500
155.49999094	0.00000000	28.03888000	6.31151500
155.69999093	0.00000000	28.36491000	6.31151500
155.89999092	0.00000000	28.08194000	6.31151500
156.09999091	0.00000000	27.66978000	6.35457700
156.29999090	0.00000000	27.62057000	6.72982200
156.49999089	0.00000000	26.87623000	7.47416300
156.69999087	0.00000000	26.13189000	7.84940900
156.89999086	0.00000000	26.08268000	7.89247000
157.09999085	0.00000000	25.71358000	7.84940900
157.29999084	0.00000000	25.76279000	7.47416300
157.49999083	0.00000000	26.45792000	6.72982200
157.69999081	0.00000000	26.83317000	6.35457700
157.89999080	0.00000000	26.91929000	6.31151500
158.09999079	0.00000000	27.29453000	6.31151500
158.29999078	0.00000000	28.03888000	6.31151500
158.49999077	0.00000000	28.36491000	6.31151500
158.69999075	0.00000000	28.03888000	6.31151500
158.89999074	0.00000000	27.29453000	6.31151500
159.09999073	0.00000000	26.91929000	6.35457700
159.29999072	0.00000000	26.87623000	6.72982200
159.49999071	0.00000000	26.87623000	7.47416300
159.69999070	0.00000000	26.87623000	7.84940900
159.89999068	0.00000000	26.83317000	7.89247000
160.09999067	0.00000000	26.50098000	7.89247000
160.29999066	0.00000000	26.13189000	7.89247000
160.49999065	0.00000000	26.50098000	7.84940900
160.69999064	0.00000000	26.83317000	7.47416300
160.89999062	0.00000000	26.87623000	6.72982200
161.09999061	0.00000000	26.87623000	6.35457700
161.29999060	0.00000000	26.87623000	6.31151500
161.49999059	0.00000000	26.87623000	6.31151500
161.69999058	0.00000000	26.87623000	6.31151500
161.89999056	0.00000000	26.87623000	6.35457700
162.09999055	0.00000000	26.87623000	6.68676100
162.29999054	0.00000000	26.87623000	7.09891700
162.49999053	0.00000000	26.87623000	7.10506800
162.69999052	0.00000000	26.87623000	7.51722400
162.89999051	0.00000000	26.83317000	7.80019600
163.09999049	0.00000000	26.45792000	7.47416300
163.29999048	0.00000000	25.71358000	6.72982200
163.49999047	0.00000000	25.33834000	6.35457700
163.69999046	0.00000000	25.33834000	6.31151500
163.89999045	0.00000000	25.71358000	6.31151500
164.09999043	0.00000000	26.45792000	6.31151500
164.29999042	0.00000000	26.83317000	6.31151500
164.49999041	0.00000000	26.87623000	6.31151500
164.69999040	0.00000000	26.91929000	6.31151500
164.89999039	0.00000000	27.25147000	6.31151500
165.09999037	0.00000000	27.66363000	6.35457700
165.29999036	0.00000000	27.62672000	6.68676100
165.49999035	0.00000000	27.66363000	7.05585600
165.69999034	0.00000000	27.25147000	6.72982200
165.89999033	0.00000000	26.87623000	6.72982200
166.09999032	0.00000000	26.50098000	7.05585600
166.29999030	0.00000000	26.08883000	6.68676100
166.49999029	0.00000000	26.12574000	6.35457700
166.69999028	0.00000000	26.08883000	6.31151500
166.89999027	0.00000000	26.50098000	6.31151500
167.09999026	0.00000000	26.83317000	6.31151500
167.29999024	0.00000000	26.87623000	6.31151500
167.49999023	0.00000000	26.87623000	6.31151500
167.69999022	0.00000000	26.87623000	6.31151500
167.89999021	0.00000000	26.87623000	6.31151500
168.09999020	0.00000000	26.87623000	6.31151500
168.29999018	0.00000000	26.87623000	6.31151500
168.49999017	0.00000000	26.87623000	6.31151500
168.69999016	0.00000000	26.87623000	6.31151500
168.89999015	0.00000000	26.83317000	6.31151500
169.09999014	0.00000000	26.50098000	6.31151500
169.29999013	0.00000000	26.13189000	6.31151500
169.49999011	0.00000000	26.50098000	6.31151500
169.69999010	0.00000000	26.78395000	6.31151500
169.89999009	0.00000000	26.50098000	6.31151500
170.09999008	0.00000000	26.13189000	6.31151500
170.29999007	0.00000000	26.50098000	6.31151500
170.49999005	0.00000000	26.83317000	6.31151500
170.69999004	0.00000000	26.87623000	6.31151500
170.89999003	0.00000000	26.87623000	6.31151500
171.09999002	0.00000000	26.87623000	6.31151500
171.29999001	0.00000000	26.87623000	6.31151500
171.49998999	0.00000000	26.87623000	6.31151500
171.69998998	0.00000000	26.87623000	6.31151500
171.89998997	0.00000000	26.87623000	6.31151500
172.09998996	0.00000000	26.87623000	6.31151500
172.29998995	0.00000000	26.87623000	6.31151500
172.49998994	0.00000000	26.87623000	6.31151500
172.69998992	0.00000000	26.87623000	6.31151500
172.89998991	0.00000000	26.87623000	6.31151500
173.09998990	0.00000000	26.87623000	6.31151500
173.29998989	0.00000000	26.87623000	6.31151500
173.49998988	0.00000000	26.83317000	6.31151500
173.69998986	0.00000000	26.50098000	6.31151500
173.89998985	0.00000000	26.13189000	6.31151500
174.09998984	0.00000000	26.50098000	6.31151500
174.29998983	0.00000000	26.83317000	6.31151500
174.49998982	0.00000000	26.87623000	6.31151500
174.69998980	0.00000000	26.87623000	6.31151500
174.89998979	0.00000000	26.87623000	6.31151500
175.09998978	0.00000000	26.87623000	6.31151500
175.29998977	0.00000000	26.87623000	6.31151500
175.49998976	0.00000000	26.87623000	6.31151500
175.69998975	0.00000000	26.87623000	6.31151500
175.89998973	0.00000000	26.87623000	6.31151500
176.09998972	0.00000000	26.87623000	6.31151500
176.29998971	0.00000000	26.87623000	6.31151500
176.49998970	0.00000000	26.87623000	6.31151500
176.69998969	0.00000000	26.87623000	6.31151500
176.89998967	-0.15871060	26.87623000	6.31151500
177.09998966	0.00000000	26.87623000	6.31151500
177.29998965	0.00000000	26.87623000	6.31151500
177.49998964	0.00000000	26.87623000	6.31151500
177.69998963	0.00000000	26.87623000	6.31151500
177.89998961	0.00000000	26.83317000	6.31151500
178.09998960	0.00000000	26.50098000	6.31151500
178.29998959	0.00000000	26.13189000	6.31151500
178.49998958	0.00000000	26.50098000	6.31151500
178.69998957	0.00000000	26.83317000	6.31151500
178.89998956	0.00000000	26.87623000	6.35457700
179.09998954	0.00000000	26.87623000	6.68676100
179.29998953	0.00000000	26.83317000	7.05585600
179.49998952	0.00000000	26.50098000	6.68676100
179.69998951	0.00000000	26.08883000	6.35457700
179.89998950	0.00000000	26.12574000	6.31151500
180.09998948	0.00000000	26.08883000	6.31151500
180.29998947	0.00000000	26.50098000	6.31151500
180.49998946	0.00000000	26.83317000	6.31151500
180.69998945	0.00000000	26.87623000	6.31151500
180.89998944	0.00000000	26.87623000	6.31151500
181.09998942	0.00000000	26.83317000	6.31151500
181.29998941	0.00000000	26.50098000	6.31151500
181.49998940	0.00000000	26.13189000	6.31151500
181.69998939	0.00000000	26.50098000	6.31151500
181.89998938	0.00000000	26.83317000	6.31151500
182.09998937	0.00000000	26.87623000	6.31151500
182.29998935	0.00000000	26.87623000	6.31151500
182.49998934	0.00000000	26.87623000	6.31151500
182.69998933	0.00000000	26.87623000	6.31151500
182.89998932	0.00000000	26.87623000	6.31151500
183.09998931	0.00000000	26.87623000	6.31151500
183.29998929	0.00000000	26.87623000	6.31151500
183.49998928	0.00000000	26.87623000	6.31151500
183.69998927	0.00000000	26.83317000	6.31151500
183.89998926	0.00000000	26.50098000	6.35457700
184.09998925	0.00000000	26.08883000	6.68676100
184.29998923	0.00000000	26.08268000	7.05585600
184.49998922	0.00000000	25.71358000	6.72982200
184.69998921	0.00000000	25.76279000	6.77903500
184.89998920	0.00000000	26.45792000	7.42495000
185.09998919	0.00000000	26.87623000	7.42495000
185.29998918	0.00000000	27.25147000	6.72982200
185.49998916	0.00000000	27.62057000	6.35457700
185.69998915	0.00000000	27.25147000	6.31151500
185.89998914	0.00000000	26.91929000	6.26845500
186.09998913	0.00000000	26.87623000	5.93626900
186.29998912	0.00000000	26.83317000	5.57332700
186.49998910	0.00000000	26.50098000	5.93626900
186.69998909	0.00000000	26.08883000	6.26845500
186.89998908	0.00000000	26.08268000	6.31151500
187.09998907	0.00000000	25.67052000	6.31151500
187.29998906	0.00000000	25.33834000	6.31151500
187.49998904	0.00000000	25.29527000	6.35457700
187.69998903	0.00000000	25.29527000	6.72982200
187.89998902	0.00000000	25.33834000	7.47416300
188.09998901	0.00000000	25.67052000	7.80019600
188.29998900	0.00000000	26.08268000	7.47416300
188.49998899	0.00000000	26.08883000	6.72982200
188.69998897	0.00000000	26.50098000	6.31151500
188.89998896	0.00000000	26.83317000	5.93626900
189.09998895	0.00000000	26.87623000	5.57332700
189.29998894	0.00000000	26.83317000	5.93626900
189.49998893	0.00000000	26.50098000	6.26845500
189.69998891	0.00000000	26.08883000	6.31151500
189.89998890	0.00000000	26.08268000	6.31151500
190.09998889	0.00000000	25.67052000	6.31151500
190.29998888	0.00000000	25.33834000	6.31151500
190.49998887	0.00000000	25.29527000	6.31151500
190.69998885	0.00000000	25.29527000	6.31151500
190.89998884	0.00000000	25.33834000	6.31151500
191.09998883	0.00000000	25.71358000	6.31151500
191.29998882	0.00000000	26.45792000	6.31151500
191.49998881	0.00000000	26.83317000	6.31151500
191.69998880	0.00000000	26.87623000	6.31151500
191.89998878	0.00000000	26.87623000	6.31151500
192.09998877	0.00000000	26.87623000	6.31151500
192.29998876	0.00000000	26.83317000	6.31151500
192.49998875	0.00000000	26.45792000	6.31151500
192.69998874	0.00000000	25.71358000	6.31151500
192.89998872	0.00000000	25.33834000	6.31151500
193.09998871	0.00000000	25.29527000	6.31151500
193.29998870	0.00000000	25.29527000	6.35457700
193.49998869	0.00000000	25.29527000	6.68676100
193.69998868	0.00000000	25.33834000	7.09891700
193.89998866	0.00000000	25.71358000	7.10506800
194.09998865	0.00000000	26.45792000	7.47416300
194.29998864	0.00000000	26.83317000	7.47416300
194.49998863	0.00000000	26.87623000	7.10506800
194.69998862	0.00000000	26.87623000	7.09891700
194.89998861	0.00000000	26.83317000	6.68676100
195.09998859	0.00000000	26.45792000	6.31151500
195.29998858	0.00000000	25.71358000	5.93626900
195.49998857	0.00000000	25.33834000	5.57332700
195.69998856	0.00000000	25.29527000	5.93626900
195.89998855	0.00000000	25.29527000	6.26845500
196.09998853	0.00000000	25.29527000	6.31151500
