Time	Channel A	Channel B	Channel C
(us)	(V)	(mV)	(mV)

-4.49999956	0.00000000	34.78716000	11.04823000
-4.29999957	0.00000000	34.78716000	11.04823000
-4.09999958	0.00000000	34.78716000	11.04823000
-3.89999959	0.00000000	34.78716000	11.04823000
-3.69999960	0.00000000	34.78716000	11.04823000
-3.49999962	0.00000000	34.78716000	11.04823000
-3.29999963	0.00000000	34.78716000	11.04823000
-3.09999964	0.00000000	34.78716000	11.04823000
-2.89999965	0.00000000	34.78716000	11.04823000
-2.69999966	0.00000000	34.78716000	11.04823000
-2.49999968	0.00000000	34.78716000	11.04823000
-2.29999969	0.00000000	34.78716000	11.04823000
-2.09999970	0.00000000	34.78716000	11.04823000
-1.89999971	0.00000000	34.78716000	11.04823000
-1.69999972	0.00000000	34.78716000	11.04823000
-1.49999973	0.00000000	34.78716000	11.00517000
-1.29999975	0.00000000	34.78716000	10.62992000
-1.09999976	0.00000000	34.78716000	9.93479300
-0.89999977	0.00000000	34.78716000	9.93479300
-0.69999978	0.00000000	34.78716000	10.62992000
-0.49999979	0.00000000	34.78716000	11.00517000
-0.29999981	0.15871060	34.78716000	11.00517000
-0.09999982	0.63668800	34.78716000	10.62992000
0.10000017	0.95533960	34.78716000	9.89173200
0.30000016	0.95533960	34.78716000	9.51648500
0.50000015	0.79601380	34.78716000	9.51648500
0.70000013	0.47736220	34.78716000	9.89173200
0.90000012	-0.47736220	34.78716000	10.58686000
1.10000011	-1.43331700	34.78716000	10.58686000
1.30000010	-2.22994600	34.78716000	9.89173200
1.50000009	-2.86724900	34.78716000	9.56569900
1.70000008	-2.54859700	34.78716000	9.89173200
1.90000006	-1.43331700	34.78716000	10.62992000
2.10000005	0.31803640	34.78716000	11.00517000
2.30000004	2.38927200	34.78716000	11.04823000
2.50000003	4.30056600	34.78716000	11.00517000
2.70000002	5.25652100	34.78716000	10.62992000
2.90000000	4.93786900	34.78716000	9.89173200
3.09999999	3.18590100	34.78716000	9.51648500
3.29999998	0.31803640	34.78716000	9.47342500
3.49999997	-3.02657500	34.78716000	9.51648500
3.69999996	-6.05315000	34.78716000	9.89173200
3.89999994	-7.80511800	34.78716000	10.67298000
4.09999993	-7.64579200	34.78716000	11.42347000
4.29999992	-5.41584600	34.78716000	12.16166000
4.49999991	-1.59264300	34.78716000	12.16166000
4.69999990	2.70792300	34.78716000	11.46653000
4.89999989	6.69045300	34.78716000	11.09129000
5.09999987	9.07972400	34.78716000	11.00517000
5.29999986	9.23905000	34.78716000	10.62992000
5.49999985	7.00848900	34.78716000	9.89173200
5.69999984	3.02657500	34.78716000	9.51648500
5.89999983	-1.75196900	34.78716000	9.51648500
6.09999981	-6.21247500	34.78716000	9.89173200
6.29999980	-8.92039900	34.78716000	10.62992000
6.49999979	-9.39837600	34.78716000	11.00517000
6.69999978	-7.64579200	34.78716000	11.04823000
6.89999977	-3.98191400	34.78716000	11.04823000
7.09999975	0.47736220	34.78716000	11.04823000
7.29999974	4.45989200	34.78716000	11.00517000
7.49999973	7.00848900	34.78716000	10.62992000
7.69999972	7.64579200	34.78716000	9.93479300
7.89999971	6.53112700	34.78716000	9.93479300
8.09999970	3.82258900	34.78716000	10.62992000
8.29999968	0.47736220	34.78716000	11.00517000
8.49999967	-2.54859700	34.78716000	11.04823000
8.69999966	-4.61921700	34.78716000	11.04823000
8.89999965	-5.25652100	34.78716000	11.04823000
9.09999964	-4.45989200	34.78716000	11.04823000
9.29999962	-2.86724900	34.78716000	11.04823000
9.49999961	-0.95533960	34.78716000	11.04823000
9.69999960	0.79601380	34.78716000	11.04823000
9.89999959	2.07062000	34.78716000	11.04823000
10.09999958	2.54859700	34.78716000	11.04823000
10.29999956	2.22994600	34.78716000	11.04823000
10.49999955	1.59264300	34.78716000	11.04823000
10.69999954	0.63668800	34.78716000	11.04823000
10.89999953	-0.15871060	34.78716000	11.04823000
11.09999952	-0.63668800	34.78716000	11.04823000
11.29999951	-0.95533960	34.78716000	11.04823000
11.49999949	-0.95533960	34.78716000	11.04823000
11.69999948	-0.79601380	34.78716000	11.04823000
11.89999947	-0.47736220	34.78716000	11.04823000
12.09999946	-0.15871060	34.78716000	11.04823000
12.29999945	-0.15871060	34.78716000	11.04823000
12.49999943	-0.15871060	34.78716000	11.04823000
12.69999942	0.00000000	34.78716000	11.04823000
12.89999941	0.00000000	34.78716000	11.04823000
13.09999940	0.00000000	34.78716000	11.04823000
13.29999939	0.00000000	34.78716000	11.04823000
13.49999937	0.00000000	34.78716000	11.04823000
13.69999936	0.00000000	34.78716000	11.04823000
13.89999935	0.00000000	34.78716000	11.04823000
14.09999934	-0.15871060	34.78716000	11.00517000
14.29999933	-0.15871060	34.78716000	10.62992000
14.49999932	-0.15871060	34.78716000	9.93479300
14.69999930	0.00000000	34.78716000	9.89173200
14.89999929	0.00000000	34.78716000	10.25467000
15.09999928	0.00000000	34.78716000	10.26698000
15.29999927	0.00000000	34.78716000	10.67298000
15.49999926	0.00000000	34.78716000	10.95595000
15.69999924	0.00000000	34.78716000	10.62992000
15.89999923	0.00000000	34.78716000	9.93479300
16.09999922	0.00000000	34.78716000	9.93479300
16.29999921	-0.15871060	34.78716000	10.62992000
16.49999920	-0.15871060	34.78716000	11.00517000
16.69999919	-0.15871060	34.83022000	11.04823000
16.89999917	-0.15871060	35.20546000	11.00517000
17.09999916	0.00000000	35.94980000	10.67298000
17.29999915	0.00000000	36.32505000	10.31004000
17.49999914	0.00000000	36.36811000	10.67298000
17.69999913	0.00000000	36.32505000	11.00517000
17.89999911	0.00000000	35.94980000	11.04823000
18.09999910	0.00000000	35.11934000	11.04823000
18.29999909	0.00000000	33.94439000	11.04823000
18.49999908	0.00000000	32.03740000	11.04823000
18.69999907	0.00000000	30.50566000	11.04823000
18.89999905	-0.15871060	29.70595000	11.00517000
19.09999904	0.00000000	29.38607000	10.67298000
19.29999903	0.00000000	30.59178000	10.31004000
19.49999902	0.00000000	33.29232000	10.67298000
19.69999901	0.00000000	36.78642000	10.95595000
19.89999900	0.00000000	40.69267000	10.62992000
20.09999898	0.00000000	44.13755000	9.93479300
20.29999897	0.00000000	46.37057000	9.93479300
20.49999896	0.00000000	45.90305000	10.62992000
20.69999895	0.00000000	42.04601000	10.95595000
20.89999894	0.00000000	35.85752000	10.62992000
21.09999892	0.00000000	28.45718000	9.89173200
21.29999891	0.00000000	21.10605000	9.56569900
21.49999890	0.00000000	15.42815000	9.89173200
21.69999889	0.00000000	13.57037000	10.62992000
21.89999888	0.00000000	17.10138000	10.95595000
22.09999886	0.00000000	25.24606000	10.62992000
22.29999885	0.00000000	36.87869000	9.93479300
22.49999884	0.00000000	49.62475000	9.93479300
22.69999883	0.00000000	60.37770000	10.62992000
22.89999882	-0.15871060	66.46776000	11.00517000
23.09999881	0.00000000	65.26205000	11.04823000
23.29999879	0.00000000	56.70522000	11.09129000
23.49999878	-0.15871060	42.32283000	11.46653000
23.69999877	0.00000000	24.18184000	12.21087000
23.89999876	0.00000000	6.87130900	12.58612000
24.09999875	0.00000000	-5.04429100	12.58612000
24.29999873	0.00000000	-8.48302100	12.16166000
24.49999872	0.00000000	-1.88238200	11.00517000
24.69999871	0.00000000	13.23819000	9.47342500
24.89999870	0.00000000	34.17815000	7.89247000
25.09999869	0.00000000	56.88361000	6.36072800
25.29999867	0.00000000	75.35678000	5.24729300
25.49999866	0.00000000	84.62106000	5.29035400
25.69999865	0.00000000	82.66486000	6.82209600
25.89999864	-0.15871060	69.49433000	9.55954600
26.09999863	0.00000000	47.85925000	13.04749000
26.29999862	0.00000000	22.77928000	16.94759000
26.49999860	0.00000000	-0.01230315	20.34941000
26.69999859	0.00000000	-15.04675000	22.24409000
26.89999858	0.00000000	-18.90379000	21.41363000
27.09999857	0.00000000	-10.39001000	17.92569000
27.29999856	0.00000000	8.45226300	12.07554000
27.49999854	0.00000000	32.78174000	4.73671200
27.69999853	0.00000000	56.74828000	-2.55905500
27.89999852	0.00000000	75.35678000	-7.94783400
28.09999851	0.00000000	84.62106000	-9.80561000
28.29999850	0.00000000	82.70792000	-7.43725300
28.49999848	0.00000000	70.00491000	-0.42445860
28.69999847	0.00000000	49.95078000	9.98400600
28.89999846	0.00000000	27.56521000	21.59203000
29.09999845	0.00000000	7.80019600	31.95743000
29.29999844	0.00000000	-4.99507900	38.50886000
29.49999843	0.00000000	-8.94438800	39.21014000
29.69999841	-0.15871060	-3.54945900	33.77214000
29.89999840	0.00000000	9.52263600	22.48400000
30.09999839	-0.15871060	26.92544000	7.47416300
30.29999838	0.00000000	44.74040000	-7.94783400
30.49999837	0.00000000	59.44881000	-19.88804000
30.69999835	0.00000000	68.00565000	-25.69513000
30.89999834	0.00000000	68.79921000	-24.11417000
31.09999833	0.00000000	62.32160000	-15.19439000
31.29999832	0.00000000	50.36909000	-0.51673230
31.49999831	0.00000000	36.45423000	16.86147000
31.69999829	0.00000000	23.19759000	33.12008000
31.89999828	0.00000000	12.77682000	45.06028000
32.09999827	0.00000000	7.38188900	50.03075000
32.29999826	0.00000000	8.45226300	46.17987000
32.49999825	0.00000000	14.96063000	34.65182000
32.69999824	0.00000000	24.64321000	18.43627000
32.89999822	0.00000000	35.85752000	1.02116100
33.09999821	0.00000000	45.85999000	-14.08095000
33.29999820	0.00000000	52.14074000	-24.16338000
33.49999819	0.00000000	54.09695000	-27.18381000
33.69999818	0.00000000	51.80856000	-22.20718000
33.89999816	0.00000000	45.62623000	-10.27313000
34.09999815	0.00000000	37.57381000	5.15501900
34.29999814	0.00000000	29.43528000	21.08760000
34.49999813	0.00000000	23.28986000	34.56570000
34.69999812	0.00000000	20.54626000	42.69193000
34.89999810	0.00000000	21.65969000	43.44242000
35.09999809	0.00000000	25.84892000	36.92790000
35.29999808	0.00000000	31.61909000	24.57554000
35.49999807	0.00000000	37.39542000	9.60875900
35.69999806	0.00000000	41.67076000	-4.32455700
35.89999805	0.00000000	43.62696000	-13.98868000
36.09999803	0.00000000	43.20866000	-17.88878000
36.29999802	0.00000000	40.13902000	-15.15133000
36.49999801	0.00000000	35.16240000	-6.36687900
36.69999800	0.00000000	30.17347000	5.94242000
36.89999799	0.00000000	26.31643000	18.21481000
37.09999797	0.00000000	24.77854000	27.49754000
37.29999796	0.00000000	25.94119000	31.36073000
37.49999795	0.00000000	29.38607000	29.49680000
37.69999794	0.00000000	34.36884000	22.57628000
37.89999793	0.00000000	38.97638000	12.62918000
38.09999791	0.00000000	42.13828000	2.68823800
38.29999790	0.00000000	43.67618000	-4.23228400
38.49999789	0.00000000	43.25172000	-6.13927100
38.69999788	0.00000000	40.55733000	-2.70054100
38.89999787	0.00000000	36.31890000	5.29035400
39.09999786	0.00000000	31.71137000	14.85605000
39.29999784	0.00000000	27.80512000	22.90231000
39.49999783	0.00000000	25.47367000	27.49754000
39.69999782	0.00000000	24.68627000	26.71629000
39.89999781	0.00000000	25.89198000	20.99532000
40.09999780	0.00000000	28.92470000	12.16781000
40.29999778	0.00000000	32.82480000	2.59596400
40.49999777	0.00000000	36.69414000	-4.69980300
40.69999776	0.00000000	40.22515000	-7.76328700
40.89999775	0.00000000	42.55659000	-5.81323800
41.09999774	0.00000000	43.71924000	1.06422200
41.29999772	0.00000000	43.30093000	10.62992000
41.49999771	0.00000000	40.97564000	19.88189000
41.69999770	0.00000000	37.53075000	26.80241000
41.89999769	0.00000000	33.61835000	29.49680000
42.09999768	0.00000000	30.13041000	27.22072000
42.29999767	0.00000000	27.42987000	21.08760000
42.49999765	0.00000000	26.26722000	12.62918000
42.69999764	0.00000000	27.01156000	4.17691900
42.89999763	0.00000000	28.87549000	-2.00541300
43.09999762	0.00000000	31.24384000	-4.74286400
43.29999761	0.00000000	33.57529000	-3.62942900
43.49999759	0.00000000	35.90059000	0.59670270
43.69999758	0.00000000	37.43848000	6.72982200
43.89999757	0.00000000	37.90600000	13.28125000
44.09999756	0.00000000	37.90600000	18.30093000
44.29999755	0.00000000	37.53075000	20.99532000
44.49999753	0.00000000	36.78642000	20.66314000
44.69999752	0.00000000	36.41117000	17.64887000
44.89999751	0.00000000	36.36811000	13.83489000
45.09999750	0.00000000	36.32505000	9.89173200
45.29999749	0.00000000	35.90059000	6.44685000
45.49999748	0.00000000	34.69488000	4.12770700
45.69999746	0.00000000	32.73868000	3.70939900
45.89999745	0.00000000	29.99508000	4.82283400
46.09999744	0.00000000	26.91929000	6.72982200
46.29999743	0.00000000	24.31102000	9.09817800
46.49999742	0.00000000	23.57283000	11.38041000
46.69999740	0.00000000	25.56594000	13.37352000
46.89999739	0.00000000	29.81053000	14.49311000
47.09999738	0.00000000	36.03592000	14.85605000
47.29999737	0.00000000	42.51353000	13.69956000
47.49999736	0.00000000	47.57627000	11.42347000
47.69999734	0.00000000	49.86466000	9.09817800
47.89999733	0.00000000	49.02190000	6.72982200
48.09999732	0.00000000	44.32209000	4.87204700
48.29999731	0.00000000	36.27584000	4.08464600
48.49999730	0.00000000	27.38681000	4.87204700
48.69999729	0.00000000	19.70349000	6.77903500
48.89999727	0.00000000	15.05905000	9.51648500
49.09999726	0.00000000	15.09596000	12.58612000
49.29999725	0.00000000	19.34055000	15.27436000
49.49999724	0.00000000	27.47908000	16.81225000
49.69999723	0.00000000	37.43848000	16.81225000
49.89999721	0.00000000	46.32751000	15.23130000
50.09999720	0.00000000	52.14074000	12.16166000
50.29999719	0.00000000	53.67864000	8.31077700
50.49999718	0.00000000	50.55979000	4.87204700
50.69999717	0.00000000	43.20866000	2.50369100
50.89999715	0.00000000	33.24926000	1.80241100
51.09999714	0.00000000	23.66511000	2.96505900
51.29999713	0.00000000	17.51968000	6.44685000
51.49999712	0.00000000	16.26476000	11.00517000
51.69999711	0.00000000	19.75271000	15.27436000
51.89999710	0.00000000	26.64862000	18.35015000
52.09999708	0.00000000	35.52534000	19.55585000
52.29999707	0.00000000	43.54084000	18.76845000
52.49999706	0.00000000	48.60359000	16.43701000
52.69999705	0.00000000	49.35408000	12.58612000
52.89999704	0.00000000	45.95226000	8.40305000
53.09999702	0.00000000	39.39468000	5.29035400
53.29999701	0.00000000	31.75443000	3.70939900
53.49999700	0.00000000	25.19685000	3.70939900
53.69999699	0.00000000	21.70891000	5.24729300
53.89999698	0.00000000	21.70891000	7.93553100
54.09999696	0.00000000	25.15379000	11.00517000
54.29999695	0.00000000	31.29306000	13.65650000
54.49999694	0.00000000	37.81373000	14.81299000
54.69999693	0.00000000	43.20866000	14.11786000
54.89999692	0.00000000	45.85999000	12.62918000
55.09999691	0.00000000	44.74655000	11.04823000
55.29999689	0.00000000	40.55733000	9.51648500
55.49999688	0.00000000	34.78716000	8.44611200
55.69999687	0.00000000	29.01082000	8.82135800
55.89999686	0.00000000	24.77854000	10.67298000
56.09999685	0.00000000	23.24065000	12.53691000
56.29999683	0.00000000	24.73548000	13.69956000
56.49999682	0.00000000	28.54946000	13.65650000
56.69999681	0.00000000	33.20005000	12.16781000
56.89999680	0.00000000	37.85679000	9.79945900
57.09999679	0.00000000	41.67076000	7.09891700
57.29999677	0.00000000	43.20866000	4.03543200
57.49999676	0.00000000	42.09522000	2.22071800
57.69999675	0.00000000	39.01944000	2.59596400
57.89999674	0.00000000	34.78716000	5.29035400
58.09999673	0.00000000	30.59178000	9.51648500
58.29999672	0.00000000	27.89739000	14.16708000
58.49999670	0.00000000	27.42987000	18.43627000
58.69999669	0.00000000	28.54946000	21.41363000
58.89999668	0.00000000	30.50566000	21.73966000
59.09999667	0.00000000	33.20005000	18.25787000
59.29999666	0.00000000	35.85752000	12.21087000
59.49999664	0.00000000	37.43848000	5.61638700
59.69999663	0.00000000	37.85679000	0.22145670
59.89999662	0.00000000	37.43848000	-3.25418300
60.09999661	0.00000000	35.90059000	-3.58021600
60.29999660	0.00000000	33.66756000	-0.51673230
60.49999658	-0.15871060	32.12967000	5.29035400
60.69999657	0.00000000	31.66215000	12.58612000
60.89999656	0.00000000	31.66215000	19.50664000
61.09999655	0.00000000	32.08661000	24.10802000
61.29999654	0.00000000	33.24926000	25.27067000
61.49999653	0.00000000	34.73794000	22.52707000
61.69999651	0.00000000	35.85752000	16.39395000
61.89999650	0.00000000	35.85752000	8.35998900
62.09999649	0.00000000	34.73794000	1.01501000
62.29999648	0.00000000	33.24926000	-4.04773600
62.49999647	0.00000000	32.03740000	-6.32381900
62.69999645	0.00000000	31.28691000	-4.74286400
62.89999644	0.00000000	30.87475000	0.59670270
63.09999643	0.00000000	31.33612000	7.89247000
63.29999642	0.00000000	32.46186000	15.27436000
63.49999641	0.00000000	34.41191000	21.41363000
63.69999639	0.00000000	36.27584000	24.89542000
63.89999638	0.00000000	37.43848000	24.52633000
64.09999637	0.00000000	37.43848000	21.13066000
64.29999636	0.00000000	36.32505000	15.64960000
64.49999635	0.00000000	34.78716000	9.14124000
64.69999634	0.00000000	33.20005000	2.97121000
64.89999632	0.00000000	31.66215000	-0.88582670
65.09999631	0.00000000	30.54872000	-2.13459600
65.29999630	0.00000000	30.54872000	-0.97810030
65.49999629	0.00000000	31.66215000	2.08538400
65.69999628	0.00000000	33.20005000	6.35457700
65.89999626	0.00000000	34.73794000	11.00517000
66.09999625	0.00000000	35.85752000	15.27436000
66.29999624	0.00000000	35.90059000	18.39321000
66.49999623	0.00000000	35.11934000	19.97416000
66.69999622	0.00000000	33.99360000	19.97416000
66.89999620	0.00000000	32.46186000	18.43627000
67.09999619	0.00000000	31.71137000	15.74188000
67.29999618	0.00000000	31.66215000	12.62918000
67.49999617	0.00000000	32.12967000	9.47342500
67.69999616	0.00000000	33.66756000	6.36072800
67.89999615	0.00000000	35.94980000	3.61712600
68.09999613	0.00000000	37.85679000	1.66707700
68.29999612	0.00000000	39.01944000	0.55364170
68.49999611	0.00000000	38.93332000	0.97194880
68.69999610	0.00000000	37.02018000	3.33415300
68.89999609	0.00000000	33.57529000	7.19734200
69.09999607	0.00000000	30.08120000	12.25394000
69.29999606	0.00000000	26.96850000	17.18750000
69.49999605	0.00000000	24.73548000	20.71235000
69.69999604	0.00000000	24.77854000	21.92421000
69.89999603	0.00000000	27.47293000	21.50590000
70.09999601	0.00000000	32.08661000	19.08834000
70.29999600	0.00000000	37.48154000	14.11786000
70.49999599	0.00000000	42.09522000	8.35998900
70.69999598	0.00000000	44.83267000	3.29109200
70.89999597	0.00000000	45.20792000	-0.55979330
71.09999596	0.00000000	43.25172000	-2.04847400
71.29999594	0.00000000	38.97638000	-0.55979330
71.49999593	0.00000000	33.20005000	3.29109200
71.69999592	0.00000000	27.42987000	8.26771600
71.89999591	0.00000000	23.15453000	13.32431000
72.09999590	0.00000000	21.19833000	17.14444000
72.29999588	0.00000000	21.61663000	19.13140000
72.49999587	0.00000000	24.73548000	18.76845000
72.69999586	0.00000000	30.13041000	16.85531000
72.89999585	0.00000000	36.27584000	13.74262000
73.09999584	0.00000000	41.67076000	9.93479300
73.29999582	0.00000000	44.78961000	6.86515700
73.49999581	0.00000000	45.20792000	5.29035400
73.69999580	0.00000000	43.30093000	5.29035400
73.89999579	0.00000000	39.39468000	6.72982200
74.09999578	0.00000000	34.41191000	8.63681000
74.29999577	0.00000000	29.38607000	9.79945900
74.49999575	0.00000000	25.94119000	10.58686000
74.69999574	0.00000000	24.68627000	10.53765000
74.89999573	0.00000000	25.47367000	9.47342500
75.09999572	0.00000000	27.76206000	8.35998900
75.29999571	0.00000000	31.24384000	7.93553100
75.49999569	0.00000000	34.69488000	7.98474400
75.69999568	0.00000000	37.43848000	8.82135800
75.89999567	0.00000000	38.97638000	11.09744000
76.09999566	0.00000000	38.97638000	13.74262000
76.29999565	0.00000000	37.48154000	15.64960000
76.49999563	0.00000000	35.24852000	16.39395000
76.69999562	0.00000000	33.66756000	15.23130000
76.89999561	0.00000000	32.82480000	12.53691000
77.09999560	0.00000000	32.08661000	9.00590400
77.29999559	0.00000000	32.08661000	4.77977300
77.49999558	0.00000000	32.78174000	0.97194880
77.69999556	0.00000000	33.10777000	-0.93503930
77.89999555	0.00000000	32.78174000	-0.51673230
78.09999554	0.00000000	32.03740000	2.59596400
78.29999553	0.00000000	31.61909000	7.93553100
78.49999552	0.00000000	31.20078000	13.69956000
78.69999550	0.00000000	30.50566000	18.35015000
78.89999549	0.00000000	30.59178000	21.03838000
79.09999548	0.00000000	32.08661000	21.08760000
79.29999547	0.00000000	34.41191000	18.76845000
79.49999546	0.00000000	36.70029000	14.90526000
79.69999544	0.00000000	38.60113000	9.89173200
79.89999543	0.00000000	38.97638000	5.29035400
80.09999542	0.00000000	37.85679000	2.12844500
80.29999541	0.00000000	35.90059000	0.59670270
80.49999540	0.00000000	33.15699000	0.97194880
80.69999539	0.00000000	30.13041000	3.24803100
80.89999537	0.00000000	27.80512000	6.31151500
81.09999536	0.00000000	27.05462000	9.47342500
81.29999535	0.00000000	27.80512000	12.58612000
81.49999534	0.00000000	30.13041000	15.27436000
81.69999533	0.00000000	33.15699000	16.85531000
81.89999531	0.00000000	35.90059000	17.27362000
82.09999530	0.00000000	37.85679000	16.89837000
82.29999529	0.00000000	38.97638000	15.69882000
82.49999528	0.00000000	38.60113000	13.74262000
82.69999527	0.00000000	36.70029000	11.00517000
82.89999525	0.00000000	34.41191000	7.93553100
83.09999524	0.00000000	32.08661000	5.19808000
83.29999523	0.00000000	30.54872000	3.29109200
83.49999522	0.00000000	30.08120000	2.50369100
83.69999521	0.00000000	30.08120000	3.29109200
83.89999520	0.00000000	30.50566000	5.19808000
84.09999518	0.00000000	31.66215000	7.98474400
84.29999517	0.00000000	33.15699000	11.46653000
84.49999516	0.00000000	34.31963000	15.27436000
84.69999515	0.00000000	34.74409000	17.97490000
84.89999514	0.00000000	34.78716000	18.81152000
85.09999512	0.00000000	34.78716000	18.39321000
85.29999511	0.00000000	34.78716000	16.39395000
85.49999510	0.00000000	34.78716000	12.53691000
85.69999509	0.00000000	34.78716000	7.93553100
85.89999508	0.00000000	34.74409000	3.70939900
86.09999506	0.00000000	34.36884000	1.01501000
86.29999505	0.00000000	33.57529000	0.59670270
86.49999504	0.00000000	32.82480000	2.12844500
86.69999503	0.00000000	31.99434000	5.24729300
86.89999502	-0.15871060	31.24384000	9.47342500
87.09999501	0.00000000	30.50566000	13.74262000
87.29999499	0.00000000	30.50566000	17.18750000
87.49999498	0.00000000	31.28691000	19.08834000
87.69999497	0.00000000	32.41265000	18.30093000
87.89999496	0.00000000	33.99360000	15.23130000
88.09999495	0.00000000	35.11934000	10.62992000
88.29999493	0.00000000	35.94980000	5.66560000
88.49999492	0.00000000	36.27584000	2.17765700
88.69999491	0.00000000	35.90059000	0.63976370
88.89999490	0.00000000	34.73794000	1.39025600
89.09999489	0.00000000	33.20005000	4.45374000
89.29999487	0.00000000	31.66215000	8.31077700
89.49999486	0.00000000	30.54872000	12.58612000
89.69999485	0.00000000	30.50566000	16.39395000
89.89999484	0.00000000	31.24384000	18.30093000
90.09999483	0.00000000	31.99434000	17.92569000
90.29999482	0.00000000	32.82480000	15.18824000
90.49999480	0.00000000	33.57529000	10.62992000
90.69999479	0.00000000	34.36884000	5.66560000
90.89999478	0.00000000	34.69488000	2.22071800
91.09999477	0.00000000	34.36884000	0.97194880
91.29999476	0.00000000	33.61835000	1.80241100
91.49999474	0.00000000	33.24311000	4.50295200
91.69999473	0.00000000	33.20005000	9.14124000
91.89999472	0.00000000	33.24311000	14.07480000
92.09999471	-0.15871060	33.61835000	17.88263000
92.29999470	0.00000000	34.31963000	19.04527000
92.49999468	0.00000000	34.31963000	17.18750000
92.69999467	0.00000000	33.57529000	13.74262000
92.89999466	0.00000000	32.78174000	9.47342500
93.09999465	0.00000000	31.61909000	5.24729300
93.29999464	0.00000000	30.50566000	2.17765700
93.49999463	0.00000000	30.08120000	1.05807100
93.69999461	0.00000000	30.13041000	2.59596400
93.89999460	0.00000000	30.92396000	6.40378900
94.09999459	0.00000000	32.87401000	10.95595000
94.29999458	0.00000000	35.16240000	14.81299000
94.49999457	0.00000000	37.48154000	16.76919000
94.69999455	0.00000000	38.97638000	16.81225000
94.89999454	0.00000000	38.97638000	15.23130000
95.09999453	0.00000000	37.48154000	12.16166000
95.29999452	0.00000000	35.11319000	8.31077700
95.49999451	0.00000000	32.40649000	4.91510800
95.69999449	0.00000000	29.29380000	2.97121000
95.89999448	0.00000000	27.01156000	3.33415300
96.09999447	0.00000000	25.80585000	5.19808000
96.29999446	0.00000000	25.89198000	7.93553100
96.49999445	0.00000000	27.84818000	11.00517000
96.69999444	0.00000000	31.66830000	13.69956000
96.89999442	0.00000000	35.90059000	15.23130000
97.09999441	0.00000000	39.39468000	15.23130000
97.29999440	0.00000000	41.71998000	13.69956000
97.49999439	0.00000000	42.09522000	11.04823000
97.69999438	0.00000000	40.55733000	8.40305000
97.89999436	0.00000000	37.48154000	6.82209600
98.09999435	0.00000000	33.61835000	6.40378900
98.29999434	0.00000000	30.08120000	6.77903500
98.49999433	0.00000000	26.96850000	7.89247000
98.69999432	0.00000000	24.68627000	9.05511800
98.89999430	0.00000000	24.36024000	9.84867000
99.09999429	0.00000000	26.22416000	10.62992000
99.29999428	0.00000000	29.66289000	11.00517000
99.49999427	0.00000000	33.15699000	11.09129000
99.69999426	0.00000000	36.36811000	11.46653000
99.89999425	0.00000000	39.39468000	12.21087000
100.09999423	0.00000000	41.29552000	12.58612000
100.29999422	0.00000000	40.93258000	12.62918000
100.49999421	0.00000000	39.06250000	12.62918000
100.69999420	0.00000000	36.31890000	12.53691000
100.89999419	0.00000000	33.20005000	11.74951000
101.09999417	0.00000000	30.13041000	9.84867000
101.29999416	0.00000000	27.80512000	7.93553100
101.49999415	0.00000000	27.01156000	6.36072800
101.69999414	0.00000000	27.34375000	5.24729300
101.89999413	0.00000000	28.54946000	5.29035400
102.09999411	0.00000000	30.45644000	6.82209600
102.29999410	0.00000000	32.82480000	9.47342500
102.49999409	0.00000000	35.11319000	12.16781000
102.69999408	0.00000000	37.06324000	14.16092000
102.89999407	0.00000000	37.85679000	15.69882000
103.09999406	0.00000000	37.85679000	16.39395000
103.29999404	0.00000000	37.06324000	15.23130000
103.49999403	0.00000000	35.16240000	12.58612000
103.69999402	0.00000000	33.24926000	9.47342500
103.89999401	0.00000000	31.61909000	6.40378900
104.09999400	0.00000000	30.08120000	4.08464600
104.29999398	0.00000000	28.96776000	3.33415300
104.49999397	0.00000000	28.96776000	4.08464600
104.69999396	0.00000000	30.08120000	6.40378900
104.89999395	0.00000000	31.61909000	9.42421200
105.09999394	0.00000000	33.20005000	12.16781000
105.29999392	0.00000000	34.69488000	14.07480000
105.49999391	0.00000000	35.48228000	14.85605000
105.69999390	0.00000000	35.16240000	14.07480000
105.89999389	0.00000000	34.74409000	12.21087000
106.09999388	0.00000000	33.94439000	9.89173200
106.29999387	0.00000000	32.46186000	7.93553100
106.49999385	0.00000000	31.66215000	6.40378900
106.69999384	0.00000000	31.24384000	5.66560000
106.89999383	0.00000000	30.92396000	6.40378900
107.09999382	0.00000000	31.71137000	7.89247000
107.29999381	0.00000000	33.15699000	9.47342500
107.49999379	0.00000000	34.31963000	11.00517000
107.69999378	0.00000000	34.74409000	12.11860000
107.89999377	0.00000000	34.74409000	12.11860000
108.09999376	0.00000000	34.31963000	11.00517000
108.29999375	0.00000000	33.15699000	9.51648500
108.49999374	0.00000000	31.66215000	8.31077700
108.69999372	0.00000000	30.50566000	7.51722400
108.89999371	0.00000000	30.13041000	6.77903500
109.09999370	0.00000000	30.45644000	6.82209600
109.29999369	0.00000000	31.24384000	7.93553100
109.49999368	0.00000000	32.03740000	9.47342500
109.69999366	0.00000000	33.24926000	11.04823000
109.89999365	0.00000000	34.69488000	12.53691000
110.09999364	0.00000000	35.48228000	13.28125000
110.29999363	0.00000000	35.11934000	12.58612000
110.49999362	0.00000000	34.36884000	11.46653000
110.69999360	0.00000000	33.20005000	10.62992000
110.89999359	0.00000000	32.08661000	9.42421200
111.09999358	0.00000000	31.66215000	7.93553100
111.29999357	0.00000000	31.61909000	6.82209600
111.49999356	0.00000000	31.61909000	6.77903500
111.69999355	0.00000000	31.66215000	7.51722400
111.89999353	0.00000000	32.03740000	8.26771600
112.09999352	0.00000000	32.78174000	9.09817800
112.29999351	0.00000000	33.15699000	9.84867000
112.49999350	0.00000000	33.20005000	10.62992000
112.69999349	0.00000000	33.20005000	11.00517000
112.89999347	0.00000000	33.20005000	11.00517000
113.09999346	0.00000000	33.20005000	10.62992000
113.29999345	0.00000000	33.20005000	9.89173200
113.49999344	0.00000000	33.20005000	9.51648500
113.69999343	0.00000000	33.20005000	9.47342500
113.89999341	0.00000000	33.20005000	9.43036400
114.09999340	0.00000000	33.15699000	9.05511800
114.29999339	0.00000000	32.78174000	8.31077700
114.49999338	0.00000000	32.08661000	7.93553100
114.69999337	0.00000000	32.08661000	7.89247000
114.89999336	0.00000000	32.78174000	7.89247000
115.09999334	0.00000000	33.15699000	7.93553100
115.29999333	0.00000000	33.20005000	8.35998900
115.49999332	0.00000000	33.20005000	9.42421200
115.69999331	0.00000000	33.20005000	10.21161000
115.89999330	0.00000000	33.20005000	10.21776000
116.09999328	0.00000000	33.15699000	10.34695000
116.29999327	0.00000000	32.78174000	10.68528000
116.49999326	0.00000000	32.03740000	11.79257000
116.69999325	0.00000000	31.66215000	12.07554000
116.89999324	0.00000000	31.66215000	11.04823000
117.09999322	0.00000000	32.03740000	9.89173200
117.29999321	0.00000000	32.78174000	9.09817800
117.49999320	0.00000000	33.20005000	8.31077700
117.69999319	0.00000000	33.61835000	7.93553100
117.89999318	0.00000000	34.36884000	7.89247000
118.09999317	0.00000000	34.69488000	7.89247000
118.29999315	0.00000000	34.31963000	7.93553100
118.49999314	0.00000000	33.20005000	8.35998900
118.69999313	0.00000000	32.03740000	9.47342500
118.89999312	0.00000000	31.24384000	10.62992000
119.09999311	0.00000000	30.45644000	11.38041000
119.29999309	0.00000000	30.08120000	11.79257000
119.49999308	0.00000000	30.08120000	11.42347000
119.69999307	0.00000000	30.50566000	11.04823000
119.89999306	0.00000000	31.66215000	10.62992000
120.09999305	-0.15871060	33.15699000	9.84867000
120.29999303	0.00000000	34.36884000	9.09817800
120.49999302	0.00000000	35.16240000	8.31077700
120.69999301	0.00000000	35.90059000	7.93553100
120.89999300	0.00000000	35.85752000	7.93553100
121.09999299	0.00000000	34.73794000	8.31077700
121.29999298	0.00000000	33.20005000	9.00590400
121.49999296	0.00000000	31.66215000	9.05511800
121.69999295	0.00000000	30.50566000	8.72908400
121.89999294	0.00000000	30.08120000	9.09817800
122.09999293	0.00000000	30.03814000	9.43036400
122.29999292	0.00000000	30.08120000	9.47342500
122.49999290	0.00000000	30.50566000	9.51648500
122.69999289	0.00000000	31.66215000	9.89173200
122.89999288	0.00000000	33.15699000	10.62992000
123.09999287	0.00000000	34.31963000	11.00517000
123.29999286	0.00000000	34.74409000	11.00517000
123.49999284	0.00000000	34.78716000	10.62992000
123.69999283	-0.15871060	34.74409000	9.89173200
123.89999282	0.00000000	34.36884000	9.47342500
124.09999281	0.00000000	33.57529000	9.05511800
124.29999280	0.00000000	32.82480000	8.31077700
124.49999279	0.00000000	31.99434000	7.93553100
124.69999277	0.00000000	31.24384000	7.93553100
124.89999276	0.00000000	30.45644000	8.31077700
125.09999275	0.00000000	30.08120000	9.09817800
125.29999274	0.00000000	30.08120000	9.84867000
125.49999273	0.00000000	30.50566000	10.62992000
125.69999271	0.00000000	31.61909000	11.00517000
125.89999270	0.00000000	32.78174000	11.04823000
126.09999269	0.00000000	33.57529000	11.00517000
126.29999268	0.00000000	34.36884000	10.67298000
126.49999267	0.00000000	34.69488000	10.26698000
126.69999265	0.00000000	34.36884000	10.21161000
126.89999264	0.00000000	33.57529000	9.47342500
127.09999263	0.00000000	32.82480000	8.72908400
127.29999262	0.00000000	31.99434000	8.67987200
127.49999261	0.00000000	31.24384000	8.31077700
127.69999260	0.00000000	30.45644000	8.35998900
127.89999258	0.00000000	30.13041000	9.05511800
128.09999257	0.00000000	30.50566000	9.43036400
128.29999256	0.00000000	31.61909000	9.47342500
128.49999255	0.00000000	32.78174000	9.51648500
128.69999254	0.00000000	33.57529000	9.84867000
128.89999252	0.00000000	34.36884000	10.21161000
129.09999251	0.00000000	34.69488000	9.84867000
129.29999250	0.00000000	34.36884000	9.51648500
129.49999249	0.00000000	33.57529000	9.43036400
129.69999248	0.00000000	32.82480000	9.09817800
129.89999246	0.00000000	31.99434000	8.72908400
130.09999245	0.00000000	31.24384000	9.09817800
130.29999244	0.00000000	30.50566000	9.43036400
130.49999243	0.00000000	30.54872000	9.51648500
130.69999242	0.00000000	31.61909000	9.84867000
130.89999241	0.00000000	32.73252000	10.25467000
131.09999239	0.00000000	33.20005000	10.21776000
131.29999238	0.00000000	33.57529000	10.25467000
131.49999237	0.00000000	33.94439000	9.79945900
131.69999236	0.00000000	33.57529000	9.09817800
131.89999235	0.00000000	33.20005000	8.31077700
132.09999233	0.00000000	32.78174000	7.93553100
132.29999232	0.00000000	32.03740000	7.93553100
132.49999231	0.00000000	31.66215000	8.31077700
132.69999230	0.00000000	31.61909000	9.05511800
132.89999229	0.00000000	31.61909000	9.47342500
133.09999227	0.00000000	31.61909000	9.89173200
133.29999226	0.00000000	31.61909000	10.62992000
133.49999225	0.00000000	31.61909000	11.00517000
133.69999224	0.00000000	31.61909000	11.00517000
133.89999223	0.00000000	31.61909000	10.62992000
134.09999222	0.00000000	31.66215000	9.89173200
134.29999220	0.00000000	31.99434000	9.47342500
134.49999219	0.00000000	32.40649000	9.05511800
134.69999218	0.00000000	32.41265000	8.31077700
134.89999217	0.00000000	32.82480000	7.93553100
135.09999216	0.00000000	33.15699000	7.89247000
135.29999214	0.00000000	33.15699000	7.93553100
135.49999213	0.00000000	32.82480000	8.31077700
135.69999212	0.00000000	32.41265000	9.05511800
135.89999211	0.00000000	32.40649000	9.47342500
136.09999210	0.00000000	31.95128000	9.89173200
136.29999208	0.00000000	31.24384000	10.62992000
136.49999207	0.00000000	30.50566000	10.95595000
136.69999206	0.00000000	30.50566000	10.62992000
136.89999205	0.00000000	31.20078000	9.89173200
137.09999204	0.00000000	31.61909000	9.51648500
137.29999203	0.00000000	32.08661000	9.43036400
137.49999201	0.00000000	33.15699000	9.05511800
137.69999200	0.00000000	33.90133000	8.31077700
137.89999199	0.00000000	33.57529000	7.93553100
138.09999198	0.00000000	33.20005000	7.89247000
138.29999197	0.00000000	32.78174000	7.93553100
138.49999195	0.00000000	32.03740000	8.31077700
138.69999194	0.00000000	31.61909000	9.05511800
138.89999193	0.00000000	31.24384000	9.43036400
139.09999192	0.00000000	30.87475000	9.51648500
139.29999191	0.00000000	31.24384000	9.89173200
139.49999189	0.00000000	31.61909000	10.62992000
139.69999188	0.00000000	32.03740000	10.95595000
139.89999187	0.00000000	32.78174000	10.62992000
140.09999186	0.00000000	33.15699000	9.89173200
140.29999185	0.00000000	33.20005000	9.47342500
140.49999184	0.00000000	33.15699000	9.05511800
140.69999182	0.00000000	32.78174000	8.31077700
140.89999181	0.00000000	32.03740000	7.93553100
141.09999180	0.00000000	31.66215000	7.89247000
141.29999179	0.00000000	31.61909000	7.93553100
141.49999178	0.00000000	31.61909000	8.35998900
141.69999176	0.00000000	31.66215000	9.47342500
141.89999175	0.00000000	32.03740000	10.58686000
142.09999174	0.00000000	32.78174000	11.00517000
142.29999173	0.00000000	33.15699000	11.04823000
142.49999172	0.00000000	33.20005000	11.00517000
142.69999170	0.00000000	33.15699000	10.58686000
142.89999169	0.00000000	32.78174000	9.47342500
143.09999168	0.00000000	32.03740000	8.35998900
143.29999167	0.00000000	31.66215000	7.93553100
143.49999166	0.00000000	31.61909000	7.89247000
143.69999165	0.00000000	31.61909000	7.89247000
143.89999163	0.00000000	31.61909000	7.93553100
144.09999162	0.00000000	31.66215000	8.31077700
144.29999161	0.00000000	32.03740000	9.09817800
144.49999160	0.00000000	32.78174000	9.84867000
144.69999159	0.00000000	33.15699000	10.58686000
144.89999157	-0.15871060	33.15699000	10.62992000
145.09999156	0.00000000	32.78174000	10.26698000
145.29999155	0.00000000	32.03740000	10.25467000
145.49999154	0.00000000	31.66215000	9.84867000
145.69999153	0.00000000	31.61909000	9.47342500
145.89999151	0.00000000	31.61909000	9.05511800
146.09999150	0.00000000	31.61909000	8.31077700
146.29999149	0.00000000	31.61909000	7.93553100
146.49999148	0.00000000	31.66215000	7.89247000
146.69999147	0.00000000	32.03740000	7.93553100
146.89999146	0.00000000	32.78174000	8.31077700
147.09999144	0.00000000	33.10777000	9.05511800
147.29999143	0.00000000	32.78174000	9.43036400
147.49999142	0.00000000	32.03740000	9.47342500
147.69999141	0.00000000	31.66215000	9.47342500
147.89999140	0.00000000	31.61909000	9.47342500
148.09999138	0.00000000	31.61909000	9.47342500
148.29999137	0.00000000	31.61909000	9.47342500
148.49999136	0.00000000	31.61909000	9.43036400
148.69999135	0.00000000	31.61909000	9.05511800
148.89999134	0.00000000	31.66215000	8.31077700
149.09999132	0.00000000	32.03740000	7.93553100
149.29999131	0.00000000	32.78174000	7.89247000
149.49999130	0.00000000	33.15699000	7.93553100
149.69999129	0.00000000	33.20005000	8.31077700
149.89999128	0.00000000	33.20005000	9.05511800
150.09999127	0.00000000	33.15699000	9.43036400
150.29999125	0.00000000	32.78174000	9.47342500
150.49999124	0.00000000	32.03740000	9.47342500
150.69999123	0.00000000	31.66215000	9.47342500
150.89999122	0.00000000	31.61909000	9.47342500
151.09999121	0.00000000	31.61909000	9.47342500
151.29999119	0.00000000	31.61909000	9.47342500
151.49999118	0.00000000	31.61909000	9.47342500
151.69999117	0.00000000	31.61909000	9.43036400
151.89999116	0.00000000	31.61909000	9.05511800
152.09999115	0.00000000	31.66215000	8.35998900
152.29999113	0.00000000	32.03740000	8.35998900
152.49999112	0.00000000	32.78174000	9.05511800
152.69999111	0.00000000	33.15699000	9.43036400
152.89999110	0.00000000	33.15699000	9.47342500
153.09999109	0.00000000	32.78174000	9.47342500
153.29999108	0.00000000	32.03740000	9.47342500
153.49999106	0.00000000	31.61909000	9.47342500
153.69999105	0.00000000	31.24384000	9.47342500
153.89999104	0.00000000	30.83169000	9.47342500
154.09999103	0.00000000	30.82554000	9.47342500
154.29999102	0.00000000	30.45644000	9.47342500
154.49999100	0.00000000	30.50566000	9.47342500
154.69999099	0.00000000	31.20078000	9.43036400
154.89999098	0.00000000	31.61909000	9.05511800
155.09999097	0.00000000	32.03740000	8.31077700
155.29999096	0.00000000	32.78174000	7.93553100
155.49999094	0.00000000	33.15699000	7.89247000
155.69999093	0.00000000	33.15699000	7.93553100
155.89999092	0.00000000	32.78174000	8.31077700
156.09999091	0.00000000	32.03740000	9.05511800
156.29999090	0.00000000	31.66215000	9.47342500
156.49999089	0.00000000	31.57603000	9.84867000
156.69999087	0.00000000	31.20078000	10.21161000
156.89999086	0.00000000	30.45644000	9.84867000
157.09999085	0.00000000	30.13041000	9.51648500
157.29999084	0.00000000	30.45644000	9.47342500
157.49999083	0.00000000	31.20078000	9.47342500
157.69999081	0.00000000	31.57603000	9.43036400
157.89999080	0.00000000	31.61909000	9.05511800
158.09999079	0.00000000	31.66215000	8.31077700
158.29999078	0.00000000	32.03740000	7.93553100
158.49999077	0.00000000	32.78174000	7.89247000
158.69999075	0.00000000	33.10777000	7.93553100
158.89999074	0.00000000	32.78174000	8.31077700
159.09999073	0.00000000	32.03740000	9.05511800
159.29999072	0.00000000	31.66215000	9.43036400
159.49999071	0.00000000	31.61909000	9.47342500
159.69999070	0.00000000	31.61909000	9.47342500
159.89999068	0.00000000	31.61909000	9.47342500
160.09999067	0.00000000	31.61909000	9.47342500
160.29999066	0.00000000	31.61909000	9.47342500
160.49999065	0.00000000	31.61909000	9.47342500
160.69999064	0.00000000	31.61909000	9.47342500
160.89999062	0.00000000	31.61909000	9.47342500
161.09999061	0.00000000	31.61909000	9.43036400
161.29999060	0.00000000	31.61909000	9.09817800
161.49999059	0.00000000	31.61909000	8.68602300
161.69999058	0.00000000	31.57603000	8.67987200
161.89999056	0.00000000	31.24384000	8.31077700
162.09999055	0.00000000	30.87475000	8.35998900
162.29999054	0.00000000	31.24384000	9.05511800
162.49999053	0.00000000	31.57603000	9.43036400
162.69999052	0.00000000	31.61909000	9.47342500
162.89999051	0.00000000	31.57603000	9.47342500
163.09999049	0.00000000	31.20078000	9.47342500
163.29999048	0.00000000	30.50566000	9.47342500
163.49999047	0.00000000	30.45644000	9.43036400
163.69999046	0.00000000	30.78248000	9.09817800
163.89999045	0.00000000	30.45644000	8.68602300
164.09999043	0.00000000	30.50566000	8.67987200
164.29999042	0.00000000	31.20078000	8.26771600
164.49999041	0.00000000	31.57603000	7.98474400
164.69999040	0.00000000	31.61909000	8.26771600
164.89999039	0.00000000	31.61909000	8.67987200
165.09999037	0.00000000	31.61909000	8.68602300
165.29999036	0.00000000	31.61909000	9.09817800
165.49999035	0.00000000	31.61909000	9.43036400
165.69999034	0.00000000	31.61909000	9.47342500
165.89999033	0.00000000	31.61909000	9.47342500
166.09999032	0.00000000	31.57603000	9.47342500
166.29999030	0.00000000	31.20078000	9.47342500
166.49999029	0.00000000	30.50566000	9.47342500
166.69999028	0.00000000	30.50566000	9.47342500
166.89999027	0.00000000	31.20078000	9.47342500
167.09999026	0.00000000	31.57603000	9.43036400
167.29999024	0.00000000	31.61909000	9.05511800
167.49999023	0.00000000	31.61909000	8.31077700
167.69999022	0.00000000	31.61909000	7.98474400
167.89999021	0.00000000	31.61909000	8.31077700
168.09999020	0.00000000	31.61909000	9.05511800
168.29999018	0.00000000	31.61909000	9.43036400
168.49999017	0.00000000	31.61909000	9.47342500
168.69999016	0.00000000	31.61909000	9.47342500
168.89999015	0.00000000	31.61909000	9.47342500
169.09999014	0.00000000	31.61909000	9.47342500
169.29999013	0.00000000	31.61909000	9.47342500
169.49999011	0.00000000	31.61909000	9.43036400
169.69999010	0.00000000	31.61909000	9.09817800
169.89999009	0.00000000	31.61909000	8.72908400
170.09999008	0.00000000	31.61909000	9.05511800
170.29999007	0.00000000	31.61909000	9.05511800
170.49999005	0.00000000	31.61909000	8.72908400
170.69999004	0.00000000	31.61909000	9.09817800
170.89999003	0.00000000	31.61909000	9.38115100
171.09999002	0.00000000	31.61909000	9.09817800
171.29999001	0.00000000	31.61909000	8.72908400
171.49998999	0.00000000	31.61909000	9.05511800
171.69998998	0.00000000	31.61909000	9.00590400
171.89998997	0.00000000	31.61909000	8.31077700
172.09998996	0.00000000	31.61909000	7.98474400
172.29998995	0.00000000	31.61909000	8.26771600
172.49998994	0.00000000	31.57603000	8.63681000
172.69998992	0.00000000	31.24384000	8.31077700
172.89998991	0.00000000	30.87475000	8.35998900
173.09998990	0.00000000	31.24384000	9.05511800
173.29998989	0.00000000	31.57603000	9.43036400
173.49998988	0.00000000	31.61909000	9.47342500
173.69998986	0.00000000	31.61909000	9.43036400
173.89998985	0.00000000	31.61909000	9.05511800
174.09998984	0.00000000	31.61909000	8.31077700
174.29998983	0.00000000	31.61909000	7.93553100
174.49998982	0.00000000	31.61909000	7.93553100
174.69998980	0.00000000	31.61909000	8.31077700
174.89998979	0.00000000	31.61909000	9.00590400
175.09998978	0.00000000	31.61909000	9.00590400
175.29998977	0.00000000	31.61909000	8.31077700
175.49998976	0.00000000	31.61909000	7.98474400
175.69998975	0.00000000	31.61909000	8.31077700
175.89998973	0.00000000	31.61909000	9.05511800
176.09998972	0.00000000	31.61909000	9.43036400
176.29998971	0.00000000	31.61909000	9.43036400
176.49998970	0.00000000	31.57603000	9.05511800
176.69998969	0.00000000	31.24384000	8.35998900
176.89998967	0.00000000	30.87475000	8.35998900
177.09998966	0.00000000	31.24384000	9.00590400
177.29998965	0.00000000	31.57603000	9.00590400
177.49998964	0.00000000	31.61909000	8.31077700
177.69998963	0.00000000	31.61909000	7.98474400
177.89998961	0.00000000	31.61909000	8.31077700
178.09998960	0.00000000	31.61909000	9.05511800
178.29998959	0.00000000	31.61909000	9.43036400
178.49998958	0.00000000	31.61909000	9.47342500
178.69998957	0.00000000	31.61909000	9.47342500
178.89998956	0.00000000	31.61909000	9.47342500
179.09998954	0.00000000	31.61909000	9.47342500
179.29998953	0.00000000	31.61909000	9.43036400
179.49998952	0.00000000	31.61909000	9.05511800
179.69998951	0.00000000	31.61909000	8.31077700
179.89998950	0.00000000	31.61909000	7.93553100
180.09998948	0.00000000	31.61909000	7.89247000
180.29998947	0.00000000	31.61909000	7.89247000
180.49998946	0.00000000	31.61909000	7.89247000
180.69998945	0.00000000	31.61909000	7.89247000
180.89998944	0.00000000	31.61909000	7.93553100
181.09998942	0.00000000	31.61909000	8.31077700
181.29998941	0.00000000	31.61909000	9.05511800
181.49998940	0.00000000	31.61909000	9.43036400
181.69998939	0.00000000	31.61909000	9.47342500
181.89998938	0.00000000	31.61909000	9.47342500
182.09998937	0.00000000	31.61909000	9.47342500
182.29998935	0.00000000	31.61909000	9.43036400
182.49998934	0.00000000	31.61909000	9.05511800
182.69998933	0.00000000	31.61909000	8.31077700
182.89998932	0.00000000	31.61909000	7.93553100
183.09998931	0.00000000	31.61909000	7.89247000
183.29998929	0.00000000	31.61909000	7.93553100
183.49998928	0.00000000	31.57603000	8.26771600
183.69998927	0.00000000	31.20078000	8.67987200
183.89998926	0.00000000	30.45644000	8.68602300
184.09998925	0.00000000	30.08120000	9.09817800
184.29998923	0.00000000	30.03814000	9.43036400
184.49998922	0.00000000	30.03814000	9.47342500
184.69998921	0.00000000	30.08120000	9.47342500
184.89998920	0.00000000	30.41338000	9.43036400
185.09998919	0.00000000	30.82554000	9.05511800
185.29998918	0.00000000	30.83169000	8.35998900
185.49998916	0.00000000	31.24384000	8.31077700
185.69998915	0.00000000	31.57603000	8.63681000
185.89998914	0.00000000	31.61909000	8.26771600
186.09998913	0.00000000	31.61909000	7.93553100
186.29998912	0.00000000	31.57603000	7.89247000
186.49998910	0.00000000	31.20078000	7.89247000
186.69998909	0.00000000	30.45644000	7.93553100
186.89998908	0.00000000	30.08120000	8.31077700
187.09998907	0.00000000	30.03814000	9.05511800
187.29998906	0.00000000	30.03814000	9.43036400
187.49998904	0.00000000	30.03814000	9.47342500
187.69998903	0.00000000	30.08120000	9.47342500
187.89998902	0.00000000	30.45644000	9.47342500
188.09998901	0.00000000	31.20078000	9.43036400
188.29998900	0.00000000	31.57603000	9.05511800
188.49998899	0.00000000	31.61909000	8.31077700
188.69998897	0.00000000	31.57603000	7.93553100
188.89998896	0.00000000	31.24384000	7.89247000
189.09998895	0.00000000	30.87475000	7.89247000
189.29998894	0.00000000	31.20078000	7.89247000
189.49998893	0.00000000	31.15157000	7.89247000
189.69998891	0.00000000	30.45644000	7.89247000
189.89998890	0.00000000	30.08120000	7.93553100
190.09998889	0.00000000	30.03814000	8.31077700
190.29998888	0.00000000	30.03814000	9.05511800
190.49998887	0.00000000	30.03814000	9.43036400
190.69998885	0.00000000	30.03814000	9.43036400
190.89998884	0.00000000	30.08120000	9.09817800
191.09998883	0.00000000	30.45644000	8.68602300
191.29998882	0.00000000	31.20078000	8.67987200
191.49998881	0.00000000	31.57603000	8.26771600
191.69998880	0.00000000	31.61909000	7.98474400
191.89998878	0.00000000	31.61909000	8.26771600
192.09998877	0.00000000	31.61909000	8.63681000
192.29998876	0.00000000	31.61909000	8.26771600
192.49998875	0.00000000	31.57603000	7.93553100
192.69998874	0.00000000	31.20078000	7.89247000
192.89998872	0.00000000	30.45644000	7.89247000
193.09998871	0.00000000	30.08120000	7.89247000
193.29998870	0.00000000	30.03814000	7.93553100
193.49998869	0.00000000	30.03814000	8.31077700
193.69998868	0.00000000	30.03814000	9.05511800
193.89998866	0.00000000	30.08120000	9.43036400
194.09998865	0.00000000	30.41338000	9.47342500
194.29998864	0.00000000	30.82554000	9.47342500
194.49998863	0.00000000	30.83169000	9.43036400
194.69998862	0.00000000	31.24384000	9.09817800
194.89998861	0.00000000	31.52682000	8.68602300
195.09998859	0.00000000	31.20078000	8.67987200
195.29998858	0.00000000	30.45644000	8.26771600
195.49998857	0.00000000	30.08120000	7.93553100
195.69998856	0.00000000	30.03814000	7.89247000
195.89998855	0.00000000	30.03814000	7.89247000
196.09998853	0.00000000	30.08120000	7.89247000
