Time	Channel A	Channel B	Channel C
(us)	(V)	(mV)	(mV)

-4.49999956	0.00000000	41.11097000	13.04749000
-4.29999957	0.00000000	41.15403000	13.79183000
-4.09999958	0.00000000	41.52928000	14.16708000
-3.89999959	0.00000000	42.22441000	14.21014000
-3.69999960	0.00000000	42.22441000	14.21014000
-3.49999962	0.00000000	41.57849000	14.21014000
-3.29999963	0.00000000	41.57849000	14.21014000
-3.09999964	0.00000000	42.27362000	14.21014000
-2.89999965	0.00000000	42.64886000	14.21014000
-2.69999966	0.00000000	42.64886000	14.21014000
-2.49999968	0.00000000	42.31668000	14.21014000
-2.29999969	0.00000000	41.90453000	14.21014000
-2.09999970	0.00000000	41.89838000	14.21014000
-1.89999971	0.00000000	41.48622000	14.21014000
-1.69999972	0.00000000	41.15403000	14.21014000
-1.49999973	0.00000000	41.11097000	14.21014000
-1.29999975	0.00000000	41.15403000	14.21014000
-1.09999976	0.00000000	41.48622000	14.21014000
-0.89999977	0.00000000	41.89838000	14.21014000
-0.69999978	0.00000000	41.90453000	14.21014000
-0.49999979	0.00000000	42.31668000	14.21014000
-0.29999981	0.31803640	42.64886000	14.21014000
-0.09999982	0.63668800	42.64886000	14.21014000
0.10000017	0.95533960	42.27362000	14.16708000
0.30000016	0.95533960	41.52928000	13.83489000
0.50000015	0.79601380	41.15403000	13.46580000
0.70000013	0.31803640	41.11097000	13.79183000
0.90000012	-0.47736220	41.11097000	13.79183000
1.10000011	-1.43331700	41.11097000	13.42274000
1.30000010	-2.38927200	41.15403000	13.45964000
1.50000009	-2.86724900	41.48622000	13.42274000
1.70000008	-2.54859700	41.85531000	13.83489000
1.90000006	-1.43331700	41.52928000	14.16708000
2.10000005	0.31803640	41.52928000	14.21014000
2.30000004	2.38927200	41.85531000	14.16708000
2.50000003	4.30056600	41.48622000	13.79183000
2.70000002	5.25652100	41.15403000	13.04749000
2.90000000	4.93786900	41.11097000	12.67224000
3.09999999	3.18590100	41.11097000	12.62918000
3.29999998	0.15871060	41.11097000	12.62918000
3.49999997	-3.18590100	41.11097000	12.62918000
3.69999996	-6.21247500	41.11097000	12.67224000
3.89999994	-7.96444400	41.11097000	13.00443000
4.09999993	-7.64579200	41.15403000	13.41658000
4.29999992	-5.25652100	41.52928000	13.42274000
4.49999991	-1.43331700	42.22441000	13.79183000
4.69999990	3.02657500	42.22441000	13.74262000
4.89999989	6.84916400	41.48622000	13.04749000
5.09999987	9.23905000	40.77879000	12.67224000
5.29999986	9.23905000	40.36663000	12.62918000
5.49999985	6.84916400	40.73573000	12.62918000
5.69999984	2.70792300	41.06791000	12.62918000
5.89999983	-2.07062000	41.11097000	12.62918000
6.09999981	-6.37180100	41.11097000	12.67224000
6.29999980	-8.92039900	41.11097000	13.04749000
6.49999979	-9.39837600	41.11097000	13.79183000
6.69999978	-7.32714100	41.11097000	14.16708000
6.89999977	-3.82258900	41.11097000	14.21014000
7.09999975	0.47736220	41.11097000	14.21014000
7.29999974	4.45989200	41.15403000	14.16708000
7.49999973	7.16781500	41.48622000	13.79183000
7.69999972	7.64579200	41.85531000	13.04749000
7.89999971	6.37180100	41.48622000	12.67224000
8.09999970	3.66326300	41.15403000	12.62918000
8.29999968	0.31803640	41.11097000	12.67224000
8.49999967	-2.70792300	41.15403000	13.04749000
8.69999966	-4.61921700	41.48622000	13.79183000
8.89999965	-5.25652100	41.85531000	14.16708000
9.09999964	-4.45989200	41.48622000	14.21014000
9.29999962	-2.86724900	41.15403000	14.21014000
9.49999961	-0.79601380	41.11097000	14.21014000
9.69999960	0.95533960	41.11097000	14.21014000
9.89999959	2.07062000	41.11097000	14.21014000
10.09999958	2.54859700	41.11097000	14.21014000
10.29999956	2.22994600	41.11097000	14.21014000
10.49999955	1.43331700	41.11097000	14.21014000
10.69999954	0.63668800	41.11097000	14.21014000
10.89999953	-0.15871060	41.11097000	14.21014000
11.09999952	-0.79601380	41.11097000	14.21014000
11.29999951	-0.95533960	41.11097000	14.21014000
11.49999949	-0.95533960	41.11097000	14.21014000
11.69999948	-0.79601380	41.11097000	14.21014000
11.89999947	-0.47736220	41.11097000	14.21014000
12.09999946	-0.15871060	41.11097000	14.21014000
12.29999945	-0.15871060	41.11097000	14.21014000
12.49999943	-0.15871060	41.11097000	14.21014000
12.69999942	0.00000000	41.11097000	14.21014000
12.89999941	0.00000000	41.11097000	14.21014000
13.09999940	0.00000000	41.11097000	14.16708000
13.29999939	0.00000000	41.11097000	13.83489000
13.49999937	0.00000000	41.11097000	13.42274000
13.69999936	0.00000000	41.11097000	13.45964000
13.89999935	0.00000000	41.11097000	13.37967000
14.09999934	-0.15871060	41.11097000	13.41658000
14.29999933	-0.15871060	41.11097000	13.00443000
14.49999932	-0.15871060	41.11097000	12.72146000
14.69999930	-0.15871060	41.11097000	13.04749000
14.89999929	0.00000000	41.11097000	13.74262000
15.09999928	0.00000000	41.11097000	13.74262000
15.29999927	0.00000000	41.11097000	13.04749000
15.49999926	0.00000000	41.11097000	12.67224000
15.69999924	0.00000000	41.11097000	12.62918000
15.89999923	0.00000000	41.11097000	12.62918000
16.09999922	0.00000000	41.11097000	12.62918000
16.29999921	-0.15871060	41.15403000	12.67224000
16.49999920	-0.15871060	41.48622000	13.00443000
16.69999919	-0.15871060	41.89838000	13.37352000
16.89999917	-0.15871060	41.90453000	13.00443000
17.09999916	0.00000000	42.31668000	12.72146000
17.29999915	0.00000000	42.64886000	13.04749000
17.49999914	0.00000000	42.69193000	13.74262000
17.69999913	0.00000000	42.69193000	13.74262000
17.89999911	0.00000000	42.64886000	13.09670000
18.09999910	0.00000000	42.18134000	13.09670000
18.29999909	0.00000000	40.69267000	13.79183000
18.49999908	0.00000000	38.78568000	14.16708000
18.69999907	0.00000000	37.57381000	14.16708000
18.89999905	-0.15871060	36.41117000	13.79183000
19.09999904	-0.15871060	35.75910000	13.09670000
19.29999903	-0.15871060	36.96481000	13.04749000
19.49999902	0.00000000	39.99754000	13.37352000
19.69999901	0.00000000	43.89763000	13.00443000
19.89999900	0.00000000	47.76698000	12.67224000
20.09999898	0.00000000	51.24877000	12.62918000
20.29999897	0.00000000	53.06963000	12.67224000
20.49999896	0.00000000	52.27608000	13.00443000
20.69999895	0.00000000	48.36983000	13.41658000
20.89999894	0.00000000	42.18134000	13.42274000
21.09999892	0.00000000	34.78716000	13.83489000
21.29999891	-0.15871060	27.47908000	14.11786000
21.49999890	0.00000000	22.12721000	13.79183000
21.69999889	0.00000000	20.63238000	13.04749000
21.89999888	0.00000000	23.79429000	12.67224000
22.09999886	0.00000000	31.61294000	12.62918000
22.29999885	0.00000000	43.24557000	12.62918000
22.49999884	0.00000000	56.32381000	12.67224000
22.69999883	0.00000000	67.44586000	13.04749000
22.89999882	0.00000000	73.17297000	13.79183000
23.09999881	0.00000000	71.58588000	14.16708000
23.29999879	0.00000000	62.65378000	14.25320000
23.49999878	0.00000000	47.90231000	14.62844000
23.69999877	0.00000000	30.13041000	15.36663000
23.89999876	0.00000000	13.19513000	15.69267000
24.09999875	0.00000000	1.65477300	15.36663000
24.29999873	0.00000000	-1.37180100	14.58538000
24.49999872	0.00000000	5.24114100	13.79183000
24.69999871	0.00000000	20.77387000	12.58612000
24.89999870	0.00000000	41.99680000	11.04823000
25.09999869	0.00000000	64.41313000	9.51648500
25.29999867	0.00000000	82.47416000	8.40305000
25.49999866	0.00000000	91.73228000	8.40305000
25.69999865	-0.15871060	89.31470000	9.60875900
25.89999864	0.00000000	75.44906000	11.97711000
26.09999863	0.00000000	53.06963000	15.83415000
26.29999862	0.00000000	27.98966000	20.01722000
26.49999860	0.00000000	5.93626900	23.12992000
26.69999859	0.00000000	-8.34768700	24.66781000
26.89999858	0.00000000	-11.41732000	24.20029000
27.09999857	0.00000000	-2.53444900	21.03838000
27.29999856	0.00000000	16.35704000	15.23130000
27.49999854	0.00000000	40.69267000	7.89247000
27.69999853	-0.15871060	64.65305000	0.55364170
27.89999852	0.00000000	83.21850000	-5.16117100
28.09999851	0.00000000	92.10137000	-7.38804100
28.29999850	0.00000000	89.45004000	-4.65059000
28.49999848	0.00000000	76.32874000	2.68823800
28.69999847	0.00000000	55.89936000	13.13976000
28.89999846	0.00000000	33.10777000	24.75394000
29.09999845	0.00000000	13.37352000	35.11934000
29.29999844	0.00000000	0.54133860	41.62155000
29.49999843	0.00000000	-2.95275600	41.99680000
29.69999841	0.00000000	3.14960600	36.14050000
29.89999840	0.00000000	17.00910000	24.89542000
30.09999839	-0.15871060	34.78716000	9.84867000
30.29999838	0.00000000	52.60826000	-5.16117100
30.49999837	0.00000000	66.93528000	-16.77534000
30.69999835	0.00000000	74.75394000	-22.53937000
30.89999834	0.00000000	75.17224000	-20.95841000
31.09999833	0.00000000	68.65157000	-12.03863000
31.29999832	0.00000000	56.69906000	2.68823800
31.49999831	0.00000000	42.77805000	20.43553000
31.69999829	0.00000000	29.57062000	37.34621000
31.89999828	0.00000000	19.51895000	48.91732000
32.09999827	0.00000000	14.81914000	52.49754000
32.29999826	-0.15871060	15.93873000	48.22219000
32.49999825	0.00000000	22.12721000	37.02018000
32.69999824	0.00000000	32.12967000	20.76772000
32.89999822	0.00000000	43.34399000	3.38336600
33.09999821	0.00000000	53.02657000	-12.13091000
33.29999820	0.00000000	59.62721000	-22.49631000
33.49999819	0.00000000	61.53420000	-25.23376000
33.69999818	0.00000000	58.55069000	-19.84498000
33.89999816	0.00000000	51.99926000	-7.85556000
34.09999815	0.00000000	43.89763000	8.35998900
34.29999814	0.00000000	35.80217000	25.31373000
34.49999813	0.00000000	29.98893000	38.84104000
34.69999812	0.00000000	27.60827000	46.22293000
34.89999810	0.00000000	28.35876000	46.27214000
35.09999809	0.00000000	32.26501000	39.34547000
35.29999808	0.00000000	38.36737000	27.35605000
35.49999807	0.00000000	44.88189000	12.67840000
35.69999806	0.00000000	49.48942000	-1.53789400
35.89999805	0.00000000	51.07037000	-11.57726000
36.09999803	0.00000000	49.57554000	-15.10827000
36.29999802	0.00000000	45.76156000	-12.03863000
36.49999801	0.00000000	41.15403000	-3.21112200
36.69999800	0.00000000	36.82948000	9.09817800
36.89999799	0.00000000	33.42765000	21.37057000
37.09999797	0.00000000	31.89591000	30.61023000
37.29999796	-0.15871060	33.42765000	34.09818000
37.49999795	0.00000000	36.82948000	31.49606000
37.69999794	0.00000000	41.15403000	24.20029000
37.89999793	0.00000000	45.71850000	14.25320000
38.09999791	0.00000000	49.20029000	4.68134800
38.29999790	0.00000000	50.36909000	-1.49483300
38.49999789	0.00000000	49.62475000	-3.02657500
38.69999788	0.00000000	46.88115000	0.46136810
38.89999787	0.00000000	42.64886000	8.44611200
39.09999786	0.00000000	38.03519000	17.97490000
39.29999784	0.00000000	34.12894000	25.63976000
39.49999783	0.00000000	31.79749000	29.49680000
39.69999782	0.00000000	31.05930000	28.34030000
39.89999781	0.00000000	32.59719000	22.57628000
40.09999780	0.00000000	36.03592000	13.74262000
40.29999778	0.00000000	39.90526000	4.17691900
40.49999777	0.00000000	43.85457000	-3.07578700
40.69999776	0.00000000	47.34252000	-5.77017700
40.89999775	0.00000000	50.04306000	-3.11884800
41.09999774	0.00000000	51.15649000	3.80167300
41.29999772	0.00000000	50.04306000	13.04749000
41.49999771	0.00000000	47.34252000	22.66240000
41.69999770	0.00000000	43.85457000	29.91511000
41.89999769	0.00000000	39.94832000	32.60949000
42.09999768	0.00000000	36.50344000	30.00738000
42.29999767	0.00000000	34.12894000	23.50517000
42.49999765	0.00000000	33.33538000	15.36663000
42.69999764	0.00000000	33.71063000	6.91437000
42.89999763	0.00000000	35.29773000	0.41215550
43.09999762	0.00000000	37.94907000	-1.95620100
43.29999761	0.00000000	40.64345000	-0.51673230
43.49999759	0.00000000	42.64886000	3.75861200
43.69999758	0.00000000	44.22982000	9.89173200
43.89999757	0.00000000	45.34325000	16.43701000
44.09999756	0.00000000	45.38631000	21.41363000
44.29999755	0.00000000	44.64813000	23.82505000
44.49999753	0.00000000	43.89763000	23.45595000
44.69999752	0.00000000	43.11023000	21.17372000
44.89999751	0.00000000	42.73499000	17.32283000
45.09999750	0.00000000	42.69193000	13.09670000
45.29999749	0.00000000	42.59965000	9.60875900
45.49999748	0.00000000	41.76304000	7.28346400
45.69999746	0.00000000	39.43774000	6.86515700
45.89999745	0.00000000	36.41117000	7.98474400
46.09999744	0.00000000	33.66756000	9.93479300
46.29999743	0.00000000	31.75443000	12.62918000
46.49999742	0.00000000	31.05930000	15.32357000
46.69999740	0.00000000	32.68332000	17.23056000
46.89999739	0.00000000	36.92175000	18.06102000
47.09999738	0.00000000	42.73499000	17.69808000
47.29999737	0.00000000	48.92347000	16.85531000
47.49999736	0.00000000	54.27534000	14.90526000
47.69999734	0.00000000	56.92667000	11.88484000
47.89999733	0.00000000	55.76402000	9.60875900
48.09999732	0.00000000	51.07037000	8.35998900
48.29999731	0.00000000	43.34399000	8.02780400
48.49999730	0.00000000	34.12894000	8.82135800
48.69999729	0.00000000	26.40256000	11.09744000
48.89999727	0.00000000	21.79503000	13.79183000
49.09999726	0.00000000	21.43209000	16.16018000
49.29999725	0.00000000	26.07652000	18.47933000
49.49999724	0.00000000	34.17815000	19.97416000
49.69999723	0.00000000	44.22367000	19.97416000
49.89999721	0.00000000	53.76476000	18.39321000
50.09999720	0.00000000	59.57800000	15.27436000
50.29999719	0.00000000	60.37155000	11.09129000
50.49999718	0.00000000	56.55142000	7.28346400
50.69999717	0.00000000	48.78814000	5.33341500
50.89999715	0.00000000	39.19783000	5.24729300
51.09999714	0.00000000	29.93971000	6.44685000
51.29999713	0.00000000	23.84350000	8.82135800
51.49999712	0.00000000	22.63779000	12.67224000
51.69999711	0.00000000	26.45177000	16.85531000
51.89999710	0.00000000	33.75369000	19.97416000
52.09999708	0.00000000	42.59965000	21.50590000
52.29999707	0.00000000	50.64591000	21.13066000
52.49999706	0.00000000	55.30265000	18.81152000
52.69999705	0.00000000	55.72096000	15.36663000
52.89999704	0.00000000	52.27608000	11.51575000
53.09999702	0.00000000	45.71850000	8.44611200
53.29999701	0.00000000	38.08440000	6.86515700
53.49999700	0.00000000	31.52067000	6.86515700
53.69999699	0.00000000	28.03272000	8.40305000
53.89999698	0.00000000	28.03272000	11.04823000
54.09999696	0.00000000	31.52067000	13.74262000
54.29999695	0.00000000	37.99213000	15.69882000
54.49999694	0.00000000	44.88189000	16.85531000
54.69999693	0.00000000	49.90772000	16.81225000
54.89999692	0.00000000	52.22687000	15.32357000
55.09999691	0.00000000	51.07037000	13.09055000
55.29999689	0.00000000	46.88115000	11.55881000
55.49999688	0.00000000	41.11097000	11.14050000
55.69999687	0.00000000	35.34079000	11.55881000
55.89999686	0.00000000	31.10236000	13.09055000
56.09999685	0.00000000	29.56447000	15.32357000
56.29999683	0.00000000	31.10236000	16.81225000
56.49999682	0.00000000	35.29773000	16.85531000
56.69999681	0.00000000	40.64345000	15.64960000
56.89999680	0.00000000	45.30019000	13.32431000
57.09999679	0.00000000	48.41904000	9.89173200
57.29999677	0.00000000	49.53248000	6.86515700
57.49999676	0.00000000	48.04380000	5.33341500
57.69999675	0.00000000	44.64813000	5.75172200
57.89999674	0.00000000	41.15403000	8.48917200
58.09999673	0.00000000	37.99213000	13.09670000
58.29999672	0.00000000	35.34079000	18.43627000
58.49999670	0.00000000	34.17815000	22.66855000
58.69999669	0.00000000	34.92249000	24.61860000
58.89999668	0.00000000	36.83563000	24.20029000
59.09999667	0.00000000	39.53002000	21.03838000
59.29999666	0.00000000	42.18134000	15.27436000
59.49999664	0.00000000	43.76230000	8.40305000
59.69999663	0.00000000	44.18061000	2.63902500
59.89999662	0.00000000	43.80536000	-0.46751960
60.09999661	0.00000000	42.64886000	-0.46751960
60.29999660	0.00000000	41.11097000	2.63902500
60.49999658	0.00000000	39.57308000	8.44611200
60.69999657	0.00000000	38.45964000	15.74188000
60.89999656	0.00000000	38.41658000	22.66240000
61.09999655	0.00000000	39.15477000	27.26993000
61.29999654	0.00000000	39.94832000	28.42643000
61.49999653	0.00000000	41.11097000	25.68897000
61.69999651	0.00000000	42.18134000	19.54970000
61.89999650	0.00000000	42.22441000	11.46653000
62.09999649	0.00000000	41.48622000	3.80167300
62.29999648	0.00000000	40.69267000	-1.58710600
62.49999647	0.00000000	39.53002000	-3.16190900
62.69999645	0.00000000	38.41658000	-0.89197830
62.89999644	0.00000000	38.04134000	4.12770700
63.09999643	0.00000000	38.41658000	11.09744000
63.29999642	0.00000000	39.57308000	18.43627000
63.49999641	0.00000000	41.11097000	24.57554000
63.69999639	0.00000000	42.64886000	28.05733000
63.89999638	0.00000000	43.76230000	27.68824000
64.09999637	0.00000000	43.80536000	24.24335000
64.29999636	0.00000000	43.06717000	18.43627000
64.49999635	0.00000000	42.22441000	11.55881000
64.69999634	0.00000000	40.69267000	5.75172200
64.89999632	0.00000000	38.83489000	2.22071800
65.09999631	0.00000000	38.04134000	1.01501000
65.29999630	0.00000000	37.99213000	2.17765700
65.49999629	0.00000000	38.41658000	5.24729300
65.69999628	0.00000000	39.57308000	9.51648500
65.89999626	0.00000000	41.06791000	14.16708000
66.09999625	0.00000000	42.22441000	18.43627000
66.29999624	0.00000000	42.59965000	21.54897000
66.49999623	0.00000000	42.22441000	23.12992000
66.69999622	0.00000000	41.06791000	23.12992000
66.89999620	0.00000000	39.57308000	21.59203000
67.09999619	0.00000000	38.41658000	18.89764000
67.29999618	0.00000000	38.08440000	15.78494000
67.49999617	0.00000000	38.83489000	12.62918000
67.69999616	0.00000000	40.77879000	9.51648500
67.89999615	0.00000000	43.02411000	6.77903500
68.09999613	0.00000000	44.96801000	4.82283400
68.29999612	0.00000000	45.67544000	3.66633800
68.49999611	0.00000000	44.92495000	3.75246000
68.69999610	0.00000000	42.59965000	5.70866100
68.89999609	0.00000000	39.53002000	9.56569900
69.09999607	0.00000000	36.36811000	14.21014000
69.29999606	0.00000000	33.29232000	18.85458000
69.49999605	0.00000000	31.05930000	22.71161000
69.69999604	0.00000000	31.10236000	24.57554000
69.89999603	0.00000000	33.80290000	23.87426000
70.09999601	0.00000000	38.41043000	20.76772000
70.29999600	0.00000000	43.80536000	16.48622000
70.49999599	0.00000000	48.41904000	11.00517000
70.69999598	0.00000000	51.15649000	5.33341500
70.89999597	0.00000000	51.53174000	1.48253000
71.09999596	0.00000000	49.57554000	0.68897630
71.29999594	0.00000000	45.30019000	2.54675200
71.49999593	0.00000000	39.53002000	6.40378900
71.69999592	0.00000000	33.75369000	11.04823000
71.89999591	0.00000000	29.47835000	15.69882000
72.09999590	0.00000000	27.56521000	19.54970000
72.29999588	0.00000000	28.31570000	21.50590000
72.49999587	0.00000000	31.84670000	21.50590000
72.69999586	0.00000000	37.20472000	19.59892000
72.89999585	0.00000000	43.38705000	16.16018000
73.09999584	0.00000000	48.36983000	12.72146000
73.29999582	0.00000000	51.15649000	9.98400600
73.49999581	0.00000000	51.53174000	8.44611200
73.69999580	0.00000000	49.62475000	8.40305000
73.89999579	0.00000000	45.76156000	9.55954600
74.09999578	0.00000000	41.11097000	11.42347000
74.29999577	0.00000000	36.45423000	13.32431000
74.49999575	0.00000000	32.64025000	14.07480000
74.69999574	0.00000000	31.10236000	13.74262000
74.89999573	0.00000000	32.17273000	12.62918000
75.09999572	0.00000000	34.83022000	11.46653000
75.29999571	0.00000000	37.99213000	10.76525000
75.49999569	0.00000000	41.44316000	10.77141000
75.69999568	0.00000000	44.50664000	12.34621000
75.89999567	0.00000000	45.67544000	14.62844000
76.09999566	0.00000000	45.38631000	17.32283000
76.29999565	0.00000000	44.22982000	19.55585000
76.49999563	0.00000000	42.69193000	19.97416000
76.69999562	0.00000000	41.15403000	18.81152000
76.89999561	0.00000000	39.99754000	16.39395000
77.09999560	0.00000000	39.57308000	12.16166000
77.29999559	0.00000000	39.57308000	7.24040300
77.49999558	0.00000000	39.90526000	3.75246000
77.69999556	0.00000000	40.27436000	2.22071800
77.89999555	0.00000000	39.86220000	3.01427100
78.09999554	0.00000000	39.15477000	6.44685000
78.29999553	0.00000000	38.36737000	11.09129000
78.49999552	0.00000000	37.99213000	16.16018000
78.69999550	0.00000000	37.99213000	21.13066000
78.89999549	0.00000000	38.41658000	24.15723000
79.09999548	0.00000000	39.62229000	24.20029000
79.29999547	0.00000000	41.52928000	21.54897000
79.49999546	0.00000000	43.80536000	17.32283000
79.69999544	0.00000000	45.30019000	12.67224000
79.89999543	0.00000000	45.34325000	8.40305000
80.09999542	0.00000000	44.18061000	5.29035400
80.29999541	0.00000000	42.22441000	3.70939900
80.49999540	0.00000000	39.53002000	3.75246000
80.69999539	0.00000000	36.87869000	5.66560000
80.89999537	0.00000000	35.29773000	9.09817800
81.09999536	0.00000000	34.87943000	12.58612000
81.29999535	0.00000000	35.29773000	15.74188000
81.49999534	0.00000000	36.87869000	18.43627000
81.69999533	0.00000000	39.57308000	19.97416000
81.89999531	0.00000000	42.59965000	20.01722000
82.09999530	0.00000000	44.92495000	18.90379000
82.29999529	0.00000000	45.71850000	17.32283000
82.49999528	0.00000000	45.34325000	15.36663000
82.69999527	0.00000000	43.76230000	13.00443000
82.89999525	0.00000000	41.11097000	10.67298000
83.09999524	0.00000000	38.45964000	8.31077700
83.29999523	0.00000000	36.87869000	6.40378900
83.49999522	0.00000000	36.46038000	5.24729300
83.69999521	0.00000000	36.83563000	5.29035400
83.89999520	0.00000000	37.94907000	6.86515700
84.09999518	0.00000000	39.11171000	9.93479300
84.29999517	0.00000000	39.90526000	13.83489000
84.49999516	0.00000000	40.69267000	17.64887000
84.69999515	0.00000000	41.06791000	20.75541000
84.89999514	0.00000000	41.11097000	21.88115000
85.09999512	0.00000000	41.11097000	21.17372000
85.29999511	0.00000000	41.11097000	18.81152000
85.49999510	0.00000000	41.11097000	15.32357000
85.69999509	0.00000000	41.11097000	11.04823000
85.89999508	0.00000000	41.11097000	6.82209600
86.09999506	0.00000000	41.06791000	3.79552100
86.29999505	0.00000000	40.69267000	3.01427100
86.49999504	0.00000000	39.90526000	4.91510800
86.69999503	0.00000000	39.15477000	8.35998900
86.89999502	0.00000000	38.32431000	12.67224000
87.09999501	0.00000000	37.61687000	17.27362000
87.29999499	0.00000000	37.25394000	21.08760000
87.49999498	0.00000000	38.04134000	22.61934000
87.69999497	0.00000000	39.53002000	21.50590000
87.89999496	0.00000000	41.06791000	18.43627000
88.09999495	0.00000000	42.22441000	14.16708000
88.29999493	0.00000000	42.64886000	9.56569900
88.49999492	0.00000000	42.64886000	5.70866100
88.69999491	0.00000000	42.22441000	3.84473400
88.89999490	0.00000000	41.06791000	4.59522600
89.09999489	0.00000000	39.57308000	8.02780400
89.29999487	0.00000000	38.41658000	12.58612000
89.49999486	0.00000000	37.99213000	16.85531000
89.69999485	0.00000000	37.99213000	19.97416000
89.89999484	0.00000000	38.36737000	21.50590000
90.09999483	0.00000000	39.15477000	21.08760000
90.29999482	0.00000000	39.90526000	18.35015000
90.49999480	0.00000000	40.69267000	13.79183000
90.69999479	0.00000000	41.06791000	8.82135800
90.89999478	0.00000000	41.11097000	5.37647600
91.09999477	0.00000000	41.06791000	4.17691900
91.29999476	0.00000000	40.73573000	5.33341500
91.49999474	0.00000000	40.36663000	8.40305000
91.69999473	0.00000000	40.73573000	12.67224000
91.89999472	0.00000000	41.06791000	17.27362000
92.09999471	0.00000000	41.11097000	21.08760000
92.29999470	0.00000000	41.11097000	22.57628000
92.49999468	0.00000000	41.06791000	21.08760000
92.69999467	0.00000000	40.64345000	17.23056000
92.89999466	0.00000000	39.53002000	12.29700000
93.09999465	0.00000000	38.36737000	7.65871000
93.29999464	0.00000000	37.57381000	4.95816900
93.49999463	0.00000000	36.83563000	4.17691900
93.69999461	0.00000000	36.87869000	5.75172200
93.89999460	0.00000000	38.04134000	9.56569900
94.09999459	0.00000000	39.94832000	14.11786000
94.29999458	0.00000000	42.27362000	17.97490000
94.49999457	0.00000000	44.18061000	19.93110000
94.69999455	0.00000000	45.34325000	19.93110000
94.89999454	0.00000000	45.34325000	17.97490000
95.09999453	0.00000000	44.18061000	14.16708000
95.29999452	0.00000000	42.22441000	9.98400600
95.49999451	0.00000000	39.48696000	6.86515700
95.69999449	0.00000000	36.41117000	5.33341500
95.89999448	0.00000000	33.71063000	5.70866100
96.09999447	0.00000000	32.22195000	7.98474400
96.29999446	0.00000000	32.59719000	11.04823000
96.49999445	0.00000000	34.92249000	14.16092000
96.69999444	0.00000000	38.36737000	16.85531000
96.89999442	0.00000000	42.27362000	18.35015000
97.09999441	0.00000000	45.71850000	18.01796000
97.29999440	0.00000000	48.04380000	16.11712000
97.49999439	0.00000000	48.41904000	13.83489000
97.69999438	0.00000000	46.92421000	11.46653000
97.89999436	0.00000000	44.18061000	9.60875900
98.09999435	0.00000000	40.69267000	8.82135800
98.29999434	0.00000000	36.82948000	9.51648500
98.49999433	0.00000000	33.75369000	10.62992000
98.69999432	0.00000000	32.17273000	11.46653000
98.89999430	0.00000000	32.17273000	12.62918000
99.09999429	0.00000000	33.71063000	13.74262000
99.29999428	0.00000000	36.45423000	14.16708000
99.49999427	0.00000000	39.94832000	14.21014000
99.69999426	0.00000000	43.76230000	14.21014000
99.89999425	0.00000000	46.46284000	14.21014000
100.09999423	0.00000000	47.29946000	14.25320000
100.29999422	0.00000000	46.92421000	14.62844000
100.49999421	0.00000000	45.34325000	15.32357000
100.69999420	0.00000000	42.64886000	15.27436000
100.89999419	0.00000000	39.57308000	14.16092000
101.09999417	0.00000000	36.83563000	12.62918000
101.29999416	0.00000000	34.87328000	11.04823000
101.49999415	0.00000000	33.71063000	9.51648500
101.69999414	0.00000000	33.71063000	8.40305000
101.89999413	0.00000000	34.87328000	8.44611200
102.09999411	0.00000000	36.83563000	9.98400600
102.29999410	0.00000000	39.53002000	12.62918000
102.49999409	0.00000000	42.18134000	15.32357000
102.69999408	0.00000000	43.76230000	17.27362000
102.89999407	0.00000000	44.22982000	18.43627000
103.09999406	0.00000000	44.22982000	18.43627000
103.29999404	0.00000000	43.76230000	17.27362000
103.49999403	0.00000000	42.22441000	15.27436000
103.69999402	0.00000000	39.94832000	12.21087000
103.89999401	0.00000000	37.99213000	8.82135800
104.09999400	0.00000000	36.46038000	6.86515700
104.29999398	0.00000000	35.67298000	6.44685000
104.49999397	0.00000000	36.03592000	7.24040300
104.69999396	0.00000000	36.78642000	9.55954600
104.89999395	0.00000000	37.99213000	12.58612000
105.09999394	0.00000000	39.53002000	15.32357000
105.29999392	0.00000000	41.06791000	17.23056000
105.49999391	0.00000000	42.18134000	18.01796000
105.69999390	0.00000000	42.22441000	17.27362000
105.89999389	0.00000000	41.48622000	15.74188000
106.09999388	0.00000000	40.69267000	13.79183000
106.29999387	0.00000000	39.53002000	11.46653000
106.49999385	0.00000000	38.41658000	9.60875900
106.69999384	0.00000000	37.99213000	8.82135800
106.89999383	0.00000000	37.99213000	9.55954600
107.09999382	0.00000000	38.41658000	11.04823000
107.29999381	0.00000000	39.53002000	12.62918000
107.49999379	0.00000000	40.64345000	14.16092000
107.69999378	0.00000000	41.06791000	15.27436000
107.89999377	0.00000000	41.06791000	15.27436000
108.09999376	0.00000000	40.69267000	14.21014000
108.29999375	0.00000000	39.90526000	13.04749000
108.49999374	0.00000000	39.15477000	12.21087000
108.69999372	0.00000000	38.36737000	11.04823000
108.89999371	0.00000000	37.99213000	9.93479300
109.09999370	0.00000000	37.99213000	9.60875900
109.29999369	0.00000000	38.36737000	10.35310000
109.49999368	0.00000000	39.15477000	12.25394000
109.69999366	0.00000000	39.94832000	14.11786000
109.89999365	0.00000000	41.06791000	15.32357000
110.09999364	0.00000000	41.80610000	15.69267000
110.29999363	0.00000000	41.44316000	15.32357000
110.49999362	0.00000000	40.73573000	14.16092000
110.69999360	0.00000000	39.90526000	12.62918000
110.89999359	0.00000000	39.15477000	11.09744000
111.09999358	0.00000000	38.36737000	9.93479300
111.29999357	0.00000000	37.99213000	9.51648500
111.49999356	0.00000000	37.94907000	9.51648500
111.69999355	0.00000000	37.99213000	9.93479300
111.89999353	0.00000000	38.36737000	11.09744000
112.09999352	0.00000000	39.15477000	12.58612000
112.29999351	0.00000000	39.90526000	13.74262000
112.49999350	0.00000000	40.69267000	14.16708000
112.69999349	0.00000000	41.06791000	14.21014000
112.89999347	0.00000000	41.06791000	14.21014000
113.09999346	0.00000000	40.69267000	14.21014000
113.29999345	0.00000000	39.94832000	14.16708000
113.49999344	0.00000000	39.57308000	13.79183000
113.69999343	0.00000000	39.53002000	13.04749000
113.89999341	0.00000000	39.53002000	12.67224000
114.09999340	0.00000000	39.53002000	12.62918000
114.29999339	0.00000000	39.53002000	12.58612000
114.49999338	0.00000000	39.53002000	12.21087000
114.69999337	0.00000000	39.53002000	11.46653000
114.89999336	0.00000000	39.53002000	11.09129000
115.09999334	0.00000000	39.53002000	11.09129000
115.29999333	0.00000000	39.57308000	11.46653000
115.49999332	0.00000000	39.94832000	12.25394000
115.69999331	0.00000000	40.64345000	13.00443000
115.89999330	0.00000000	40.69267000	13.83489000
116.09999328	0.00000000	40.32357000	14.53617000
116.29999327	0.00000000	40.31742000	14.99139000
116.49999326	0.00000000	39.90526000	14.95448000
116.69999325	0.00000000	39.57308000	14.99139000
116.89999324	0.00000000	39.53002000	14.53617000
117.09999322	0.00000000	39.53002000	13.79183000
117.29999321	0.00000000	39.57308000	12.62918000
117.49999320	0.00000000	39.94832000	11.46653000
117.69999319	0.00000000	40.69267000	10.67298000
117.89999318	0.00000000	41.06791000	9.93479300
118.09999317	0.00000000	41.11097000	9.98400600
118.29999315	0.00000000	41.06791000	11.04823000
118.49999314	0.00000000	40.64345000	12.21087000
118.69999313	0.00000000	39.48696000	13.00443000
118.89999312	0.00000000	37.99213000	13.79183000
119.09999311	0.00000000	36.83563000	14.16708000
119.29999309	0.00000000	36.46038000	14.21014000
119.49999308	0.00000000	36.78642000	14.16708000
119.69999307	0.00000000	37.57381000	13.79183000
119.89999306	0.00000000	38.36737000	13.04749000
120.09999305	0.00000000	39.57308000	12.62918000
120.29999303	0.00000000	41.06791000	12.21087000
120.49999302	0.00000000	42.22441000	11.46653000
120.69999301	0.00000000	42.59965000	11.09129000
120.89999300	0.00000000	42.27362000	11.04823000
121.09999299	0.00000000	41.44316000	11.04823000
121.29999298	0.00000000	40.27436000	11.04823000
121.49999296	0.00000000	38.36737000	11.09129000
121.69999295	0.00000000	36.87869000	11.46653000
121.89999294	0.00000000	36.41117000	12.21087000
122.09999293	0.00000000	36.41117000	12.58612000
122.29999292	0.00000000	36.78642000	12.62918000
122.49999290	0.00000000	37.57381000	12.67224000
122.69999289	0.00000000	38.36737000	13.04749000
122.89999288	0.00000000	39.53002000	13.74262000
123.09999287	0.00000000	40.64345000	13.74262000
123.29999286	0.00000000	41.11097000	13.04749000
123.49999284	0.00000000	41.48622000	12.67224000
123.69999283	0.00000000	41.85531000	12.62918000
123.89999282	0.00000000	41.44316000	12.58612000
124.09999281	0.00000000	40.73573000	12.21087000
124.29999280	0.00000000	39.90526000	11.51575000
124.49999279	0.00000000	39.15477000	11.46653000
124.69999277	0.00000000	38.32431000	11.83563000
124.89999276	0.00000000	37.61687000	11.84178000
125.09999275	0.00000000	37.20472000	12.25394000
125.29999274	0.00000000	37.57381000	12.62918000
125.49999273	0.00000000	37.94907000	13.04749000
125.69999271	0.00000000	38.41658000	13.79183000
125.89999270	0.00000000	39.57308000	14.16708000
126.09999269	0.00000000	41.06791000	14.21014000
126.29999268	0.00000000	42.18134000	14.16708000
126.49999267	0.00000000	42.22441000	13.79183000
126.69999265	0.00000000	41.48622000	13.04749000
126.89999264	0.00000000	40.73573000	12.62918000
127.09999263	0.00000000	39.90526000	12.21087000
127.29999262	0.00000000	39.11171000	11.46653000
127.49999261	0.00000000	37.94907000	11.09129000
127.69999260	0.00000000	36.87869000	11.09129000
127.89999258	0.00000000	36.83563000	11.46653000
128.09999257	0.00000000	37.57381000	12.21087000
128.29999256	0.00000000	38.36737000	12.58612000
128.49999255	0.00000000	39.53002000	12.62918000
128.69999254	0.00000000	40.64345000	12.62918000
128.89999252	0.00000000	41.06791000	12.62918000
129.09999251	0.00000000	41.11097000	12.62918000
129.29999250	0.00000000	41.06791000	12.62918000
129.49999249	0.00000000	40.64345000	12.58612000
129.69999248	0.00000000	39.53002000	12.21087000
129.89999246	0.00000000	38.36737000	11.46653000
130.09999245	0.00000000	37.57381000	11.14050000
130.29999244	0.00000000	36.83563000	11.46653000
130.49999243	0.00000000	36.87869000	12.21087000
130.69999242	0.00000000	37.94907000	12.58612000
130.89999241	-0.15871060	39.11171000	12.62918000
131.09999239	0.00000000	39.90526000	12.62918000
131.29999238	0.00000000	40.69267000	12.62918000
131.49999237	0.00000000	41.06791000	12.58612000
131.69999236	0.00000000	41.06791000	12.21087000
131.89999235	0.00000000	40.64345000	11.46653000
132.09999233	0.00000000	39.53002000	11.09129000
132.29999232	0.00000000	38.41658000	11.04823000
132.49999231	0.00000000	37.99213000	11.09129000
132.69999230	0.00000000	37.94907000	11.46653000
132.89999229	0.00000000	37.94907000	12.21087000
133.09999227	0.00000000	37.99213000	12.62918000
133.29999226	0.00000000	38.36737000	13.04749000
133.49999225	0.00000000	39.11171000	13.79183000
133.69999224	0.00000000	39.48696000	14.11786000
133.89999223	0.00000000	39.53002000	13.79183000
134.09999222	0.00000000	39.53002000	13.00443000
134.29999220	0.00000000	39.53002000	12.25394000
134.49999219	0.00000000	39.53002000	11.46653000
134.69999218	0.00000000	39.53002000	11.09129000
134.89999217	0.00000000	39.53002000	11.04823000
135.09999216	0.00000000	39.53002000	11.04823000
135.29999214	0.00000000	39.53002000	11.09129000
135.49999213	0.00000000	39.53002000	11.46653000
135.69999212	0.00000000	39.48696000	12.25394000
135.89999211	0.00000000	39.11171000	13.00443000
136.09999210	0.00000000	38.36737000	13.79183000
136.29999208	0.00000000	37.99213000	14.16708000
136.49999207	0.00000000	37.94907000	14.16708000
136.69999206	0.00000000	37.99213000	13.79183000
136.89999205	0.00000000	38.36737000	13.04749000
137.09999204	0.00000000	39.15477000	12.62918000
137.29999203	0.00000000	39.90526000	12.21087000
137.49999201	0.00000000	40.69267000	11.46653000
137.69999200	0.00000000	41.06791000	11.09129000
137.89999199	0.00000000	41.06791000	11.04823000
138.09999198	0.00000000	40.69267000	11.04823000
138.29999197	0.00000000	39.90526000	11.04823000
138.49999195	0.00000000	39.15477000	11.09129000
138.69999194	0.00000000	38.36737000	11.46653000
138.89999193	0.00000000	37.99213000	12.21087000
139.09999192	0.00000000	37.94907000	12.62918000
139.29999191	-0.15871060	37.99213000	13.04749000
139.49999189	0.00000000	38.36737000	13.79183000
139.69999188	0.00000000	39.11171000	14.11786000
139.89999187	0.00000000	39.48696000	13.79183000
140.09999186	0.00000000	39.53002000	13.00443000
140.29999185	0.00000000	39.53002000	12.25394000
140.49999184	0.00000000	39.53002000	11.46653000
140.69999182	0.00000000	39.53002000	11.09129000
140.89999181	0.00000000	39.48696000	11.04823000
141.09999180	0.00000000	39.11171000	11.04823000
141.29999179	0.00000000	38.36737000	11.09129000
141.49999178	0.00000000	38.04134000	11.46653000
141.69999176	0.00000000	38.36737000	12.25394000
141.89999175	0.00000000	39.11171000	13.00443000
142.09999174	0.00000000	39.48696000	13.79183000
142.29999173	0.00000000	39.53002000	14.16708000
142.49999172	0.00000000	39.53002000	14.16708000
142.69999170	0.00000000	39.53002000	13.79183000
142.89999169	0.00000000	39.53002000	13.00443000
143.09999168	0.00000000	39.48696000	12.21087000
143.29999167	0.00000000	39.11171000	11.09744000
143.49999166	0.00000000	38.36737000	10.35310000
143.69999165	0.00000000	38.04134000	10.67298000
143.89999163	0.00000000	38.36737000	11.04823000
144.09999162	0.00000000	39.11171000	11.46653000
144.29999161	0.00000000	39.48696000	12.21087000
144.49999160	0.00000000	39.53002000	12.62918000
144.69999159	0.00000000	39.53002000	13.00443000
144.89999157	0.00000000	39.53002000	13.41658000
145.09999156	0.00000000	39.53002000	13.37967000
145.29999155	0.00000000	39.48696000	13.41658000
145.49999154	0.00000000	39.11171000	13.00443000
145.69999153	0.00000000	38.36737000	12.62918000
145.89999151	0.00000000	37.99213000	12.21087000
146.09999150	0.00000000	37.99213000	11.46653000
146.29999149	0.00000000	38.36737000	11.09129000
146.49999148	0.00000000	39.11171000	11.04823000
146.69999147	0.00000000	39.48696000	11.09129000
146.89999146	0.00000000	39.53002000	11.46653000
147.09999144	0.00000000	39.53002000	12.21087000
147.29999143	0.00000000	39.53002000	12.62918000
147.49999142	0.00000000	39.53002000	13.00443000
147.69999141	0.00000000	39.48696000	13.37352000
147.89999140	0.00000000	39.06250000	13.00443000
148.09999138	0.00000000	37.99213000	12.72146000
148.29999137	0.00000000	37.25394000	13.00443000
148.49999136	0.00000000	37.61687000	13.37352000
148.69999135	0.00000000	38.32431000	13.00443000
148.89999134	0.00000000	39.11171000	12.67224000
149.09999132	0.00000000	39.48696000	12.58612000
149.29999131	0.00000000	39.53002000	12.21087000
149.49999130	0.00000000	39.53002000	11.51575000
149.69999129	0.00000000	39.53002000	11.51575000
149.89999128	0.00000000	39.53002000	12.21087000
150.09999127	0.00000000	39.53002000	12.58612000
150.29999125	0.00000000	39.48696000	12.62918000
150.49999124	0.00000000	39.11171000	12.67224000
150.69999123	0.00000000	38.36737000	13.00443000
150.89999122	0.00000000	37.99213000	13.37352000
151.09999121	0.00000000	37.94907000	13.00443000
151.29999119	0.00000000	37.94907000	12.67224000
151.49999118	0.00000000	37.99213000	12.58612000
151.69999117	0.00000000	38.36737000	12.25394000
151.89999116	0.00000000	39.11171000	11.84178000
152.09999115	0.00000000	39.48696000	11.87869000
152.29999113	0.00000000	39.53002000	11.84178000
152.49999112	0.00000000	39.53002000	12.25394000
152.69999111	0.00000000	39.53002000	12.58612000
152.89999110	0.00000000	39.53002000	12.62918000
153.09999109	0.00000000	39.48696000	12.62918000
153.29999108	0.00000000	39.11171000	12.62918000
153.49999106	0.00000000	38.36737000	12.62918000
153.69999105	0.00000000	37.99213000	12.62918000
153.89999104	0.00000000	37.94907000	12.62918000
154.09999103	0.00000000	37.94907000	12.62918000
154.29999102	0.00000000	37.94907000	12.62918000
154.49999100	0.00000000	37.94907000	12.62918000
154.69999099	0.00000000	37.99213000	12.58612000
154.89999098	0.00000000	38.36737000	12.21087000
155.09999097	0.00000000	39.11171000	11.46653000
155.29999096	0.00000000	39.48696000	11.09129000
155.49999094	0.00000000	39.53002000	11.04823000
155.69999093	0.00000000	39.53002000	11.09129000
155.89999092	0.00000000	39.53002000	11.46653000
156.09999091	0.00000000	39.53002000	12.21087000
156.29999090	0.00000000	39.48696000	12.58612000
156.49999089	0.00000000	39.11171000	12.62918000
156.69999087	0.00000000	38.36737000	12.62918000
156.89999086	0.00000000	37.99213000	12.62918000
157.09999085	0.00000000	37.94907000	12.62918000
157.29999084	0.00000000	37.94907000	12.62918000
157.49999083	0.00000000	37.99213000	12.62918000
157.69999081	0.00000000	38.36737000	12.58612000
157.89999080	0.00000000	39.11171000	12.21087000
158.09999079	0.00000000	39.48696000	11.46653000
158.29999078	0.00000000	39.53002000	11.09129000
158.49999077	0.00000000	39.53002000	11.04823000
158.69999075	0.00000000	39.53002000	11.09129000
158.89999074	0.00000000	39.53002000	11.46653000
159.09999073	0.00000000	39.48696000	12.21087000
159.29999072	0.00000000	39.15477000	12.58612000
159.49999071	0.00000000	38.74261000	12.62918000
159.69999070	0.00000000	38.73647000	12.67224000
159.89999068	0.00000000	38.32431000	13.00443000
160.09999067	0.00000000	37.99213000	13.37352000
160.29999066	0.00000000	37.94907000	13.00443000
160.49999065	0.00000000	37.99213000	12.62918000
160.69999064	0.00000000	38.36737000	12.21087000
160.89999062	0.00000000	39.06250000	11.46653000
161.09999061	0.00000000	39.11171000	11.09129000
161.29999060	0.00000000	38.78568000	11.04823000
161.49999059	0.00000000	39.15477000	11.09129000
161.69999058	0.00000000	39.48696000	11.46653000
161.89999056	0.00000000	39.53002000	12.21087000
162.09999055	0.00000000	39.53002000	12.58612000
162.29999054	0.00000000	39.53002000	12.62918000
162.49999053	0.00000000	39.48696000	12.62918000
162.69999052	0.00000000	39.11171000	12.62918000
162.89999051	0.00000000	38.36737000	12.62918000
163.09999049	0.00000000	37.99213000	12.62918000
163.29999048	0.00000000	37.94907000	12.62918000
163.49999047	0.00000000	37.94907000	12.62918000
163.69999046	0.00000000	37.94907000	12.62918000
163.89999045	0.00000000	37.94907000	12.58612000
164.09999043	0.00000000	37.99213000	12.25394000
164.29999042	0.00000000	38.36737000	11.88484000
164.49999041	0.00000000	39.11171000	12.25394000
164.69999040	0.00000000	39.48696000	12.58612000
164.89999039	0.00000000	39.53002000	12.62918000
165.09999037	0.00000000	39.53002000	12.62918000
165.29999036	0.00000000	39.53002000	12.62918000
165.49999035	0.00000000	39.48696000	12.62918000
165.69999034	0.00000000	39.11171000	12.62918000
165.89999033	0.00000000	38.36737000	12.62918000
166.09999032	0.00000000	37.99213000	12.62918000
166.29999030	0.00000000	37.94907000	12.62918000
166.49999029	0.00000000	37.94907000	12.62918000
166.69999028	0.00000000	37.94907000	12.62918000
166.89999027	-0.15871060	37.99213000	12.58612000
167.09999026	0.00000000	38.36737000	12.25394000
167.29999024	0.00000000	39.11171000	11.84178000
167.49999023	0.00000000	39.48696000	11.87869000
167.69999022	0.00000000	39.53002000	11.84178000
167.89999021	0.00000000	39.48696000	12.21087000
168.09999020	0.00000000	39.15477000	12.21087000
168.29999018	0.00000000	38.74261000	11.88484000
168.49999017	0.00000000	38.73647000	12.25394000
168.69999016	0.00000000	38.32431000	12.58612000
168.89999015	0.00000000	37.99213000	12.62918000
169.09999014	0.00000000	37.94907000	12.62918000
169.29999013	0.00000000	37.94907000	12.62918000
169.49999011	0.00000000	37.94907000	12.62918000
169.69999010	0.00000000	37.94907000	12.62918000
169.89999009	0.00000000	37.94907000	12.62918000
170.09999008	0.00000000	37.94907000	12.58612000
170.29999007	0.00000000	37.94907000	12.21087000
170.49999005	0.00000000	37.99213000	11.51575000
170.69999004	0.00000000	38.36737000	11.46653000
170.89999003	0.00000000	39.11171000	11.83563000
171.09999002	0.00000000	39.48696000	11.84178000
171.29999001	0.00000000	39.53002000	12.21087000
171.49998999	0.00000000	39.53002000	12.16166000
171.69998998	0.00000000	39.48696000	11.51575000
171.89998997	0.00000000	39.11171000	11.51575000
172.09998996	0.00000000	38.36737000	12.21087000
172.29998995	0.00000000	37.99213000	12.53691000
172.49998994	0.00000000	37.94907000	12.25394000
172.69998992	0.00000000	37.94907000	11.88484000
172.89998991	0.00000000	37.94907000	12.25394000
173.09998990	0.00000000	37.94907000	12.58612000
173.29998989	0.00000000	37.99213000	12.62918000
173.49998988	0.00000000	38.36737000	12.62918000
173.69998986	0.00000000	39.06250000	12.62918000
173.89998985	0.00000000	39.06250000	12.62918000
174.09998984	0.00000000	38.36737000	12.62918000
174.29998983	0.00000000	37.99213000	12.62918000
174.49998982	0.00000000	37.94907000	12.62918000
174.69998980	0.00000000	37.94907000	12.58612000
174.89998979	0.00000000	37.94907000	12.21087000
175.09998978	0.00000000	37.94907000	11.46653000
175.29998977	0.00000000	37.94907000	11.09129000
175.49998976	0.00000000	37.94907000	11.04823000
175.69998975	0.00000000	37.94907000	11.09129000
175.89998973	0.00000000	37.94907000	11.42347000
176.09998972	0.00000000	37.94907000	11.79257000
176.29998971	0.00000000	37.94907000	11.46653000
176.49998970	0.00000000	37.94907000	11.46653000
176.69998969	0.00000000	37.99213000	11.83563000
176.89998967	0.00000000	38.36737000	11.84178000
177.09998966	0.00000000	39.06250000	12.21087000
177.29998965	0.00000000	39.06250000	12.21087000
177.49998964	0.00000000	38.36737000	11.84178000
177.69998963	0.00000000	37.99213000	11.83563000
177.89998961	0.00000000	37.94907000	11.46653000
178.09998960	0.00000000	37.94907000	11.51575000
178.29998959	0.00000000	37.94907000	12.21087000
178.49998958	0.00000000	37.94907000	12.58612000
178.69998957	0.00000000	37.94907000	12.62918000
178.89998956	0.00000000	37.99213000	12.62918000
179.09998954	0.00000000	38.32431000	12.62918000
179.29998953	0.00000000	38.73647000	12.62918000
179.49998952	0.00000000	38.69955000	12.62918000
179.69998951	0.00000000	38.77953000	12.62918000
179.89998950	0.00000000	38.74261000	12.58612000
180.09998948	0.00000000	39.11171000	12.21087000
180.29998947	0.00000000	39.06250000	11.51575000
180.49998946	0.00000000	38.36737000	11.51575000
180.69998945	0.00000000	37.99213000	12.21087000
180.89998944	0.00000000	37.94907000	12.58612000
181.09998942	0.00000000	37.94907000	12.62918000
181.29998941	0.00000000	37.94907000	12.62918000
181.49998940	0.00000000	37.99213000	12.62918000
181.69998939	0.00000000	38.36737000	12.62918000
181.89998938	0.00000000	39.11171000	12.62918000
182.09998937	0.00000000	39.48696000	12.58612000
182.29998935	0.00000000	39.53002000	12.21087000
182.49998934	0.00000000	39.48696000	11.51575000
182.69998933	0.00000000	39.15477000	11.51575000
182.89998932	0.00000000	38.78568000	12.16166000
183.09998931	0.00000000	39.11171000	12.16166000
183.29998929	0.00000000	39.06250000	11.46653000
183.49998928	0.00000000	38.36737000	11.14050000
183.69998927	0.00000000	37.99213000	11.46653000
183.89998926	0.00000000	37.94907000	12.21087000
184.09998925	0.00000000	37.94907000	12.58612000
184.29998923	0.00000000	37.94907000	12.62918000
184.49998922	0.00000000	37.94907000	12.62918000
184.69998921	0.00000000	37.94907000	12.62918000
184.89998920	0.00000000	37.94907000	12.62918000
185.09998919	0.00000000	37.94907000	12.58612000
185.29998918	0.00000000	37.94907000	12.21087000
185.49998916	0.00000000	37.94907000	11.46653000
185.69998915	0.00000000	37.94907000	11.09129000
185.89998914	0.00000000	37.94907000	11.04823000
186.09998913	0.00000000	37.94907000	11.04823000
186.29998912	0.00000000	37.94907000	11.04823000
186.49998910	0.00000000	37.94907000	11.04823000
186.69998909	0.00000000	37.94907000	11.04823000
186.89998908	0.00000000	37.94907000	11.09129000
187.09998907	0.00000000	37.94907000	11.46653000
187.29998906	0.00000000	37.94907000	12.21087000
187.49998904	0.00000000	37.94907000	12.58612000
187.69998903	0.00000000	37.94907000	12.62918000
187.89998902	0.00000000	37.94907000	12.62918000
188.09998901	0.00000000	37.94907000	12.62918000
188.29998900	0.00000000	37.94907000	12.58612000
188.49998899	0.00000000	37.94907000	12.21087000
188.69998897	0.00000000	37.94907000	11.46653000
188.89998896	0.00000000	37.94907000	11.09129000
189.09998895	0.00000000	37.94907000	11.04823000
189.29998894	0.00000000	37.94907000	11.04823000
189.49998893	0.00000000	37.94907000	11.04823000
189.69998891	0.00000000	37.94907000	11.09129000
189.89998890	0.00000000	37.94907000	11.46653000
190.09998889	0.00000000	37.94907000	12.21087000
190.29998888	0.00000000	37.94907000	12.58612000
190.49998887	0.00000000	37.94907000	12.62918000
190.69998885	0.00000000	37.94907000	12.62918000
190.89998884	0.00000000	37.94907000	12.62918000
191.09998883	0.00000000	37.99213000	12.62918000
191.29998882	0.00000000	38.36737000	12.62918000
191.49998881	0.00000000	39.06250000	12.62918000
191.69998880	0.00000000	39.06250000	12.62918000
191.89998878	0.00000000	38.36737000	12.62918000
192.09998877	0.00000000	37.99213000	12.58612000
192.29998876	0.00000000	37.94907000	12.21087000
192.49998875	0.00000000	37.94907000	11.51575000
192.69998874	0.00000000	37.94907000	11.51575000
192.89998872	0.00000000	37.94907000	12.21087000
193.09998871	0.00000000	37.94907000	12.58612000
193.29998870	0.00000000	37.94907000	12.62918000
193.49998869	0.00000000	37.94907000	12.62918000
193.69998868	0.00000000	37.94907000	12.62918000
193.89998866	0.00000000	37.94907000	12.62918000
194.09998865	0.00000000	37.94907000	12.62918000
194.29998864	0.00000000	37.99213000	12.62918000
194.49998863	0.00000000	38.32431000	12.62918000
194.69998862	0.00000000	38.69341000	12.62918000
194.89998861	0.00000000	38.32431000	12.58612000
195.09998859	0.00000000	37.99213000	12.25394000
195.29998858	0.00000000	37.94907000	11.84178000
195.49998857	0.00000000	37.94907000	11.83563000
195.69998856	0.00000000	37.94907000	11.42347000
195.89998855	0.00000000	37.94907000	11.14050000
196.09998853	0.00000000	37.94907000	11.46653000
