Time	Channel A	Channel B	Channel C
(us)	(V)	(mV)	(mV)

-4.53333289	0.00000000	-18.59621000	1.57480300
-4.33333290	0.00000000	-18.92839000	1.57480300
-4.13333291	0.00000000	-18.97145000	1.57480300
-3.93333293	0.00000000	-18.97145000	1.53174200
-3.73333294	0.00000000	-18.97145000	1.19955700
-3.53333295	0.00000000	-18.97145000	0.83661410
-3.33333296	0.00000000	-18.97145000	1.19955700
-3.13333297	0.00000000	-18.97145000	1.53174200
-2.93333299	0.00000000	-18.97145000	1.57480300
-2.73333300	0.00000000	-18.97145000	1.57480300
-2.53333301	0.00000000	-18.97145000	1.57480300
-2.33333302	0.00000000	-18.97145000	1.53174200
-2.13333303	0.00000000	-18.97145000	1.19955700
-1.93333304	0.00000000	-18.97145000	0.83661410
-1.73333306	0.00000000	-18.97145000	1.19955700
-1.53333307	0.00000000	-18.97145000	1.53174200
-1.33333308	0.00000000	-18.97145000	1.57480300
-1.13333309	0.00000000	-18.92839000	1.57480300
-0.93333310	0.00000000	-18.59621000	1.53174200
-0.73333312	0.00000000	-18.22711000	1.19955700
-0.53333313	0.00000000	-18.59621000	0.83661410
-0.33333314	0.15871060	-18.92839000	1.19955700
-0.13333315	0.47736220	-18.97145000	1.53174200
0.06666684	0.95533960	-18.97145000	1.57480300
0.26666682	0.95533960	-18.97145000	1.53174200
0.46666681	0.95533960	-18.97145000	1.19955700
0.66666680	0.63668800	-18.97145000	0.79355310
0.86666679	-0.15871060	-18.97145000	0.78124990
1.06666678	-1.11466500	-18.97145000	0.41830710
1.26666677	-2.07062000	-18.97145000	0.46136810
1.46666675	-2.70792300	-18.97145000	1.15649600
1.66666674	-2.70792300	-18.97145000	1.53174200
1.86666673	-1.91129400	-18.92839000	1.57480300
2.06666672	-0.15871060	-18.59621000	1.53174200
2.26666671	1.91129400	-18.22711000	1.19955700
2.46666669	3.82258900	-18.59621000	0.79355310
2.66666668	5.09719500	-18.87918000	0.78124990
2.86666667	5.25652100	-18.59621000	0.37524600
3.06666666	3.82258900	-18.22711000	0.04306102
3.26666665	1.27399100	-18.59621000	0.00000000
3.46666663	-2.22994600	-18.92839000	0.00000000
3.66666662	-5.41584600	-18.97145000	0.04306102
3.86666661	-7.48646600	-18.97145000	0.41830710
4.06666660	-7.80511800	-18.97145000	1.15649600
4.26666659	-6.21247500	-18.92839000	1.53174200
4.46666658	-2.70792300	-18.59621000	1.57480300
4.66666656	1.59264300	-18.22711000	1.57480300
4.86666655	5.73449800	-18.59621000	1.53174200
5.06666654	8.76107300	-18.92839000	1.15649600
5.26666653	9.39837600	-18.97145000	0.41830710
5.46666652	7.80511800	-18.97145000	0.04306102
5.66666650	4.30056600	-18.97145000	0.00000000
5.86666649	-0.47736220	-18.97145000	0.00000000
6.06666648	-5.09719500	-18.97145000	0.04306102
6.26666647	-8.44242100	-18.97145000	0.41830710
6.46666646	-9.39837600	-18.92839000	1.15649600
6.66666644	-8.28309500	-18.55315000	1.53174200
6.86666643	-5.09719500	-17.85802000	1.57480300
7.06666642	-0.79601380	-17.80881000	1.53174200
7.26666641	3.50393700	-18.17790000	1.15649600
7.46666640	6.53112700	-18.18405000	0.41830710
7.66666639	7.80511800	-18.59621000	0.04306102
7.86666637	7.00848900	-18.92839000	0.00000000
8.06666636	4.61921700	-18.97145000	0.00000000
8.26666635	1.43331700	-18.97145000	0.00000000
8.46666634	-1.75196900	-18.97145000	0.04306102
8.66666633	-4.14124000	-18.97145000	0.41830710
8.86666631	-5.09719500	-18.97145000	1.15649600
9.06666630	-4.77854300	-18.97145000	1.53174200
9.26666629	-3.34522600	-18.97145000	1.57480300
9.46666628	-1.43331700	-18.97145000	1.57480300
9.66666627	0.47736220	-18.97145000	1.53174200
9.86666625	1.91129400	-18.97145000	1.19955700
10.06666624	2.54859700	-18.97145000	0.79355310
10.26666623	2.38927200	-18.97145000	0.83046260
10.46666622	1.75196900	-18.97145000	0.79355310
10.66666621	0.95533960	-18.97145000	1.19955700
10.86666620	0.00000000	-18.97145000	1.48253000
11.06666618	-0.63668800	-18.97145000	1.19955700
11.26666617	-0.95533960	-18.97145000	0.79355310
11.46666616	-0.95533960	-18.97145000	0.78124990
11.66666615	-0.79601380	-18.92839000	0.41830710
11.86666614	-0.63668800	-18.59621000	0.46136810
12.06666612	-0.15871060	-18.22711000	1.15649600
12.26666611	-0.15871060	-18.59621000	1.53174200
12.46666610	-0.15871060	-18.92839000	1.57480300
12.66666609	0.00000000	-18.97145000	1.57480300
12.86666608	0.00000000	-18.97145000	1.57480300
13.06666606	0.00000000	-18.97145000	1.57480300
13.26666605	0.00000000	-18.97145000	1.53174200
13.46666604	0.00000000	-18.97145000	1.19955700
13.66666603	0.00000000	-18.97145000	0.83661410
13.86666602	0.00000000	-18.97145000	1.19955700
14.06666601	0.00000000	-18.97145000	1.48253000
14.26666599	-0.15871060	-18.97145000	1.19955700
14.46666598	-0.15871060	-18.97145000	0.79355310
14.66666597	-0.15871060	-18.97145000	0.83046260
14.86666596	0.00000000	-18.97145000	0.79355310
15.06666595	0.00000000	-18.97145000	1.15649600
15.26666593	0.00000000	-18.97145000	1.15649600
15.46666592	0.00000000	-18.97145000	0.79355310
15.66666591	0.00000000	-18.97145000	0.83046260
15.86666590	0.00000000	-18.97145000	0.79355310
16.06666589	0.00000000	-18.97145000	1.19955700
16.26666587	0.00000000	-18.92839000	1.53174200
16.46666586	0.00000000	-18.55315000	1.57480300
16.66666585	-0.15871060	-17.80881000	1.57480300
16.86666584	-0.15871060	-17.43356000	1.57480300
17.06666583	0.00000000	-17.39050000	1.57480300
17.26666582	0.00000000	-17.39050000	1.57480300
17.46666580	0.00000000	-17.34744000	1.57480300
17.66666579	0.00000000	-17.01525000	1.57480300
17.86666578	0.00000000	-16.69537000	1.53174200
18.06666577	0.00000000	-17.48277000	1.19955700
18.26666576	0.00000000	-18.97145000	0.83661410
18.46666574	0.00000000	-20.55241000	1.19955700
18.66666573	0.00000000	-22.09030000	1.53174200
18.86666572	0.00000000	-23.24680000	1.57480300
19.06666571	0.00000000	-23.57899000	1.57480300
19.26666570	0.00000000	-22.78543000	1.57480300
19.46666568	0.00000000	-20.41708000	1.57480300
19.66666567	0.00000000	-16.97219000	1.57480300
19.86666566	0.00000000	-13.06594000	1.57480300
20.06666565	0.00000000	-9.62106200	1.57480300
20.26666564	0.00000000	-7.29576700	1.57480300
20.46666563	0.00000000	-6.96973400	1.57480300
20.66666561	0.00000000	-8.96899500	1.53174200
20.86666560	0.00000000	-13.71186000	1.15649600
21.06666559	0.00000000	-21.01993000	0.41830710
21.26666558	0.00000000	-29.06619000	0.04306102
21.46666557	0.00000000	-35.25467000	0.00000000
21.66666555	0.00000000	-38.33046000	0.00000000
21.86666554	0.00000000	-37.44463000	0.00000000
22.06666553	0.00000000	-31.58218000	0.00000000
22.26666552	0.00000000	-21.53666000	0.00000000
22.46666551	0.00000000	-9.52879000	0.00000000
22.66666549	0.00000000	2.05462600	0.00000000
22.86666548	0.00000000	10.47613000	0.04306102
23.06666547	0.00000000	13.12746000	0.46136810
23.26666546	0.00000000	8.75984200	1.53174200
23.46666545	0.00000000	-2.50369100	2.26993100
23.66666544	0.00000000	-19.14985000	1.99311000
23.86666542	0.00000000	-37.26009000	2.04232300
24.06666541	0.00000000	-52.61442000	2.68823800
24.26666540	0.00000000	-60.66068000	2.68823800
24.46666539	0.00000000	-58.71063000	1.95004900
24.66666538	0.00000000	-47.49015000	1.15649600
24.86666536	0.00000000	-28.83858000	-0.04306102
25.06666535	0.00000000	-6.50221400	-1.57480300
25.26666534	0.00000000	14.33317000	-3.11269700
25.46666533	0.00000000	28.20497000	-4.22613100
25.66666532	0.00000000	32.06201000	-4.14000900
25.86666530	0.00000000	24.62475000	-2.22687000
26.06666529	0.00000000	6.88976300	1.24877000
26.26666528	0.00000000	-17.06447000	5.11195900
26.46666527	0.00000000	-41.35703000	9.00590400
26.66666526	0.00000000	-60.70374000	12.03248000
26.86666525	0.00000000	-70.34325000	13.14591000
27.06666523	0.00000000	-68.43011000	11.52190000
27.26666522	0.00000000	-55.26574000	6.87746000
27.46666521	0.00000000	-33.67372000	-0.09227362
27.66666520	0.00000000	-8.96899500	-7.80019600
27.86666519	0.00000000	13.08440000	-14.72687000
28.06666517	0.00000000	27.78666000	-18.95300000
28.26666516	0.00000000	32.06201000	-19.28519000
28.46666515	0.00000000	25.12918000	-15.32972000
28.66666514	0.00000000	8.98129900	-6.78518600
28.86666513	0.00000000	-12.27239000	4.77977300
29.06666511	0.00000000	-33.54453000	16.72613000
29.26666510	0.00000000	-50.60900000	26.34104000
29.46666509	0.00000000	-59.91634000	30.94242000
29.66666508	0.00000000	-60.00861000	29.36146000
29.86666507	0.00000000	-51.49483000	21.55512000
30.06666506	0.00000000	-36.46653000	8.40920300
30.26666504	0.00000000	-18.31939000	-7.38188900
30.46666503	0.00000000	-1.66092500	-22.06570000
30.66666502	0.00000000	10.42692000	-32.47416000
30.86666501	0.00000000	16.24631000	-36.28814000
31.06666500	0.00000000	14.75148000	-31.96973000
31.26666498	0.00000000	6.66215500	-20.02337000
31.46666497	0.00000000	-5.71481200	-3.02042300
31.66666496	0.00000000	-20.04183000	15.10212000
31.86666495	0.00000000	-33.16929000	30.56717000
32.06666494	0.00000000	-42.10138000	39.86220000
32.26666492	0.00000000	-45.26328000	41.39394000
32.46666491	0.00000000	-42.61196000	34.79330000
32.66666490	0.00000000	-35.25467000	20.85999000
32.86666489	0.00000000	-24.83391000	2.73745100
33.06666488	0.00000000	-13.61959000	-15.79724000
33.26666487	0.00000000	-4.31840500	-30.43184000
33.46666485	0.00000000	1.50098400	-37.86294000
33.66666484	0.00000000	2.70669300	-37.08169000
33.86666483	0.00000000	-0.78124990	-28.61097000
34.06666482	0.00000000	-7.72022600	-13.93947000
34.26666481	0.00000000	-16.97219000	3.02042300
34.46666479	0.00000000	-25.71973000	18.95300000
34.66666478	0.00000000	-31.25000000	30.89936000
34.86666477	0.00000000	-32.84326000	36.28199000
35.06666476	0.00000000	-31.29921000	33.63681000
35.26666475	0.00000000	-26.27953000	24.02190000
35.46666473	0.00000000	-19.43897000	10.12549000
35.66666472	0.00000000	-13.24434000	-5.29650500
35.86666471	0.00000000	-8.96899500	-18.39936000
36.06666470	0.00000000	-7.43110200	-26.16265000
36.26666469	0.00000000	-8.92593500	-27.31914000
36.46666468	0.00000000	-12.78297000	-21.55512000
36.66666466	0.00000000	-17.76575000	-10.45152000
36.86666465	0.00000000	-22.78543000	2.60211600
37.06666464	0.00000000	-26.23031000	14.17323000
37.26666463	0.00000000	-27.39296000	21.51206000
37.46666462	0.00000000	-25.85507000	23.04995000
37.66666460	0.00000000	-22.04109000	18.49163000
37.86666459	0.00000000	-17.43356000	9.29502900
38.06666458	0.00000000	-13.15822000	-1.39640700
38.26666457	0.00000000	-10.08243000	-10.63607000
38.46666456	0.00000000	-8.92593500	-15.61270000
38.66666454	0.00000000	-10.08243000	-15.28666000
38.86666453	0.00000000	-13.11516000	-9.89788300
39.06666452	0.00000000	-16.97219000	-1.11343500
39.26666451	0.00000000	-20.50935000	8.45841400
39.46666450	0.00000000	-23.62205000	15.70497000
39.66666449	0.00000000	-25.94734000	18.39936000
39.86666447	0.00000000	-26.69783000	15.70497000
40.06666446	0.00000000	-25.90428000	8.40920300
40.26666445	0.00000000	-23.20374000	-1.53174200
40.46666444	0.00000000	-19.38976000	-11.10359000
40.66666443	0.00000000	-15.85261000	-17.24286000
40.86666441	0.00000000	-12.73991000	-18.39936000
41.06666440	0.00000000	-10.41462000	-14.16708000
41.26666439	0.00000000	-9.66412400	-5.71481200
41.46666438	0.00000000	-10.37155000	4.64443900
41.66666437	0.00000000	-12.36466000	14.21629000
41.86666435	0.00000000	-15.06521000	20.02337000
42.06666434	0.00000000	-18.59621000	20.81693000
42.26666433	0.00000000	-21.99803000	17.00295000
42.46666432	0.00000000	-24.36639000	9.29502900
42.66666431	0.00000000	-25.15994000	0.09227362
42.86666430	0.00000000	-24.82775000	-8.40920300
43.06666428	0.00000000	-23.62205000	-14.16708000
43.26666427	0.00000000	-21.71506000	-15.74803000
43.46666426	0.00000000	-19.34670000	-13.10285000
43.66666425	0.00000000	-17.05832000	-7.38188900
43.86666424	0.00000000	-15.11442000	-0.41830710
44.06666422	0.00000000	-14.32087000	6.09005900
44.26666421	0.00000000	-14.22859000	10.77141000
44.46666420	0.00000000	-14.22859000	12.31545000
44.66666419	0.00000000	-14.22859000	11.28199000
44.86666418	0.00000000	-14.22859000	8.17544300
45.06666416	0.00000000	-14.27165000	4.36146600
45.26666415	0.00000000	-14.69611000	0.46751960
45.46666414	0.00000000	-15.90182000	-2.64517700
45.66666413	0.00000000	-17.85802000	-4.60137700
45.86666412	0.00000000	-20.59547000	-5.33956700
46.06666411	0.00000000	-23.67126000	-4.22613100
46.26666409	0.00000000	-26.36565000	-1.95004900
46.46666408	0.00000000	-27.86048000	0.37524600
46.66666407	0.00000000	-27.43602000	2.73745100
46.86666406	0.00000000	-24.69857000	4.64443900
47.06666405	0.00000000	-20.04183000	5.80093500
47.26666403	0.00000000	-14.18553000	5.80093500
47.46666402	0.00000000	-8.04010800	4.64443900
47.66666401	0.00000000	-3.11269700	2.73745100
47.86666400	0.00000000	-1.57480300	0.37524600
48.06666399	0.00000000	-3.89394600	-1.90698800
48.26666397	0.00000000	-9.34424200	-3.80782500
48.46666396	0.00000000	-17.48277000	-4.22613100
48.66666395	0.00000000	-26.27953000	-3.48794300
48.86666394	0.00000000	-33.25541000	-2.27608300
49.06666393	0.00000000	-36.74950000	0.13533460
49.26666392	0.00000000	-36.33120000	3.53100400
49.46666390	0.00000000	-31.62524000	6.96358300
49.66666389	0.00000000	-23.16068000	8.82750900
49.86666388	0.00000000	-13.20128000	8.50147600
50.06666387	0.00000000	-4.69365100	6.17618100
50.26666386	0.00000000	0.33833660	2.73745100
50.46666384	0.00000000	1.12573800	-1.15649600
50.66666383	0.00000000	-2.78051200	-4.60137700
50.86666382	0.00000000	-10.45768000	-6.92052100
51.06666381	0.00000000	-20.04183000	-7.29576700
51.26666380	0.00000000	-28.51255000	-5.75787400
51.46666379	0.00000000	-33.58760000	-2.64517700
51.66666377	0.00000000	-34.75024000	1.57480300
51.86666376	0.00000000	-31.62524000	5.80093500
52.06666375	0.00000000	-24.74163000	8.87057000
52.26666374	0.00000000	-16.32013000	10.03322000
52.46666373	0.00000000	-8.96899500	8.91978400
52.66666371	0.00000000	-4.36146600	6.22539300
52.86666370	0.00000000	-3.57406500	2.73745100
53.06666369	0.00000000	-7.01279500	-1.11343500
53.26666368	0.00000000	-13.11516000	-4.18307100
53.46666367	0.00000000	-20.04183000	-5.71481200
53.66666365	0.00000000	-25.81201000	-5.33956700
53.86666364	0.00000000	-28.93085000	-3.06348400
54.06666363	0.00000000	-28.93085000	-0.04306102
54.26666362	0.00000000	-25.85507000	2.69439000
54.46666361	0.00000000	-20.50935000	4.60137700
54.66666360	0.00000000	-14.73917000	5.33956700
54.86666358	0.00000000	-10.13164000	4.22613100
55.06666357	0.00000000	-7.80634800	1.99311000
55.26666356	0.00000000	-8.55068800	0.09227362
55.46666355	0.00000000	-11.62032000	-1.06422200
55.66666354	0.00000000	-16.27707000	-1.06422200
55.86666352	0.00000000	-21.57972000	0.09227362
56.06666351	0.00000000	-25.43676000	2.04232300
56.26666350	0.00000000	-26.60556000	4.64443900
56.46666349	0.00000000	-25.47982000	6.50221400
56.66666348	0.00000000	-22.04109000	6.13312000
56.86666346	0.00000000	-17.85802000	4.22613100
57.06666345	0.00000000	-14.32087000	1.07037400
57.26666344	0.00000000	-11.62032000	-3.11269700
57.46666343	0.00000000	-10.50689000	-6.87746000
57.66666342	0.00000000	-11.62032000	-8.40920300
57.86666341	0.00000000	-14.27165000	-7.25270600
58.06666339	0.00000000	-17.34744000	-3.76476400
58.26666338	0.00000000	-20.08489000	1.62401600
58.46666337	0.00000000	-21.99803000	7.38188900
58.66666336	0.00000000	-22.78543000	11.98327000
58.86666335	0.00000000	-21.99803000	14.30241000
59.06666333	0.00000000	-20.13410000	13.47195000
59.26666332	0.00000000	-17.85802000	9.61491000
59.46666331	0.00000000	-16.32013000	3.02042300
59.66666330	0.00000000	-15.85261000	-4.60137700
59.86666329	0.00000000	-15.85261000	-11.10359000
60.06666327	0.00000000	-16.22785000	-14.21629000
60.26666326	0.00000000	-17.01525000	-13.42889000
60.46666325	0.00000000	-17.76575000	-9.19045200
60.66666324	0.00000000	-18.55315000	-1.86392700
60.86666323	0.00000000	-18.87918000	6.18233200
61.06666322	0.00000000	-18.50394000	13.14591000
61.26666320	0.00000000	-17.39050000	17.32899000
61.46666319	0.00000000	-16.27707000	17.37205000
61.66666318	0.00000000	-15.85261000	13.52116000
61.86666317	0.00000000	-15.85261000	6.92052100
62.06666316	0.00000000	-16.32013000	-1.53174200
62.26666314	0.00000000	-17.85802000	-9.56569900
62.46666313	0.00000000	-20.08489000	-14.58538000
62.66666312	0.00000000	-21.66585000	-15.79109000
62.86666311	0.00000000	-22.41634000	-13.10285000
63.06666310	0.00000000	-22.41018000	-7.33882900
63.26666308	0.00000000	-20.83538000	0.04306102
63.46666307	0.00000000	-18.55315000	7.75713500
63.66666306	0.00000000	-15.80955000	14.25935000
63.86666305	0.00000000	-13.20128000	17.32899000
64.06666304	0.00000000	-11.99557000	16.25861000
64.26666303	0.00000000	-12.36466000	12.03248000
64.46666301	0.00000000	-13.53346000	5.85014700
64.66666300	0.00000000	-15.90182000	-1.07037400
64.86666299	0.00000000	-18.92839000	-6.87130900
65.06666298	0.00000000	-21.62278000	-10.40846000
65.26666297	0.00000000	-23.16068000	-11.60802000
65.46666295	0.00000000	-23.16068000	-10.45152000
65.66666294	0.00000000	-21.66585000	-7.33882900
65.86666293	0.00000000	-19.34670000	-2.73745100
66.06666292	0.00000000	-17.01525000	2.27608300
66.26666291	0.00000000	-14.73917000	6.17618100
66.46666289	0.00000000	-13.61959000	8.96284400
66.66666288	0.00000000	-14.36393000	10.49459000
66.86666287	0.00000000	-16.22785000	10.53765000
67.06666286	0.00000000	-18.55315000	9.38115100
67.26666285	0.00000000	-20.46014000	7.43110200
67.46666284	0.00000000	-21.57972000	4.68750000
67.66666282	0.00000000	-21.20448000	1.53174200
67.86666281	0.00000000	-19.30364000	-1.95004900
68.06666280	0.00000000	-16.97219000	-5.43184000
68.26666279	0.00000000	-14.27165000	-7.71407400
68.46666278	0.00000000	-12.03863000	-8.54453700
68.66666276	0.00000000	-11.66339000	-7.71407400
68.86666275	0.00000000	-13.20128000	-5.38262700
69.06666274	0.00000000	-16.27707000	-1.48868100
69.26666273	0.00000000	-20.17716000	3.11269700
69.46666272	0.00000000	-23.99729000	7.43110200
69.66666270	0.00000000	-27.01772000	10.86983000
69.86666269	0.00000000	-27.34990000	12.77067000
70.06666268	0.00000000	-24.69857000	12.03248000
70.26666267	0.00000000	-20.08489000	9.33809000
70.46666266	0.00000000	-14.69611000	5.38262700
70.66666265	0.00000000	-10.03937000	0.00000000
70.86666263	0.00000000	-6.92052100	-5.33956700
71.06666262	0.00000000	-5.80708600	-8.82750900
71.26666261	0.00000000	-7.38804100	-10.03322000
71.46666260	0.00000000	-11.62032000	-8.82750900
71.66666259	0.00000000	-17.39050000	-5.38262700
71.86666257	0.00000000	-23.20374000	-0.41830710
72.06666256	0.00000000	-27.86048000	4.18307100
72.26666255	0.00000000	-30.51181000	7.33882900
72.46666254	0.00000000	-30.13656000	8.91978400
72.66666253	0.00000000	-26.64862000	8.91978400
72.86666251	0.00000000	-21.29675000	7.38188900
73.06666250	0.00000000	-15.11442000	4.68750000
73.26666249	0.00000000	-10.08243000	1.66707700
73.46666248	0.00000000	-6.92052100	-0.64591530
73.66666247	0.00000000	-5.80708600	-1.43946800
73.86666246	0.00000000	-7.34498000	-1.11343500
74.06666244	0.00000000	-11.20202000	0.00000000
74.26666243	0.00000000	-16.18479000	1.11343500
74.46666242	0.00000000	-21.20448000	1.53174200
74.66666241	0.00000000	-24.69857000	1.48253000
74.86666240	0.00000000	-26.32259000	0.69512790
75.06666238	0.00000000	-26.27953000	-1.15649600
75.26666237	0.00000000	-24.36639000	-2.64517700
75.46666236	0.00000000	-20.97072000	-3.02042300
75.66666235	0.00000000	-17.80881000	-2.22687000
75.86666234	0.00000000	-15.05905000	0.09227362
76.06666232	0.00000000	-12.41388000	3.15575800
76.26666231	0.00000000	-11.66339000	6.26845500
76.46666230	0.00000000	-12.69070000	8.91978400
76.66666229	0.00000000	-14.22859000	10.03322000
76.86666228	0.00000000	-15.80955000	8.82750900
77.06666227	0.00000000	-17.29823000	5.38262700
77.26666225	0.00000000	-18.08563000	0.37524600
77.46666224	0.00000000	-17.76575000	-4.64443900
77.66666223	0.00000000	-17.43356000	-8.87672100
77.86666222	0.00000000	-17.43356000	-11.14665000
78.06666221	0.00000000	-17.80881000	-10.35925000
78.26666219	0.00000000	-18.59621000	-6.92052100
78.46666218	0.00000000	-19.34670000	-1.48868100
78.66666217	0.00000000	-20.08489000	4.64443900
78.86666216	0.00000000	-20.08489000	10.07628000
79.06666215	0.00000000	-19.30364000	13.52116000
79.26666213	0.00000000	-18.13484000	14.30241000
79.46666212	0.00000000	-16.18479000	12.03248000
79.66666211	0.00000000	-14.27165000	7.80019600
79.86666210	0.00000000	-12.73991000	2.73745100
80.06666209	0.00000000	-11.99557000	-2.69439000
80.26666208	0.00000000	-12.78297000	-7.29576700
80.46666206	0.00000000	-14.69611000	-9.98400600
80.66666205	0.00000000	-17.39050000	-10.03322000
80.86666204	0.00000000	-20.08489000	-7.75713500
81.06666203	0.00000000	-22.04109000	-4.26919300
81.26666202	0.00000000	-23.16068000	0.00000000
81.46666200	0.00000000	-22.78543000	4.22613100
81.66666199	0.00000000	-20.88459000	7.38188900
81.86666198	0.00000000	-18.55315000	9.33809000
82.06666197	0.00000000	-15.85261000	10.11934000
82.26666196	0.00000000	-13.57652000	9.33809000
82.46666194	0.00000000	-12.78297000	7.43110200
82.66666193	0.00000000	-13.11516000	4.68750000
82.86666192	0.00000000	-14.27165000	1.58095500
83.06666191	0.00000000	-15.80955000	-1.53174200
83.26666190	0.00000000	-17.39050000	-4.26919300
83.46666189	0.00000000	-18.92839000	-6.17618100
83.66666187	0.00000000	-20.08489000	-6.96358300
83.86666186	0.00000000	-20.46014000	-6.17618100
84.06666185	0.00000000	-20.08489000	-4.22613100
84.26666184	0.00000000	-18.97145000	-1.11343500
84.46666183	0.00000000	-17.80881000	2.78051200
84.66666181	0.00000000	-17.05832000	6.59448800
84.86666180	0.00000000	-16.64616000	9.70103300
85.06666179	0.00000000	-17.01525000	10.82677000
85.26666178	0.00000000	-17.34744000	10.11934000
85.46666177	0.00000000	-17.34744000	7.71407400
85.66666175	0.00000000	-16.97219000	3.85703700
85.86666174	0.00000000	-16.22785000	-1.11343500
86.06666173	0.00000000	-15.85261000	-5.33956700
86.26666172	0.00000000	-15.80955000	-7.71407400
86.46666171	0.00000000	-15.85261000	-8.50147600
86.66666170	0.00000000	-16.32013000	-7.29576700
86.86666168	0.00000000	-17.80881000	-4.22613100
87.06666167	0.00000000	-19.66658000	0.04306102
87.26666166	0.00000000	-20.46014000	4.64443900
87.46666165	0.00000000	-20.50935000	8.50147600
87.66666164	0.00000000	-20.13410000	10.45152000
87.86666162	0.00000000	-19.30364000	10.45152000
88.06666161	0.00000000	-18.13484000	8.45226300
88.26666160	0.00000000	-16.18479000	4.22613100
88.46666159	0.00000000	-14.36393000	-1.06422200
88.66666158	0.00000000	-13.53346000	-5.29650500
88.86666156	0.00000000	-13.89641000	-7.29576700
89.06666155	0.00000000	-14.69611000	-7.29576700
89.26666154	0.00000000	-16.27707000	-5.33956700
89.46666153	0.00000000	-18.50394000	-1.48868100
89.66666152	0.00000000	-20.04183000	3.11269700
89.86666151	0.00000000	-20.50935000	7.33882900
90.06666149	0.00000000	-20.50935000	9.98400600
90.26666148	0.00000000	-20.08489000	9.98400600
90.46666147	0.00000000	-18.92839000	7.33882900
90.66666146	0.00000000	-17.43356000	3.15575800
90.86666145	0.00000000	-16.27707000	-1.11343500
91.06666143	0.00000000	-15.85261000	-4.55831700
91.26666142	0.00000000	-15.80955000	-6.45300100
91.46666141	0.00000000	-15.80955000	-5.71481200
91.66666140	0.00000000	-15.85261000	-3.06348400
91.86666139	0.00000000	-16.22785000	0.46751960
92.06666137	0.00000000	-16.97219000	4.69365100
92.26666136	0.00000000	-17.34744000	8.45226300
92.46666135	0.00000000	-17.39050000	9.99015700
92.66666134	0.00000000	-17.39050000	8.87057000
92.86666133	0.00000000	-17.43356000	5.80093500
93.06666132	0.00000000	-17.80881000	1.57480300
93.26666130	0.00000000	-18.59621000	-2.64517700
93.46666129	0.00000000	-19.30364000	-5.71481200
93.66666128	0.00000000	-19.71580000	-6.87130900
93.86666127	0.00000000	-19.30364000	-5.67175200
94.06666126	0.00000000	-18.50394000	-2.27608300
94.26666124	0.00000000	-16.92298000	2.31914400
94.46666123	0.00000000	-14.64690000	6.13312000
94.66666122	0.00000000	-12.73991000	8.50147600
94.86666121	0.00000000	-11.57726000	8.82750900
95.06666120	0.00000000	-11.57726000	6.96358300
95.26666118	0.00000000	-12.78297000	3.48794300
95.46666117	0.00000000	-15.11442000	-0.33218500
95.66666116	0.00000000	-18.55315000	-3.80782500
95.86666115	0.00000000	-21.62278000	-5.71481200
96.06666114	0.00000000	-23.62205000	-5.71481200
96.26666113	0.00000000	-24.74163000	-3.80782500
96.46666111	0.00000000	-24.32333000	-0.37524600
96.66666110	0.00000000	-21.99803000	3.06348400
96.86666109	0.00000000	-18.55315000	5.80093500
97.06666108	0.00000000	-14.64690000	7.33882900
97.26666107	0.00000000	-11.20202000	7.29576700
97.46666105	0.00000000	-8.87672100	5.43184000
97.66666104	0.00000000	-8.50147600	2.41141700
97.86666103	0.00000000	-9.99630800	0.09227362
98.06666102	0.00000000	-12.73991000	-1.48868100
98.26666101	0.00000000	-16.22785000	-2.26993100
98.46666099	0.00000000	-20.13410000	-1.90698800
98.66666098	0.00000000	-23.53592000	-1.11343500
98.86666097	0.00000000	-25.47982000	0.41830710
99.06666096	0.00000000	-25.11688000	2.27608300
99.26666095	0.00000000	-23.24680000	3.06348400
99.46666094	0.00000000	-20.46014000	3.15575800
99.66666092	0.00000000	-17.01525000	3.11269700
99.86666091	0.00000000	-13.53346000	2.78051200
100.06666090	0.00000000	-11.20202000	2.41141700
100.26666089	0.00000000	-9.99630800	2.78051200
100.46666088	0.00000000	-10.03937000	3.11269700
100.66666086	0.00000000	-11.57726000	3.15575800
100.86666085	0.00000000	-14.27165000	3.11269700
101.06666084	0.00000000	-17.34744000	2.68823800
101.26666083	0.00000000	-20.08489000	1.53174200
101.46666082	0.00000000	-22.04109000	0.00000000
101.66666080	0.00000000	-23.20374000	-1.53174200
101.86666079	0.00000000	-23.20374000	-2.68823800
102.06666078	0.00000000	-22.04109000	-3.02042300
102.26666077	0.00000000	-20.08489000	-2.27608300
102.46666076	0.00000000	-17.43356000	-0.28297240
102.66666075	0.00000000	-15.06521000	2.36835600
102.86666073	0.00000000	-13.47810000	5.43184000
103.06666072	0.00000000	-11.95251000	7.33882900
103.26666071	0.00000000	-11.62032000	7.75713500
103.46666070	0.00000000	-12.73991000	6.96358300
103.66666069	0.00000000	-14.64690000	4.64443900
103.86666067	0.00000000	-16.97219000	1.58095500
104.06666066	0.00000000	-18.92839000	-1.48868100
104.26666065	0.00000000	-20.46014000	-3.80782500
104.46666064	0.00000000	-21.24754000	-4.60137700
104.66666063	0.00000000	-20.88459000	-4.22613100
104.86666061	0.00000000	-20.08489000	-2.64517700
105.06666060	0.00000000	-18.55315000	0.04306102
105.26666059	0.00000000	-16.64616000	3.06348400
105.46666058	0.00000000	-15.47736000	5.38262700
105.66666057	0.00000000	-14.69611000	6.17618100
105.86666056	0.00000000	-14.69611000	5.85014700
106.06666054	0.00000000	-15.43430000	4.64443900
106.26666053	0.00000000	-16.22785000	2.73745100
106.46666052	0.00000000	-17.39050000	0.46751960
106.66666051	0.00000000	-18.50394000	-1.06422200
106.86666050	0.00000000	-18.87918000	-1.48253000
107.06666048	0.00000000	-18.50394000	-1.11343500
107.26666047	0.00000000	-17.39050000	0.04306102
107.46666046	0.00000000	-16.27707000	1.53174200
107.66666045	0.00000000	-15.80955000	2.73745100
107.86666044	0.00000000	-15.43430000	3.48794300
108.06666042	0.00000000	-15.11442000	3.85088600
108.26666041	0.00000000	-15.90182000	3.06348400
108.46666040	0.00000000	-17.39050000	1.57480300
108.66666039	0.00000000	-18.92839000	0.04306102
108.86666038	0.00000000	-20.08489000	-1.11343500
109.06666037	0.00000000	-20.46014000	-1.48253000
109.26666035	0.00000000	-20.04183000	-1.11343500
109.46666034	0.00000000	-18.50394000	0.04306102
109.66666033	0.00000000	-16.27707000	1.57480300
109.86666032	0.00000000	-14.69611000	3.15575800
110.06666031	0.00000000	-13.89641000	4.64443900
110.26666029	0.00000000	-13.53346000	5.38262700
110.46666028	0.00000000	-14.27165000	4.64443900
110.66666027	0.00000000	-15.43430000	3.15575800
110.86666026	0.00000000	-16.60310000	1.57480300
111.06666025	0.00000000	-18.17790000	0.04306102
111.26666023	0.00000000	-19.30364000	-1.11343500
111.46666022	0.00000000	-20.08489000	-1.48253000
111.66666021	0.00000000	-20.04183000	-1.15649600
111.86666020	0.00000000	-18.92839000	-0.37524600
112.06666019	0.00000000	-17.43356000	0.41830710
112.26666018	0.00000000	-16.22785000	1.57480300
112.46666016	0.00000000	-15.43430000	2.68823800
112.66666015	0.00000000	-14.69611000	3.11269700
112.86666014	0.00000000	-14.69611000	3.11269700
113.06666013	0.00000000	-15.43430000	2.73745100
113.26666012	0.00000000	-16.18479000	1.95004900
113.46666010	0.00000000	-17.01525000	1.24877000
113.66666009	0.00000000	-17.76575000	0.83661410
113.86666008	0.00000000	-18.50394000	1.15649600
114.06666007	0.00000000	-18.50394000	1.15649600
114.26666006	0.00000000	-17.80881000	0.83661410
114.46666004	0.00000000	-17.39050000	1.19955700
114.66666003	0.00000000	-16.97219000	1.48253000
114.86666002	0.00000000	-16.22785000	1.15649600
115.06666001	0.00000000	-15.85261000	0.41830710
115.26666000	0.00000000	-15.80955000	0.04306102
115.46665999	0.00000000	-15.80955000	0.04306102
115.66665997	0.00000000	-15.85261000	0.41830710
115.86665996	0.00000000	-16.22785000	1.15649600
116.06665995	0.00000000	-16.97219000	1.57480300
116.26665994	0.00000000	-17.39050000	1.99311000
116.46665993	0.00000000	-17.76575000	2.73745100
116.66665991	0.00000000	-18.17790000	3.11269700
116.86665990	0.00000000	-18.14099000	3.15575800
117.06665989	0.00000000	-18.13484000	3.11269700
117.26665988	0.00000000	-17.34744000	2.68823800
117.46665987	0.00000000	-16.22785000	1.57480300
117.66665985	0.00000000	-15.43430000	0.46136810
117.86665984	0.00000000	-14.64690000	0.04306102
118.06665983	0.00000000	-14.27165000	0.00000000
118.26665982	0.00000000	-14.27165000	0.00000000
118.46665981	0.00000000	-14.69611000	0.04306102
118.66665980	0.00000000	-15.85261000	0.41830710
118.86665978	0.00000000	-17.39050000	1.19955700
119.06665977	0.00000000	-18.92839000	1.95004900
119.26665976	0.00000000	-20.04183000	2.73745100
119.46665975	0.00000000	-20.08489000	3.11269700
119.66665974	0.00000000	-19.34670000	3.15575800
119.86665972	0.00000000	-18.55315000	3.15575800
120.06665971	0.00000000	-17.34744000	3.11269700
120.26665970	0.00000000	-15.85261000	2.73745100
120.46665969	0.00000000	-14.69611000	1.99311000
120.66665968	0.00000000	-14.27165000	1.57480300
120.86665966	0.00000000	-14.27165000	1.15649600
121.06665965	0.00000000	-14.64690000	0.41830710
121.26665964	0.00000000	-15.43430000	0.04306102
121.46665963	0.00000000	-16.22785000	0.00000000
121.66665962	0.00000000	-17.39050000	0.00000000
121.86665961	0.00000000	-18.55315000	0.04306102
122.06665959	0.00000000	-19.30364000	0.41830710
122.26665958	0.00000000	-19.71580000	1.19955700
122.46665957	0.00000000	-19.30364000	1.95004900
122.66665956	0.00000000	-18.59621000	2.73745100
122.86665955	0.00000000	-17.76575000	3.11269700
123.06665953	0.00000000	-16.97219000	3.15575800
123.26665952	0.00000000	-15.80955000	3.11269700
123.46665951	0.00000000	-14.69611000	2.73745100
123.66665950	0.00000000	-14.32087000	1.95004900
123.86665949	0.00000000	-14.64690000	1.19955700
124.06665947	0.00000000	-15.39124000	0.41830710
124.26665946	0.00000000	-15.80955000	0.04306102
124.46665945	0.00000000	-16.22785000	0.00000000
124.66665944	0.00000000	-17.01525000	0.04306102
124.86665943	0.00000000	-17.76575000	0.41830710
125.06665942	0.00000000	-18.55315000	1.15649600
125.26665940	0.00000000	-18.92839000	1.57480300
125.46665939	0.00000000	-18.92839000	1.99311000
125.66665938	0.00000000	-18.55315000	2.73745100
125.86665937	0.00000000	-17.76575000	3.11269700
126.06665936	0.00000000	-17.01525000	3.11269700
126.26665934	0.00000000	-16.18479000	2.78051200
126.46665933	0.00000000	-15.43430000	2.36835600
126.66665932	0.00000000	-14.69611000	2.36220500
126.86665931	0.00000000	-14.69611000	1.95004900
127.06665930	0.00000000	-15.43430000	1.61786400
127.26665928	0.00000000	-16.22785000	1.57480300
127.46665927	0.00000000	-17.39050000	1.57480300
127.66665926	0.00000000	-18.50394000	1.57480300
127.86665925	0.00000000	-18.92839000	1.57480300
128.06665924	0.00000000	-18.92839000	1.57480300
128.26665923	0.00000000	-18.55315000	1.57480300
128.46665921	0.00000000	-17.76575000	1.57480300
128.66665920	0.00000000	-16.97219000	1.57480300
128.86665919	0.00000000	-15.80955000	1.57480300
129.06665918	0.00000000	-14.69611000	1.57480300
129.26665917	0.00000000	-14.32087000	1.57480300
129.46665915	0.00000000	-14.64690000	1.57480300
129.66665914	0.00000000	-15.43430000	1.57480300
129.86665913	0.00000000	-16.22785000	1.57480300
130.06665912	0.00000000	-17.39050000	1.57480300
130.26665911	0.00000000	-18.50394000	1.57480300
130.46665909	0.00000000	-18.87918000	1.57480300
130.66665908	0.00000000	-18.55315000	1.57480300
130.86665907	0.00000000	-17.76575000	1.61786400
131.06665906	0.00000000	-16.97219000	1.95004900
131.26665905	0.00000000	-15.85261000	2.31914400
131.46665904	0.00000000	-15.06521000	1.95004900
131.66665902	0.00000000	-15.05905000	1.57480300
131.86665901	0.00000000	-15.02214000	1.15649600
132.06665900	0.00000000	-15.47736000	0.41830710
132.26665899	0.00000000	-16.18479000	0.04306102
132.46665898	0.00000000	-17.01525000	0.00000000
132.66665896	0.00000000	-17.72268000	0.04306102
132.86665895	0.00000000	-18.13484000	0.41830710
133.06665894	0.00000000	-17.76575000	1.19955700
133.26665893	0.00000000	-17.39050000	1.95004900
133.46665892	0.00000000	-16.97219000	2.73745100
133.66665890	0.00000000	-16.22785000	3.11269700
133.86665889	0.00000000	-15.85261000	3.15575800
134.06665888	0.00000000	-15.80955000	3.11269700
134.26665887	0.00000000	-15.85261000	2.68823800
134.46665886	0.00000000	-16.22785000	1.57480300
134.66665885	0.00000000	-16.92298000	0.46136810
134.86665883	0.00000000	-16.92298000	0.04306102
135.06665882	0.00000000	-16.22785000	0.00000000
135.26665881	0.00000000	-15.85261000	0.00000000
135.46665880	0.00000000	-15.80955000	0.04306102
135.66665879	0.00000000	-15.80955000	0.41830710
135.86665877	0.00000000	-15.80955000	1.19955700
136.06665876	0.00000000	-15.85261000	1.95004900
136.26665875	0.00000000	-16.22785000	2.73745100
136.46665874	0.00000000	-16.97219000	3.11269700
136.66665873	0.00000000	-17.39050000	3.15575800
136.86665871	0.00000000	-17.76575000	3.11269700
137.06665870	0.00000000	-18.13484000	2.73745100
137.26665869	0.00000000	-17.72268000	1.99311000
137.46665868	0.00000000	-17.01525000	1.57480300
137.66665867	0.00000000	-16.18479000	1.15649600
137.86665866	0.00000000	-15.43430000	0.41830710
138.06665864	0.00000000	-14.69611000	0.04306102
138.26665863	0.00000000	-14.69611000	0.00000000
138.46665862	0.00000000	-15.43430000	0.04306102
138.66665861	0.00000000	-16.18479000	0.41830710
138.86665860	0.00000000	-16.97219000	1.15649600
139.06665858	0.00000000	-17.34744000	1.57480300
139.26665857	0.00000000	-17.43356000	1.99311000
139.46665856	0.00000000	-17.76575000	2.73745100
139.66665855	0.00000000	-18.13484000	3.11269700
139.86665854	0.00000000	-17.72268000	3.15575800
140.06665852	0.00000000	-17.01525000	3.11269700
140.26665851	0.00000000	-16.22785000	2.73745100
140.46665850	0.00000000	-15.85261000	1.95004900
140.66665849	0.00000000	-15.80955000	1.19955700
140.86665848	0.00000000	-15.85261000	0.41830710
141.06665847	0.00000000	-16.22785000	0.04306102
141.26665845	0.00000000	-16.97219000	0.00000000
141.46665844	0.00000000	-17.34744000	0.04306102
141.66665843	0.00000000	-17.39050000	0.41830710
141.86665842	0.00000000	-17.39050000	1.19955700
142.06665841	0.00000000	-17.34744000	1.95004900
142.26665839	0.00000000	-16.97219000	2.73745100
142.46665838	0.00000000	-16.18479000	3.11269700
142.66665837	0.00000000	-15.47736000	3.15575800
142.86665836	0.00000000	-15.06521000	3.11269700
143.06665835	0.00000000	-15.43430000	2.68823800
143.26665834	0.00000000	-15.80955000	1.57480300
143.46665832	0.00000000	-16.22785000	0.46136810
143.66665831	0.00000000	-16.97219000	0.04306102
143.86665830	0.00000000	-17.34744000	0.00000000
144.06665829	0.00000000	-17.34744000	0.04306102
144.26665828	0.00000000	-16.97219000	0.41830710
144.46665826	0.00000000	-16.22785000	1.19955700
144.66665825	0.00000000	-15.85261000	1.95004900
144.86665824	0.00000000	-15.80955000	2.73745100
145.06665823	0.00000000	-15.80955000	3.11269700
145.26665822	0.00000000	-15.80955000	3.11269700
145.46665820	0.00000000	-15.85261000	2.73745100
145.66665819	0.00000000	-16.22785000	1.99311000
145.86665818	0.00000000	-16.97219000	1.61786400
146.06665817	0.00000000	-17.34744000	1.53174200
146.26665816	0.00000000	-17.39050000	1.15649600
146.46665815	0.00000000	-17.34744000	0.41830710
146.66665813	0.00000000	-16.97219000	0.04306102
146.86665812	0.00000000	-16.22785000	0.04306102
147.06665811	0.00000000	-15.85261000	0.41830710
147.26665810	0.00000000	-15.80955000	1.15649600
147.46665809	0.00000000	-15.80955000	1.53174200
147.66665807	0.00000000	-15.80955000	1.57480300
147.86665806	0.00000000	-15.85261000	1.61786400
148.06665805	0.00000000	-16.22785000	1.99311000
148.26665804	0.00000000	-16.97219000	2.68823800
148.46665803	0.00000000	-17.34744000	2.68823800
148.66665801	0.00000000	-17.39050000	1.99311000
148.86665800	0.00000000	-17.34744000	1.61786400
149.06665799	0.00000000	-16.97219000	1.57480300
149.26665798	0.00000000	-16.22785000	1.57480300
149.46665797	0.00000000	-15.85261000	1.53174200
149.66665796	0.00000000	-15.80955000	1.19955700
149.86665794	0.00000000	-15.80955000	0.83661410
150.06665793	0.00000000	-15.80955000	1.19955700
150.26665792	0.00000000	-15.80955000	1.53174200
150.46665791	0.00000000	-15.80955000	1.57480300
150.66665790	0.00000000	-15.80955000	1.57480300
150.86665788	0.00000000	-15.85261000	1.61786400
151.06665787	0.00000000	-16.22785000	1.95004900
151.26665786	0.00000000	-16.92298000	2.31914400
151.46665785	0.00000000	-16.92298000	1.95004900
151.66665784	0.00000000	-16.22785000	1.61786400
151.86665782	0.00000000	-15.85261000	1.57480300
152.06665781	0.00000000	-15.80955000	1.57480300
152.26665780	0.00000000	-15.80955000	1.57480300
152.46665779	0.00000000	-15.80955000	1.57480300
152.66665778	0.00000000	-15.80955000	1.57480300
152.86665777	0.00000000	-15.80955000	1.57480300
153.06665775	0.00000000	-15.80955000	1.57480300
153.26665774	0.00000000	-15.80955000	1.61786400
153.46665773	0.00000000	-15.80955000	1.99311000
153.66665772	0.00000000	-15.80955000	2.73745100
153.86665771	0.00000000	-15.85261000	3.11269700
154.06665769	0.00000000	-16.22785000	3.15575800
154.26665768	0.00000000	-16.97219000	3.11269700
154.46665767	0.00000000	-17.34744000	2.73745100
154.66665766	0.00000000	-17.39050000	1.99311000
154.86665765	0.00000000	-17.34744000	1.61786400
155.06665763	0.00000000	-16.97219000	1.57480300
155.26665762	0.00000000	-16.22785000	1.53174200
155.46665761	0.00000000	-15.85261000	1.19955700
155.66665760	0.00000000	-15.80955000	0.83661410
155.86665759	0.00000000	-15.80955000	1.19955700
156.06665758	0.00000000	-15.80955000	1.53174200
156.26665756	0.00000000	-15.80955000	1.57480300
156.46665755	0.00000000	-15.85261000	1.57480300
156.66665754	0.00000000	-16.22785000	1.61786400
156.86665753	0.00000000	-16.97219000	1.99311000
157.06665752	0.00000000	-17.34744000	2.73745100
157.26665750	0.00000000	-17.39050000	3.11269700
157.46665749	0.00000000	-17.39050000	3.11269700
157.66665748	0.00000000	-17.39050000	2.73745100
157.86665747	0.00000000	-17.34744000	1.99311000
158.06665746	0.00000000	-16.97219000	1.61786400
158.26665744	0.00000000	-16.22785000	1.53174200
158.46665743	0.00000000	-15.85261000	1.15649600
158.66665742	0.00000000	-15.80955000	0.46136810
158.86665741	0.00000000	-15.80955000	0.46136810
159.06665740	0.00000000	-15.80955000	1.15649600
159.26665739	0.00000000	-15.80955000	1.53174200
159.46665737	0.00000000	-15.80955000	1.61786400
159.66665736	0.00000000	-15.85261000	1.99311000
159.86665735	0.00000000	-16.18479000	2.73745100
160.06665734	0.00000000	-16.59695000	3.11269700
160.26665733	0.00000000	-16.60310000	3.15575800
160.46665731	0.00000000	-17.01525000	3.11269700
160.66665730	0.00000000	-17.34744000	2.73745100
160.86665729	0.00000000	-17.39050000	1.99311000
161.06665728	0.00000000	-17.34744000	1.61786400
161.26665727	0.00000000	-16.97219000	1.57480300
161.46665725	0.00000000	-16.22785000	1.53174200
161.66665724	0.00000000	-15.85261000	1.19955700
161.86665723	0.00000000	-15.80955000	0.83661410
162.06665722	0.00000000	-15.80955000	1.19955700
162.26665721	0.00000000	-15.80955000	1.53174200
162.46665720	0.00000000	-15.80955000	1.57480300
162.66665718	0.00000000	-15.85261000	1.57480300
162.86665717	0.00000000	-16.22785000	1.57480300
163.06665716	0.00000000	-16.92298000	1.61786400
163.26665715	0.00000000	-16.97219000	1.95004900
163.46665714	0.00000000	-16.64616000	2.31914400
163.66665712	0.00000000	-17.01525000	1.95004900
163.86665711	0.00000000	-17.34744000	1.61786400
164.06665710	0.00000000	-17.34744000	1.57480300
164.26665709	0.00000000	-16.97219000	1.57480300
164.46665708	0.00000000	-16.22785000	1.57480300
164.66665706	0.00000000	-15.85261000	1.57480300
164.86665705	0.00000000	-15.80955000	1.57480300
165.06665704	0.00000000	-15.80955000	1.57480300
165.26665703	0.00000000	-15.80955000	1.57480300
165.46665702	0.00000000	-15.80955000	1.57480300
165.66665701	0.00000000	-15.80955000	1.57480300
165.86665699	0.00000000	-15.80955000	1.57480300
166.06665698	0.00000000	-15.85261000	1.57480300
166.26665697	0.00000000	-16.22785000	1.61786400
166.46665696	0.00000000	-16.97219000	1.95004900
166.66665695	0.00000000	-17.34744000	2.31914400
166.86665693	0.00000000	-17.39050000	1.95004900
167.06665692	0.00000000	-17.34744000	1.61786400
167.26665691	0.00000000	-16.97219000	1.57480300
167.46665690	0.00000000	-16.22785000	1.57480300
167.66665689	0.00000000	-15.85261000	1.57480300
167.86665687	0.00000000	-15.80955000	1.57480300
168.06665686	0.00000000	-15.80955000	1.57480300
168.26665685	0.00000000	-15.80955000	1.57480300
168.46665684	0.00000000	-15.80955000	1.57480300
168.66665683	0.00000000	-15.80955000	1.57480300
168.86665682	0.00000000	-15.80955000	1.57480300
169.06665680	0.00000000	-15.80955000	1.57480300
169.26665679	0.00000000	-15.80955000	1.57480300
169.46665678	0.00000000	-15.80955000	1.57480300
169.66665677	0.00000000	-15.80955000	1.57480300
169.86665676	0.00000000	-15.80955000	1.57480300
170.06665674	0.00000000	-15.80955000	1.57480300
170.26665673	0.00000000	-15.80955000	1.57480300
170.46665672	0.00000000	-15.80955000	1.57480300
170.66665671	0.00000000	-15.80955000	1.57480300
170.86665670	0.00000000	-15.80955000	1.57480300
171.06665668	0.00000000	-15.80955000	1.57480300
171.26665667	0.00000000	-15.80955000	1.57480300
171.46665666	0.00000000	-15.80955000	1.57480300
171.66665665	0.00000000	-15.76649000	1.57480300
171.86665664	0.00000000	-15.43430000	1.57480300
172.06665663	0.00000000	-15.06521000	1.57480300
172.26665661	0.00000000	-15.43430000	1.57480300
172.46665660	0.00000000	-15.76649000	1.57480300
172.66665659	0.00000000	-15.80955000	1.57480300
172.86665658	0.00000000	-15.85261000	1.57480300
173.06665657	0.00000000	-16.18479000	1.57480300
173.26665655	0.00000000	-16.55389000	1.57480300
173.46665654	0.00000000	-16.18479000	1.57480300
173.66665653	0.00000000	-15.85261000	1.57480300
173.86665652	0.00000000	-15.80955000	1.57480300
174.06665651	0.00000000	-15.80955000	1.57480300
174.26665649	0.00000000	-15.80955000	1.57480300
174.46665648	0.00000000	-15.80955000	1.57480300
174.66665647	0.00000000	-15.80955000	1.57480300
174.86665646	0.00000000	-15.80955000	1.57480300
175.06665645	0.00000000	-15.80955000	1.57480300
175.26665644	0.00000000	-15.80955000	1.57480300
175.46665642	0.00000000	-15.80955000	1.57480300
175.66665641	0.00000000	-15.80955000	1.57480300
175.86665640	0.00000000	-15.80955000	1.57480300
176.06665639	0.00000000	-15.80955000	1.57480300
176.26665638	0.00000000	-15.80955000	1.57480300
176.46665636	0.00000000	-15.80955000	1.57480300
176.66665635	0.00000000	-15.80955000	1.57480300
176.86665634	0.00000000	-15.80955000	1.57480300
177.06665633	0.00000000	-15.80955000	1.57480300
177.26665632	0.00000000	-15.80955000	1.57480300
177.46665630	0.00000000	-15.80955000	1.57480300
177.66665629	0.00000000	-15.80955000	1.57480300
177.86665628	0.00000000	-15.80955000	1.57480300
178.06665627	0.00000000	-15.80955000	1.57480300
178.26665626	0.00000000	-15.80955000	1.57480300
178.46665625	0.00000000	-15.80955000	1.57480300
178.66665623	0.00000000	-15.80955000	1.61786400
178.86665622	0.00000000	-15.80955000	1.99311000
179.06665621	0.00000000	-15.80955000	2.68823800
179.26665620	0.00000000	-15.80955000	2.68823800
179.46665619	0.00000000	-15.80955000	1.99311000
179.66665617	0.00000000	-15.80955000	1.61786400
179.86665616	0.00000000	-15.80955000	1.57480300
180.06665615	0.00000000	-15.80955000	1.57480300
180.26665614	0.00000000	-15.80955000	1.57480300
180.46665613	0.00000000	-15.80955000	1.57480300
180.66665611	0.00000000	-15.80955000	1.57480300
180.86665610	0.00000000	-15.80955000	1.57480300
181.06665609	0.00000000	-15.80955000	1.57480300
181.26665608	0.00000000	-15.80955000	1.57480300
181.46665607	0.00000000	-15.80955000	1.61786400
181.66665606	0.00000000	-15.80955000	1.99311000
181.86665604	0.00000000	-15.80955000	2.73745100
182.06665603	0.00000000	-15.80955000	3.06348400
182.26665602	0.00000000	-15.80955000	2.73745100
182.46665601	0.00000000	-15.80955000	2.04232300
182.66665600	0.00000000	-15.80955000	1.99311000
182.86665598	0.00000000	-15.80955000	2.31914400
183.06665597	0.00000000	-15.80955000	1.95004900
183.26665596	0.00000000	-15.80955000	1.61786400
183.46665595	0.00000000	-15.80955000	1.57480300
183.66665594	0.00000000	-15.80955000	1.57480300
183.86665592	0.00000000	-15.80955000	1.57480300
184.06665591	0.00000000	-15.80955000	1.57480300
184.26665590	0.00000000	-15.80955000	1.57480300
184.46665589	0.00000000	-15.80955000	1.61786400
184.66665588	0.00000000	-15.80955000	1.99311000
184.86665587	0.00000000	-15.80955000	2.73745100
185.06665585	0.00000000	-15.80955000	3.11269700
185.26665584	0.00000000	-15.80955000	3.11269700
185.46665583	0.00000000	-15.80955000	2.73745100
185.66665582	0.00000000	-15.80955000	1.99311000
185.86665581	0.00000000	-15.80955000	1.61786400
186.06665579	0.00000000	-15.80955000	1.57480300
186.26665578	0.00000000	-15.80955000	1.57480300
186.46665577	0.00000000	-15.80955000	1.57480300
186.66665576	0.00000000	-15.80955000	1.57480300
186.86665575	0.00000000	-15.80955000	1.57480300
187.06665573	0.00000000	-15.80955000	1.57480300
187.26665572	0.00000000	-15.80955000	1.61786400
187.46665571	0.00000000	-15.80955000	1.99311000
187.66665570	0.00000000	-15.80955000	2.73745100
187.86665569	0.00000000	-15.80955000	3.11269700
188.06665568	0.00000000	-15.80955000	3.15575800
188.26665566	0.00000000	-15.80955000	3.11269700
188.46665565	0.00000000	-15.80955000	2.73745100
188.66665564	0.00000000	-15.80955000	1.99311000
188.86665563	0.00000000	-15.80955000	1.61786400
189.06665562	0.00000000	-15.80955000	1.57480300
189.26665560	0.00000000	-15.80955000	1.57480300
189.46665559	0.00000000	-15.80955000	1.57480300
189.66665558	0.00000000	-15.80955000	1.57480300
189.86665557	0.00000000	-15.80955000	1.57480300
190.06665556	0.00000000	-15.80955000	1.57480300
190.26665554	0.00000000	-15.80955000	1.61786400
190.46665553	0.00000000	-15.80955000	1.95004900
190.66665552	0.00000000	-15.80955000	2.31914400
190.86665551	0.00000000	-15.80955000	1.95004900
191.06665550	0.00000000	-15.80955000	1.61786400
191.26665549	0.00000000	-15.80955000	1.57480300
191.46665547	0.00000000	-15.80955000	1.57480300
191.66665546	0.00000000	-15.80955000	1.57480300
191.86665545	0.00000000	-15.80955000	1.57480300
192.06665544	0.00000000	-15.80955000	1.57480300
192.26665543	0.00000000	-15.80955000	1.57480300
192.46665541	0.00000000	-15.80955000	1.57480300
192.66665540	0.00000000	-15.80955000	1.57480300
192.86665539	0.00000000	-15.80955000	1.57480300
193.06665538	0.00000000	-15.80955000	1.57480300
193.26665537	0.00000000	-15.80955000	1.57480300
193.46665535	0.00000000	-15.80955000	1.57480300
193.66665534	0.00000000	-15.80955000	1.57480300
193.86665533	0.00000000	-15.80955000	1.57480300
194.06665532	0.00000000	-15.80955000	1.61786400
194.26665531	0.00000000	-15.80955000	1.99311000
194.46665530	0.00000000	-15.80955000	2.68823800
194.66665528	0.00000000	-15.80955000	2.68823800
194.86665527	0.00000000	-15.80955000	1.99311000
195.06665526	0.00000000	-15.76649000	1.61786400
195.26665525	0.00000000	-15.43430000	1.57480300
195.46665524	0.00000000	-15.06521000	1.57480300
195.66665522	0.00000000	-15.43430000	1.57480300
195.86665521	0.00000000	-15.76649000	1.57480300
196.06665520	0.00000000	-15.80955000	1.57480300
