Time	Channel A	Channel B	Channel C
(us)	(V)	(mV)	(mV)

-4.59999956	0.00000000	-63.24434000	-17.36589000
-4.39999957	0.00000000	-63.24434000	-17.36589000
-4.19999958	0.00000000	-63.28740000	-17.36589000
-3.99999959	0.00000000	-63.61958000	-17.36589000
-3.79999960	0.00000000	-63.98867000	-17.36589000
-3.59999962	0.00000000	-63.61958000	-17.36589000
-3.39999963	0.00000000	-63.28740000	-17.36589000
-3.19999964	0.00000000	-63.24434000	-17.36589000
-2.99999965	0.00000000	-63.24434000	-17.36589000
-2.79999966	0.00000000	-63.24434000	-17.36589000
-2.59999968	0.00000000	-63.28740000	-17.36589000
-2.39999969	0.00000000	-63.61958000	-17.36589000
-2.19999970	0.00000000	-63.98867000	-17.36589000
-1.99999971	0.00000000	-63.61958000	-17.36589000
-1.79999972	0.00000000	-63.28740000	-17.36589000
-1.59999973	0.00000000	-63.24434000	-17.36589000
-1.39999975	0.00000000	-63.24434000	-17.36589000
-1.19999976	0.00000000	-63.24434000	-17.36589000
-0.99999977	0.00000000	-63.24434000	-17.36589000
-0.79999978	0.00000000	-63.24434000	-17.36589000
-0.59999979	0.00000000	-63.24434000	-17.36589000
-0.39999981	0.15871060	-63.24434000	-17.36589000
-0.19999982	0.47736220	-63.24434000	-17.36589000
0.00000017	0.79601380	-63.24434000	-17.36589000
0.20000016	1.11466500	-63.24434000	-17.36589000
0.40000015	0.95533960	-63.24434000	-17.36589000
0.60000013	0.47736220	-63.24434000	-17.36589000
0.80000012	-0.15871060	-63.24434000	-17.36589000
1.00000011	-1.11466500	-63.24434000	-17.36589000
1.20000010	-2.07062000	-63.24434000	-17.36589000
1.40000009	-2.70792300	-63.24434000	-17.36589000
1.60000008	-2.70792300	-63.24434000	-17.36589000
1.80000006	-1.75196900	-63.24434000	-17.36589000
2.00000005	-0.15871060	-63.24434000	-17.36589000
2.20000004	1.91129400	-63.24434000	-17.36589000
2.40000003	3.98191400	-63.24434000	-17.36589000
2.60000002	5.09719500	-63.24434000	-17.36589000
2.80000000	5.25652100	-63.24434000	-17.40895000
2.99999999	3.82258900	-63.28740000	-17.74114000
3.19999998	0.95533960	-63.66264000	-18.11024000
3.39999997	-2.38927200	-64.35777000	-17.74114000
3.59999996	-5.57517200	-64.35777000	-17.40895000
3.79999994	-7.64579200	-63.66264000	-17.36589000
3.99999993	-7.80511800	-63.28740000	-17.32283000
4.19999992	-6.05315000	-63.24434000	-16.99065000
4.39999991	-2.54859700	-63.24434000	-16.57849000
4.59999990	1.91129400	-63.24434000	-16.61540000
4.79999989	6.05315000	-63.24434000	-16.57849000
4.99999987	8.76107300	-63.24434000	-16.99065000
5.19999986	9.39837600	-63.24434000	-17.32283000
5.39999985	7.64579200	-63.24434000	-17.36589000
5.59999984	3.98191400	-63.24434000	-17.36589000
5.79999983	-0.63668800	-63.24434000	-17.36589000
5.99999981	-5.25652100	-63.28740000	-17.36589000
6.19999980	-8.44242100	-63.61958000	-17.32283000
6.39999979	-9.39837600	-63.98867000	-16.94759000
6.59999978	-8.12377000	-63.61958000	-16.20325000
6.79999977	-4.77854300	-63.28740000	-15.82800000
6.99999975	-0.47736220	-63.24434000	-15.78494000
7.19999974	3.66326300	-63.24434000	-15.82800000
7.39999973	6.69045300	-63.24434000	-16.20325000
7.59999972	7.80511800	-63.24434000	-16.94759000
7.79999971	7.00848900	-63.24434000	-17.32283000
7.99999970	4.45989200	-63.24434000	-17.36589000
8.19999968	1.27399100	-63.24434000	-17.36589000
8.39999967	-1.91129400	-63.24434000	-17.36589000
8.59999966	-4.14124000	-63.24434000	-17.36589000
8.79999965	-5.25652100	-63.24434000	-17.36589000
8.99999964	-4.77854300	-63.24434000	-17.36589000
9.19999962	-3.34522600	-63.24434000	-17.36589000
9.39999961	-1.27399100	-63.24434000	-17.36589000
9.59999960	0.47736220	-63.24434000	-17.36589000
9.79999959	1.91129400	-63.24434000	-17.36589000
9.99999958	2.54859700	-63.24434000	-17.36589000
10.19999956	2.38927200	-63.24434000	-17.36589000
10.39999955	1.75196900	-63.24434000	-17.36589000
10.59999954	0.79601380	-63.24434000	-17.36589000
10.79999953	0.00000000	-63.24434000	-17.36589000
10.99999952	-0.63668800	-63.24434000	-17.36589000
11.19999951	-0.95533960	-63.24434000	-17.36589000
11.39999949	-0.95533960	-63.24434000	-17.36589000
11.59999948	-0.79601380	-63.24434000	-17.36589000
11.79999947	-0.47736220	-63.24434000	-17.36589000
11.99999946	-0.31803640	-63.24434000	-17.36589000
12.19999945	-0.15871060	-63.24434000	-17.36589000
12.39999943	-0.15871060	-63.24434000	-17.36589000
12.59999942	0.00000000	-63.24434000	-17.36589000
12.79999941	0.00000000	-63.24434000	-17.32283000
12.99999940	0.15871060	-63.24434000	-16.99065000
13.19999939	0.00000000	-63.24434000	-16.62155000
13.39999937	0.00000000	-63.24434000	-16.99065000
13.59999936	0.00000000	-63.24434000	-17.32283000
13.79999935	0.00000000	-63.24434000	-17.36589000
13.99999934	-0.15871060	-63.24434000	-17.36589000
14.19999933	-0.15871060	-63.24434000	-17.36589000
14.39999932	-0.15871060	-63.24434000	-17.36589000
14.59999930	0.00000000	-63.24434000	-17.36589000
14.79999929	0.00000000	-63.24434000	-17.36589000
14.99999928	0.00000000	-63.24434000	-17.36589000
15.19999927	0.00000000	-63.24434000	-17.36589000
15.39999926	0.00000000	-63.24434000	-17.36589000
15.59999924	0.00000000	-63.24434000	-17.36589000
15.79999923	0.00000000	-63.24434000	-17.36589000
15.99999922	0.00000000	-63.24434000	-17.36589000
16.19999921	0.00000000	-63.24434000	-17.36589000
16.39999920	0.00000000	-63.24434000	-17.36589000
16.59999919	0.00000000	-63.24434000	-17.36589000
16.79999917	0.00000000	-63.20127000	-17.36589000
16.99999916	0.00000000	-62.82603000	-17.36589000
17.19999915	0.00000000	-62.08169000	-17.36589000
17.39999914	0.00000000	-61.70644000	-17.36589000
17.59999913	0.00000000	-61.70644000	-17.36589000
17.79999911	0.00000000	-62.08169000	-17.36589000
17.99999910	0.00000000	-62.86909000	-17.36589000
18.19999909	0.00000000	-63.66264000	-17.36589000
18.39999908	0.00000000	-64.86835000	-17.32283000
18.59999907	0.00000000	-66.40624000	-16.99065000
18.79999905	0.00000000	-67.94415000	-16.62155000
18.99999904	0.00000000	-68.97145000	-16.99065000
19.19999903	0.00000000	-68.22096000	-17.32283000
19.39999902	0.00000000	-65.53272000	-17.36589000
19.59999901	0.00000000	-62.40772000	-17.36589000
19.79999900	0.00000000	-58.50147000	-17.36589000
19.99999898	0.00000000	-54.68750000	-17.36589000
20.19999897	0.00000000	-52.40526000	-17.36589000
20.39999896	0.00000000	-52.07923000	-17.36589000
20.59999895	0.00000000	-54.82283000	-17.36589000
20.79999894	0.00000000	-60.21776000	-17.36589000
20.99999892	0.00000000	-66.87376000	-17.36589000
21.19999891	0.00000000	-74.22490000	-17.36589000
21.39999890	0.00000000	-80.73941000	-17.36589000
21.59999889	0.00000000	-84.09203000	-17.36589000
21.79999888	0.00000000	-82.88017000	-17.36589000
21.99999886	0.00000000	-76.27953000	-17.36589000
22.19999885	0.00000000	-65.85260000	-17.36589000
22.39999884	0.00000000	-53.80167000	-17.36589000
22.59999883	0.00000000	-42.21825000	-17.36589000
22.79999882	0.00000000	-33.83981000	-17.36589000
22.99999881	0.00000000	-31.60679000	-17.32283000
23.19999879	0.00000000	-37.05093000	-16.94759000
23.39999878	0.00000000	-49.09572000	-16.20325000
23.59999877	0.00000000	-65.75418000	-15.78494000
23.79999876	0.00000000	-83.85210000	-15.40969000
23.99999875	0.00000000	-98.46825000	-15.04675000
24.19999873	0.00000000	-105.77630000	-15.45891000
24.39999872	0.00000000	-103.77710000	-16.20325000
24.59999871	0.00000000	-92.10137000	-17.40895000
24.79999870	0.00000000	-72.83464000	-18.94685000
24.99999869	0.00000000	-50.41215000	-20.47859000
25.19999867	0.00000000	-30.34572000	-21.64124000
25.39999866	0.00000000	-16.81225000	-22.01033000
25.59999865	0.00000000	-13.45964000	-21.59203000
25.79999864	0.00000000	-21.56127000	-19.97416000
25.99999863	0.00000000	-39.74532000	-16.90453000
26.19999862	0.00000000	-63.61958000	-13.00443000
26.39999860	0.00000000	-87.62302000	-9.19045200
26.59999859	0.00000000	-106.15160000	-6.12696800
26.79999858	0.00000000	-115.40350000	-5.42568800
26.99999857	0.00000000	-112.65990000	-7.33267600
27.19999856	0.00000000	-98.42519000	-11.69414000
27.39999854	0.00000000	-76.50713000	-18.24557000
27.59999853	0.00000000	-52.45448000	-25.95964000
27.79999852	0.00000000	-31.55143000	-32.51107000
27.99999851	0.00000000	-17.23671000	-36.74335000
28.19999850	0.00000000	-13.45964000	-37.39542000
28.39999848	0.00000000	-21.05069000	-33.12008000
28.59999847	0.00000000	-37.65379000	-24.57554000
28.79999846	0.00000000	-58.87672000	-13.37352000
28.99999845	0.00000000	-80.17962000	-1.43946800
29.19999844	0.00000000	-96.79502000	7.76943800
29.39999843	0.00000000	-105.40110000	12.03863000
29.59999841	0.00000000	-104.65670000	10.41462000
29.79999840	0.00000000	-95.44168000	2.60826800
29.99999839	0.00000000	-79.99508000	-10.53765000
30.19999838	0.00000000	-62.21702000	-26.32874000
30.39999837	0.00000000	-45.93381000	-40.96949000
30.59999835	0.00000000	-34.25812000	-51.00270000
30.79999834	0.00000000	-29.18307000	-54.07234000
30.99999833	0.00000000	-31.05315000	-49.37868000
31.19999832	0.00000000	-39.19168000	-37.39542000
31.39999831	0.00000000	-51.52559000	-20.39247000
31.59999829	0.00000000	-65.47736000	-2.26993100
31.79999828	0.00000000	-77.86047000	13.20128000
31.99999827	0.00000000	-86.46037000	22.44709000
32.19999826	0.00000000	-89.91141000	23.60974000
32.39999825	0.00000000	-87.62302000	16.22170000
32.59999824	0.00000000	-79.90896000	1.58710600
32.79999822	0.00000000	-69.15600000	-16.90453000
32.99999821	0.00000000	-57.89862000	-34.69488000
33.19999820	0.00000000	-48.63435000	-48.26525000
33.39999819	0.00000000	-43.14714000	-55.23499000
33.59999818	0.00000000	-42.35359000	-54.07234000
33.79999816	0.00000000	-45.80462000	-45.24483000
33.99999815	0.00000000	-52.77436000	-30.88705000
34.19999814	0.00000000	-61.62032000	-13.87795000
34.39999813	0.00000000	-70.09104000	2.70054100
34.59999812	0.00000000	-75.90427000	14.64075000
34.79999810	0.00000000	-77.86047000	19.33440000
34.99999809	0.00000000	-75.94734000	16.26476000
35.19999808	0.00000000	-70.60162000	6.23154500
35.39999807	0.00000000	-63.71186000	-8.40305000
35.59999806	0.00000000	-57.51722000	-24.20029000
35.79999805	0.00000000	-53.24187000	-37.30315000
35.99999803	0.00000000	-51.70398000	-44.69119000
36.19999802	0.00000000	-53.24187000	-45.10950000
36.39999801	0.00000000	-57.47416000	-39.01944000
36.59999800	0.00000000	-63.20127000	-28.19267000
36.79999799	0.00000000	-68.55315000	-15.54503000
36.99999797	0.00000000	-71.67200000	-3.94315900
37.19999796	0.00000000	-72.09030000	3.31569900
37.39999795	0.00000000	-70.17716000	4.92741100
37.59999794	0.00000000	-66.32012000	0.28912400
37.79999793	0.00000000	-61.75566000	-8.82135800
37.99999791	0.00000000	-57.80634000	-19.59892000
38.19999790	0.00000000	-55.09965000	-28.75861000
38.39999789	0.00000000	-53.57406000	-33.77214000
38.59999788	0.00000000	-54.40452000	-33.02780000
38.79999787	0.00000000	-57.43110000	-27.31299000
38.99999786	0.00000000	-61.66338000	-18.47933000
39.19999784	0.00000000	-65.89567000	-8.95669300
39.39999783	0.00000000	-69.06373000	-2.07923200
39.59999782	0.00000000	-71.01993000	-0.12918310
39.79999781	0.00000000	-71.76427000	-3.19266700
39.99999780	0.00000000	-70.60162000	-10.53765000
40.19999778	0.00000000	-67.90108000	-20.47859000
40.39999777	0.00000000	-64.40699000	-30.00738000
40.59999776	0.00000000	-60.54995000	-35.81446000
40.79999775	0.00000000	-57.43110000	-36.56496000
40.99999774	0.00000000	-55.47490000	-32.32653000
41.19999772	0.00000000	-54.68750000	-23.50517000
41.39999771	0.00000000	-55.47490000	-13.18282000
41.59999770	0.00000000	-57.38804000	-4.26304100
41.79999769	0.00000000	-60.12549000	1.49483300
41.99999768	0.00000000	-63.24434000	2.60826800
42.19999767	0.00000000	-66.32012000	-1.57480300
42.39999765	0.00000000	-68.64542000	-9.60875900
42.59999764	0.00000000	-69.48203000	-18.85458000
42.79999763	0.00000000	-69.48203000	-27.31299000
42.99999762	0.00000000	-68.64542000	-32.70177000
43.19999761	0.00000000	-66.36318000	-33.53838000
43.39999759	0.00000000	-63.71186000	-30.51796000
43.59999758	0.00000000	-61.70644000	-24.75394000
43.79999757	0.00000000	-60.12549000	-17.83341000
43.99999756	0.00000000	-58.96899000	-11.64493000
44.19999755	0.00000000	-58.54454000	-7.37573800
44.39999753	0.00000000	-58.50147000	-5.79478300
44.59999752	0.00000000	-58.50147000	-6.91437000
44.79999751	0.00000000	-58.54454000	-9.98400600
44.99999750	0.00000000	-58.91978000	-14.21014000
45.19999749	0.00000000	-59.75024000	-18.43627000
45.39999748	0.00000000	-60.96825000	-21.54897000
45.59999746	0.00000000	-63.33661000	-23.12992000
45.79999745	0.00000000	-66.40624000	-23.17298000
45.99999744	0.00000000	-69.52509000	-22.01649000
46.19999743	0.00000000	-72.22563000	-20.06029000
46.39999742	0.00000000	-73.67126000	-17.36589000
46.59999740	0.00000000	-72.87770000	-14.67150000
46.79999739	0.00000000	-69.39591000	-12.72146000
46.99999738	0.00000000	-64.36392000	-11.55881000
47.19999737	0.00000000	-58.50147000	-11.60187000
47.39999736	0.00000000	-52.73130000	-13.09055000
47.59999734	0.00000000	-48.49901000	-15.40969000
47.79999733	0.00000000	-47.01033000	-17.74114000
47.99999732	0.00000000	-49.00959000	-20.06029000
48.19999731	0.00000000	-54.77977000	-21.59203000
48.39999730	0.00000000	-62.86909000	-22.01033000
48.59999729	0.00000000	-71.01993000	-21.59203000
48.79999727	0.00000000	-77.95275000	-20.01722000
48.99999726	0.00000000	-81.71751000	-17.32283000
49.19999725	0.00000000	-80.60408000	-14.25320000
49.39999724	0.00000000	-75.20915000	-11.55881000
49.59999723	0.00000000	-67.06447000	-10.02707000
49.79999721	0.00000000	-57.43110000	-10.07013000
49.99999720	0.00000000	-49.00959000	-11.97711000
50.19999719	0.00000000	-44.35285000	-15.45891000
50.39999718	0.00000000	-44.30979000	-19.32210000
50.59999717	0.00000000	-48.54207000	-23.17298000
50.79999715	0.00000000	-55.89320000	-25.77510000
50.99999714	0.00000000	-64.78223000	-25.82431000
51.19999713	0.00000000	-73.20374000	-23.54823000
51.39999712	0.00000000	-78.60482000	-20.06029000
51.59999711	0.00000000	-79.39838000	-15.78494000
51.79999710	0.00000000	-75.94734000	-11.60187000
51.99999708	0.00000000	-69.02066000	-8.86441900
52.19999707	0.00000000	-60.63607000	-8.11392700
52.39999706	0.00000000	-53.66018000	-9.23966500
52.59999705	0.00000000	-49.79700000	-12.34621000
52.79999704	0.00000000	-49.38484000	-16.16018000
52.99999702	0.00000000	-52.82357000	-20.06029000
53.19999701	0.00000000	-58.54454000	-23.08686000
53.39999700	0.00000000	-64.78223000	-24.29257000
53.59999699	0.00000000	-70.50935000	-23.50517000
53.79999698	0.00000000	-73.94807000	-21.22293000
53.99999696	0.00000000	-73.58514000	-17.78420000
54.19999695	0.00000000	-70.17716000	-14.76378000
54.39999694	0.00000000	-64.78223000	-13.18282000
54.59999693	0.00000000	-59.01205000	-13.13976000
54.79999692	0.00000000	-54.40452000	-14.29626000
54.99999691	0.00000000	-52.12844000	-16.20325000
55.19999689	0.00000000	-53.24187000	-18.43627000
55.39999688	0.00000000	-57.01279000	-19.59892000
55.59999687	0.00000000	-61.66338000	-19.22982000
55.79999686	0.00000000	-66.32012000	-18.06102000
55.99999685	0.00000000	-70.13410000	-15.74188000
56.19999683	0.00000000	-71.62893000	-13.13976000
56.39999682	0.00000000	-70.17716000	-11.60187000
56.59999681	0.00000000	-66.73843000	-11.64493000
56.79999680	0.00000000	-62.86909000	-13.60113000
56.99999679	0.00000000	-59.01205000	-17.40895000
57.19999677	0.00000000	-56.31151000	-21.59203000
57.39999676	0.00000000	-55.51796000	-24.66166000
57.59999675	0.00000000	-56.26845000	-25.82431000
57.79999674	0.00000000	-58.59375000	-24.61860000
57.99999673	0.00000000	-61.62032000	-21.17372000
58.19999672	0.00000000	-64.35777000	-16.11712000
58.39999670	0.00000000	-66.27091000	-10.72219000
58.59999669	0.00000000	-67.05831000	-5.75172200
58.79999668	0.00000000	-66.27091000	-3.14960600
58.99999667	0.00000000	-64.45004000	-4.30610200
59.19999666	0.00000000	-62.50000000	-8.90747900
59.39999664	0.00000000	-61.33120000	-15.87721000
59.59999663	0.00000000	-60.50073000	-23.50517000
59.79999662	0.00000000	-60.17470000	-29.67520000
59.99999661	0.00000000	-60.54995000	-32.37574000
60.19999660	0.00000000	-61.66338000	-31.63140000
60.39999658	0.00000000	-62.77681000	-27.31299000
60.59999657	0.00000000	-63.20127000	-20.01722000
60.79999656	0.00000000	-63.20127000	-11.55881000
60.99999655	0.00000000	-62.77681000	-4.26304100
61.19999654	0.00000000	-61.66338000	-0.03690945
61.39999653	0.00000000	-60.54995000	-0.03690945
61.59999651	0.00000000	-60.12549000	-4.26304100
61.79999650	0.00000000	-60.17470000	-11.55881000
61.99999649	0.00000000	-60.96825000	-20.06029000
62.19999648	0.00000000	-62.86909000	-27.78051000
62.39999647	0.00000000	-64.78223000	-33.12008000
62.59999645	0.00000000	-66.32012000	-34.27657000
62.79999644	0.00000000	-67.05831000	-30.88705000
62.99999643	0.00000000	-66.32012000	-24.75394000
63.19999642	0.00000000	-64.78223000	-17.36589000
63.39999641	0.00000000	-62.82603000	-10.02707000
63.59999639	0.00000000	-60.50073000	-4.26304100
63.79999638	0.00000000	-58.59375000	-1.52559000
63.99999637	0.00000000	-57.43110000	-2.31299200
64.19999636	0.00000000	-57.47416000	-6.12696800
64.39999635	0.00000000	-58.96899000	-12.30315000
64.59999634	0.00000000	-61.28814000	-18.85458000
64.79999632	0.00000000	-63.61958000	-24.66781000
64.99999631	0.00000000	-65.94488000	-28.51870000
65.19999630	0.00000000	-67.43970000	-29.35531000
65.39999629	0.00000000	-67.43970000	-27.86663000
65.59999628	0.00000000	-65.94488000	-24.75394000
65.79999626	0.00000000	-63.61958000	-20.47859000
65.99999625	0.00000000	-61.33120000	-15.83415000
66.19999624	0.00000000	-59.38730000	-11.60187000
66.39999623	0.00000000	-58.63681000	-8.82135800
66.59999622	0.00000000	-59.01205000	-7.65255800
66.79999620	0.00000000	-60.54995000	-7.61564900
66.99999619	0.00000000	-62.82603000	-9.18430000
67.19999618	0.00000000	-64.73302000	-11.46653000
67.39999617	0.00000000	-65.85260000	-14.25320000
67.59999616	0.00000000	-65.47736000	-17.36589000
67.79999615	0.00000000	-63.57652000	-20.47859000
67.99999613	0.00000000	-61.24508000	-23.22219000
68.19999612	0.00000000	-58.54454000	-25.12918000
68.39999611	0.00000000	-56.31151000	-25.91043000
68.59999610	0.00000000	-55.98548000	-25.08612000
68.79999609	0.00000000	-57.84941000	-22.75467000
68.99999607	0.00000000	-61.33120000	-18.85458000
69.19999606	0.00000000	-65.20053000	-14.25320000
69.39999605	0.00000000	-69.06373000	-9.98400600
69.59999604	0.00000000	-71.67200000	-6.86515700
69.79999603	0.00000000	-71.67200000	-5.33341500
69.99999601	0.00000000	-69.02066000	-5.75172200
70.19999600	0.00000000	-64.73917000	-8.48917200
70.39999599	0.00000000	-59.70718000	-13.09670000
70.59999598	0.00000000	-54.68750000	-18.52854000
70.79999597	0.00000000	-51.24261000	-23.50517000
70.99999596	0.00000000	-50.07997000	-26.98080000
71.19999594	0.00000000	-51.66092000	-27.73130000
71.39999593	0.00000000	-55.89320000	-25.86737000
71.59999592	0.00000000	-61.71259000	-22.01033000
71.79999591	0.00000000	-67.85802000	-17.40895000
71.99999590	0.00000000	-72.87770000	-13.13976000
72.19999588	0.00000000	-75.20915000	-10.02707000
72.39999587	0.00000000	-74.83390000	-8.48917200
72.59999586	0.00000000	-71.71505000	-8.86441900
72.79999585	0.00000000	-66.32012000	-11.14050000
72.99999584	0.00000000	-60.17470000	-14.16092000
73.19999582	0.00000000	-54.73056000	-16.90453000
73.39999581	0.00000000	-51.28568000	-18.85458000
73.59999580	0.00000000	-50.45521000	-20.01722000
73.79999579	0.00000000	-52.40526000	-20.01722000
73.99999578	0.00000000	-56.22539000	-18.90379000
74.19999577	0.00000000	-61.28814000	-17.40895000
74.39999575	0.00000000	-66.27091000	-16.29552000
74.59999574	0.00000000	-70.13410000	-16.29552000
74.79999573	0.00000000	-71.67200000	-17.40895000
74.99999572	0.00000000	-70.60162000	-18.94685000
75.19999571	0.00000000	-67.94415000	-20.43553000
75.39999569	0.00000000	-64.82529000	-21.13066000
75.59999568	0.00000000	-61.70644000	-19.97416000
75.79999567	0.00000000	-59.01205000	-17.32283000
75.99999566	0.00000000	-57.47416000	-14.21014000
76.19999565	0.00000000	-57.38804000	-11.09744000
76.39999563	0.00000000	-58.16929000	-8.44611200
76.59999562	0.00000000	-59.29502000	-7.37573800
76.79999561	0.00000000	-60.86983000	-8.90747900
76.99999560	0.00000000	-61.99557000	-12.76452000
77.19999559	0.00000000	-62.82603000	-17.74114000
77.39999558	0.00000000	-63.15207000	-22.79773000
77.59999556	0.00000000	-62.86909000	-26.61786000
77.79999555	0.00000000	-62.50000000	-28.56176000
77.99999554	0.00000000	-62.91216000	-27.73130000
78.19999553	0.00000000	-63.61958000	-24.29257000
78.39999552	0.00000000	-64.40699000	-18.90379000
78.59999550	0.00000000	-64.78223000	-13.09670000
78.79999549	0.00000000	-64.78223000	-8.07086500
78.99999548	0.00000000	-64.31471000	-4.59522600
79.19999547	0.00000000	-62.77681000	-3.84473400
79.39999546	0.00000000	-60.50073000	-5.75172200
79.59999544	0.00000000	-58.59375000	-9.98400600
79.79999543	0.00000000	-57.38804000	-15.36663000
79.99999542	0.00000000	-57.05585000	-20.43553000
80.19999541	0.00000000	-57.80634000	-24.71087000
80.39999540	0.00000000	-59.75024000	-27.35605000
80.59999539	0.00000000	-62.08169000	-27.40526000
80.79999537	0.00000000	-64.78223000	-25.12918000
80.99999536	0.00000000	-67.06447000	-21.64124000
81.19999535	0.00000000	-67.85802000	-17.36589000
81.39999534	0.00000000	-67.48277000	-13.13976000
81.59999533	0.00000000	-65.89567000	-9.98400600
81.79999531	0.00000000	-63.20127000	-8.02780400
81.99999530	0.00000000	-60.17470000	-7.24040300
82.19999529	0.00000000	-57.84941000	-8.02780400
82.39999528	0.00000000	-57.05585000	-9.93479300
82.59999527	0.00000000	-57.43110000	-12.67224000
82.79999525	0.00000000	-58.96899000	-15.78494000
82.99999524	0.00000000	-61.19586000	-18.94685000
83.19999523	0.00000000	-62.77681000	-22.01649000
83.39999522	0.00000000	-63.61958000	-24.33563000
83.59999521	0.00000000	-64.35777000	-25.08612000
83.79999520	0.00000000	-64.35777000	-24.33563000
83.99999518	0.00000000	-63.61958000	-21.96727000
84.19999517	0.00000000	-62.86909000	-18.52854000
84.39999516	0.00000000	-62.08169000	-14.62844000
84.59999515	0.00000000	-61.70644000	-11.14050000
84.79999514	0.00000000	-61.66338000	-8.40305000
84.99999512	0.00000000	-61.66338000	-6.90821800
85.19999511	0.00000000	-61.66338000	-7.28346400
85.39999510	0.00000000	-61.66338000	-9.65182000
85.59999509	0.00000000	-61.62032000	-13.51501000
85.79999508	0.00000000	-61.24508000	-18.52854000
85.99999506	0.00000000	-60.50073000	-23.08686000
86.19999505	0.00000000	-60.17470000	-25.86737000
86.39999504	0.00000000	-60.54995000	-26.66092000
86.59999503	0.00000000	-61.66338000	-25.82431000
86.79999502	0.00000000	-62.82603000	-22.71161000
86.99999501	0.00000000	-63.61958000	-17.74114000
87.19999499	0.00000000	-64.40699000	-12.76452000
87.39999498	0.00000000	-64.78223000	-8.86441900
87.59999497	0.00000000	-64.73302000	-6.95743000
87.79999496	0.00000000	-63.93946000	-7.33267600
87.99999495	0.00000000	-62.03863000	-10.02707000
88.19999493	0.00000000	-60.12549000	-14.25320000
88.39999492	0.00000000	-58.59375000	-18.85458000
88.59999491	0.00000000	-57.84941000	-22.71161000
88.79999490	0.00000000	-58.59375000	-24.66781000
88.99999489	0.00000000	-60.08243000	-24.66781000
89.19999487	0.00000000	-61.66338000	-22.71161000
89.39999486	0.00000000	-63.20127000	-18.85458000
89.59999485	0.00000000	-64.35777000	-14.30241000
89.79999484	0.00000000	-64.73302000	-10.44537000
89.99999483	0.00000000	-64.40699000	-8.48917200
90.19999482	0.00000000	-63.61958000	-8.48917200
90.39999480	0.00000000	-62.82603000	-10.44537000
90.59999479	0.00000000	-61.66338000	-14.30241000
90.79999478	0.00000000	-60.54995000	-18.85458000
90.99999477	0.00000000	-60.12549000	-22.71161000
91.19999476	0.00000000	-60.08243000	-24.61860000
91.39999474	0.00000000	-60.08243000	-24.24335000
91.59999473	0.00000000	-60.12549000	-21.54897000
91.79999472	0.00000000	-60.50073000	-17.36589000
91.99999471	0.00000000	-61.24508000	-13.13976000
92.19999470	0.00000000	-61.62032000	-10.02707000
92.39999468	0.00000000	-61.66338000	-8.53838500
92.59999467	0.00000000	-61.70644000	-9.33193800
92.79999466	0.00000000	-62.08169000	-12.76452000
92.99999465	0.00000000	-62.82603000	-17.32283000
93.19999464	0.00000000	-63.24434000	-21.54897000
93.39999463	0.00000000	-63.61958000	-24.24335000
93.59999461	0.00000000	-63.98867000	-24.61860000
93.79999460	0.00000000	-63.57652000	-22.75467000
93.99999459	0.00000000	-62.77681000	-19.27288000
94.19999458	0.00000000	-61.24508000	-15.40969000
94.39999457	0.00000000	-59.33809000	-11.55881000
94.59999455	0.00000000	-58.16929000	-8.95669300
94.79999454	0.00000000	-57.33883000	-8.90747900
94.99999453	0.00000000	-57.05585000	-11.18356000
95.19999452	0.00000000	-57.84941000	-14.62844000
95.39999451	0.00000000	-60.17470000	-18.52854000
95.59999449	0.00000000	-63.20127000	-21.96727000
95.79999448	0.00000000	-65.94488000	-24.24335000
95.99999447	0.00000000	-67.90108000	-24.24335000
96.19999446	0.00000000	-69.02066000	-21.96727000
96.39999445	0.00000000	-68.59621000	-18.52854000
96.59999444	0.00000000	-66.27091000	-14.67150000
96.79999442	0.00000000	-62.82603000	-11.65108000
96.99999441	0.00000000	-58.96899000	-10.44537000
97.19999440	0.00000000	-55.85014000	-11.14050000
97.39999439	0.00000000	-53.89394000	-12.72146000
97.59999438	0.00000000	-53.14960000	-15.04675000
97.79999436	0.00000000	-54.35531000	-18.06717000
97.99999435	0.00000000	-57.38804000	-19.97416000
98.19999434	0.00000000	-61.28814000	-20.43553000
98.39999433	0.00000000	-65.15748000	-20.06029000
98.59999432	0.00000000	-68.64542000	-18.90379000
98.79999430	0.00000000	-70.55856000	-17.36589000
98.99999429	0.00000000	-70.55856000	-15.83415000
99.19999428	0.00000000	-68.64542000	-14.67150000
99.39999427	0.00000000	-65.15748000	-14.30241000
99.59999426	0.00000000	-61.33120000	-14.62844000
99.79999425	0.00000000	-57.80634000	-15.36663000
99.99999423	0.00000000	-55.47490000	-15.69267000
100.19999422	0.00000000	-54.26919000	-15.36663000
100.39999421	0.00000000	-54.31225000	-14.62844000
100.59999420	0.00000000	-55.85014000	-14.25320000
100.79999419	0.00000000	-58.54454000	-14.21014000
100.99999417	0.00000000	-61.62032000	-14.25320000
101.19999416	0.00000000	-64.35777000	-14.72072000
101.39999415	0.00000000	-66.32012000	-16.20325000
101.59999414	0.00000000	-67.48277000	-18.11024000
101.79999413	0.00000000	-67.48277000	-19.27903000
101.99999411	0.00000000	-66.32012000	-20.01722000
102.19999410	0.00000000	-64.35777000	-19.59892000
102.39999409	0.00000000	-61.66338000	-17.69808000
102.59999408	0.00000000	-58.96899000	-15.36663000
102.79999407	0.00000000	-57.01279000	-12.67224000
102.99999406	0.00000000	-55.85014000	-10.40231000
103.19999404	0.00000000	-55.85014000	-9.65182000
103.39999403	0.00000000	-57.01279000	-10.40231000
103.59999402	0.00000000	-58.91978000	-12.72146000
103.79999401	0.00000000	-61.24508000	-15.78494000
103.99999400	0.00000000	-63.20127000	-18.89764000
104.19999398	0.00000000	-64.78223000	-21.54897000
104.39999397	0.00000000	-65.85260000	-22.71161000
104.59999396	0.00000000	-65.52042000	-21.96727000
104.79999395	0.00000000	-63.99483000	-20.06029000
104.99999394	0.00000000	-62.49385000	-17.32283000
105.19999392	0.00000000	-60.87598000	-14.29626000
105.39999391	0.00000000	-59.75024000	-11.97711000
105.59999390	0.00000000	-58.96899000	-11.18356000
105.79999389	0.00000000	-59.01205000	-11.55881000
105.99999388	0.00000000	-60.08243000	-13.13976000
106.19999387	0.00000000	-61.24508000	-15.78494000
106.39999385	0.00000000	-62.03863000	-18.43627000
106.59999384	0.00000000	-62.82603000	-20.01722000
106.79999383	0.00000000	-63.15207000	-20.43553000
106.99999382	0.00000000	-62.82603000	-20.01722000
107.19999381	0.00000000	-62.03863000	-18.47933000
107.39999379	0.00000000	-61.24508000	-16.20325000
107.59999378	0.00000000	-60.12549000	-14.29626000
107.79999377	0.00000000	-59.38730000	-13.13976000
107.99999376	0.00000000	-59.75024000	-13.13976000
108.19999375	0.00000000	-60.50073000	-14.25320000
108.39999374	0.00000000	-61.70644000	-15.78494000
108.59999372	0.00000000	-63.20127000	-17.36589000
108.79999371	0.00000000	-64.31471000	-18.85458000
108.99999370	0.00000000	-64.31471000	-19.59892000
109.19999369	0.00000000	-63.24434000	-18.85458000
109.39999368	0.00000000	-62.08169000	-17.36589000
109.59999366	0.00000000	-61.24508000	-15.78494000
109.79999365	0.00000000	-60.08243000	-14.25320000
109.99999364	0.00000000	-58.96899000	-13.09670000
110.19999363	0.00000000	-58.59375000	-12.72146000
110.39999362	0.00000000	-58.96899000	-13.09670000
110.59999360	0.00000000	-60.12549000	-14.25320000
110.79999359	0.00000000	-61.66338000	-15.78494000
110.99999358	0.00000000	-63.20127000	-17.32283000
111.19999357	0.00000000	-64.31471000	-18.47933000
111.39999356	0.00000000	-64.35777000	-18.90379000
111.59999355	0.00000000	-63.61958000	-18.90379000
111.79999353	0.00000000	-62.82603000	-18.47933000
111.99999352	0.00000000	-61.66338000	-17.36589000
112.19999351	0.00000000	-60.50073000	-16.20325000
112.39999350	0.00000000	-59.70718000	-15.36663000
112.59999349	0.00000000	-58.96899000	-14.25320000
112.79999347	0.00000000	-59.01205000	-13.55807000
112.99999346	0.00000000	-60.08243000	-14.25320000
113.19999345	0.00000000	-61.19586000	-15.32357000
113.39999344	0.00000000	-61.66338000	-15.74188000
113.59999343	0.00000000	-62.03863000	-15.78494000
113.79999341	0.00000000	-62.40772000	-15.82800000
113.99999340	0.00000000	-62.03863000	-16.20325000
114.19999339	0.00000000	-61.70644000	-16.94759000
114.39999338	0.00000000	-61.62032000	-17.32283000
114.59999337	0.00000000	-61.28814000	-17.36589000
114.79999336	0.00000000	-60.91904000	-17.36589000
114.99999334	0.00000000	-61.24508000	-17.36589000
115.19999333	0.00000000	-61.19586000	-17.36589000
115.39999332	0.00000000	-60.50073000	-17.36589000
115.59999331	0.00000000	-60.17470000	-17.32283000
115.79999330	0.00000000	-60.50073000	-16.94759000
115.99999328	0.00000000	-61.24508000	-16.16018000
116.19999327	0.00000000	-61.62032000	-15.40969000
116.39999326	0.00000000	-61.70644000	-14.62844000
116.59999325	0.00000000	-62.03863000	-14.25320000
116.79999324	0.00000000	-62.40772000	-14.25320000
116.99999322	0.00000000	-62.03863000	-14.67150000
117.19999321	0.00000000	-61.66338000	-15.78494000
117.39999320	0.00000000	-61.19586000	-16.89837000
117.59999319	0.00000000	-60.08243000	-17.32283000
117.79999318	0.00000000	-58.96899000	-17.40895000
117.99999317	0.00000000	-58.59375000	-17.74114000
118.19999315	0.00000000	-58.91978000	-18.11024000
118.39999314	0.00000000	-59.70718000	-17.69808000
118.59999313	0.00000000	-60.50073000	-16.99065000
118.79999312	0.00000000	-61.66338000	-16.20325000
118.99999311	0.00000000	-62.82603000	-15.78494000
119.19999309	0.00000000	-63.61958000	-15.36663000
119.39999308	0.00000000	-64.35777000	-14.67150000
119.59999307	0.00000000	-64.31471000	-14.62844000
119.79999306	0.00000000	-63.20127000	-14.99139000
119.99999305	0.00000000	-61.66338000	-15.00369000
120.19999303	0.00000000	-60.12549000	-15.40969000
120.39999302	0.00000000	-58.91978000	-15.74188000
120.59999301	0.00000000	-58.16929000	-15.82800000
120.79999300	0.00000000	-57.75713000	-16.20325000
120.99999299	0.00000000	-58.16929000	-16.94759000
121.19999298	0.00000000	-58.91978000	-17.32283000
121.39999296	0.00000000	-60.12549000	-17.36589000
121.59999295	0.00000000	-61.66338000	-17.36589000
121.79999294	0.00000000	-63.20127000	-17.32283000
121.99999293	0.00000000	-64.31471000	-16.94759000
122.19999292	0.00000000	-64.35777000	-16.16018000
122.39999290	0.00000000	-63.61958000	-15.40969000
122.59999289	0.00000000	-62.86909000	-14.62844000
122.79999288	0.00000000	-62.03863000	-14.25320000
122.99999287	0.00000000	-61.24508000	-14.21014000
123.19999286	0.00000000	-60.08243000	-14.25320000
123.39999284	0.00000000	-58.96899000	-14.62844000
123.59999283	0.00000000	-58.54454000	-15.40969000
123.79999282	0.00000000	-58.54454000	-16.16018000
123.99999281	0.00000000	-58.96899000	-16.94759000
124.19999280	0.00000000	-60.08243000	-17.32283000
124.39999279	0.00000000	-61.19586000	-17.36589000
124.59999277	0.00000000	-61.66338000	-17.36589000
124.79999276	0.00000000	-62.08169000	-17.32283000
124.99999275	0.00000000	-62.82603000	-16.94759000
125.19999274	0.00000000	-63.15207000	-16.16018000
125.39999273	0.00000000	-62.82603000	-15.40969000
125.59999271	0.00000000	-62.08169000	-14.62844000
125.79999270	0.00000000	-61.66338000	-14.30241000
125.99999269	0.00000000	-61.24508000	-14.58538000
126.19999268	0.00000000	-60.45767000	-14.99139000
126.39999267	0.00000000	-59.70718000	-15.00369000
126.59999265	0.00000000	-58.96899000	-15.40969000
126.79999264	0.00000000	-58.96899000	-15.78494000
126.99999263	0.00000000	-59.70718000	-16.20325000
127.19999262	0.00000000	-60.50073000	-16.94759000
127.39999261	0.00000000	-61.66338000	-17.32283000
127.59999260	0.00000000	-62.73376000	-17.32283000
127.79999258	0.00000000	-62.82603000	-16.99065000
127.99999257	0.00000000	-62.45694000	-16.57849000
128.19999256	0.00000000	-62.45079000	-16.57234000
128.39999255	0.00000000	-61.99557000	-16.16018000
128.59999254	0.00000000	-61.24508000	-15.82800000
128.79999252	0.00000000	-60.08243000	-15.78494000
128.99999251	0.00000000	-58.96899000	-15.78494000
129.19999250	0.00000000	-58.59375000	-15.78494000
129.39999249	0.00000000	-58.96899000	-15.82800000
129.59999248	0.00000000	-60.08243000	-16.20325000
129.79999246	0.00000000	-61.24508000	-16.89837000
129.99999245	0.00000000	-62.03863000	-16.89837000
130.19999244	0.00000000	-62.82603000	-16.20325000
130.39999243	0.00000000	-63.20127000	-15.82800000
130.59999242	0.00000000	-63.20127000	-15.78494000
130.79999241	0.00000000	-62.77681000	-15.78494000
130.99999239	0.00000000	-61.66338000	-15.78494000
131.19999238	0.00000000	-60.50073000	-15.78494000
131.39999237	0.00000000	-59.70718000	-15.82800000
131.59999236	0.00000000	-58.96899000	-16.20325000
131.79999235	0.00000000	-58.96899000	-16.94759000
131.99999233	0.00000000	-59.70718000	-17.32283000
132.19999232	0.00000000	-60.45767000	-17.36589000
132.39999231	0.00000000	-61.24508000	-17.36589000
132.59999230	0.00000000	-61.62032000	-17.32283000
132.79999229	0.00000000	-61.66338000	-16.94759000
132.99999227	0.00000000	-61.66338000	-16.16018000
133.19999226	0.00000000	-61.62032000	-15.40969000
133.39999225	0.00000000	-61.24508000	-14.62844000
133.59999224	0.00000000	-60.50073000	-14.25320000
133.79999223	0.00000000	-60.12549000	-14.25320000
133.99999222	0.00000000	-60.12549000	-14.62844000
134.19999220	0.00000000	-60.50073000	-15.40969000
134.39999219	0.00000000	-61.24508000	-16.16018000
134.59999218	0.00000000	-61.57111000	-16.94759000
134.79999217	0.00000000	-61.24508000	-17.36589000
134.99999216	0.00000000	-60.50073000	-17.74114000
135.19999214	0.00000000	-60.12549000	-18.11024000
135.39999213	0.00000000	-60.08243000	-17.69808000
135.59999212	0.00000000	-60.08243000	-16.99065000
135.79999211	0.00000000	-60.08243000	-16.16018000
135.99999210	0.00000000	-60.12549000	-15.40969000
136.19999208	0.00000000	-60.50073000	-14.62844000
136.39999207	0.00000000	-61.24508000	-14.25320000
136.59999206	0.00000000	-61.62032000	-14.25320000
136.79999205	0.00000000	-61.66338000	-14.62844000
136.99999204	0.00000000	-61.66338000	-15.36663000
137.19999203	0.00000000	-61.62032000	-15.78494000
137.39999201	0.00000000	-61.24508000	-16.20325000
137.59999200	0.00000000	-60.50073000	-16.94759000
137.79999199	0.00000000	-60.08243000	-17.32283000
137.99999198	0.00000000	-59.70718000	-17.36589000
138.19999197	0.00000000	-59.33809000	-17.36589000
138.39999195	0.00000000	-59.75024000	-17.36589000
138.59999194	0.00000000	-60.45767000	-17.32283000
138.79999193	0.00000000	-61.28814000	-16.94759000
138.99999192	0.00000000	-61.99557000	-16.20325000
139.19999191	0.00000000	-62.40772000	-15.78494000
139.39999189	0.00000000	-62.03863000	-15.36663000
139.59999188	0.00000000	-61.66338000	-14.62844000
139.79999187	0.00000000	-61.24508000	-14.25320000
139.99999186	0.00000000	-60.50073000	-14.25320000
140.19999185	0.00000000	-60.08243000	-14.62844000
140.39999184	0.00000000	-59.70718000	-15.40969000
140.59999182	0.00000000	-59.33809000	-16.16018000
140.79999181	0.00000000	-59.70718000	-16.94759000
140.99999180	0.00000000	-60.08243000	-17.32283000
141.19999179	0.00000000	-60.50073000	-17.36589000
141.39999178	0.00000000	-61.24508000	-17.32283000
141.59999176	0.00000000	-61.62032000	-16.94759000
141.79999175	0.00000000	-61.66338000	-16.16018000
141.99999174	0.00000000	-61.62032000	-15.40969000
142.19999173	0.00000000	-61.24508000	-14.62844000
142.39999172	0.00000000	-60.50073000	-14.25320000
142.59999170	0.00000000	-60.12549000	-14.25320000
142.79999169	0.00000000	-60.08243000	-14.62844000
142.99999168	0.00000000	-60.08243000	-15.40969000
143.19999167	0.00000000	-60.12549000	-16.20325000
143.39999166	0.00000000	-60.50073000	-17.36589000
143.59999165	0.00000000	-61.24508000	-18.47933000
143.79999163	0.00000000	-61.62032000	-18.85458000
143.99999162	0.00000000	-61.62032000	-18.52854000
144.19999161	0.00000000	-61.24508000	-17.74114000
144.39999160	0.00000000	-60.50073000	-16.94759000
144.59999159	0.00000000	-60.12549000	-15.78494000
144.79999157	0.00000000	-60.08243000	-14.67150000
144.99999156	0.00000000	-60.08243000	-14.25320000
145.19999155	0.00000000	-60.08243000	-14.21014000
145.39999154	0.00000000	-60.12549000	-14.25320000
145.59999153	0.00000000	-60.50073000	-14.62844000
145.79999151	0.00000000	-61.24508000	-15.36663000
145.99999150	0.00000000	-61.62032000	-15.74188000
146.19999149	0.00000000	-61.66338000	-15.82800000
146.39999148	0.00000000	-61.62032000	-16.20325000
146.59999147	0.00000000	-61.24508000	-16.89837000
146.79999146	0.00000000	-60.45767000	-16.89837000
146.99999144	0.00000000	-59.75024000	-16.20325000
147.19999143	0.00000000	-59.29502000	-15.82800000
147.39999142	0.00000000	-59.33194000	-15.74188000
147.59999141	0.00000000	-59.29502000	-15.36663000
147.79999140	0.00000000	-59.70718000	-14.62844000
147.99999138	0.00000000	-60.08243000	-14.25320000
148.19999137	0.00000000	-60.50073000	-14.21014000
148.39999136	0.00000000	-61.24508000	-14.25320000
148.59999135	0.00000000	-61.57111000	-14.62844000
148.79999134	0.00000000	-61.24508000	-15.36663000
148.99999132	0.00000000	-60.50073000	-15.74188000
149.19999131	0.00000000	-60.12549000	-15.78494000
149.39999130	0.00000000	-60.08243000	-15.78494000
149.59999129	0.00000000	-60.08243000	-15.78494000
149.79999128	0.00000000	-60.08243000	-15.78494000
149.99999127	0.00000000	-60.08243000	-15.78494000
150.19999125	0.00000000	-60.08243000	-15.78494000
150.39999124	0.00000000	-60.12549000	-15.78494000
150.59999123	0.00000000	-60.45767000	-15.78494000
150.79999122	0.00000000	-60.86983000	-15.78494000
150.99999121	0.00000000	-60.87598000	-15.78494000
151.19999119	0.00000000	-61.28814000	-15.78494000
151.39999118	0.00000000	-61.62032000	-15.78494000
151.59999117	0.00000000	-61.66338000	-15.78494000
151.79999116	0.00000000	-61.62032000	-15.82800000
151.99999115	0.00000000	-61.24508000	-16.20325000
152.19999113	0.00000000	-60.50073000	-16.94759000
152.39999112	0.00000000	-60.12549000	-17.27362000
152.59999111	0.00000000	-60.08243000	-16.94759000
152.79999110	0.00000000	-60.08243000	-16.20325000
152.99999109	0.00000000	-60.08243000	-15.82800000
153.19999108	0.00000000	-60.08243000	-15.78494000
153.39999106	0.00000000	-60.08243000	-15.78494000
153.59999105	0.00000000	-60.08243000	-15.78494000
153.79999104	0.00000000	-60.12549000	-15.78494000
153.99999103	0.00000000	-60.50073000	-15.78494000
154.19999102	0.00000000	-61.24508000	-15.78494000
154.39999100	0.00000000	-61.62032000	-15.78494000
154.59999099	0.00000000	-61.62032000	-15.78494000
154.79999098	0.00000000	-61.24508000	-15.78494000
154.99999097	0.00000000	-60.50073000	-15.78494000
155.19999096	0.00000000	-60.12549000	-15.82800000
155.39999094	0.00000000	-60.08243000	-16.16018000
155.59999093	0.00000000	-60.08243000	-16.57234000
155.79999092	0.00000000	-60.03937000	-16.53543000
155.99999091	0.00000000	-59.70718000	-16.57234000
156.19999090	0.00000000	-59.33809000	-16.16018000
156.39999089	0.00000000	-59.75024000	-15.82800000
156.59999087	0.00000000	-60.45767000	-15.78494000
156.79999086	0.00000000	-61.24508000	-15.74188000
156.99999085	0.00000000	-61.62032000	-15.36663000
157.19999084	0.00000000	-61.66338000	-14.62844000
157.39999083	0.00000000	-61.66338000	-14.30241000
157.59999081	0.00000000	-61.62032000	-14.62844000
157.79999080	0.00000000	-61.24508000	-15.36663000
157.99999079	0.00000000	-60.50073000	-15.74188000
158.19999078	0.00000000	-60.12549000	-15.78494000
158.39999077	0.00000000	-60.03937000	-15.78494000
158.59999075	0.00000000	-59.70718000	-15.78494000
158.79999074	0.00000000	-59.33809000	-15.78494000
158.99999073	0.00000000	-59.70718000	-15.78494000
159.19999072	0.00000000	-60.03937000	-15.78494000
159.39999071	0.00000000	-60.08243000	-15.74188000
159.59999070	0.00000000	-60.08243000	-15.36663000
159.79999068	0.00000000	-60.08243000	-14.62844000
159.99999067	0.00000000	-60.08243000	-14.25320000
160.19999066	0.00000000	-60.12549000	-14.21014000
160.39999065	0.00000000	-60.45767000	-14.25320000
160.59999064	0.00000000	-60.82677000	-14.62844000
160.79999062	0.00000000	-60.45767000	-15.36663000
160.99999061	0.00000000	-60.12549000	-15.74188000
161.19999060	0.00000000	-60.08243000	-15.82800000
161.39999059	0.00000000	-60.08243000	-16.16018000
161.59999058	0.00000000	-60.08243000	-16.57234000
161.79999056	0.00000000	-60.08243000	-16.53543000
161.99999055	0.00000000	-60.08243000	-16.57234000
162.19999054	0.00000000	-60.08243000	-16.11712000
162.39999053	0.00000000	-60.08243000	-15.40969000
162.59999052	0.00000000	-60.08243000	-14.67150000
162.79999051	0.00000000	-60.08243000	-14.62844000
162.99999049	0.00000000	-60.12549000	-14.99139000
163.19999048	0.00000000	-60.50073000	-15.00369000
163.39999047	0.00000000	-61.24508000	-15.40969000
163.59999046	0.00000000	-61.62032000	-15.74188000
163.79999045	0.00000000	-61.66338000	-15.78494000
163.99999043	0.00000000	-61.66338000	-15.78494000
164.19999042	0.00000000	-61.62032000	-15.78494000
164.39999041	0.00000000	-61.24508000	-15.78494000
164.59999040	0.00000000	-60.50073000	-15.78494000
164.79999039	0.00000000	-60.12549000	-15.78494000
164.99999037	0.00000000	-60.08243000	-15.78494000
165.19999036	0.00000000	-60.03937000	-15.78494000
165.39999035	0.00000000	-59.70718000	-15.78494000
165.59999034	0.00000000	-59.33809000	-15.78494000
165.79999033	0.00000000	-59.70718000	-15.78494000
165.99999032	0.00000000	-60.08243000	-15.78494000
166.19999030	0.00000000	-60.50073000	-15.78494000
166.39999029	0.00000000	-61.24508000	-15.78494000
166.59999028	0.00000000	-61.62032000	-15.78494000
166.79999027	0.00000000	-61.66338000	-15.78494000
166.99999026	0.00000000	-61.62032000	-15.78494000
167.19999024	0.00000000	-61.24508000	-15.78494000
167.39999023	0.00000000	-60.50073000	-15.78494000
167.59999022	0.00000000	-60.12549000	-15.78494000
167.79999021	0.00000000	-60.08243000	-15.78494000
167.99999020	0.00000000	-60.08243000	-15.78494000
168.19999018	0.00000000	-60.08243000	-15.78494000
168.39999017	0.00000000	-60.08243000	-15.78494000
168.59999016	0.00000000	-60.08243000	-15.78494000
168.79999015	0.00000000	-60.08243000	-15.78494000
168.99999014	0.00000000	-60.08243000	-15.78494000
169.19999013	0.00000000	-60.08243000	-15.78494000
169.39999011	0.00000000	-60.08243000	-15.78494000
169.59999010	0.00000000	-60.08243000	-15.78494000
169.79999009	0.00000000	-60.08243000	-15.78494000
169.99999008	0.00000000	-60.08243000	-15.78494000
170.19999007	0.00000000	-60.08243000	-15.78494000
170.39999005	0.00000000	-60.08243000	-15.78494000
170.59999004	0.00000000	-60.08243000	-15.78494000
170.79999003	0.00000000	-60.08243000	-15.78494000
170.99999002	0.00000000	-60.08243000	-15.78494000
171.19999001	0.00000000	-60.08243000	-15.78494000
171.39998999	0.00000000	-60.08243000	-15.78494000
171.59998998	0.00000000	-60.08243000	-15.78494000
171.79998997	0.00000000	-60.08243000	-15.78494000
171.99998996	0.00000000	-60.08243000	-15.78494000
172.19998995	0.00000000	-60.08243000	-15.78494000
172.39998994	0.00000000	-60.08243000	-15.78494000
172.59998992	0.00000000	-60.08243000	-15.78494000
172.79998991	0.00000000	-60.08243000	-15.78494000
172.99998990	0.00000000	-60.08243000	-15.78494000
173.19998989	0.00000000	-60.08243000	-15.78494000
173.39998988	0.00000000	-60.08243000	-15.78494000
173.59998986	0.00000000	-60.08243000	-15.78494000
173.79998985	0.00000000	-60.08243000	-15.78494000
173.99998984	0.00000000	-60.08243000	-15.78494000
174.19998983	0.00000000	-60.08243000	-15.78494000
174.39998982	0.00000000	-60.08243000	-15.78494000
174.59998980	0.00000000	-60.08243000	-15.78494000
174.79998979	0.00000000	-60.08243000	-15.78494000
174.99998978	0.00000000	-60.08243000	-15.78494000
175.19998977	0.00000000	-60.08243000	-15.78494000
175.39998976	0.00000000	-60.08243000	-15.78494000
175.59998975	0.00000000	-60.08243000	-15.78494000
175.79998973	0.00000000	-60.08243000	-15.78494000
175.99998972	0.00000000	-60.08243000	-15.78494000
176.19998971	0.00000000	-60.08243000	-15.78494000
176.39998970	0.00000000	-60.08243000	-15.78494000
176.59998969	0.00000000	-60.08243000	-15.78494000
176.79998967	0.00000000	-60.08243000	-15.78494000
176.99998966	0.00000000	-60.08243000	-15.78494000
177.19998965	0.00000000	-60.08243000	-15.78494000
177.39998964	0.00000000	-60.08243000	-15.78494000
177.59998963	0.00000000	-60.08243000	-15.78494000
177.79998961	0.00000000	-60.08243000	-15.78494000
177.99998960	0.00000000	-60.08243000	-15.78494000
178.19998959	0.00000000	-60.08243000	-15.78494000
178.39998958	0.00000000	-60.08243000	-15.78494000
178.59998957	0.00000000	-60.08243000	-15.78494000
178.79998956	0.00000000	-60.08243000	-15.78494000
178.99998954	0.00000000	-60.03937000	-15.78494000
179.19998953	0.00000000	-59.70718000	-15.78494000
179.39998952	0.00000000	-59.33809000	-15.78494000
179.59998951	0.00000000	-59.70718000	-15.78494000
179.79998950	0.00000000	-60.03937000	-15.78494000
179.99998948	0.00000000	-60.08243000	-15.78494000
180.19998947	0.00000000	-60.08243000	-15.78494000
180.39998946	0.00000000	-60.08243000	-15.78494000
180.59998945	0.00000000	-60.08243000	-15.78494000
180.79998944	0.00000000	-60.08243000	-15.78494000
180.99998942	0.00000000	-60.08243000	-15.78494000
181.19998941	0.00000000	-60.08243000	-15.78494000
181.39998940	0.00000000	-60.08243000	-15.78494000
181.59998939	0.00000000	-60.08243000	-15.78494000
181.79998938	0.00000000	-60.08243000	-15.74188000
181.99998937	0.00000000	-60.08243000	-15.40969000
182.19998935	0.00000000	-60.08243000	-15.04675000
182.39998934	0.00000000	-60.08243000	-15.40969000
182.59998933	0.00000000	-60.08243000	-15.74188000
182.79998932	0.00000000	-60.08243000	-15.78494000
182.99998931	0.00000000	-60.08243000	-15.78494000
183.19998929	0.00000000	-60.08243000	-15.78494000
183.39998928	0.00000000	-60.08243000	-15.78494000
183.59998927	0.00000000	-60.08243000	-15.78494000
183.79998926	0.00000000	-60.08243000	-15.78494000
183.99998925	0.00000000	-60.08243000	-15.78494000
184.19998923	0.00000000	-60.08243000	-15.78494000
184.39998922	0.00000000	-60.08243000	-15.74188000
184.59998921	0.00000000	-60.08243000	-15.36663000
184.79998920	0.00000000	-60.08243000	-14.62844000
184.99998919	0.00000000	-60.08243000	-14.25320000
185.19998918	0.00000000	-60.08243000	-14.25320000
185.39998916	0.00000000	-60.08243000	-14.62844000
185.59998915	0.00000000	-60.08243000	-15.36663000
185.79998914	0.00000000	-60.08243000	-15.74188000
185.99998913	0.00000000	-60.08243000	-15.82800000
186.19998912	0.00000000	-60.08243000	-16.16018000
186.39998910	0.00000000	-60.08243000	-16.52928000
186.59998909	0.00000000	-60.08243000	-16.16018000
186.79998908	0.00000000	-60.08243000	-15.82800000
186.99998907	0.00000000	-60.08243000	-15.78494000
187.19998906	0.00000000	-60.08243000	-15.78494000
187.39998904	0.00000000	-60.08243000	-15.74188000
187.59998903	0.00000000	-60.08243000	-15.36663000
187.79998902	0.00000000	-60.12549000	-14.62844000
187.99998901	0.00000000	-60.41461000	-14.30241000
188.19998900	0.00000000	-60.45152000	-14.62844000
188.39998899	0.00000000	-59.71333000	-15.36663000
188.59998897	0.00000000	-59.70718000	-15.74188000
188.79998896	0.00000000	-59.66412000	-15.78494000
188.99998895	0.00000000	-59.33809000	-15.82800000
189.19998894	0.00000000	-59.70718000	-16.16018000
189.39998893	0.00000000	-60.03937000	-16.52928000
189.59998891	0.00000000	-60.08243000	-16.16018000
189.79998890	0.00000000	-60.08243000	-15.82800000
189.99998889	0.00000000	-60.08243000	-15.78494000
190.19998888	0.00000000	-60.08243000	-15.78494000
190.39998887	0.00000000	-60.08243000	-15.74188000
190.59998885	0.00000000	-60.08243000	-15.36663000
190.79998884	0.00000000	-60.08243000	-14.67150000
190.99998883	0.00000000	-60.08243000	-14.67150000
191.19998882	0.00000000	-60.03937000	-15.36663000
191.39998881	0.00000000	-59.70718000	-15.74188000
191.59998880	0.00000000	-59.29502000	-15.78494000
191.79998878	0.00000000	-59.28888000	-15.78494000
191.99998877	0.00000000	-58.91978000	-15.78494000
192.19998876	0.00000000	-58.96899000	-15.78494000
192.39998875	0.00000000	-59.66412000	-15.78494000
192.59998874	0.00000000	-60.03937000	-15.78494000
192.79998872	0.00000000	-60.08243000	-15.78494000
192.99998871	0.00000000	-60.08243000	-15.78494000
193.19998870	0.00000000	-60.08243000	-15.78494000
193.39998869	0.00000000	-60.08243000	-15.78494000
193.59998868	0.00000000	-60.08243000	-15.78494000
193.79998866	0.00000000	-60.08243000	-15.78494000
193.99998865	0.00000000	-60.08243000	-15.78494000
194.19998864	0.00000000	-60.08243000	-15.78494000
194.39998863	0.00000000	-60.03937000	-15.74188000
194.59998862	0.00000000	-59.66412000	-15.40969000
194.79998861	0.00000000	-58.96899000	-15.04675000
194.99998859	0.00000000	-58.91978000	-15.40969000
195.19998858	0.00000000	-59.28888000	-15.74188000
195.39998857	0.00000000	-59.29502000	-15.78494000
195.59998856	0.00000000	-59.70718000	-15.78494000
195.79998855	0.00000000	-60.03937000	-15.78494000
195.99998853	0.00000000	-60.08243000	-15.78494000
