Time	Channel A	Channel B	Channel C
(us)	(V)	(mV)	(mV)

-4.49999956	0.00000000	-58.50147000	-14.67150000
-4.29999957	0.00000000	-58.50147000	-14.62844000
-4.09999958	0.00000000	-58.50147000	-14.99139000
-3.89999959	0.00000000	-58.45841000	-14.95448000
-3.69999960	0.00000000	-58.12622000	-14.99139000
-3.49999962	0.00000000	-57.75713000	-14.62844000
-3.29999963	0.00000000	-58.12622000	-14.67150000
-3.09999964	0.00000000	-58.40920000	-15.32357000
-2.89999965	0.00000000	-58.08316000	-15.32357000
-2.69999966	0.00000000	-57.33883000	-14.62844000
-2.49999968	0.00000000	-56.96358000	-14.25320000
-2.29999969	0.00000000	-56.96358000	-14.21014000
-2.09999970	0.00000000	-57.29576000	-14.21014000
-1.89999971	0.00000000	-57.66486000	-14.21014000
-1.69999972	0.00000000	-57.29576000	-14.21014000
-1.49999973	0.00000000	-57.01279000	-14.21014000
-1.29999975	0.00000000	-57.29576000	-14.21014000
-1.09999976	0.00000000	-57.66486000	-14.21014000
-0.89999977	0.00000000	-57.29576000	-14.21014000
-0.69999978	0.00000000	-56.96358000	-14.21014000
-0.49999979	0.00000000	-56.92052000	-14.21014000
-0.29999981	0.31803640	-56.96358000	-14.21014000
-0.09999982	0.63668800	-57.33883000	-14.21014000
0.10000017	0.95533960	-58.03395000	-14.21014000
0.30000016	0.95533960	-58.08316000	-14.25320000
0.50000015	0.79601380	-57.71407000	-14.58538000
0.70000013	0.31803640	-57.70792000	-14.94833000
0.90000012	-0.31803640	-57.33883000	-14.62844000
1.10000011	-1.43331700	-57.38804000	-14.62844000
1.30000010	-2.38927200	-58.08316000	-14.94833000
1.50000009	-2.86724900	-58.40920000	-14.58538000
1.70000008	-2.54859700	-58.08316000	-14.25320000
1.90000006	-1.43331700	-57.33883000	-14.21014000
2.10000005	0.31803640	-56.96358000	-14.21014000
2.30000004	2.54859700	-56.96358000	-14.21014000
2.50000003	4.30056600	-57.29576000	-14.25320000
2.70000002	5.25652100	-57.70792000	-14.62844000
2.90000000	4.93786900	-57.71407000	-15.36663000
3.09999999	3.18590100	-58.08316000	-15.74188000
3.29999998	0.15871060	-58.03395000	-15.78494000
3.49999997	-3.34522600	-57.33883000	-15.74188000
3.69999996	-6.21247500	-57.01279000	-15.40969000
3.89999994	-7.80511800	-57.33883000	-15.00369000
4.09999993	-7.64579200	-58.03395000	-14.99139000
4.29999992	-5.25652100	-58.03395000	-14.58538000
4.49999991	-1.43331700	-57.33883000	-14.25320000
4.69999990	3.02657500	-56.96358000	-14.21014000
4.89999989	6.84916400	-56.96358000	-14.25320000
5.09999987	9.07972400	-57.33883000	-14.62844000
5.29999986	9.23905000	-58.08316000	-15.36663000
5.49999985	6.84916400	-58.45841000	-15.78494000
5.69999984	2.70792300	-58.50147000	-16.16018000
5.89999983	-2.07062000	-58.45841000	-16.52928000
6.09999981	-6.21247500	-58.12622000	-16.11712000
6.29999980	-8.92039900	-57.71407000	-15.40969000
6.49999979	-9.23905000	-57.70792000	-14.62844000
6.69999978	-7.32714100	-57.33883000	-14.30241000
6.89999977	-3.82258900	-57.33883000	-14.58538000
7.09999975	0.63668800	-57.66486000	-14.94833000
7.29999974	4.61921700	-57.33883000	-14.62844000
7.49999973	7.16781500	-57.33883000	-14.67150000
7.69999972	7.64579200	-57.70792000	-15.36663000
7.89999971	6.37180100	-57.67101000	-15.74188000
8.09999970	3.66326300	-57.70792000	-15.74188000
8.29999968	0.31803640	-57.29576000	-15.36663000
8.49999967	-2.54859700	-56.96358000	-14.62844000
8.69999966	-4.61921700	-56.92052000	-14.25320000
8.89999965	-5.25652100	-56.92052000	-14.21014000
9.09999964	-4.45989200	-56.92052000	-14.21014000
9.29999962	-2.86724900	-56.92052000	-14.21014000
9.49999961	-0.79601380	-56.92052000	-14.21014000
9.69999960	0.95533960	-56.92052000	-14.25320000
9.89999959	2.07062000	-56.92052000	-14.62844000
10.09999958	2.54859700	-56.92052000	-15.32357000
10.29999956	2.22994600	-56.92052000	-15.32357000
10.49999955	1.59264300	-56.92052000	-14.62844000
10.69999954	0.63668800	-56.92052000	-14.25320000
10.89999953	-0.15871060	-56.92052000	-14.21014000
11.09999952	-0.79601380	-56.96358000	-14.25320000
11.29999951	-0.95533960	-57.29576000	-14.58538000
11.49999949	-0.95533960	-57.66486000	-14.94833000
11.69999948	-0.79601380	-57.29576000	-14.58538000
11.89999947	-0.47736220	-56.96358000	-14.25320000
12.09999946	-0.15871060	-56.92052000	-14.21014000
12.29999945	-0.15871060	-56.92052000	-14.21014000
12.49999943	0.00000000	-56.92052000	-14.21014000
12.69999942	0.00000000	-56.92052000	-14.21014000
12.89999941	0.00000000	-56.92052000	-14.21014000
13.09999940	0.15871060	-56.92052000	-14.21014000
13.29999939	0.15871060	-56.92052000	-14.21014000
13.49999937	0.00000000	-56.92052000	-14.21014000
13.69999936	0.00000000	-56.92052000	-14.21014000
13.89999935	0.00000000	-56.96358000	-14.25320000
14.09999934	-0.15871060	-57.33883000	-14.58538000
14.29999933	-0.15871060	-58.08316000	-14.94833000
14.49999932	0.00000000	-58.40920000	-14.58538000
14.69999930	-0.15871060	-58.08316000	-14.25320000
14.89999929	0.00000000	-57.33883000	-14.21014000
15.09999928	0.00000000	-56.96358000	-14.21014000
15.29999927	0.15871060	-56.92052000	-14.21014000
15.49999926	0.00000000	-56.92052000	-14.21014000
15.69999924	0.00000000	-56.96358000	-14.21014000
15.89999923	0.00000000	-57.29576000	-14.21014000
16.09999922	0.00000000	-57.66486000	-14.21014000
16.29999921	0.00000000	-57.29576000	-14.21014000
16.49999920	-0.15871060	-56.96358000	-14.21014000
16.69999919	-0.15871060	-56.92052000	-14.21014000
16.89999917	0.00000000	-56.92052000	-14.21014000
17.09999916	0.00000000	-56.87746000	-14.25320000
17.29999915	0.00000000	-56.50221000	-14.58538000
17.49999914	0.00000000	-55.75787000	-14.94833000
17.69999913	0.00000000	-55.43184000	-14.58538000
17.89999911	0.00000000	-55.80708000	-14.30241000
18.09999910	0.00000000	-56.96358000	-14.58538000
18.29999909	0.00000000	-58.50147000	-14.94833000
18.49999908	0.00000000	-60.08243000	-14.58538000
18.69999907	0.00000000	-61.62032000	-14.25320000
18.89999905	0.00000000	-62.73376000	-14.21014000
19.09999904	0.00000000	-62.73376000	-14.21014000
19.29999903	0.00000000	-61.52805000	-14.25320000
19.49999902	0.00000000	-59.19660000	-14.58538000
19.69999901	0.00000000	-55.67175000	-14.94833000
19.89999900	0.00000000	-51.84547000	-14.58538000
20.09999898	0.00000000	-48.32062000	-14.30241000
20.29999897	0.00000000	-46.08144000	-14.62844000
20.49999896	0.00000000	-45.75541000	-15.32357000
20.69999895	0.00000000	-48.54207000	-15.32357000
20.89999894	0.00000000	-54.35531000	-14.62844000
21.09999892	0.00000000	-62.08169000	-14.30241000
21.29999891	0.00000000	-70.13410000	-14.58538000
21.49999890	0.00000000	-75.90427000	-14.94833000
21.69999889	0.00000000	-77.81741000	-14.62844000
21.89999888	0.00000000	-75.44291000	-14.67150000
22.09999886	0.00000000	-68.37475000	-15.32357000
22.29999885	0.00000000	-57.52953000	-15.32357000
22.49999884	0.00000000	-44.78346000	-14.62844000
22.69999883	0.00000000	-33.28617000	-14.25320000
22.89999882	0.00000000	-26.35334000	-14.21014000
23.09999881	0.00000000	-26.07037000	-14.16708000
23.29999879	0.00000000	-33.09547000	-13.79183000
23.49999878	0.00000000	-47.05339000	-13.04749000
23.69999877	0.00000000	-64.78223000	-12.67224000
23.89999876	0.00000000	-82.18504000	-12.62918000
24.09999875	0.00000000	-95.25713000	-12.67224000
24.29999873	0.00000000	-100.56590000	-13.04749000
24.49999872	0.00000000	-95.86613000	-13.87795000
24.69999871	0.00000000	-81.58218000	-15.04675000
24.89999870	0.00000000	-61.06668000	-16.99065000
25.09999869	0.00000000	-38.68110000	-18.85458000
25.29999867	0.00000000	-19.42052000	-20.01722000
25.49999866	0.00000000	-8.62450800	-20.01722000
25.69999865	0.00000000	-8.62450800	-18.85458000
25.89999864	0.00000000	-19.46973000	-16.85531000
26.09999863	0.00000000	-39.23474000	-13.69956000
26.29999862	0.00000000	-63.53346000	-9.51648500
26.49999860	0.00000000	-87.11244000	-5.66560000
26.69999859	0.00000000	-104.01700000	-3.38336600
26.89999858	0.00000000	-110.24240000	-3.01427100
27.09999857	0.00000000	-104.10310000	-5.42568800
27.29999856	0.00000000	-87.90600000	-10.44537000
27.49999854	0.00000000	-65.43430000	-17.45817000
27.69999853	0.00000000	-41.10482000	-25.17224000
27.89999852	0.00000000	-20.67544000	-32.04970000
28.09999851	0.00000000	-9.04281500	-35.81446000
28.29999850	0.00000000	-8.62450800	-34.60876000
28.49999848	0.00000000	-18.95915000	-28.42643000
28.69999847	0.00000000	-37.10014000	-18.39321000
28.89999846	0.00000000	-58.36614000	-6.77903500
29.09999845	0.00000000	-78.51254000	4.04773600
29.29999844	0.00000000	-93.21481000	12.13091000
29.49999843	0.00000000	-99.49556000	15.10827000
29.69999841	0.00000000	-96.79502000	11.62032000
29.89999840	0.00000000	-85.99901000	1.91314000
30.09999839	0.00000000	-69.43897000	-12.02633000
30.29999838	0.00000000	-51.66092000	-27.86663000
30.49999837	0.00000000	-36.49729000	-42.08292000
30.69999835	0.00000000	-26.39640000	-50.91658000
30.89999834	0.00000000	-23.23450000	-52.03002000
31.09999833	0.00000000	-27.04847000	-44.69119000
31.29999832	0.00000000	-36.36196000	-30.42569000
31.49999831	0.00000000	-49.48326000	-12.67840000
31.69999829	0.00000000	-63.38583000	4.74286400
31.89999828	0.00000000	-74.69857000	18.26402000
32.09999827	0.00000000	-82.09276000	25.23376000
32.29999826	0.00000000	-84.36884000	24.02805000
32.49999825	0.00000000	-80.51180000	14.77608000
32.69999824	0.00000000	-71.71505000	-0.68897630
32.89999822	0.00000000	-60.50073000	-18.85458000
33.09999821	0.00000000	-49.66166000	-36.23277000
33.29999820	0.00000000	-41.10482000	-48.96038000
33.49999819	0.00000000	-36.49729000	-54.02928000
33.69999818	0.00000000	-36.82332000	-50.95964000
33.89999816	0.00000000	-41.79995000	-40.50812000
34.09999815	0.00000000	-49.52633000	-24.71087000
34.29999814	0.00000000	-58.41535000	-7.33267600
34.49999813	0.00000000	-66.51082000	7.76943800
34.69999812	0.00000000	-71.53666000	17.80266000
34.89999810	0.00000000	-72.69930000	20.54011000
35.09999809	0.00000000	-69.67273000	15.52657000
35.29999808	0.00000000	-63.53346000	4.36761800
35.49999807	0.00000000	-56.63754000	-10.67913000
35.69999806	0.00000000	-50.45521000	-25.68897000
35.89999805	0.00000000	-46.96112000	-37.30315000
36.09999803	0.00000000	-46.54281000	-43.11023000
36.29999802	0.00000000	-48.83120000	-41.99680000
36.49999801	0.00000000	-53.51870000	-34.69488000
36.69999800	0.00000000	-59.15969000	-23.17298000
36.89999799	0.00000000	-64.17323000	-10.44537000
37.09999797	0.00000000	-66.13557000	0.28912400
37.29999796	0.00000000	-65.85260000	6.46530500
37.49999795	0.00000000	-63.85334000	6.09621000
37.69999794	0.00000000	-59.99015000	0.04921259
37.89999793	0.00000000	-55.38263000	-9.56569900
38.09999791	0.00000000	-51.15034000	-19.88189000
38.29999790	0.00000000	-48.45595000	-27.96506000
38.49999789	0.00000000	-48.03149000	-31.40379000
38.69999788	0.00000000	-49.56939000	-29.49680000
38.89999787	0.00000000	-52.64517000	-22.61934000
39.09999786	0.00000000	-56.54527000	-13.09670000
39.29999784	0.00000000	-60.41461000	-4.26304100
39.49999783	0.00000000	-63.89641000	1.49483300
39.69999782	0.00000000	-65.80955000	2.60826800
39.89999781	0.00000000	-65.85260000	-1.61786400
40.09999780	0.00000000	-64.27164000	-10.02707000
40.29999778	0.00000000	-61.19586000	-20.01722000
40.49999777	0.00000000	-57.33883000	-28.80167000
40.69999776	0.00000000	-53.80167000	-33.77214000
40.89999775	0.00000000	-50.68897000	-33.02780000
41.09999774	0.00000000	-48.40674000	-27.31299000
41.29999772	0.00000000	-48.03149000	-18.43627000
41.49999771	0.00000000	-49.52633000	-8.40305000
41.69999770	0.00000000	-52.22071000	0.38139760
41.89999769	0.00000000	-55.33957000	5.34571800
42.09999768	0.00000000	-58.45841000	4.65059000
42.29999767	0.00000000	-61.19586000	-0.68897630
42.49999765	0.00000000	-63.10900000	-8.77829600
42.69999764	0.00000000	-63.89641000	-18.01796000
42.89999763	0.00000000	-63.15207000	-25.68897000
43.09999762	0.00000000	-61.66338000	-30.00738000
43.29999761	0.00000000	-60.03937000	-30.37647000
43.49999759	0.00000000	-58.08316000	-26.98080000
43.69999758	0.00000000	-55.80708000	-20.81078000
43.89999757	0.00000000	-54.22613000	-13.92717000
44.09999756	0.00000000	-53.38336000	-7.70792300
44.29999755	0.00000000	-52.59596000	-3.88779500
44.49999753	0.00000000	-52.26993000	-3.01427100
44.69999752	0.00000000	-52.59596000	-4.91510800
44.89999751	0.00000000	-53.34030000	-8.35998900
45.09999750	0.00000000	-53.75861000	-12.62918000
45.29999749	0.00000000	-54.26919000	-16.85531000
45.49999748	0.00000000	-55.80708000	-19.92495000
45.69999746	0.00000000	-58.16929000	-21.13066000
45.89999745	0.00000000	-60.87598000	-20.43553000
46.09999744	0.00000000	-63.98867000	-18.90379000
46.29999743	0.00000000	-66.22785000	-16.94759000
46.49999742	0.00000000	-67.01525000	-14.58538000
46.69999740	0.00000000	-65.76033000	-12.30315000
46.89999739	0.00000000	-62.27239000	-10.35310000
47.09999738	0.00000000	-56.82825000	-9.60875900
47.29999737	0.00000000	-50.63976000	-9.93479300
47.49999736	0.00000000	-44.86958000	-11.14050000
47.69999734	0.00000000	-41.06176000	-13.09055000
47.89999733	0.00000000	-40.68651000	-15.74188000
48.09999732	0.00000000	-43.84842000	-18.06102000
48.29999731	0.00000000	-50.41215000	-19.22982000
48.49999730	0.00000000	-59.24582000	-19.64198000
48.69999729	0.00000000	-67.34743000	-18.81152000
48.89999727	0.00000000	-73.20988000	-16.90453000
49.09999726	0.00000000	-75.81815000	-14.16092000
49.29999725	0.00000000	-73.86195000	-11.09744000
49.49999724	0.00000000	-67.34743000	-8.44611200
49.69999723	0.00000000	-58.45841000	-7.28346400
49.89999721	0.00000000	-49.19414000	-8.07086500
50.09999720	0.00000000	-41.48006000	-10.35310000
50.29999719	0.00000000	-37.65994000	-13.87795000
50.49999718	0.00000000	-38.40428000	-17.69808000
50.69999717	0.00000000	-43.79921000	-21.17372000
50.89999715	0.00000000	-52.26993000	-23.03765000
51.09999714	0.00000000	-61.52805000	-22.71161000
51.29999713	0.00000000	-69.58046000	-20.39247000
51.49999712	0.00000000	-73.81274000	-16.90453000
51.69999711	0.00000000	-73.11761000	-12.67224000
51.89999710	0.00000000	-68.55315000	-8.82135800
52.09999708	0.00000000	-61.57726000	-6.48991100
52.29999707	0.00000000	-53.85088000	-5.70866100
52.49999706	0.00000000	-46.96112000	-6.91437000
52.69999705	0.00000000	-43.14714000	-9.98400600
52.89999704	0.00000000	-43.79921000	-14.21014000
53.09999702	0.00000000	-47.66240000	-18.35015000
53.29999701	0.00000000	-53.43873000	-20.71235000
53.49999700	0.00000000	-60.35925000	-20.81078000
53.69999699	0.00000000	-65.67421000	-20.01722000
53.89999698	0.00000000	-68.04256000	-18.01796000
54.09999696	0.00000000	-66.87991000	-14.62844000
54.29999695	0.00000000	-62.69069000	-11.60187000
54.49999694	0.00000000	-56.92052000	-10.07013000
54.69999693	0.00000000	-51.19340000	-10.40231000
54.89999692	0.00000000	-47.33637000	-12.25394000
55.09999691	0.00000000	-46.54281000	-14.16092000
55.29999689	0.00000000	-48.40674000	-15.74188000
55.49999688	0.00000000	-52.31299000	-16.85531000
55.69999687	0.00000000	-57.25270000	-16.81225000
55.89999686	0.00000000	-61.89714000	-15.27436000
56.09999685	0.00000000	-64.59769000	-12.67224000
56.29999683	0.00000000	-65.38509000	-10.40231000
56.49999682	0.00000000	-63.80413000	-9.60875900
56.69999681	0.00000000	-60.03937000	-10.02707000
56.89999680	0.00000000	-55.80708000	-12.02018000
57.09999679	0.00000000	-52.31299000	-15.83415000
57.29999677	0.00000000	-49.98769000	-20.01722000
57.49999676	0.00000000	-49.61245000	-23.08686000
57.69999675	0.00000000	-51.10728000	-24.20029000
57.89999674	0.00000000	-53.80167000	-22.61934000
58.09999673	0.00000000	-56.87746000	-18.39321000
58.29999672	0.00000000	-59.57185000	-12.62918000
58.49999670	0.00000000	-61.10974000	-6.86515700
58.69999669	0.00000000	-61.15280000	-2.63902500
58.89999668	0.00000000	-60.03937000	-1.15034400
59.09999667	0.00000000	-58.50147000	-3.05733300
59.29999666	0.00000000	-56.92052000	-8.12007800
59.49999664	0.00000000	-55.38263000	-15.00369000
59.69999663	0.00000000	-54.26919000	-22.33637000
59.89999662	0.00000000	-54.26919000	-27.68824000
60.09999661	0.00000000	-55.33957000	-30.00738000
60.29999660	0.00000000	-56.50221000	-28.42643000
60.49999658	0.00000000	-57.29576000	-23.03765000
60.69999657	0.00000000	-57.99089000	-15.36663000
60.89999656	0.00000000	-57.61565000	-7.28346400
61.09999655	0.00000000	-56.13312000	-1.10728300
61.29999654	0.00000000	-55.00738000	2.00541300
61.49999653	0.00000000	-54.17691000	1.53789400
61.69999651	0.00000000	-53.85088000	-3.10039400
61.89999650	0.00000000	-54.22613000	-11.14050000
62.09999649	0.00000000	-55.38263000	-19.92495000
62.29999648	0.00000000	-56.92052000	-26.93774000
62.49999647	0.00000000	-58.50147000	-30.80093000
62.69999645	0.00000000	-60.03937000	-31.21309000
62.89999644	0.00000000	-61.10974000	-27.68824000
63.09999643	0.00000000	-60.73450000	-21.17372000
63.29999642	0.00000000	-58.83366000	-13.04749000
63.49999641	0.00000000	-56.50221000	-5.38262700
63.69999639	0.00000000	-53.80167000	0.04921259
63.89999638	0.00000000	-51.52559000	1.95620100
64.09999637	0.00000000	-50.73204000	0.09227362
64.29999636	0.00000000	-51.10728000	-4.91510800
64.49999635	0.00000000	-52.68823000	-11.42347000
64.69999634	0.00000000	-55.38263000	-18.01796000
64.89999632	0.00000000	-58.40920000	-23.03765000
65.09999631	0.00000000	-60.73450000	-25.82431000
65.29999630	0.00000000	-61.52805000	-26.24262000
65.49999629	0.00000000	-61.15280000	-24.71087000
65.69999628	0.00000000	-59.61491000	-21.59203000
65.89999626	0.00000000	-57.33883000	-17.32283000
66.09999625	0.00000000	-55.38263000	-12.72146000
66.29999624	0.00000000	-53.85088000	-8.82135800
66.49999623	0.00000000	-53.10654000	-6.44685000
66.69999622	0.00000000	-53.89394000	-5.24729300
66.89999620	0.00000000	-55.75787000	-5.29035400
67.09999619	0.00000000	-58.03395000	-6.82209600
67.29999618	0.00000000	-59.57185000	-9.51648500
67.49999617	0.00000000	-59.99015000	-12.62918000
67.69999616	0.00000000	-59.57185000	-15.78494000
67.89999615	0.00000000	-57.99089000	-18.89764000
68.09999613	0.00000000	-55.33957000	-21.64124000
68.29999612	0.00000000	-52.68823000	-23.54823000
68.49999611	0.00000000	-51.15034000	-24.29257000
68.69999610	0.00000000	-51.19340000	-23.08686000
68.89999609	0.00000000	-53.14960000	-20.01722000
69.09999607	0.00000000	-56.96358000	-15.74188000
69.29999606	0.00000000	-61.15280000	-11.14050000
69.49999605	0.00000000	-64.27164000	-7.19734200
69.69999604	0.00000000	-65.80955000	-4.49680100
69.89999603	0.00000000	-65.38509000	-2.97121000
70.09999601	0.00000000	-62.64764000	-3.79552100
70.29999600	0.00000000	-58.03395000	-6.86515700
70.49999599	0.00000000	-52.64517000	-11.51575000
70.69999598	0.00000000	-47.98843000	-16.89837000
70.89999597	0.00000000	-44.86958000	-21.50590000
71.09999596	0.00000000	-43.84842000	-24.24335000
71.29999594	0.00000000	-46.17372000	-24.61860000
71.49999593	0.00000000	-51.84547000	-22.71161000
71.69999592	0.00000000	-58.03395000	-18.85458000
71.89999591	0.00000000	-63.53346000	-14.25320000
72.09999590	0.00000000	-68.09177000	-9.98400600
72.29999588	0.00000000	-69.62352000	-6.91437000
72.49999587	0.00000000	-67.76575000	-5.70866100
72.69999586	0.00000000	-63.89641000	-6.48991100
72.89999585	0.00000000	-58.40920000	-8.77214500
73.09999584	0.00000000	-52.31299000	-12.21087000
73.29999582	0.00000000	-47.29330000	-15.23130000
73.49999581	0.00000000	-44.91880000	-16.85531000
73.69999580	0.00000000	-44.86958000	-17.27362000
73.89999579	0.00000000	-46.87500000	-16.89837000
74.09999578	0.00000000	-51.10728000	-15.74188000
74.29999577	0.00000000	-56.45300000	-14.29626000
74.49999575	0.00000000	-61.10974000	-13.51501000
74.69999574	0.00000000	-64.22859000	-13.92717000
74.89999573	0.00000000	-65.38509000	-15.04675000
75.09999572	0.00000000	-64.27164000	-16.94759000
75.29999571	0.00000000	-61.62032000	-18.39321000
75.49999569	0.00000000	-58.50147000	-18.39321000
75.69999568	0.00000000	-55.38263000	-16.85531000
75.89999567	0.00000000	-52.68823000	-14.16092000
76.09999566	0.00000000	-51.15034000	-11.04823000
76.29999565	0.00000000	-51.10728000	-7.98474400
76.49999563	0.00000000	-52.26993000	-5.70866100
76.69999562	0.00000000	-54.13385000	-5.37647600
76.89999561	0.00000000	-56.03469000	-7.33267600
77.09999560	0.00000000	-56.82825000	-11.55881000
77.29999559	0.00000000	-56.92052000	-16.94759000
77.49999558	0.00000000	-56.92052000	-21.96727000
77.69999556	0.00000000	-56.92052000	-25.82431000
77.89999555	0.00000000	-56.96358000	-27.31299000
78.09999554	0.00000000	-57.33883000	-25.77510000
78.29999553	0.00000000	-58.12622000	-21.54897000
78.49999552	0.00000000	-58.87672000	-15.78494000
78.69999550	0.00000000	-59.61491000	-9.93479300
78.89999549	0.00000000	-59.57185000	-4.95816900
79.09999548	0.00000000	-58.45841000	-1.90083600
79.29999547	0.00000000	-56.87746000	-2.26377900
79.49999546	0.00000000	-54.92125000	-5.29035400
79.69999544	0.00000000	-52.64517000	-9.93479300
79.89999543	0.00000000	-51.19340000	-15.36663000
80.09999542	0.00000000	-51.48252000	-20.39247000
80.29999541	0.00000000	-53.00812000	-24.24335000
80.49999540	0.00000000	-54.59522000	-25.82431000
80.69999539	0.00000000	-56.96358000	-25.08612000
80.89999537	0.00000000	-59.57185000	-22.75467000
81.09999536	0.00000000	-61.15280000	-18.85458000
81.29999535	0.00000000	-61.52805000	-14.25320000
81.49999534	0.00000000	-60.73450000	-9.98400600
81.69999533	0.00000000	-58.45841000	-6.86515700
81.89999531	0.00000000	-55.75787000	-5.29035400
82.09999530	0.00000000	-53.42642000	-5.24729300
82.29999529	0.00000000	-51.52559000	-6.40378900
82.49999528	0.00000000	-51.15034000	-8.35383800
82.69999527	0.00000000	-52.22071000	-11.09744000
82.89999525	0.00000000	-53.75861000	-14.25320000
83.09999524	0.00000000	-55.33957000	-17.69808000
83.29999523	0.00000000	-56.87746000	-20.79847000
83.49999522	0.00000000	-58.08316000	-22.34252000
83.69999521	0.00000000	-58.78444000	-22.75467000
83.89999520	0.00000000	-58.82135000	-21.54897000
84.09999518	0.00000000	-57.71407000	-18.85458000
84.29999517	0.00000000	-56.96358000	-15.36663000
84.49999516	0.00000000	-56.50221000	-11.46653000
84.69999515	0.00000000	-55.75787000	-7.98474400
84.89999514	0.00000000	-55.43184000	-5.29035400
85.09999512	0.00000000	-55.71481000	-4.17691900
85.29999511	0.00000000	-56.08390000	-5.33341500
85.49999510	0.00000000	-55.75787000	-8.40305000
85.69999509	0.00000000	-55.71481000	-12.62918000
85.89999508	0.00000000	-55.65944000	-16.94759000
86.09999506	0.00000000	-54.59522000	-20.81078000
86.29999505	0.00000000	-54.26919000	-23.87426000
86.49999504	0.00000000	-54.96432000	-24.57554000
86.69999503	0.00000000	-55.75787000	-22.71161000
86.89999502	0.00000000	-56.96358000	-18.85458000
87.09999501	0.00000000	-58.45841000	-14.21014000
87.29999499	0.00000000	-59.57185000	-9.56569900
87.49999498	0.00000000	-59.61491000	-5.75172200
87.69999497	0.00000000	-58.83366000	-4.21998000
87.89999496	0.00000000	-57.66486000	-5.33341500
88.09999495	0.00000000	-55.71481000	-8.40305000
88.29999493	0.00000000	-53.85088000	-12.67224000
88.49999492	0.00000000	-52.64517000	-17.27362000
88.69999491	0.00000000	-52.26993000	-21.13066000
88.89999490	0.00000000	-52.64517000	-22.99459000
89.09999489	0.00000000	-53.85088000	-22.29331000
89.29999487	0.00000000	-55.75787000	-19.22982000
89.49999486	0.00000000	-58.03395000	-15.36663000
89.69999485	0.00000000	-59.52879000	-11.09129000
89.89999484	0.00000000	-59.61491000	-7.33267600
90.09999483	0.00000000	-58.87672000	-5.79478300
90.29999482	0.00000000	-58.08316000	-6.91437000
90.49999480	0.00000000	-56.87746000	-9.93479300
90.69999479	0.00000000	-55.38263000	-13.83489000
90.89999478	0.00000000	-54.22613000	-17.69808000
91.09999477	0.00000000	-53.80167000	-21.13066000
91.29999476	0.00000000	-53.80167000	-22.61934000
91.49999474	0.00000000	-54.17691000	-21.50590000
91.69999473	0.00000000	-54.92125000	-18.43627000
91.89999472	0.00000000	-55.29650000	-14.21014000
92.09999471	0.00000000	-55.38263000	-9.98400600
92.29999470	0.00000000	-55.75787000	-6.91437000
92.49999468	0.00000000	-56.45300000	-5.79478300
92.69999467	0.00000000	-56.50221000	-7.33267600
92.89999466	0.00000000	-56.22539000	-11.14050000
93.09999465	0.00000000	-56.96358000	-15.74188000
93.29999464	0.00000000	-58.03395000	-19.97416000
93.49999463	0.00000000	-58.45841000	-22.66855000
93.69999461	0.00000000	-58.45841000	-23.03765000
93.89999460	0.00000000	-58.03395000	-21.08760000
94.09999459	0.00000000	-56.82825000	-16.85531000
94.29999458	0.00000000	-54.96432000	-11.55881000
94.49999457	0.00000000	-53.01427000	-7.37573800
94.69999455	0.00000000	-51.84547000	-5.75172200
94.89999454	0.00000000	-51.06422000	-6.48991100
95.09999453	0.00000000	-51.15034000	-8.82135800
95.29999452	0.00000000	-52.68823000	-12.67224000
95.49999451	0.00000000	-55.38263000	-16.85531000
95.69999449	0.00000000	-58.45841000	-19.92495000
95.89999448	0.00000000	-61.15280000	-21.13066000
96.09999447	0.00000000	-62.73376000	-20.34941000
96.29999446	0.00000000	-63.10900000	-18.06102000
96.49999445	0.00000000	-62.31545000	-14.58538000
96.69999444	0.00000000	-59.94709000	-11.18356000
96.89999442	0.00000000	-56.50221000	-8.86441900
97.09999441	0.00000000	-52.64517000	-8.44611200
97.29999440	0.00000000	-49.52633000	-9.55954600
97.49999439	0.00000000	-47.61319000	-11.51575000
97.69999438	0.00000000	-47.25024000	-14.21014000
97.89999436	0.00000000	-49.19414000	-16.85531000
98.09999435	0.00000000	-52.59596000	-18.39321000
98.29999434	0.00000000	-56.50221000	-18.43627000
98.49999433	0.00000000	-59.99015000	-17.32283000
98.69999432	0.00000000	-62.73376000	-15.78494000
98.89999430	0.00000000	-64.27164000	-14.25320000
99.09999429	0.00000000	-64.22859000	-13.09670000
99.29999428	0.00000000	-62.27239000	-12.67224000
99.49999427	0.00000000	-58.45841000	-12.67224000
99.69999426	0.00000000	-54.26919000	-13.04749000
99.89999425	0.00000000	-51.10728000	-13.79183000
100.09999423	0.00000000	-49.10802000	-14.11786000
100.29999422	0.00000000	-47.98843000	-13.79183000
100.49999421	0.00000000	-48.40674000	-13.00443000
100.69999420	0.00000000	-50.68897000	-12.29700000
100.89999419	0.00000000	-53.75861000	-11.88484000
101.09999417	0.00000000	-56.87746000	-12.34621000
101.29999416	0.00000000	-59.61491000	-13.46580000
101.49999415	0.00000000	-61.52805000	-15.40969000
101.69999414	0.00000000	-62.31545000	-17.27362000
101.89999413	0.00000000	-61.57111000	-18.43627000
102.09999411	0.00000000	-60.03937000	-18.43627000
102.29999410	0.00000000	-58.03395000	-17.27362000
102.49999409	0.00000000	-55.33957000	-15.32357000
102.69999408	0.00000000	-52.68823000	-12.62918000
102.89999407	0.00000000	-51.10728000	-9.93479300
103.09999406	0.00000000	-50.68897000	-8.02780400
103.29999404	0.00000000	-51.10728000	-7.28346400
103.49999403	0.00000000	-52.59596000	-8.44611200
103.69999402	0.00000000	-54.54601000	-11.09744000
103.89999401	0.00000000	-56.13312000	-14.21014000
104.09999400	0.00000000	-58.08316000	-17.27977000
104.29999398	0.00000000	-59.57185000	-19.55585000
104.49999397	0.00000000	-59.99015000	-19.97416000
104.69999396	0.00000000	-59.61491000	-18.85458000
104.89999395	0.00000000	-58.45841000	-16.90453000
105.09999394	0.00000000	-56.92052000	-14.21014000
105.29999392	0.00000000	-55.33957000	-11.51575000
105.49999391	0.00000000	-53.85088000	-9.60875900
105.69999390	0.00000000	-53.06348000	-8.82135800
105.89999389	0.00000000	-53.42642000	-9.60875900
106.09999388	0.00000000	-54.17691000	-11.46653000
106.29999387	0.00000000	-55.38263000	-13.79183000
106.49999385	0.00000000	-56.82825000	-15.69882000
106.69999384	0.00000000	-57.61565000	-16.89837000
106.89999383	0.00000000	-57.25270000	-17.27362000
107.09999382	0.00000000	-56.54527000	-16.89837000
107.29999381	0.00000000	-55.71481000	-15.74188000
107.49999379	0.00000000	-54.96432000	-14.21014000
107.69999378	0.00000000	-54.17691000	-12.67224000
107.89999377	0.00000000	-53.85088000	-11.55881000
108.09999376	0.00000000	-54.22613000	-11.55881000
108.29999375	0.00000000	-55.38263000	-12.67224000
108.49999374	0.00000000	-56.87746000	-14.21014000
108.69999372	0.00000000	-58.03395000	-15.74188000
108.89999371	0.00000000	-58.45841000	-16.85531000
109.09999370	0.00000000	-58.45841000	-16.89837000
109.29999369	0.00000000	-58.03395000	-16.11712000
109.49999368	0.00000000	-56.87746000	-14.94833000
109.69999366	0.00000000	-55.33957000	-13.04749000
109.89999365	0.00000000	-53.80167000	-11.51575000
110.09999364	0.00000000	-52.68823000	-10.72219000
110.29999363	0.00000000	-52.68823000	-10.35310000
110.49999362	0.00000000	-53.80167000	-11.14050000
110.69999360	0.00000000	-55.29650000	-12.62918000
110.89999359	0.00000000	-56.50221000	-14.21014000
111.09999358	0.00000000	-57.29576000	-15.74188000
111.29999357	0.00000000	-58.08316000	-16.85531000
111.49999356	0.00000000	-58.40920000	-16.89837000
111.69999355	0.00000000	-58.03395000	-16.16018000
111.89999353	0.00000000	-56.87746000	-15.36663000
112.09999352	0.00000000	-55.38263000	-14.21014000
112.29999351	0.00000000	-54.17691000	-13.09670000
112.49999350	0.00000000	-53.42642000	-12.67224000
112.69999349	0.00000000	-53.01427000	-12.62918000
112.89999347	0.00000000	-53.42642000	-12.62918000
113.09999346	0.00000000	-54.17691000	-12.67224000
113.29999345	0.00000000	-55.33957000	-13.04749000
113.49999344	0.00000000	-56.45300000	-13.79183000
113.69999343	0.00000000	-56.87746000	-14.16708000
113.89999341	0.00000000	-56.92052000	-14.21014000
114.09999340	0.00000000	-56.92052000	-14.21014000
114.29999339	0.00000000	-56.87746000	-14.21014000
114.49999338	0.00000000	-56.50221000	-14.21014000
114.69999337	0.00000000	-55.75787000	-14.21014000
114.89999336	0.00000000	-55.33957000	-14.25320000
115.09999334	0.00000000	-54.92125000	-14.62844000
115.29999333	0.00000000	-54.22613000	-15.32357000
115.49999332	0.00000000	-54.22613000	-15.32357000
115.69999331	0.00000000	-54.92125000	-14.62844000
115.89999330	0.00000000	-55.33957000	-14.21014000
116.09999328	0.00000000	-55.75787000	-13.79183000
116.29999327	0.00000000	-56.50221000	-13.04749000
116.49999326	0.00000000	-56.87746000	-12.67224000
116.69999325	0.00000000	-56.92052000	-12.62918000
116.89999324	0.00000000	-56.87746000	-12.67224000
117.09999322	0.00000000	-56.50221000	-13.04749000
117.29999321	0.00000000	-55.71481000	-13.83489000
117.49999320	0.00000000	-54.96432000	-14.58538000
117.69999319	0.00000000	-54.17691000	-15.36663000
117.89999318	0.00000000	-53.80167000	-15.74188000
118.09999317	0.00000000	-53.80167000	-15.78494000
118.29999315	0.00000000	-54.17691000	-15.74188000
118.49999314	0.00000000	-54.96432000	-15.36663000
118.69999313	0.00000000	-55.71481000	-14.58538000
118.89999312	0.00000000	-56.54527000	-13.83489000
119.09999311	0.00000000	-57.29576000	-13.04749000
119.29999309	0.00000000	-58.08316000	-12.67224000
119.49999308	0.00000000	-58.40920000	-12.62918000
119.69999307	0.00000000	-58.03395000	-12.62918000
119.89999306	0.00000000	-56.87746000	-12.62918000
120.09999305	0.00000000	-55.38263000	-12.62918000
120.29999303	0.00000000	-54.17691000	-12.67224000
120.49999302	0.00000000	-53.38336000	-13.04749000
120.69999301	0.00000000	-52.59596000	-13.79183000
120.89999300	0.00000000	-52.26993000	-14.16708000
121.09999299	0.00000000	-52.64517000	-14.21014000
121.29999298	0.00000000	-53.80167000	-14.21014000
121.49999296	0.00000000	-55.29650000	-14.21014000
121.69999295	0.00000000	-56.50221000	-14.21014000
121.89999294	0.00000000	-57.29576000	-14.16708000
122.09999293	0.00000000	-58.08316000	-13.79183000
122.29999292	0.00000000	-58.40920000	-13.04749000
122.49999290	0.00000000	-58.03395000	-12.62918000
122.69999289	0.00000000	-56.92052000	-12.21087000
122.89999288	0.00000000	-55.75787000	-11.46653000
123.09999287	0.00000000	-54.96432000	-11.14050000
123.29999286	0.00000000	-54.17691000	-11.46653000
123.49999284	0.00000000	-53.80167000	-12.25394000
123.69999283	0.00000000	-53.75861000	-13.00443000
123.89999282	0.00000000	-53.80167000	-13.83489000
124.09999281	0.00000000	-54.17691000	-14.58538000
124.29999280	0.00000000	-54.92125000	-15.36663000
124.49999279	0.00000000	-55.33957000	-15.69267000
124.69999277	0.00000000	-55.75787000	-15.36663000
124.89999276	0.00000000	-56.50221000	-14.58538000
125.09999275	0.00000000	-56.87746000	-13.83489000
125.29999274	0.00000000	-56.92052000	-13.04749000
125.49999273	0.00000000	-56.87746000	-12.67224000
125.69999271	0.00000000	-56.50221000	-12.62918000
125.89999270	0.00000000	-55.75787000	-12.62918000
126.09999269	0.00000000	-55.33957000	-12.62918000
126.29999268	0.00000000	-54.92125000	-12.67224000
126.49999267	0.00000000	-54.17691000	-13.04749000
126.69999265	0.00000000	-53.80167000	-13.79183000
126.89999264	0.00000000	-53.80167000	-14.16708000
127.09999263	0.00000000	-54.17691000	-14.25320000
127.29999262	0.00000000	-54.96432000	-14.58538000
127.49999261	0.00000000	-55.75787000	-14.94833000
127.69999260	0.00000000	-56.92052000	-14.58538000
127.89999258	0.00000000	-57.99089000	-14.25320000
128.09999257	0.00000000	-58.03395000	-14.21014000
128.29999256	0.00000000	-57.29576000	-14.21014000
128.49999255	0.00000000	-56.50221000	-14.21014000
128.69999254	0.00000000	-55.29650000	-14.21014000
128.89999252	0.00000000	-53.85088000	-14.21014000
129.09999251	0.00000000	-53.06348000	-14.21014000
129.29999250	0.00000000	-53.42642000	-14.21014000
129.49999249	0.00000000	-54.13385000	-14.21014000
129.69999248	0.00000000	-54.96432000	-14.21014000
129.89999246	0.00000000	-55.71481000	-14.21014000
130.09999245	0.00000000	-56.50221000	-14.21014000
130.29999244	0.00000000	-56.87746000	-14.21014000
130.49999243	0.00000000	-56.92052000	-14.16708000
130.69999242	0.00000000	-56.87746000	-13.79183000
130.89999241	0.00000000	-56.45300000	-13.04749000
131.09999239	0.00000000	-55.33957000	-12.67224000
131.29999238	0.00000000	-54.22613000	-12.67224000
131.49999237	0.00000000	-53.80167000	-13.04749000
131.69999236	0.00000000	-53.75861000	-13.79183000
131.89999235	0.00000000	-53.80167000	-14.21014000
132.09999233	0.00000000	-54.17691000	-14.62844000
132.29999232	0.00000000	-54.96432000	-15.32357000
132.49999231	0.00000000	-55.71481000	-15.32357000
132.69999230	0.00000000	-56.50221000	-14.62844000
132.89999229	0.00000000	-56.82825000	-14.21014000
133.09999227	0.00000000	-56.50221000	-13.79183000
133.29999226	0.00000000	-55.75787000	-13.00443000
133.49999225	0.00000000	-55.38263000	-12.29700000
133.69999224	0.00000000	-55.33957000	-11.88484000
133.89999223	0.00000000	-55.33957000	-12.25394000
134.09999222	0.00000000	-55.33957000	-12.62918000
134.29999220	0.00000000	-55.33957000	-13.09670000
134.49999219	0.00000000	-55.33957000	-14.21014000
134.69999218	0.00000000	-55.33957000	-15.32357000
134.89999217	0.00000000	-55.33957000	-15.74188000
135.09999216	0.00000000	-55.33957000	-15.78494000
135.29999214	0.00000000	-55.29650000	-15.74188000
135.49999213	0.00000000	-54.92125000	-15.36663000
135.69999212	0.00000000	-54.22613000	-14.58538000
135.89999211	0.00000000	-54.22613000	-13.83489000
136.09999210	0.00000000	-54.92125000	-13.04749000
136.29999208	0.00000000	-55.33957000	-12.67224000
136.49999207	0.00000000	-55.75787000	-12.62918000
136.69999206	0.00000000	-56.50221000	-12.62918000
136.89999205	0.00000000	-56.82825000	-12.67224000
137.09999204	0.00000000	-56.50221000	-13.04749000
137.29999203	0.00000000	-55.71481000	-13.79183000
137.49999201	0.00000000	-54.96432000	-14.16708000
137.69999200	0.00000000	-54.17691000	-14.25320000
137.89999199	0.00000000	-53.80167000	-14.62844000
138.09999198	0.00000000	-53.75861000	-15.36663000
138.29999197	0.00000000	-53.80167000	-15.69267000
138.49999195	0.00000000	-54.17691000	-15.36663000
138.69999194	0.00000000	-54.96432000	-14.62844000
138.89999193	0.00000000	-55.71481000	-14.21014000
139.09999192	0.00000000	-56.50221000	-13.79183000
139.29999191	0.00000000	-56.87746000	-13.04749000
139.49999189	0.00000000	-56.87746000	-12.62918000
139.69999188	0.00000000	-56.50221000	-12.25394000
139.89999187	0.00000000	-55.71481000	-11.88484000
140.09999186	0.00000000	-54.96432000	-12.29700000
140.29999185	0.00000000	-54.17691000	-13.00443000
140.49999184	0.00000000	-53.80167000	-13.83489000
140.69999182	0.00000000	-53.80167000	-14.58538000
140.89999181	0.00000000	-54.17691000	-15.36663000
141.09999180	0.00000000	-54.92125000	-15.74188000
141.29999179	0.00000000	-55.29650000	-15.74188000
141.49999178	0.00000000	-55.33957000	-15.36663000
141.69999176	0.00000000	-55.33957000	-14.58538000
141.89999175	0.00000000	-55.33957000	-13.83489000
142.09999174	0.00000000	-55.33957000	-13.00443000
142.29999173	0.00000000	-55.29650000	-12.25394000
142.49999172	0.00000000	-54.92125000	-11.51575000
142.69999170	0.00000000	-54.22613000	-11.51575000
142.89999169	0.00000000	-54.22613000	-12.25394000
143.09999168	0.00000000	-54.92125000	-13.04749000
143.29999167	0.00000000	-55.29650000	-14.21014000
143.49999166	0.00000000	-55.33957000	-15.32357000
143.69999165	0.00000000	-55.33957000	-15.74188000
143.89999163	0.00000000	-55.33957000	-15.78494000
144.09999162	0.00000000	-55.29650000	-15.69267000
144.29999161	0.00000000	-54.96432000	-14.94833000
144.49999160	0.00000000	-54.59522000	-13.46580000
144.69999159	0.00000000	-54.92125000	-12.72146000
144.89999157	0.00000000	-54.92125000	-12.62918000
145.09999156	0.00000000	-54.55216000	-12.62918000
145.29999155	0.00000000	-54.58907000	-12.62918000
145.49999154	0.00000000	-54.55216000	-12.67224000
145.69999153	0.00000000	-54.96432000	-13.04749000
145.89999151	0.00000000	-55.29650000	-13.79183000
146.09999150	0.00000000	-55.38263000	-14.16708000
146.29999149	0.00000000	-55.71481000	-14.21014000
146.49999148	0.00000000	-56.08390000	-14.21014000
146.69999147	0.00000000	-55.67175000	-14.21014000
146.89999146	0.00000000	-54.96432000	-14.21014000
147.09999144	0.00000000	-54.17691000	-14.21014000
147.29999143	0.00000000	-53.80167000	-14.16708000
147.49999142	0.00000000	-53.80167000	-13.79183000
147.69999141	0.00000000	-54.17691000	-13.04749000
147.89999140	0.00000000	-54.92125000	-12.67224000
148.09999138	0.00000000	-55.29650000	-12.62918000
148.29999137	0.00000000	-55.33957000	-12.62918000
148.49999136	0.00000000	-55.33957000	-12.62918000
148.69999135	0.00000000	-55.33957000	-12.67224000
148.89999134	0.00000000	-55.33957000	-13.04749000
149.09999132	0.00000000	-55.33957000	-13.79183000
149.29999131	0.00000000	-55.29650000	-14.16708000
149.49999130	0.00000000	-54.92125000	-14.21014000
149.69999129	0.00000000	-54.17691000	-14.21014000
149.89999128	0.00000000	-53.80167000	-14.21014000
150.09999127	0.00000000	-53.75861000	-14.21014000
150.29999125	0.00000000	-53.80167000	-14.16708000
150.49999124	0.00000000	-54.17691000	-13.79183000
150.69999123	0.00000000	-54.92125000	-13.04749000
150.89999122	0.00000000	-55.29650000	-12.67224000
151.09999121	0.00000000	-55.33957000	-12.62918000
151.29999119	0.00000000	-55.33957000	-12.67224000
151.49999118	0.00000000	-55.33957000	-13.04749000
151.69999117	0.00000000	-55.33957000	-13.79183000
151.89999116	0.00000000	-55.33957000	-14.16708000
152.09999115	0.00000000	-55.29650000	-14.21014000
152.29999113	0.00000000	-54.92125000	-14.21014000
152.49999112	0.00000000	-54.17691000	-14.21014000
152.69999111	0.00000000	-53.80167000	-14.21014000
152.89999110	0.00000000	-53.75861000	-14.21014000
153.09999109	0.00000000	-53.80167000	-14.16708000
153.29999108	0.00000000	-54.13385000	-13.79183000
153.49999106	0.00000000	-54.54601000	-13.04749000
153.69999105	0.00000000	-54.55216000	-12.67224000
153.89999104	0.00000000	-54.96432000	-12.62918000
154.09999103	0.00000000	-55.29650000	-12.62918000
154.29999102	0.00000000	-55.33957000	-12.62918000
154.49999100	0.00000000	-55.33957000	-12.62918000
154.69999099	0.00000000	-55.33957000	-12.67224000
154.89999098	0.00000000	-55.33957000	-13.04749000
155.09999097	0.00000000	-55.33957000	-13.79183000
155.29999096	0.00000000	-55.29650000	-14.16708000
155.49999094	0.00000000	-54.92125000	-14.21014000
155.69999093	0.00000000	-54.17691000	-14.21014000
155.89999092	0.00000000	-53.85088000	-14.21014000
156.09999091	0.00000000	-54.17691000	-14.21014000
156.29999090	0.00000000	-54.92125000	-14.16708000
156.49999089	0.00000000	-55.29650000	-13.79183000
156.69999087	0.00000000	-55.33957000	-13.04749000
156.89999086	0.00000000	-55.33957000	-12.67224000
157.09999085	0.00000000	-55.33957000	-12.62918000
157.29999084	0.00000000	-55.33957000	-12.62918000
157.49999083	0.00000000	-55.33957000	-12.62918000
157.69999081	0.00000000	-55.33957000	-12.67224000
157.89999080	0.00000000	-55.33957000	-13.04749000
158.09999079	0.00000000	-55.29650000	-13.79183000
158.29999078	0.00000000	-54.92125000	-14.16708000
158.49999077	0.00000000	-54.17691000	-14.21014000
158.69999075	0.00000000	-53.80167000	-14.21014000
158.89999074	0.00000000	-53.75861000	-14.21014000
159.09999073	0.00000000	-53.75861000	-14.16708000
159.29999072	0.00000000	-53.80167000	-13.79183000
159.49999071	0.00000000	-54.17691000	-13.04749000
159.69999070	0.00000000	-54.92125000	-12.67224000
159.89999068	0.00000000	-55.29650000	-12.62918000
160.09999067	0.00000000	-55.33957000	-12.62918000
160.29999066	0.00000000	-55.33957000	-12.62918000
160.49999065	0.00000000	-55.33957000	-12.67224000
160.69999064	0.00000000	-55.33957000	-13.04749000
160.89999062	0.00000000	-55.33957000	-13.79183000
161.09999061	0.00000000	-55.33957000	-14.16708000
161.29999060	0.00000000	-55.33957000	-14.21014000
161.49999059	0.00000000	-55.29650000	-14.21014000
161.69999058	0.00000000	-54.92125000	-14.21014000
161.89999056	0.00000000	-54.17691000	-14.21014000
162.09999055	0.00000000	-53.80167000	-14.16708000
162.29999054	0.00000000	-53.75861000	-13.79183000
162.49999053	0.00000000	-53.75861000	-13.04749000
162.69999052	0.00000000	-53.80167000	-12.67224000
162.89999051	0.00000000	-54.17691000	-12.62918000
163.09999049	0.00000000	-54.92125000	-12.62918000
163.29999048	0.00000000	-55.29650000	-12.62918000
163.49999047	0.00000000	-55.33957000	-12.67224000
163.69999046	0.00000000	-55.33957000	-13.04749000
163.89999045	0.00000000	-55.33957000	-13.79183000
164.09999043	0.00000000	-55.33957000	-14.16708000
164.29999042	0.00000000	-55.33957000	-14.21014000
164.49999041	0.00000000	-55.29650000	-14.16708000
164.69999040	0.00000000	-54.92125000	-13.83489000
164.89999039	0.00000000	-54.17691000	-13.42274000
165.09999037	0.00000000	-53.80167000	-13.45964000
165.29999036	0.00000000	-53.75861000	-13.42274000
165.49999035	0.00000000	-53.75861000	-13.79183000
165.69999034	0.00000000	-53.80167000	-13.79183000
165.89999033	0.00000000	-54.17691000	-13.46580000
166.09999032	0.00000000	-54.92125000	-13.83489000
166.29999030	0.00000000	-55.29650000	-14.16708000
166.49999029	0.00000000	-55.33957000	-14.21014000
166.69999028	0.00000000	-55.33957000	-14.21014000
166.89999027	0.00000000	-55.33957000	-14.21014000
167.09999026	0.00000000	-55.33957000	-14.21014000
167.29999024	0.00000000	-55.29650000	-14.21014000
167.49999023	0.00000000	-54.96432000	-14.21014000
167.69999022	0.00000000	-54.55216000	-14.21014000
167.89999021	0.00000000	-54.54601000	-14.21014000
168.09999020	0.00000000	-54.13385000	-14.21014000
168.29999018	0.00000000	-53.80167000	-14.21014000
168.49999017	0.00000000	-53.75861000	-14.21014000
168.69999016	0.00000000	-53.75861000	-14.16708000
168.89999015	0.00000000	-53.80167000	-13.83489000
169.09999014	0.00000000	-54.17691000	-13.46580000
169.29999013	0.00000000	-54.92125000	-13.83489000
169.49999011	0.00000000	-55.29650000	-14.11786000
169.69999010	0.00000000	-55.33957000	-13.83489000
169.89999009	0.00000000	-55.33957000	-13.42274000
170.09999008	0.00000000	-55.33957000	-13.41658000
170.29999007	0.00000000	-55.33957000	-13.00443000
170.49999005	0.00000000	-55.29650000	-12.67224000
170.69999004	0.00000000	-54.92125000	-12.67224000
170.89999003	0.00000000	-54.17691000	-13.00443000
171.09999002	0.00000000	-53.80167000	-13.37352000
171.29999001	0.00000000	-53.75861000	-13.04749000
171.49998999	0.00000000	-53.75861000	-13.09670000
171.69998998	0.00000000	-53.75861000	-13.79183000
171.89998997	0.00000000	-53.75861000	-14.16708000
172.09998996	0.00000000	-53.80167000	-14.21014000
172.29998995	0.00000000	-54.17691000	-14.16708000
172.49998994	0.00000000	-54.92125000	-13.79183000
172.69998992	0.00000000	-55.29650000	-13.04749000
172.89998991	0.00000000	-55.29650000	-12.67224000
173.09998990	0.00000000	-54.92125000	-12.62918000
173.29998989	0.00000000	-54.22613000	-12.62918000
173.49998988	0.00000000	-54.17691000	-12.62918000
173.69998986	0.00000000	-54.50295000	-12.62918000
173.89998985	0.00000000	-54.13385000	-12.67224000
174.09998984	0.00000000	-53.80167000	-13.04749000
174.29998983	0.00000000	-53.75861000	-13.79183000
174.49998982	0.00000000	-53.75861000	-14.16708000
174.69998980	0.00000000	-53.75861000	-14.21014000
174.89998979	0.00000000	-53.80167000	-14.21014000
175.09998978	0.00000000	-54.17691000	-14.21014000
175.29998977	0.00000000	-54.92125000	-14.21014000
175.49998976	0.00000000	-55.29650000	-14.21014000
175.69998975	0.00000000	-55.29650000	-14.21014000
175.89998973	0.00000000	-54.92125000	-14.21014000
176.09998972	0.00000000	-54.17691000	-14.16708000
176.29998971	0.00000000	-53.85088000	-13.83489000
176.49998970	0.00000000	-54.17691000	-13.42274000
176.69998969	0.00000000	-54.87204000	-13.45964000
176.89998967	0.00000000	-54.92125000	-13.42274000
177.09998966	0.00000000	-54.55216000	-13.83489000
177.29998965	0.00000000	-54.58907000	-14.16708000
177.49998964	0.00000000	-54.55216000	-14.21014000
177.69998963	0.00000000	-54.96432000	-14.21014000
177.89998961	0.00000000	-55.29650000	-14.21014000
178.09998960	0.00000000	-55.33957000	-14.21014000
178.29998959	0.00000000	-55.33957000	-14.21014000
178.49998958	0.00000000	-55.33957000	-14.21014000
178.69998957	0.00000000	-55.33957000	-14.16708000
178.89998956	0.00000000	-55.29650000	-13.79183000
179.09998954	0.00000000	-54.92125000	-13.04749000
179.29998953	0.00000000	-54.17691000	-12.72146000
179.49998952	0.00000000	-53.80167000	-13.04749000
179.69998951	0.00000000	-53.75861000	-13.79183000
179.89998950	0.00000000	-53.75861000	-14.16708000
180.09998948	0.00000000	-53.80167000	-14.21014000
180.29998947	0.00000000	-54.17691000	-14.21014000
180.49998946	0.00000000	-54.92125000	-14.21014000
180.69998945	0.00000000	-55.29650000	-14.21014000
180.89998944	0.00000000	-55.33957000	-14.21014000
181.09998942	0.00000000	-55.33957000	-14.16708000
181.29998941	0.00000000	-55.29650000	-13.79183000
181.49998940	0.00000000	-54.92125000	-13.04749000
181.69998939	0.00000000	-54.17691000	-12.67224000
181.89998938	0.00000000	-53.80167000	-12.62918000
182.09998937	0.00000000	-53.75861000	-12.62918000
182.29998935	0.00000000	-53.75861000	-12.58612000
182.49998934	0.00000000	-53.75861000	-12.25394000
182.69998933	0.00000000	-53.80167000	-11.93405000
182.89998932	0.00000000	-54.13385000	-12.62918000
183.09998931	0.00000000	-54.54601000	-13.37352000
183.29998929	0.00000000	-54.50910000	-13.42274000
183.49998928	0.00000000	-54.54601000	-13.83489000
183.69998927	0.00000000	-54.13385000	-14.16708000
183.89998926	0.00000000	-53.80167000	-14.16708000
184.09998925	0.00000000	-53.75861000	-13.79183000
184.29998923	0.00000000	-53.75861000	-13.04749000
184.49998922	0.00000000	-53.75861000	-12.67224000
184.69998921	0.00000000	-53.75861000	-12.62918000
184.89998920	0.00000000	-53.75861000	-12.62918000
185.09998919	0.00000000	-53.80167000	-12.62918000
185.29998918	0.00000000	-54.13385000	-12.62918000
185.49998916	0.00000000	-54.50295000	-12.62918000
185.69998915	0.00000000	-54.13385000	-12.67224000
185.89998914	0.00000000	-53.80167000	-13.04749000
186.09998913	0.00000000	-53.75861000	-13.79183000
186.29998912	0.00000000	-53.75861000	-14.16708000
186.49998910	0.00000000	-53.75861000	-14.21014000
186.69998909	0.00000000	-53.75861000	-14.21014000
186.89998908	0.00000000	-53.75861000	-14.21014000
187.09998907	0.00000000	-53.80167000	-14.16708000
187.29998906	0.00000000	-54.17691000	-13.79183000
187.49998904	0.00000000	-54.92125000	-13.04749000
187.69998903	0.00000000	-55.29650000	-12.67224000
187.89998902	0.00000000	-55.33957000	-12.62918000
188.09998901	0.00000000	-55.29650000	-12.62918000
188.29998900	0.00000000	-54.92125000	-12.62918000
188.49998899	0.00000000	-54.17691000	-12.67224000
188.69998897	0.00000000	-53.80167000	-13.04749000
188.89998896	0.00000000	-53.75861000	-13.79183000
189.09998895	0.00000000	-53.75861000	-14.16708000
189.29998894	0.00000000	-53.75861000	-14.21014000
189.49998893	0.00000000	-53.75861000	-14.21014000
189.69998891	0.00000000	-53.75861000	-14.21014000
189.89998890	0.00000000	-53.80167000	-14.16708000
190.09998889	0.00000000	-54.17691000	-13.83489000
190.29998888	0.00000000	-54.92125000	-13.42274000
190.49998887	0.00000000	-55.29650000	-13.41658000
190.69998885	0.00000000	-55.29650000	-13.00443000
190.89998884	0.00000000	-54.92125000	-12.67224000
191.09998883	0.00000000	-54.17691000	-12.62918000
191.29998882	0.00000000	-53.80167000	-12.62918000
191.49998881	0.00000000	-53.75861000	-12.62918000
191.69998880	0.00000000	-53.75861000	-12.62918000
191.89998878	0.00000000	-53.75861000	-12.67224000
192.09998877	0.00000000	-53.75861000	-13.04749000
192.29998876	0.00000000	-53.75861000	-13.79183000
192.49998875	0.00000000	-53.80167000	-14.16708000
192.69998874	0.00000000	-54.17691000	-14.21014000
192.89998872	0.00000000	-54.87204000	-14.21014000
193.09998871	0.00000000	-54.87204000	-14.21014000
193.29998870	0.00000000	-54.22613000	-14.21014000
193.49998869	0.00000000	-54.22613000	-14.16708000
193.69998868	0.00000000	-54.87204000	-13.79183000
193.89998866	0.00000000	-54.87204000	-13.04749000
194.09998865	0.00000000	-54.17691000	-12.67224000
194.29998864	0.00000000	-53.80167000	-12.62918000
194.49998863	0.00000000	-53.75861000	-12.62918000
194.69998862	0.00000000	-53.75861000	-12.62918000
194.89998861	0.00000000	-53.75861000	-12.62918000
195.09998859	0.00000000	-53.75861000	-12.67224000
195.29998858	0.00000000	-53.80167000	-13.04749000
195.49998857	0.00000000	-54.13385000	-13.79183000
195.69998856	0.00000000	-54.50295000	-14.11786000
195.89998855	0.00000000	-54.17691000	-13.83489000
196.09998853	0.00000000	-54.22613000	-13.46580000
