Time	Channel A	Channel B	Channel C
(us)	(V)	(mV)	(mV)

-4.49999956	0.00000000	17.39050000	12.62918000
-4.29999957	0.00000000	17.39050000	12.62918000
-4.09999958	0.00000000	17.39050000	12.62918000
-3.89999959	0.00000000	17.39050000	12.62918000
-3.69999960	0.00000000	17.39050000	12.62918000
-3.49999962	0.00000000	17.39050000	12.62918000
-3.29999963	0.00000000	17.39050000	12.62918000
-3.09999964	0.00000000	17.39050000	12.62918000
-2.89999965	0.00000000	17.39050000	12.62918000
-2.69999966	0.00000000	17.39050000	12.62918000
-2.49999968	0.00000000	17.39050000	12.62918000
-2.29999969	0.00000000	17.39050000	12.62918000
-2.09999970	0.00000000	17.39050000	12.62918000
-1.89999971	0.00000000	17.39050000	12.62918000
-1.69999972	0.00000000	17.39050000	12.62918000
-1.49999973	0.00000000	17.39050000	12.62918000
-1.29999975	0.00000000	17.39050000	12.62918000
-1.09999976	0.00000000	17.39050000	12.62918000
-0.89999977	0.00000000	17.39050000	12.62918000
-0.69999978	0.00000000	17.39050000	12.62918000
-0.49999979	0.00000000	17.39050000	12.62918000
-0.29999981	0.31803640	17.39050000	12.62918000
-0.09999982	0.63668800	17.39050000	12.62918000
0.10000017	0.95533960	17.39050000	12.62918000
0.30000016	0.95533960	17.39050000	12.62918000
0.50000015	0.95533960	17.39050000	12.62918000
0.70000013	0.31803640	17.39050000	12.62918000
0.90000012	-0.47736220	17.39050000	12.62918000
1.10000011	-1.43331700	17.39050000	12.62918000
1.30000010	-2.22994600	17.39050000	12.62918000
1.50000009	-2.70792300	17.39050000	12.62918000
1.70000008	-2.54859700	17.39050000	12.67224000
1.90000006	-1.43331700	17.39050000	13.00443000
2.10000005	0.31803640	17.39050000	13.37352000
2.30000004	2.54859700	17.39050000	13.00443000
2.50000003	4.30056600	17.39050000	12.67224000
2.70000002	5.25652100	17.39050000	12.62918000
2.90000000	4.93786900	17.39050000	12.62918000
3.09999999	3.18590100	17.39050000	12.62918000
3.29999998	0.15871060	17.39050000	12.62918000
3.49999997	-3.34522600	17.39050000	12.62918000
3.69999996	-6.21247500	17.39050000	12.62918000
3.89999994	-7.80511800	17.39050000	12.62918000
4.09999993	-7.64579200	17.39050000	12.67224000
4.29999992	-5.25652100	17.39050000	13.04749000
4.49999991	-1.43331700	17.39050000	13.74262000
4.69999990	3.02657500	17.39050000	13.74262000
4.89999989	6.84916400	17.39050000	13.04749000
5.09999987	9.23905000	17.39050000	12.62918000
5.29999986	9.23905000	17.39050000	12.21087000
5.49999985	6.84916400	17.39050000	11.46653000
5.69999984	2.70792300	17.39050000	11.14050000
5.89999983	-2.07062000	17.39050000	11.46653000
6.09999981	-6.21247500	17.39050000	12.21087000
6.29999980	-8.92039900	17.39050000	12.58612000
6.49999979	-9.39837600	17.39050000	12.62918000
6.69999978	-7.32714100	17.39050000	12.62918000
6.89999977	-3.82258900	17.39050000	12.62918000
7.09999975	0.47736220	17.39050000	12.62918000
7.29999974	4.61921700	17.39050000	12.62918000
7.49999973	7.16781500	17.39050000	12.62918000
7.69999972	7.64579200	17.39050000	12.58612000
7.89999971	6.37180100	17.39050000	12.25394000
8.09999970	3.66326300	17.39050000	11.88484000
8.29999968	0.31803640	17.39050000	12.25394000
8.49999967	-2.54859700	17.39050000	12.58612000
8.69999966	-4.61921700	17.39050000	12.62918000
8.89999965	-5.25652100	17.39050000	12.62918000
9.09999964	-4.45989200	17.39050000	12.62918000
9.29999962	-2.86724900	17.39050000	12.62918000
9.49999961	-0.79601380	17.39050000	12.62918000
9.69999960	0.95533960	17.39050000	12.62918000
9.89999959	2.07062000	17.39050000	12.62918000
10.09999958	2.54859700	17.39050000	12.62918000
10.29999956	2.22994600	17.39050000	12.62918000
10.49999955	1.43331700	17.39050000	12.62918000
10.69999954	0.63668800	17.39050000	12.62918000
10.89999953	-0.15871060	17.39050000	12.62918000
11.09999952	-0.63668800	17.39050000	12.62918000
11.29999951	-0.95533960	17.39050000	12.62918000
11.49999949	-0.95533960	17.43356000	12.67224000
11.69999948	-0.63668800	17.76575000	13.00443000
11.89999947	-0.47736220	18.13484000	13.37352000
12.09999946	-0.15871060	17.76575000	13.00443000
12.29999945	-0.15871060	17.43356000	12.67224000
12.49999943	0.00000000	17.39050000	12.62918000
12.69999942	0.00000000	17.39050000	12.62918000
12.89999941	0.00000000	17.43356000	12.62918000
13.09999940	0.00000000	17.76575000	12.62918000
13.29999939	0.15871060	18.13484000	12.62918000
13.49999937	0.00000000	17.80881000	12.62918000
13.69999936	0.00000000	17.85802000	12.67224000
13.89999935	0.00000000	18.50394000	13.00443000
14.09999934	0.00000000	18.50394000	13.37352000
14.29999933	-0.15871060	17.85802000	13.00443000
14.49999932	-0.15871060	17.80881000	12.72146000
14.69999930	0.00000000	18.17790000	13.00443000
14.89999929	0.00000000	18.18405000	13.41658000
15.09999928	0.00000000	18.59621000	13.37967000
15.29999927	0.00000000	18.87918000	13.41658000
15.49999926	0.00000000	18.59621000	13.00443000
15.69999924	0.00000000	18.18405000	12.72146000
15.89999923	0.00000000	18.17790000	13.00443000
16.09999922	0.00000000	17.80881000	13.41658000
16.29999921	-0.15871060	17.85802000	13.37967000
16.49999920	0.00000000	18.55315000	13.41658000
16.69999919	0.00000000	18.92839000	13.04749000
16.89999917	0.00000000	18.97145000	13.04749000
17.09999916	0.00000000	19.01451000	13.37352000
17.29999915	0.00000000	19.38976000	13.00443000
17.49999914	0.00000000	20.13410000	12.67224000
17.69999913	0.00000000	20.46014000	12.62918000
17.89999911	0.00000000	20.08489000	12.62918000
18.09999910	0.00000000	18.92839000	12.62918000
18.29999909	0.00000000	17.39050000	12.62918000
18.49999908	0.00000000	15.80955000	12.62918000
18.69999907	0.00000000	14.27165000	12.62918000
18.89999905	0.00000000	13.15822000	12.62918000
19.09999904	0.00000000	13.15822000	12.62918000
19.29999903	0.00000000	14.32087000	12.62918000
19.49999902	0.00000000	16.32013000	12.62918000
19.69999901	0.00000000	19.48204000	12.62918000
19.89999900	0.00000000	23.67126000	12.62918000
20.09999898	0.00000000	27.48524000	12.62918000
20.29999897	0.00000000	29.39222000	12.62918000
20.49999896	0.00000000	28.97392000	12.62918000
20.69999895	0.00000000	25.81201000	12.62918000
20.89999894	0.00000000	19.99877000	12.62918000
21.09999892	0.00000000	12.64764000	12.62918000
21.29999891	0.00000000	5.29650500	12.62918000
21.49999890	0.00000000	-0.42445860	12.62918000
21.69999889	0.00000000	-2.65748000	12.62918000
21.89999888	0.00000000	0.07997046	12.62918000
22.09999886	0.00000000	7.48031400	12.62918000
22.29999885	0.00000000	18.36245000	12.62918000
22.49999884	0.00000000	31.06545000	12.62918000
22.69999883	0.00000000	42.23056000	12.62918000
22.89999882	0.00000000	48.75123000	12.62918000
23.09999881	0.00000000	49.07726000	12.67224000
23.29999879	0.00000000	42.00910000	13.04749000
23.49999878	0.00000000	28.46333000	13.79183000
23.69999877	0.00000000	11.06668000	14.16708000
23.89999876	0.00000000	-6.24384800	14.21014000
24.09999875	0.00000000	-18.98376000	14.21014000
24.29999873	0.00000000	-23.92347000	14.16708000
24.49999872	0.00000000	-19.59276000	13.74262000
24.69999871	0.00000000	-5.64099400	12.58612000
24.89999870	0.00000000	14.83145000	11.04823000
25.09999869	0.00000000	37.21087000	9.51648500
25.29999867	0.00000000	56.47145000	8.35998900
25.49999866	0.00000000	67.27362000	7.98474400
25.69999865	0.00000000	67.27362000	8.44611200
25.89999864	0.00000000	56.37918000	10.44537000
26.09999863	0.00000000	36.28199000	14.25320000
26.29999862	0.00000000	11.62032000	18.47933000
26.49999860	0.00000000	-11.58957000	21.96727000
26.69999859	0.00000000	-28.15576000	24.29257000
26.89999858	0.00000000	-34.33809000	24.57554000
27.09999857	0.00000000	-28.15576000	22.24409000
27.29999856	0.00000000	-11.58957000	17.14444000
27.49999854	0.00000000	11.62032000	10.21161000
27.69999853	0.00000000	36.28199000	2.46063000
27.89999852	0.00000000	56.37918000	-4.00467500
28.09999851	0.00000000	67.27362000	-7.43725300
28.29999850	0.00000000	67.35974000	-6.23154500
28.49999848	0.00000000	57.31422000	-0.42445860
28.69999847	0.00000000	39.53617000	8.91363100
28.89999846	0.00000000	17.90108000	20.52780000
29.09999845	0.00000000	-2.57135800	32.04970000
29.29999844	0.00000000	-17.31668000	40.50812000
29.49999843	0.00000000	-23.54823000	43.52854000
29.69999841	0.00000000	-20.56471000	39.99754000
29.89999840	0.00000000	-9.73179100	29.95817000
30.09999839	0.00000000	6.09005900	15.64960000
30.29999838	0.00000000	23.94808000	0.17839570
30.49999837	0.00000000	39.73302000	-13.70571000
30.69999835	0.00000000	50.28297000	-22.49016000
30.89999834	0.00000000	53.40797000	-23.65280000
31.09999833	0.00000000	49.63091000	-16.68922000
31.29999832	0.00000000	39.95448000	-3.11884800
31.49999831	0.00000000	26.83317000	14.62844000
31.69999829	0.00000000	13.24434000	32.74483000
31.89999828	0.00000000	1.61786400	46.64124000
32.09999827	0.00000000	-5.73326700	53.65403000
32.29999826	0.00000000	-7.31422200	52.45448000
32.49999825	0.00000000	-3.12500000	43.15945000
32.69999824	0.00000000	5.38877900	27.35605000
32.89999822	0.00000000	16.18479000	8.82135800
33.09999821	0.00000000	27.01772000	-8.18774500
33.29999820	0.00000000	35.16855000	-20.63238000
33.49999819	0.00000000	39.49311000	-25.97810000
33.69999818	0.00000000	39.45005000	-23.27756000
33.89999816	0.00000000	34.83636000	-12.50615000
34.09999815	0.00000000	26.74089000	3.29109200
34.29999814	0.00000000	17.52584000	20.34941000
34.49999813	0.00000000	9.43651600	35.77140000
34.69999812	0.00000000	4.77977300	45.80462000
34.89999810	0.00000000	4.31840500	48.17913000
35.09999809	0.00000000	7.38804100	43.20251000
35.29999808	0.00000000	13.15822000	32.00664000
35.49999807	0.00000000	20.04183000	17.36589000
35.69999806	0.00000000	25.85507000	2.68823800
35.89999805	0.00000000	29.34916000	-8.92593500
36.09999803	0.00000000	30.13656000	-15.05905000
36.29999802	0.00000000	27.81127000	-14.31471000
36.49999801	0.00000000	23.24680000	-6.64985200
36.69999800	0.00000000	17.85802000	5.20423200
36.89999799	0.00000000	13.24434000	17.93184000
37.09999797	0.00000000	10.50689000	28.29109000
37.29999796	0.00000000	10.13164000	33.72293000
37.49999795	0.00000000	12.08784000	33.02780000
37.69999794	0.00000000	16.27707000	27.31299000
37.89999793	0.00000000	21.24754000	18.43627000
38.09999791	0.00000000	25.15994000	8.44611200
38.29999790	0.00000000	27.86048000	0.08612204
38.49999789	0.00000000	28.59867000	-3.76476400
38.69999788	0.00000000	26.69783000	-1.87007900
38.89999787	0.00000000	23.29601000	4.63828700
39.09999786	0.00000000	19.34670000	14.21014000
39.29999784	0.00000000	15.47736000	23.68971000
39.49999783	0.00000000	12.03863000	29.49680000
39.69999782	0.00000000	10.50689000	30.29035000
39.89999781	0.00000000	11.20202000	26.42716000
40.09999780	0.00000000	13.11516000	18.35015000
40.29999778	0.00000000	15.90182000	8.40305000
40.49999777	0.00000000	19.38976000	-0.38139760
40.69999776	0.00000000	23.24680000	-5.38877900
40.89999775	0.00000000	26.32259000	-4.98277500
41.09999774	0.00000000	27.94660000	0.36909450
41.29999772	0.00000000	28.32185000	9.60875900
41.49999771	0.00000000	27.52830000	19.97416000
41.69999770	0.00000000	25.20300000	28.80167000
41.89999769	0.00000000	22.13336000	33.77214000
42.09999768	0.00000000	18.97145000	33.02780000
42.29999767	0.00000000	15.90182000	27.35605000
42.49999765	0.00000000	13.57652000	18.90379000
42.69999764	0.00000000	12.78297000	10.02707000
42.89999763	0.00000000	13.15822000	2.68823800
43.09999762	0.00000000	14.69611000	-1.58710600
43.29999761	0.00000000	17.01525000	-1.95620100
43.49999759	0.00000000	19.30364000	1.48253000
43.69999758	0.00000000	21.33981000	7.98474400
43.89999757	0.00000000	22.84080000	15.23130000
44.09999756	0.00000000	24.03420000	21.03838000
44.29999755	0.00000000	24.04650000	24.20029000
44.49999753	0.00000000	23.75738000	24.66781000
44.69999752	0.00000000	23.71432000	23.12992000
44.89999751	0.00000000	23.71432000	20.01722000
45.09999750	0.00000000	23.67126000	15.78494000
45.29999749	0.00000000	23.20374000	11.55881000
45.49999748	0.00000000	21.62278000	8.48917200
45.69999746	0.00000000	18.92839000	7.28346400
45.89999745	0.00000000	15.80955000	7.98474400
46.09999744	0.00000000	12.73991000	9.51648500
46.29999743	0.00000000	10.41462000	11.46653000
46.49999742	0.00000000	9.71333600	13.83489000
46.69999740	0.00000000	10.88213000	16.11712000
46.89999739	0.00000000	14.45620000	18.06102000
47.09999738	0.00000000	19.85728000	18.81152000
47.29999737	0.00000000	26.40871000	18.43627000
47.49999736	0.00000000	32.13582000	16.90453000
47.69999734	0.00000000	35.25467000	14.58538000
47.89999733	0.00000000	35.25467000	12.25394000
48.09999732	0.00000000	32.09276000	9.93479300
48.29999731	0.00000000	25.90428000	8.40305000
48.49999730	0.00000000	17.76575000	8.02780400
48.69999729	0.00000000	9.66412400	8.82135800
48.89999727	0.00000000	3.15575800	11.14050000
49.09999726	0.00000000	0.50442900	14.21014000
49.29999725	0.00000000	2.78051200	17.32283000
49.49999724	0.00000000	8.96899500	19.97416000
49.69999723	0.00000000	17.85802000	21.13066000
49.89999721	0.00000000	27.44217000	20.34941000
50.09999720	0.00000000	34.79330000	18.01796000
50.29999719	0.00000000	38.33046000	14.16708000
50.49999718	0.00000000	37.91216000	9.98400600
50.69999717	0.00000000	33.21235000	6.86515700
50.89999715	0.00000000	24.78469000	5.29035400
51.09999714	0.00000000	15.20054000	5.33341500
51.29999713	0.00000000	7.48031400	7.28346400
51.49999712	0.00000000	3.19881900	11.14050000
51.69999711	0.00000000	3.24188000	15.74188000
51.89999710	0.00000000	7.80634800	19.97416000
52.09999708	0.00000000	15.47736000	22.61934000
52.29999707	0.00000000	23.53592000	22.71161000
52.49999706	0.00000000	30.13656000	20.76772000
52.69999705	0.00000000	33.53838000	17.69193000
52.89999704	0.00000000	32.88017000	13.42274000
53.09999702	0.00000000	28.65403000	9.65182000
53.29999701	0.00000000	22.87770000	7.24040300
53.49999700	0.00000000	16.32013000	6.48991100
53.69999699	0.00000000	10.96826000	7.28346400
53.89999698	0.00000000	8.63681000	9.98400600
54.09999696	0.00000000	9.38730200	13.74262000
54.29999695	0.00000000	13.24434000	16.76919000
54.49999694	0.00000000	18.97145000	17.97490000
54.69999693	0.00000000	24.74163000	17.27362000
54.89999692	0.00000000	28.97392000	15.78494000
55.09999691	0.00000000	30.51181000	14.21014000
55.29999689	0.00000000	29.01698000	12.67224000
55.49999688	0.00000000	25.15994000	11.55881000
55.69999687	0.00000000	20.17716000	11.60187000
55.89999686	0.00000000	15.20054000	13.09055000
56.09999685	0.00000000	12.13091000	15.36663000
56.29999683	0.00000000	11.71260000	17.27362000
56.49999682	0.00000000	13.61959000	18.39321000
56.69999681	0.00000000	17.43356000	17.97490000
56.89999680	0.00000000	21.66585000	15.64960000
57.09999679	0.00000000	25.15994000	12.21087000
57.29999677	0.00000000	27.48524000	8.35998900
57.49999676	0.00000000	27.86048000	5.37647600
57.69999675	0.00000000	26.36565000	4.59522600
57.89999674	0.00000000	23.67126000	6.53912400
58.09999673	0.00000000	20.59547000	10.40231000
58.29999672	0.00000000	17.90108000	15.83415000
58.49999670	0.00000000	16.36319000	21.54897000
58.69999669	0.00000000	16.32013000	25.77510000
58.89999668	0.00000000	17.48277000	27.26378000
59.09999667	0.00000000	19.38976000	25.35679000
59.29999666	0.00000000	21.66585000	20.30020000
59.49999664	0.00000000	23.20374000	13.41658000
59.69999663	0.00000000	23.62205000	6.08390700
59.89999662	0.00000000	23.29601000	0.73203740
60.09999661	0.00000000	22.50861000	-1.58710600
60.29999660	0.00000000	21.71506000	0.04306102
60.49999658	0.00000000	20.55241000	5.75787400
60.69999657	0.00000000	19.48204000	13.79183000
60.89999656	0.00000000	19.48204000	21.54897000
61.09999655	0.00000000	20.59547000	27.73130000
61.29999654	0.00000000	22.09030000	31.16388000
61.49999653	0.00000000	23.24680000	30.33341000
61.69999651	0.00000000	23.62205000	25.39985000
61.89999650	0.00000000	23.24680000	17.64887000
62.09999649	0.00000000	22.09030000	9.23351300
62.29999648	0.00000000	20.50935000	1.85777500
62.49999647	0.00000000	18.59621000	-2.33144700
62.69999645	0.00000000	16.69537000	-2.79281500
62.89999644	0.00000000	15.98794000	0.73203740
63.09999643	0.00000000	16.69537000	7.24040300
63.29999642	0.00000000	18.63927000	15.36663000
63.49999641	0.00000000	20.92766000	23.03765000
63.69999639	0.00000000	23.29601000	28.47564000
63.89999638	0.00000000	25.20300000	30.38263000
64.09999637	0.00000000	26.36565000	28.51870000
64.29999636	0.00000000	26.32259000	23.50517000
64.49999635	0.00000000	24.78469000	16.99065000
64.69999634	0.00000000	22.09030000	10.35310000
64.89999632	0.00000000	19.06373000	4.95816900
65.09999631	0.00000000	16.73843000	1.48253000
65.29999630	0.00000000	15.94488000	1.06422200
65.49999629	0.00000000	16.32013000	3.29109200
65.69999628	0.00000000	17.90108000	6.82209600
65.89999626	0.00000000	20.55241000	11.46653000
66.09999625	0.00000000	23.20374000	16.48622000
66.29999624	0.00000000	24.74163000	20.34941000
66.49999623	0.00000000	24.78469000	22.75467000
66.69999622	0.00000000	23.62205000	23.54823000
66.89999620	0.00000000	21.71506000	23.17298000
67.09999619	0.00000000	19.43897000	21.59203000
67.29999618	0.00000000	17.90108000	18.89764000
67.49999617	0.00000000	17.52584000	15.78494000
67.69999616	0.00000000	18.27633000	12.62918000
67.89999615	0.00000000	20.22022000	9.51648500
68.09999613	0.00000000	22.50861000	6.77903500
68.29999612	0.00000000	24.82775000	4.87204700
68.49999611	0.00000000	26.32259000	4.12770700
68.69999610	0.00000000	26.32259000	5.33341500
68.89999609	0.00000000	24.74163000	8.40305000
69.09999607	0.00000000	21.62278000	12.67224000
69.29999606	0.00000000	17.43356000	17.32283000
69.49999605	0.00000000	13.61959000	21.59203000
69.69999604	0.00000000	11.71260000	24.66166000
69.89999603	0.00000000	12.08784000	25.82431000
70.09999601	0.00000000	14.82529000	24.61860000
70.29999600	0.00000000	19.43897000	21.17372000
70.49999599	0.00000000	24.87697000	16.11712000
70.69999598	0.00000000	29.85974000	10.76525000
70.89999597	0.00000000	33.29847000	6.08390700
71.09999596	0.00000000	33.67372000	3.42642700
71.29999594	0.00000000	30.97933000	3.01427100
71.49999593	0.00000000	25.94734000	5.33341500
71.69999592	0.00000000	19.43897000	9.51648500
71.89999591	0.00000000	13.66880000	14.16708000
72.09999590	0.00000000	10.08243000	18.43627000
72.29999588	0.00000000	8.55068800	21.50590000
72.49999587	0.00000000	9.38730200	22.66240000
72.69999586	0.00000000	13.24434000	21.54897000
72.89999585	0.00000000	19.01451000	18.89764000
73.09999584	0.00000000	25.15994000	15.83415000
73.29999582	0.00000000	30.22268000	13.13976000
73.49999581	0.00000000	32.92938000	11.55881000
73.69999580	0.00000000	33.34769000	11.14050000
73.89999579	0.00000000	30.97318000	11.51575000
74.09999578	0.00000000	26.40871000	12.67224000
74.29999577	0.00000000	21.01993000	14.16092000
74.49999575	0.00000000	16.40625000	15.27436000
74.69999574	0.00000000	13.61959000	15.27436000
74.89999573	0.00000000	12.82603000	14.16092000
75.09999572	0.00000000	13.61959000	12.67224000
75.29999571	0.00000000	16.32013000	11.51575000
75.49999569	0.00000000	20.13410000	11.18356000
75.69999568	0.00000000	23.62205000	11.97711000
75.89999567	0.00000000	26.32259000	14.34547000
76.09999566	0.00000000	27.48524000	17.74114000
76.29999565	0.00000000	26.78395000	21.17372000
76.49999563	0.00000000	25.29527000	23.08686000
76.69999562	0.00000000	23.71432000	23.08686000
76.89999561	0.00000000	22.17643000	21.13066000
77.09999560	0.00000000	21.01993000	17.27362000
77.29999559	0.00000000	20.64468000	12.62918000
77.49999558	0.00000000	20.92766000	7.98474400
77.69999556	0.00000000	21.29675000	4.17076700
77.89999555	0.00000000	20.92766000	2.68208600
78.09999554	0.00000000	20.55241000	4.21998000
78.29999553	0.00000000	20.13410000	8.44611200
78.49999552	0.00000000	19.38976000	14.21014000
78.69999550	0.00000000	19.01451000	20.01722000
78.89999549	0.00000000	19.06373000	24.66781000
79.09999548	0.00000000	19.85728000	27.35605000
79.29999547	0.00000000	21.80118000	27.35605000
79.49999546	0.00000000	24.04650000	24.66781000
79.69999544	0.00000000	26.03961000	20.01722000
79.89999543	0.00000000	27.15920000	14.25320000
80.09999542	0.00000000	27.52830000	8.86441900
80.29999541	0.00000000	26.36565000	5.33341500
80.49999540	0.00000000	24.04650000	3.75246000
80.69999539	0.00000000	21.33981000	4.12770700
80.89999537	0.00000000	18.27633000	6.44685000
81.09999536	0.00000000	16.40625000	9.93479300
81.29999535	0.00000000	16.32013000	14.21014000
81.49999534	0.00000000	17.48277000	18.43627000
81.69999533	0.00000000	19.43897000	21.54897000
81.89999531	0.00000000	22.13336000	23.17298000
82.09999530	0.00000000	24.78469000	23.54823000
82.29999529	0.00000000	26.36565000	22.75467000
82.49999528	0.00000000	26.78395000	20.43553000
82.69999527	0.00000000	26.36565000	17.32283000
82.89999525	0.00000000	24.82775000	13.83489000
83.09999524	0.00000000	22.55167000	10.31004000
83.29999523	0.00000000	20.64468000	7.60949800
83.49999522	0.00000000	19.43897000	5.66560000
83.69999521	0.00000000	19.06373000	5.33341500
83.89999520	0.00000000	19.38976000	6.82209600
84.09999518	0.00000000	20.17716000	9.55954600
84.29999517	0.00000000	20.92766000	13.04749000
84.49999516	0.00000000	21.71506000	16.94759000
84.69999515	0.00000000	22.09030000	20.43553000
84.89999514	0.00000000	22.17643000	23.12992000
85.09999512	0.00000000	22.50861000	24.24335000
85.29999511	0.00000000	22.92076000	23.08686000
85.49999510	0.00000000	22.92692000	20.01722000
85.69999509	0.00000000	23.33907000	15.74188000
85.89999508	0.00000000	23.67126000	11.14050000
86.09999506	0.00000000	23.71432000	7.24040300
86.29999505	0.00000000	23.67126000	4.95816900
86.49999504	0.00000000	23.24680000	4.54601300
86.69999503	0.00000000	22.09030000	6.48991100
86.89999502	0.00000000	20.59547000	9.98400600
87.09999501	0.00000000	19.43897000	14.62844000
87.29999499	0.00000000	19.01451000	19.59892000
87.49999498	0.00000000	19.01451000	23.04380000
87.69999497	0.00000000	19.43897000	24.24335000
87.89999496	0.00000000	20.64468000	23.08686000
88.09999495	0.00000000	22.50861000	20.01722000
88.29999493	0.00000000	24.45866000	15.78494000
88.49999492	0.00000000	25.57825000	11.51575000
88.69999491	0.00000000	25.99040000	8.07086500
88.89999490	0.00000000	25.20300000	6.17002900
89.09999489	0.00000000	23.71432000	6.95743000
89.29999487	0.00000000	22.13336000	9.98400600
89.49999486	0.00000000	20.59547000	14.21014000
89.69999485	0.00000000	19.43897000	18.43627000
89.89999484	0.00000000	19.06373000	21.54897000
90.09999483	0.00000000	19.43897000	23.08686000
90.29999482	0.00000000	20.59547000	22.66855000
90.49999480	0.00000000	22.09030000	19.97416000
90.69999479	0.00000000	23.29601000	15.78494000
90.89999478	0.00000000	24.08957000	11.55881000
91.09999477	0.00000000	24.82775000	8.48917200
91.29999476	0.00000000	24.82775000	7.33267600
91.49999474	0.00000000	24.13263000	8.48917200
91.69999473	0.00000000	23.71432000	11.55881000
91.89999472	0.00000000	23.29601000	15.78494000
92.09999471	0.00000000	22.60088000	20.01722000
92.29999470	0.00000000	22.55167000	23.04380000
92.49999468	0.00000000	22.87770000	23.82505000
92.69999467	0.00000000	22.50861000	21.88115000
92.89999466	0.00000000	22.13336000	18.11024000
93.09999465	0.00000000	21.71506000	13.46580000
93.29999464	0.00000000	20.97072000	9.65182000
93.49999463	0.00000000	20.59547000	7.28346400
93.69999461	0.00000000	20.59547000	6.95743000
93.89999460	0.00000000	21.01993000	8.86441900
94.09999459	0.00000000	22.17643000	12.72146000
94.29999458	0.00000000	23.71432000	17.27362000
94.49999457	0.00000000	25.29527000	21.13066000
94.69999455	0.00000000	26.83317000	23.03765000
94.89999454	0.00000000	27.94660000	22.66855000
95.09999453	0.00000000	27.90354000	19.97416000
95.29999452	0.00000000	26.36565000	15.78494000
95.49999451	0.00000000	23.67126000	11.55881000
95.69999449	0.00000000	20.59547000	8.48917200
95.89999448	0.00000000	17.90108000	7.33267600
96.09999447	0.00000000	16.32013000	8.44611200
96.29999446	0.00000000	15.94488000	11.14050000
96.49999445	0.00000000	16.73843000	14.58538000
96.69999444	0.00000000	19.10679000	18.01796000
96.89999442	0.00000000	22.55167000	19.97416000
97.09999441	0.00000000	26.40871000	20.39247000
97.29999440	0.00000000	29.48450000	19.59892000
97.49999439	0.00000000	31.06545000	17.32283000
97.69999438	0.00000000	31.06545000	14.67150000
97.89999436	0.00000000	29.48450000	12.67224000
98.09999435	0.00000000	26.36565000	11.14050000
98.29999434	0.00000000	22.17643000	10.40231000
98.49999433	0.00000000	18.27633000	11.14050000
98.69999432	0.00000000	15.56963000	12.62918000
98.89999430	0.00000000	13.99483000	14.16092000
99.09999429	0.00000000	14.45620000	15.32357000
99.29999428	0.00000000	16.69537000	15.74188000
99.49999427	0.00000000	20.22022000	15.78494000
99.69999426	0.00000000	24.04650000	15.78494000
99.89999425	0.00000000	27.57136000	15.78494000
100.09999423	0.00000000	29.85974000	15.78494000
100.29999422	0.00000000	30.69020000	15.82800000
100.49999421	0.00000000	29.90280000	16.20325000
100.69999420	0.00000000	27.98966000	16.94759000
100.89999419	0.00000000	25.25221000	17.27362000
101.09999417	0.00000000	22.17643000	16.85531000
101.29999416	0.00000000	19.43897000	15.32357000
101.49999415	0.00000000	17.52584000	13.09055000
101.69999414	0.00000000	16.73843000	11.55881000
101.89999413	0.00000000	17.48277000	11.09129000
102.09999411	0.00000000	19.01451000	11.14050000
102.29999410	0.00000000	21.01993000	11.97711000
102.49999409	0.00000000	23.71432000	14.25320000
102.69999408	0.00000000	26.36565000	16.94759000
102.89999407	0.00000000	27.94660000	19.27288000
103.09999406	0.00000000	28.36491000	21.17372000
103.29999404	0.00000000	27.98966000	21.50590000
103.49999403	0.00000000	26.83317000	20.01722000
103.69999402	0.00000000	25.25221000	17.32283000
103.89999401	0.00000000	23.29601000	14.25320000
104.09999400	0.00000000	21.01993000	11.51575000
104.29999398	0.00000000	19.48204000	9.60875900
104.49999397	0.00000000	19.06373000	8.86441900
104.69999396	0.00000000	19.48204000	10.02707000
104.89999395	0.00000000	21.01993000	12.67224000
105.09999394	0.00000000	23.24680000	15.74188000
105.29999392	0.00000000	24.82775000	18.43627000
105.49999391	0.00000000	25.67052000	20.01722000
105.69999390	0.00000000	26.40871000	20.43553000
105.89999389	0.00000000	26.36565000	20.01722000
106.09999388	0.00000000	25.25221000	18.43627000
106.29999387	0.00000000	23.75738000	15.78494000
106.49999385	0.00000000	22.60088000	13.13976000
106.69999384	0.00000000	22.17643000	11.60187000
106.89999383	0.00000000	22.17643000	11.55881000
107.09999382	0.00000000	22.60088000	12.67224000
107.29999381	0.00000000	23.71432000	14.21014000
107.49999379	0.00000000	24.82775000	15.78494000
107.69999378	0.00000000	25.20300000	17.27362000
107.89999377	0.00000000	24.87697000	18.06102000
108.09999376	0.00000000	24.08957000	17.69808000
108.29999375	0.00000000	23.33907000	16.94759000
108.49999374	0.00000000	22.50861000	15.74188000
108.69999372	0.00000000	21.75812000	14.25320000
108.89999371	0.00000000	21.01993000	13.13976000
109.09999370	0.00000000	21.01993000	13.09670000
109.29999369	0.00000000	21.75812000	13.83489000
109.49999368	0.00000000	22.55167000	14.62844000
109.69999366	0.00000000	23.75738000	15.83415000
109.89999365	0.00000000	25.25221000	17.32283000
110.09999364	0.00000000	26.40871000	18.43627000
110.29999363	0.00000000	26.78395000	18.43627000
110.49999362	0.00000000	26.40871000	17.32283000
110.69999360	0.00000000	25.25221000	15.78494000
110.89999359	0.00000000	23.71432000	14.25320000
111.09999358	0.00000000	22.17643000	13.09670000
111.29999357	0.00000000	21.06299000	12.67224000
111.49999356	0.00000000	21.01993000	12.62918000
111.69999355	0.00000000	21.75812000	12.67224000
111.89999353	0.00000000	22.55167000	13.09670000
112.09999352	0.00000000	23.71432000	14.21014000
112.29999351	0.00000000	24.82775000	15.36663000
112.49999350	0.00000000	25.25221000	16.16018000
112.69999349	0.00000000	25.29527000	16.89837000
112.89999347	0.00000000	25.25221000	16.89837000
113.09999346	0.00000000	24.87697000	16.20325000
113.29999345	0.00000000	24.08957000	15.78494000
113.49999344	0.00000000	23.33907000	15.36663000
113.69999343	0.00000000	22.55167000	14.62844000
113.89999341	0.00000000	22.22564000	14.25320000
114.09999340	0.00000000	22.55167000	14.21014000
114.29999339	0.00000000	23.29601000	14.21014000
114.49999338	0.00000000	23.67126000	14.21014000
114.69999337	0.00000000	23.75738000	14.21014000
114.89999336	0.00000000	24.13263000	14.21014000
115.09999334	0.00000000	24.87697000	14.21014000
115.29999333	0.00000000	25.20300000	14.21014000
115.49999332	0.00000000	24.87697000	14.21014000
115.69999331	0.00000000	24.13263000	14.25320000
115.89999330	0.00000000	23.75738000	14.67150000
116.09999328	0.00000000	23.67126000	15.78494000
116.29999327	0.00000000	23.29601000	16.85531000
116.49999326	0.00000000	22.55167000	16.94759000
116.69999325	0.00000000	22.17643000	16.57849000
116.89999324	0.00000000	22.17643000	16.57234000
117.09999322	0.00000000	22.55167000	16.11712000
117.29999321	0.00000000	23.33907000	15.40969000
117.49999320	0.00000000	24.13263000	14.58538000
117.69999319	0.00000000	25.29527000	13.83489000
117.89999318	0.00000000	26.40871000	13.09670000
118.09999317	0.00000000	26.78395000	13.09670000
118.29999315	0.00000000	26.45792000	13.79183000
118.49999314	0.00000000	25.67052000	14.21014000
118.69999313	0.00000000	24.87697000	14.67150000
118.89999312	0.00000000	23.71432000	15.74188000
119.09999311	0.00000000	22.55167000	16.52928000
119.29999309	0.00000000	21.80118000	16.57849000
119.49999308	0.00000000	21.43824000	16.99065000
119.69999307	0.00000000	22.17643000	17.32283000
119.89999306	0.00000000	23.29601000	17.36589000
120.09999305	0.00000000	24.13263000	17.32283000
120.29999303	0.00000000	25.33834000	16.94759000
120.49999302	0.00000000	26.83317000	16.20325000
120.69999301	0.00000000	27.94660000	15.82800000
120.89999300	0.00000000	27.94660000	15.78494000
121.09999299	0.00000000	26.87623000	15.74188000
121.29999298	0.00000000	25.71358000	15.36663000
121.49999296	0.00000000	24.87697000	14.67150000
121.69999295	0.00000000	23.71432000	14.67150000
121.89999294	0.00000000	22.60088000	15.36663000
122.09999293	0.00000000	22.17643000	15.78494000
122.29999292	0.00000000	22.17643000	16.20325000
122.49999290	0.00000000	22.60088000	16.99065000
122.69999289	0.00000000	23.71432000	17.74114000
122.89999288	0.00000000	24.87697000	18.52854000
123.09999287	0.00000000	25.67052000	18.85458000
123.29999286	0.00000000	26.45792000	18.52854000
123.49999284	0.00000000	26.83317000	17.74114000
123.69999283	0.00000000	26.87623000	16.99065000
123.89999282	0.00000000	26.83317000	16.16018000
124.09999281	0.00000000	26.45792000	15.40969000
124.29999280	0.00000000	25.67052000	14.62844000
124.49999279	0.00000000	24.87697000	14.25320000
124.69999277	0.00000000	23.71432000	14.25320000
124.89999276	0.00000000	22.60088000	14.62844000
125.09999275	0.00000000	22.22564000	15.36663000
125.29999274	0.00000000	22.55167000	15.78494000
125.49999273	0.00000000	23.29601000	16.16018000
125.69999271	0.00000000	23.71432000	16.57234000
125.89999270	0.00000000	24.13263000	16.57849000
126.09999269	0.00000000	24.92003000	16.94759000
126.29999268	0.00000000	25.67052000	16.89837000
126.49999267	0.00000000	26.45792000	16.20325000
126.69999265	0.00000000	26.83317000	15.82800000
126.89999264	0.00000000	26.83317000	15.74188000
127.09999263	0.00000000	26.40871000	15.36663000
127.29999262	0.00000000	25.29527000	14.62844000
127.49999261	0.00000000	24.13263000	14.25320000
127.69999260	0.00000000	23.33907000	14.21014000
127.89999258	0.00000000	22.55167000	14.25320000
128.09999257	0.00000000	22.22564000	14.62844000
128.29999256	0.00000000	22.60088000	15.36663000
128.49999255	0.00000000	23.71432000	15.74188000
128.69999254	0.00000000	24.87697000	15.78494000
128.89999252	0.00000000	25.67052000	15.78494000
129.09999251	0.00000000	26.45792000	15.78494000
129.29999250	0.00000000	26.78395000	15.78494000
129.49999249	0.00000000	26.40871000	15.78494000
129.69999248	0.00000000	25.29527000	15.74188000
129.89999246	0.00000000	24.13263000	15.36663000
130.09999245	0.00000000	23.33907000	14.67150000
130.29999244	0.00000000	22.55167000	14.67150000
130.49999243	0.00000000	22.22564000	15.36663000
130.69999242	0.00000000	22.60088000	15.74188000
130.89999241	0.00000000	23.71432000	15.78494000
131.09999239	0.00000000	24.87697000	15.78494000
131.29999238	0.00000000	25.67052000	15.78494000
131.49999237	0.00000000	26.45792000	15.74188000
131.69999236	0.00000000	26.78395000	15.36663000
131.89999235	0.00000000	26.45792000	14.62844000
132.09999233	0.00000000	25.67052000	14.25320000
132.29999232	0.00000000	24.92003000	14.21014000
132.49999231	0.00000000	24.13263000	14.21014000
132.69999230	0.00000000	23.75738000	14.25320000
132.89999229	0.00000000	23.71432000	14.67150000
133.09999227	0.00000000	23.75738000	15.78494000
133.29999226	0.00000000	24.13263000	16.89837000
133.49999225	0.00000000	24.87697000	17.32283000
133.69999224	0.00000000	25.25221000	17.36589000
133.89999223	0.00000000	25.29527000	17.36589000
134.09999222	0.00000000	25.29527000	17.32283000
134.29999220	0.00000000	25.29527000	16.94759000
134.49999219	0.00000000	25.29527000	16.16018000
134.69999218	0.00000000	25.29527000	15.40969000
134.89999217	0.00000000	25.29527000	14.62844000
135.09999216	0.00000000	25.29527000	14.21014000
135.29999214	0.00000000	25.33834000	13.87795000
135.49999213	0.00000000	25.67052000	13.88410000
135.69999212	0.00000000	26.03961000	15.03445000
135.89999211	0.00000000	25.67052000	16.11712000
136.09999210	0.00000000	25.33834000	16.94759000
136.29999208	0.00000000	25.25221000	17.32283000
136.49999207	0.00000000	24.87697000	17.36589000
136.69999206	0.00000000	24.13263000	17.36589000
136.89999205	0.00000000	23.80659000	17.32283000
137.09999204	0.00000000	24.13263000	16.94759000
137.29999203	0.00000000	24.92003000	16.20325000
137.49999201	0.00000000	25.67052000	15.78494000
137.69999200	0.00000000	26.50098000	15.40969000
137.89999199	0.00000000	27.20841000	15.00369000
138.09999198	0.00000000	27.62057000	15.04060000
138.29999197	0.00000000	27.20841000	15.00369000
138.49999195	0.00000000	26.50098000	15.40969000
138.69999194	0.00000000	25.67052000	15.74188000
138.89999193	0.00000000	24.92003000	15.82800000
139.09999192	0.00000000	24.13263000	16.20325000
139.29999191	0.00000000	23.75738000	16.94759000
139.49999189	0.00000000	23.75738000	17.32283000
139.69999188	0.00000000	24.13263000	17.40895000
139.89999187	0.00000000	24.87697000	17.74114000
140.09999186	0.00000000	25.29527000	18.06102000
140.29999185	0.00000000	25.71358000	17.32283000
140.49999184	0.00000000	26.45792000	16.20325000
140.69999182	0.00000000	26.78395000	15.40969000
140.89999181	0.00000000	26.45792000	14.62844000
141.09999180	0.00000000	25.71358000	14.25320000
141.29999179	0.00000000	25.33834000	14.21014000
141.49999178	0.00000000	25.29527000	14.25320000
141.69999176	0.00000000	25.29527000	14.67150000
141.89999175	0.00000000	25.29527000	15.78494000
142.09999174	0.00000000	25.29527000	16.89837000
142.29999173	0.00000000	25.33834000	17.32283000
142.49999172	0.00000000	25.71358000	17.36589000
142.69999170	0.00000000	26.40871000	17.36589000
142.89999169	0.00000000	26.40871000	17.32283000
143.09999168	0.00000000	25.71358000	16.89837000
143.29999167	0.00000000	25.33834000	15.78494000
143.49999166	0.00000000	25.29527000	14.67150000
143.69999165	0.00000000	25.29527000	14.25320000
143.89999163	0.00000000	25.29527000	14.21014000
144.09999162	0.00000000	25.29527000	14.25320000
144.29999161	0.00000000	25.33834000	14.62844000
144.49999160	0.00000000	25.71358000	15.40969000
144.69999159	0.00000000	26.45792000	16.16018000
144.89999157	0.00000000	26.83317000	16.94759000
145.09999156	0.00000000	26.87623000	17.32283000
145.29999155	0.00000000	26.83317000	17.32283000
145.49999154	0.00000000	26.45792000	16.94759000
145.69999153	0.00000000	25.71358000	16.20325000
145.89999151	0.00000000	25.33834000	15.78494000
146.09999150	0.00000000	25.29527000	15.36663000
146.29999149	0.00000000	25.29527000	14.67150000
146.49999148	0.00000000	25.29527000	14.62844000
146.69999147	0.00000000	25.29527000	14.99139000
146.89999146	0.00000000	25.33834000	15.00369000
147.09999144	0.00000000	25.71358000	15.40969000
147.29999143	0.00000000	26.45792000	15.74188000
147.49999142	0.00000000	26.83317000	15.78494000
147.69999141	0.00000000	26.83317000	15.82800000
147.89999140	0.00000000	26.45792000	16.20325000
148.09999138	0.00000000	25.71358000	16.89837000
148.29999137	0.00000000	25.33834000	16.89837000
148.49999136	0.00000000	25.29527000	16.20325000
148.69999135	0.00000000	25.33834000	15.82800000
148.89999134	0.00000000	25.67052000	15.78494000
149.09999132	0.00000000	26.08268000	15.78494000
149.29999131	0.00000000	26.08883000	15.78494000
149.49999130	0.00000000	26.50098000	15.78494000
149.69999129	0.00000000	26.83317000	15.78494000
149.89999128	0.00000000	26.87623000	15.78494000
150.09999127	0.00000000	26.87623000	15.78494000
150.29999125	0.00000000	26.87623000	15.82800000
150.49999124	0.00000000	26.83317000	16.20325000
150.69999123	0.00000000	26.45792000	16.94759000
150.89999122	0.00000000	25.71358000	17.32283000
151.09999121	0.00000000	25.33834000	17.36589000
151.29999119	0.00000000	25.29527000	17.36589000
151.49999118	0.00000000	25.29527000	17.36589000
151.69999117	0.00000000	25.29527000	17.32283000
151.89999116	0.00000000	25.33834000	16.94759000
152.09999115	0.00000000	25.71358000	16.20325000
152.29999113	0.00000000	26.45792000	15.82800000
152.49999112	0.00000000	26.83317000	15.78494000
152.69999111	0.00000000	26.87623000	15.78494000
152.89999110	0.00000000	26.87623000	15.78494000
153.09999109	0.00000000	26.87623000	15.82800000
153.29999108	0.00000000	26.87623000	16.20325000
153.49999106	0.00000000	26.87623000	16.94759000
153.69999105	0.00000000	26.83317000	17.32283000
153.89999104	0.00000000	26.45792000	17.36589000
154.09999103	0.00000000	25.71358000	17.36589000
154.29999102	0.00000000	25.33834000	17.36589000
154.49999100	0.00000000	25.29527000	17.32283000
154.69999099	0.00000000	25.29527000	16.99065000
154.89999098	0.00000000	25.33834000	16.57849000
155.09999097	0.00000000	25.71358000	16.57234000
155.29999096	0.00000000	26.45792000	16.16018000
155.49999094	0.00000000	26.83317000	15.82800000
155.69999093	0.00000000	26.87623000	15.78494000
155.89999092	0.00000000	26.87623000	15.78494000
156.09999091	0.00000000	26.87623000	15.78494000
156.29999090	0.00000000	26.87623000	15.82800000
156.49999089	0.00000000	26.87623000	16.20325000
156.69999087	0.00000000	26.83317000	16.94759000
156.89999086	0.00000000	26.45792000	17.32283000
157.09999085	0.00000000	25.71358000	17.36589000
157.29999084	0.00000000	25.33834000	17.36589000
157.49999083	0.00000000	25.29527000	17.36589000
157.69999081	0.00000000	25.33834000	17.32283000
157.89999080	0.00000000	25.71358000	16.94759000
158.09999079	0.00000000	26.45792000	16.20325000
158.29999078	0.00000000	26.83317000	15.82800000
158.49999077	0.00000000	26.87623000	15.74188000
158.69999075	0.00000000	26.87623000	15.40969000
158.89999074	0.00000000	26.87623000	15.04675000
159.09999073	0.00000000	26.87623000	15.40969000
159.29999072	0.00000000	26.87623000	15.74188000
159.49999071	0.00000000	26.87623000	15.82800000
159.69999070	0.00000000	26.87623000	16.20325000
159.89999068	0.00000000	26.83317000	16.94759000
160.09999067	0.00000000	26.45792000	17.32283000
160.29999066	0.00000000	25.71358000	17.36589000
160.49999065	0.00000000	25.38755000	17.32283000
160.69999064	0.00000000	25.67052000	16.94759000
160.89999062	0.00000000	26.08268000	16.20325000
161.09999061	0.00000000	26.08883000	15.82800000
161.29999060	0.00000000	26.50098000	15.78494000
161.49999059	0.00000000	26.83317000	15.78494000
161.69999058	0.00000000	26.87623000	15.78494000
161.89999056	0.00000000	26.87623000	15.78494000
162.09999055	0.00000000	26.87623000	15.78494000
162.29999054	0.00000000	26.87623000	15.82800000
162.49999053	0.00000000	26.87623000	16.20325000
162.69999052	0.00000000	26.87623000	16.94759000
162.89999051	0.00000000	26.87623000	17.32283000
163.09999049	0.00000000	26.87623000	17.36589000
163.29999048	0.00000000	26.87623000	17.32283000
163.49999047	0.00000000	26.83317000	16.94759000
163.69999046	0.00000000	26.45792000	16.25246000
163.89999045	0.00000000	25.76279000	16.25246000
164.09999043	0.00000000	25.71358000	16.89837000
164.29999042	0.00000000	26.08268000	16.89837000
164.49999041	0.00000000	26.08883000	16.20325000
164.69999040	0.00000000	26.50098000	15.82800000
164.89999039	0.00000000	26.87623000	15.78494000
165.09999037	0.00000000	27.29453000	15.78494000
165.29999036	0.00000000	27.98966000	15.78494000
165.49999035	0.00000000	27.98966000	15.82800000
165.69999034	0.00000000	27.29453000	16.16018000
165.89999033	0.00000000	26.91929000	16.57234000
166.09999032	0.00000000	26.87623000	16.57849000
166.29999030	0.00000000	26.87623000	16.99065000
166.49999029	0.00000000	26.87623000	17.32283000
166.69999028	0.00000000	26.87623000	17.36589000
166.89999027	0.00000000	26.87623000	17.36589000
167.09999026	0.00000000	26.87623000	17.36589000
167.29999024	0.00000000	26.91929000	17.36589000
167.49999023	0.00000000	27.29453000	17.36589000
167.69999022	0.00000000	28.03888000	17.36589000
167.89999021	0.00000000	28.41412000	17.36589000
168.09999020	0.00000000	28.45718000	17.36589000
168.29999018	0.00000000	28.45718000	17.36589000
168.49999017	0.00000000	28.45718000	17.36589000
168.69999016	0.00000000	28.45718000	17.36589000
168.89999015	0.00000000	28.41412000	17.36589000
169.09999014	0.00000000	28.03888000	17.36589000
169.29999013	0.00000000	27.29453000	17.36589000
169.49999011	0.00000000	26.91929000	17.36589000
169.69999010	0.00000000	26.87623000	17.36589000
169.89999009	0.00000000	26.87623000	17.36589000
170.09999008	0.00000000	26.87623000	17.36589000
170.29999007	0.00000000	26.91929000	17.36589000
170.49999005	0.00000000	27.29453000	17.36589000
170.69999004	0.00000000	28.03888000	17.36589000
170.89999003	0.00000000	28.41412000	17.36589000
171.09999002	0.00000000	28.45718000	17.36589000
171.29999001	0.00000000	28.45718000	17.36589000
171.49998999	0.00000000	28.45718000	17.32283000
171.69998998	0.00000000	28.41412000	16.94759000
171.89998997	0.00000000	28.03888000	16.20325000
172.09998996	0.00000000	27.29453000	15.82800000
172.29998995	0.00000000	26.91929000	15.78494000
172.49998994	0.00000000	26.87623000	15.78494000
172.69998992	0.00000000	26.87623000	15.82800000
172.89998991	0.00000000	26.87623000	16.20325000
173.09998990	0.00000000	26.87623000	16.94759000
173.29998989	0.00000000	26.91929000	17.32283000
173.49998988	0.00000000	27.25147000	17.36589000
173.69998986	0.00000000	27.62057000	17.32283000
173.89998985	0.00000000	27.25147000	16.94759000
174.09998984	0.00000000	26.91929000	16.20325000
174.29998983	0.00000000	26.87623000	15.82800000
174.49998982	0.00000000	26.87623000	15.78494000
174.69998980	0.00000000	26.87623000	15.78494000
174.89998979	0.00000000	26.87623000	15.78494000
175.09998978	0.00000000	26.87623000	15.78494000
175.29998977	0.00000000	26.87623000	15.78494000
175.49998976	0.00000000	26.87623000	15.78494000
175.69998975	0.00000000	26.87623000	15.78494000
175.89998973	0.00000000	26.87623000	15.82800000
176.09998972	0.00000000	26.87623000	16.16018000
176.29998971	0.00000000	26.87623000	16.52928000
176.49998970	0.00000000	26.87623000	16.16018000
176.69998969	0.00000000	26.87623000	15.82800000
176.89998967	0.00000000	26.87623000	15.78494000
177.09998966	0.00000000	26.87623000	15.78494000
177.29998965	0.00000000	26.87623000	15.78494000
177.49998964	0.00000000	26.87623000	15.78494000
177.69998963	0.00000000	26.87623000	15.78494000
177.89998961	0.00000000	26.87623000	15.78494000
178.09998960	0.00000000	26.87623000	15.78494000
178.29998959	0.00000000	26.87623000	15.82800000
178.49998958	0.00000000	26.87623000	16.20325000
178.69998957	0.00000000	26.91929000	16.94759000
178.89998956	0.00000000	27.29453000	17.32283000
179.09998954	0.00000000	28.03888000	17.36589000
179.29998953	0.00000000	28.41412000	17.36589000
179.49998952	0.00000000	28.45718000	17.36589000
179.69998951	0.00000000	28.45718000	17.36589000
179.89998950	0.00000000	28.45718000	17.36589000
180.09998948	0.00000000	28.45718000	17.36589000
180.29998947	0.00000000	28.41412000	17.36589000
180.49998946	0.00000000	28.03888000	17.32283000
180.69998945	0.00000000	27.29453000	16.99065000
180.89998944	0.00000000	26.96850000	16.62155000
181.09998942	0.00000000	27.25147000	16.99065000
181.29998941	0.00000000	27.66363000	17.32283000
181.49998940	0.00000000	27.66978000	17.36589000
181.69998939	0.00000000	28.08194000	17.36589000
181.89998938	0.00000000	28.41412000	17.36589000
182.09998937	0.00000000	28.45718000	17.36589000
182.29998935	0.00000000	28.45718000	17.36589000
182.49998934	0.00000000	28.45718000	17.36589000
182.69998933	0.00000000	28.45718000	17.36589000
182.89998932	0.00000000	28.45718000	17.36589000
183.09998931	0.00000000	28.45718000	17.32283000
183.29998929	0.00000000	28.45718000	16.94759000
183.49998928	0.00000000	28.45718000	16.25246000
183.69998927	0.00000000	28.45718000	16.25246000
183.89998926	0.00000000	28.45718000	16.94759000
184.09998925	0.00000000	28.45718000	17.32283000
184.29998923	0.00000000	28.45718000	17.36589000
184.49998922	0.00000000	28.45718000	17.40895000
184.69998921	0.00000000	28.45718000	17.78420000
184.89998920	0.00000000	28.45718000	18.47933000
185.09998919	0.00000000	28.45718000	18.47933000
185.29998918	0.00000000	28.45718000	17.78420000
185.49998916	0.00000000	28.45718000	17.40895000
185.69998915	0.00000000	28.45718000	17.36589000
185.89998914	0.00000000	28.45718000	17.36589000
186.09998913	0.00000000	28.45718000	17.32283000
186.29998912	0.00000000	28.45718000	16.94759000
186.49998910	0.00000000	28.45718000	16.20325000
186.69998909	0.00000000	28.45718000	15.87721000
186.89998908	0.00000000	28.45718000	16.20325000
187.09998907	0.00000000	28.41412000	16.94759000
187.29998906	0.00000000	28.08194000	17.32283000
187.49998904	0.00000000	27.66978000	17.36589000
187.69998903	0.00000000	27.70669000	17.36589000
187.89998902	0.00000000	27.66978000	17.36589000
188.09998901	0.00000000	28.08194000	17.36589000
188.29998900	0.00000000	28.41412000	17.36589000
188.49998899	0.00000000	28.45718000	17.32283000
188.69998897	0.00000000	28.45718000	16.99065000
188.89998896	0.00000000	28.45718000	16.57849000
189.09998895	0.00000000	28.45718000	16.57234000
189.29998894	0.00000000	28.45718000	16.16018000
189.49998893	0.00000000	28.45718000	15.82800000
189.69998891	0.00000000	28.45718000	15.78494000
189.89998890	0.00000000	28.45718000	15.78494000
190.09998889	0.00000000	28.45718000	15.82800000
190.29998888	0.00000000	28.45718000	16.20325000
190.49998887	0.00000000	28.45718000	16.94759000
190.69998885	0.00000000	28.45718000	17.32283000
190.89998884	0.00000000	28.45718000	17.36589000
191.09998883	0.00000000	28.45718000	17.36589000
191.29998882	0.00000000	28.45718000	17.36589000
191.49998881	0.00000000	28.45718000	17.32283000
191.69998880	0.00000000	28.45718000	16.94759000
191.89998878	0.00000000	28.45718000	16.20325000
192.09998877	0.00000000	28.45718000	15.82800000
192.29998876	0.00000000	28.45718000	15.82800000
192.49998875	0.00000000	28.45718000	16.16018000
192.69998874	0.00000000	28.45718000	16.52928000
192.89998872	0.00000000	28.45718000	16.20325000
193.09998871	0.00000000	28.45718000	16.25246000
193.29998870	0.00000000	28.41412000	16.94759000
193.49998869	0.00000000	28.08194000	17.32283000
193.69998868	0.00000000	27.71284000	17.36589000
193.89998866	0.00000000	28.08194000	17.36589000
194.09998865	0.00000000	28.41412000	17.36589000
194.29998864	0.00000000	28.45718000	17.36589000
194.49998863	0.00000000	28.45718000	17.36589000
194.69998862	0.00000000	28.45718000	17.36589000
194.89998861	0.00000000	28.45718000	17.36589000
195.09998859	0.00000000	28.45718000	17.36589000
195.29998858	0.00000000	28.45718000	17.36589000
195.49998857	0.00000000	28.45718000	17.36589000
195.69998856	0.00000000	28.45718000	17.36589000
195.89998855	0.00000000	28.45718000	17.36589000
196.09998853	0.00000000	28.45718000	17.36589000
