Time	Channel A	Channel B	Channel C
(us)	(V)	(mV)	(mV)

-4.49999956	0.00000000	63.24434000	17.36589000
-4.29999957	0.00000000	63.24434000	17.36589000
-4.09999958	0.00000000	63.24434000	17.36589000
-3.89999959	0.00000000	63.24434000	17.36589000
-3.69999960	0.00000000	63.24434000	17.36589000
-3.49999962	0.00000000	63.24434000	17.36589000
-3.29999963	0.00000000	63.24434000	17.36589000
-3.09999964	0.00000000	63.24434000	17.36589000
-2.89999965	0.00000000	63.24434000	17.36589000
-2.69999966	0.00000000	63.24434000	17.36589000
-2.49999968	0.00000000	63.24434000	17.36589000
-2.29999969	0.00000000	63.24434000	17.36589000
-2.09999970	0.00000000	63.24434000	17.36589000
-1.89999971	0.00000000	63.24434000	17.36589000
-1.69999972	0.00000000	63.24434000	17.36589000
-1.49999973	0.00000000	63.24434000	17.36589000
-1.29999975	0.00000000	63.24434000	17.36589000
-1.09999976	0.00000000	63.24434000	17.36589000
-0.89999977	0.00000000	63.24434000	17.36589000
-0.69999978	0.00000000	63.24434000	17.36589000
-0.49999979	0.00000000	63.24434000	17.36589000
-0.29999981	0.31803640	63.24434000	17.36589000
-0.09999982	0.63668800	63.24434000	17.36589000
0.10000017	0.95533960	63.24434000	17.36589000
0.30000016	0.95533960	63.24434000	17.36589000
0.50000015	0.79601380	63.24434000	17.36589000
0.70000013	0.15871060	63.24434000	17.36589000
0.90000012	-0.63668800	63.20127000	17.36589000
1.10000011	-1.59264300	62.86909000	17.36589000
1.30000010	-2.38927200	62.50000000	17.36589000
1.50000009	-2.70792300	62.86909000	17.36589000
1.70000008	-2.38927200	63.20127000	17.36589000
1.90000006	-1.11466500	63.24434000	17.36589000
2.10000005	0.95533960	63.24434000	17.36589000
2.30000004	3.02657500	63.24434000	17.36589000
2.50000003	4.61921700	63.24434000	17.36589000
2.70000002	5.41584600	63.24434000	17.36589000
2.90000000	4.61921700	63.24434000	17.36589000
3.09999999	2.54859700	63.24434000	17.32283000
3.29999998	-0.63668800	63.24434000	16.99065000
3.49999997	-3.98191400	63.24434000	16.62155000
3.69999996	-6.69045300	63.24434000	16.99065000
3.89999994	-7.96444400	63.24434000	17.32283000
4.09999993	-7.16781500	63.28740000	17.40895000
4.29999992	-4.45989200	63.61958000	17.74114000
4.49999991	-0.47736220	63.98867000	18.11024000
4.69999990	3.98191400	63.61958000	17.74114000
4.89999989	7.64579200	63.28740000	17.40895000
5.09999987	9.39837600	63.24434000	17.32283000
5.29999986	8.92039900	63.20127000	16.94759000
5.49999985	6.05315000	62.86909000	16.25246000
5.69999984	1.75196900	62.50000000	16.20325000
5.89999983	-3.02657500	62.86909000	16.57234000
6.09999981	-7.00848900	63.20127000	16.57849000
6.29999980	-9.23905000	63.24434000	16.99065000
6.49999979	-9.07972400	63.24434000	17.32283000
6.69999978	-6.69045300	63.24434000	17.36589000
6.89999977	-2.86724900	63.24434000	17.36589000
7.09999975	1.59264300	63.24434000	17.36589000
7.29999974	5.25652100	63.24434000	17.36589000
7.49999973	7.48646600	63.24434000	17.36589000
7.69999972	7.64579200	63.24434000	17.32283000
7.89999971	5.89382400	63.24434000	16.94759000
8.09999970	3.02657500	63.20127000	16.20325000
8.29999968	-0.31803640	62.86909000	15.82800000
8.49999967	-3.18590100	62.50000000	15.82800000
8.69999966	-4.77854300	62.86909000	16.20325000
8.89999965	-5.09719500	63.20127000	16.94759000
9.09999964	-4.14124000	63.24434000	17.32283000
9.29999962	-2.38927200	63.24434000	17.36589000
9.49999961	-0.47736220	63.24434000	17.36589000
9.69999960	1.27399100	63.24434000	17.36589000
9.89999959	2.22994600	63.24434000	17.36589000
10.09999958	2.54859700	63.24434000	17.36589000
10.29999956	2.07062000	63.24434000	17.36589000
10.49999955	1.27399100	63.24434000	17.36589000
10.69999954	0.47736220	63.24434000	17.32283000
10.89999953	-0.31803640	63.24434000	16.99065000
11.09999952	-0.79601380	63.24434000	16.62155000
11.29999951	-0.95533960	63.24434000	16.99065000
11.49999949	-0.95533960	63.24434000	17.32283000
11.69999948	-0.63668800	63.24434000	17.36589000
11.89999947	-0.31803640	63.24434000	17.36589000
12.09999946	-0.15871060	63.24434000	17.36589000
12.29999945	-0.15871060	63.20127000	17.36589000
12.49999943	0.00000000	62.86909000	17.36589000
12.69999942	0.00000000	62.50000000	17.36589000
12.89999941	0.00000000	62.82603000	17.36589000
13.09999940	0.00000000	62.82603000	17.36589000
13.29999939	0.15871060	62.50000000	17.36589000
13.49999937	0.00000000	62.86909000	17.36589000
13.69999936	0.00000000	63.15207000	17.36589000
13.89999935	0.00000000	62.86909000	17.36589000
14.09999934	-0.15871060	62.50000000	17.36589000
14.29999933	-0.15871060	62.86909000	17.36589000
14.49999932	-0.15871060	63.20127000	17.36589000
14.69999930	-0.15871060	63.24434000	17.36589000
14.89999929	0.00000000	63.24434000	17.36589000
15.09999928	0.00000000	63.24434000	17.36589000
15.29999927	0.15871060	63.20127000	17.36589000
15.49999926	0.00000000	62.82603000	17.36589000
15.69999924	0.00000000	62.08169000	17.36589000
15.89999923	0.00000000	61.70644000	17.36589000
16.09999922	0.00000000	61.70644000	17.36589000
16.29999921	0.00000000	62.08169000	17.36589000
16.49999920	0.00000000	62.82603000	17.32283000
16.69999919	-0.15871060	63.20127000	16.99065000
16.89999917	0.00000000	63.28740000	16.62155000
17.09999916	0.00000000	63.66264000	16.99065000
17.29999915	0.00000000	64.40699000	17.32283000
17.49999914	0.00000000	64.73302000	17.36589000
17.69999913	0.00000000	64.40699000	17.36589000
17.89999911	0.00000000	63.61958000	17.36589000
18.09999910	0.00000000	62.82603000	17.32283000
18.29999909	0.00000000	61.62032000	16.94759000
18.49999908	0.00000000	60.08243000	16.25246000
18.69999907	0.00000000	58.54454000	16.20325000
18.89999905	0.00000000	57.43110000	16.52928000
19.09999904	0.00000000	57.47416000	16.20325000
19.29999903	0.00000000	59.01205000	16.25246000
19.49999902	0.00000000	61.75566000	16.94759000
19.69999901	0.00000000	65.24360000	17.27362000
19.89999900	0.00000000	69.10678000	16.99065000
20.09999898	0.00000000	72.18258000	16.62155000
20.29999897	0.00000000	73.67126000	16.99065000
20.49999896	0.00000000	72.83464000	17.32283000
20.69999895	0.00000000	68.92839000	17.36589000
20.89999894	0.00000000	62.73376000	17.36589000
21.09999892	0.00000000	55.33957000	17.32283000
21.29999891	0.00000000	48.03149000	16.99065000
21.49999890	0.00000000	42.72884000	16.57849000
21.69999889	0.00000000	41.61540000	16.61540000
21.89999888	0.00000000	45.51550000	16.53543000
22.09999886	0.00000000	53.70940000	16.61540000
22.29999885	0.00000000	65.33588000	16.53543000
22.49999884	0.00000000	78.03887000	16.61540000
22.69999883	0.00000000	88.46579000	16.57849000
22.89999882	0.00000000	94.18675000	16.99065000
23.09999881	0.00000000	93.25787000	17.32283000
23.29999879	0.00000000	84.32578000	17.36589000
23.49999878	0.00000000	68.92839000	17.40895000
23.69999877	0.00000000	51.15034000	17.78420000
23.89999876	0.00000000	34.86712000	18.52854000
24.09999875	0.00000000	23.36983000	18.85458000
24.29999873	0.00000000	20.02337000	18.47933000
24.49999872	0.00000000	26.99926000	17.32283000
24.69999871	0.00000000	42.82111000	15.78494000
24.89999870	0.00000000	63.75492000	14.21014000
25.09999869	0.00000000	85.76525000	12.67224000
25.29999867	0.00000000	103.82010000	11.55881000
25.49999866	0.00000000	112.65990000	11.55881000
25.69999865	0.00000000	109.96550000	12.76452000
25.89999864	0.00000000	96.41978000	15.13902000
26.09999863	0.00000000	74.78469000	18.98991000
26.29999862	0.00000000	50.07997000	23.17298000
26.49999860	0.00000000	28.02657000	26.32874000
26.69999859	0.00000000	13.36737000	28.24188000
26.89999858	0.00000000	9.55339400	28.47564000
27.09999857	0.00000000	18.02411000	25.31373000
27.29999856	0.00000000	36.54035000	18.81152000
27.49999854	0.00000000	60.45767000	11.09744000
27.69999853	0.00000000	84.41805000	3.70939900
27.89999852	0.00000000	102.61440000	-2.00541300
28.09999851	0.00000000	111.54650000	-4.27534400
28.29999850	0.00000000	109.63340000	-1.91314000
28.49999848	0.00000000	97.30560000	4.73056000
28.69999847	0.00000000	78.03887000	15.18209000
28.89999846	0.00000000	56.36073000	27.49138000
29.09999845	0.00000000	37.00172000	38.27509000
29.29999844	0.00000000	23.83735000	45.24483000
29.49999843	0.00000000	19.55585000	46.68430000
29.69999841	0.00000000	24.86466000	41.62155000
29.89999840	0.00000000	37.56767000	30.37647000
30.09999839	0.00000000	54.22613000	15.32357000
30.29999838	0.00000000	71.67200000	-0.51673230
30.49999837	0.00000000	86.32504000	-13.57037000
30.69999835	0.00000000	94.93110000	-20.49089000
30.89999834	0.00000000	96.14296000	-19.33440000
31.09999833	0.00000000	90.78493000	-10.45768000
31.29999832	0.00000000	79.95201000	4.26304100
31.49999831	0.00000000	66.45546000	22.01649000
31.69999829	0.00000000	53.24187000	39.01944000
31.89999828	0.00000000	42.72884000	51.37795000
32.09999827	0.00000000	36.54035000	56.76673000
32.29999826	0.00000000	35.75295000	53.65403000
32.49999825	0.00000000	40.77264000	42.50738000
32.69999824	0.00000000	49.98769000	26.24262000
32.89999822	0.00000000	61.24508000	8.07086500
33.09999821	0.00000000	72.04723000	-8.50762700
33.29999820	0.00000000	80.18578000	-19.33440000
33.49999819	0.00000000	83.67372000	-22.49631000
33.69999818	0.00000000	82.18504000	-17.84572000
33.89999816	0.00000000	76.41486000	-6.18848400
34.09999815	0.00000000	67.94415000	10.35925000
34.29999814	0.00000000	59.05511000	28.10039000
34.49999813	0.00000000	51.70398000	42.41511000
34.69999812	0.00000000	47.47170000	50.95964000
34.89999810	0.00000000	47.42864000	52.07308000
35.09999809	0.00000000	51.24261000	45.19562000
35.29999808	0.00000000	57.38804000	32.51107000
35.49999807	0.00000000	64.31471000	17.45817000
35.69999806	0.00000000	70.13410000	3.14960600
35.89999805	0.00000000	73.53592000	-7.25885800
36.09999803	0.00000000	73.57283000	-11.52805000
36.29999802	0.00000000	69.76501000	-8.87672100
36.49999801	0.00000000	64.49925000	-0.42445860
36.69999800	0.00000000	59.38730000	11.51575000
36.89999799	0.00000000	55.51796000	24.24335000
37.09999797	0.00000000	53.19881000	34.51648000
37.29999796	0.00000000	53.24187000	39.15477000
37.49999795	0.00000000	55.93627000	36.60802000
37.69999794	0.00000000	60.50073000	29.35531000
37.89999793	0.00000000	65.52657000	19.69119000
38.09999791	0.00000000	69.39591000	9.37500000
38.29999790	0.00000000	71.71505000	2.12844500
38.49999789	0.00000000	71.71505000	0.12918310
38.69999788	0.00000000	69.43897000	3.19266700
38.89999787	0.00000000	65.94488000	10.48843000
39.09999786	0.00000000	61.66338000	20.01722000
39.29999784	0.00000000	57.43110000	28.42643000
39.49999783	0.00000000	54.35531000	33.03395000
39.69999782	0.00000000	53.14960000	32.65871000
39.89999781	0.00000000	53.89394000	27.26993000
40.09999780	0.00000000	55.80708000	18.43627000
40.29999778	0.00000000	58.59375000	8.49532500
40.49999777	0.00000000	62.08169000	0.46136810
40.69999776	0.00000000	65.94488000	-2.98351400
40.89999775	0.00000000	69.02066000	-1.11958700
41.09999774	0.00000000	70.60162000	5.46875000
41.29999772	0.00000000	70.64468000	15.04675000
41.49999771	0.00000000	69.43897000	25.40600000
41.69999770	0.00000000	67.10752000	33.07701000
41.89999769	0.00000000	63.61958000	36.23277000
42.09999768	0.00000000	60.17470000	34.69488000
42.29999767	0.00000000	57.38804000	28.89395000
42.49999765	0.00000000	55.47490000	20.06029000
42.69999764	0.00000000	54.68750000	10.48843000
42.89999763	0.00000000	55.47490000	3.19266700
43.09999762	0.00000000	57.33883000	0.03690945
43.29999761	0.00000000	59.70718000	1.15034400
43.49999759	0.00000000	61.99557000	5.70866100
43.69999758	0.00000000	63.98867000	12.25394000
43.89999757	0.00000000	65.15748000	18.81152000
44.09999756	0.00000000	65.98794000	24.24335000
44.29999755	0.00000000	66.31397000	27.31299000
44.49999753	0.00000000	65.98794000	27.35605000
44.69999752	0.00000000	65.24360000	24.75394000
44.89999751	0.00000000	64.86835000	20.90305000
45.09999750	0.00000000	64.78223000	17.03986000
45.29999749	0.00000000	64.35777000	13.51501000
45.49999748	0.00000000	63.10900000	11.18356000
45.69999746	0.00000000	60.77756000	10.02707000
45.89999745	0.00000000	57.33883000	10.40231000
46.09999744	0.00000000	54.26919000	12.30315000
46.29999743	0.00000000	52.31299000	14.62844000
46.49999742	0.00000000	51.61786000	17.32283000
46.69999740	0.00000000	53.24187000	19.64198000
46.89999739	0.00000000	57.47416000	20.81078000
47.09999738	0.00000000	63.29355000	21.26599000
47.29999737	0.00000000	69.48203000	20.81078000
47.49999736	0.00000000	74.87697000	19.64198000
47.69999734	0.00000000	77.90354000	17.32283000
47.89999733	0.00000000	77.48523000	14.67150000
48.09999732	0.00000000	73.25295000	12.72146000
48.29999731	0.00000000	66.27091000	11.51575000
48.49999730	0.00000000	58.12622000	11.18356000
48.69999729	0.00000000	50.03691000	11.97711000
48.89999727	0.00000000	44.30979000	14.29626000
49.09999726	0.00000000	42.77190000	17.36589000
49.29999725	0.00000000	45.84769000	20.47859000
49.49999724	0.00000000	52.82357000	23.12992000
49.69999723	0.00000000	62.08169000	24.24335000
49.89999721	0.00000000	71.71505000	23.08686000
50.09999720	0.00000000	78.98006000	20.06029000
50.29999719	0.00000000	81.71751000	16.16018000
50.49999718	0.00000000	79.44143000	12.29700000
50.69999717	0.00000000	73.25295000	8.86441900
50.89999715	0.00000000	64.40699000	7.37573800
51.09999714	0.00000000	55.15502000	8.44611200
51.29999713	0.00000000	48.21604000	11.18356000
51.49999712	0.00000000	44.72810000	15.04675000
51.69999711	0.00000000	45.89075000	19.69119000
51.89999710	0.00000000	51.24261000	23.50517000
52.09999708	0.00000000	58.91978000	25.82431000
52.29999707	0.00000000	67.01525000	25.77510000
52.49999706	0.00000000	73.16068000	23.17298000
52.69999705	0.00000000	75.86122000	19.32210000
52.89999704	0.00000000	74.36639000	15.45891000
53.09999702	0.00000000	69.39591000	11.97711000
53.29999701	0.00000000	62.86909000	10.02707000
53.49999700	0.00000000	56.31151000	9.65182000
53.69999699	0.00000000	51.70398000	10.82062000
53.89999698	0.00000000	50.12303000	13.87795000
54.09999696	0.00000000	51.70398000	17.27977000
54.29999695	0.00000000	56.26845000	19.97416000
54.49999694	0.00000000	62.40772000	21.13066000
54.69999693	0.00000000	67.76575000	20.39247000
54.89999692	0.00000000	71.25368000	18.52854000
55.09999691	0.00000000	71.62893000	16.20325000
55.29999689	0.00000000	69.02066000	14.34547000
55.49999688	0.00000000	64.78223000	13.55807000
55.69999687	0.00000000	60.12549000	14.34547000
55.89999686	0.00000000	55.89320000	16.20325000
56.09999685	0.00000000	53.24187000	18.52854000
56.29999683	0.00000000	53.19881000	20.39247000
56.49999682	0.00000000	55.47490000	21.17372000
56.69999681	0.00000000	58.96899000	20.34941000
56.89999680	0.00000000	63.20127000	18.01796000
57.09999679	0.00000000	67.01525000	14.16708000
57.29999677	0.00000000	68.97761000	10.02707000
57.49999676	0.00000000	68.97761000	7.37573800
57.69999675	0.00000000	67.06447000	7.37573800
57.89999674	0.00000000	63.66264000	10.07013000
58.09999673	0.00000000	60.59301000	14.72072000
58.29999672	0.00000000	58.59375000	20.47859000
58.49999670	0.00000000	57.43110000	25.86737000
58.69999669	0.00000000	57.43110000	29.31225000
58.89999668	0.00000000	58.59375000	30.05044000
59.09999667	0.00000000	60.50073000	27.31299000
59.29999666	0.00000000	62.77681000	21.54897000
59.49999664	0.00000000	64.31471000	14.25320000
59.69999663	0.00000000	64.73302000	7.33267600
59.89999662	0.00000000	64.35777000	2.73129900
60.09999661	0.00000000	63.20127000	1.56865100
60.29999660	0.00000000	61.70644000	4.26304100
60.49999658	0.00000000	60.54995000	10.07013000
60.69999657	0.00000000	60.17470000	17.78420000
60.89999656	0.00000000	60.54995000	25.82431000
61.09999655	0.00000000	61.66338000	31.58218000
61.29999654	0.00000000	62.82603000	33.53838000
61.49999653	0.00000000	63.61958000	31.63140000
61.69999651	0.00000000	64.31471000	26.19955000
61.89999650	0.00000000	63.89641000	18.47933000
62.09999649	0.00000000	62.03863000	10.02707000
62.29999648	0.00000000	60.12549000	3.10654500
62.49999647	0.00000000	58.54454000	-0.38139760
62.69999645	0.00000000	57.38804000	-0.00615157
62.89999644	0.00000000	57.05585000	4.26304100
63.09999643	0.00000000	57.80634000	11.51575000
63.29999642	0.00000000	59.75024000	19.64198000
63.49999641	0.00000000	62.08169000	26.56865000
63.69999639	0.00000000	64.78223000	31.21309000
63.89999638	0.00000000	67.01525000	32.04970000
64.09999637	0.00000000	67.43970000	29.73056000
64.29999636	0.00000000	66.32012000	25.07382000
64.49999635	0.00000000	64.35777000	18.15945000
64.69999634	0.00000000	61.66338000	11.64493000
64.89999632	0.00000000	58.96899000	6.90821800
65.09999631	0.00000000	57.05585000	4.21998000
65.29999630	0.00000000	56.26845000	4.21998000
65.49999629	0.00000000	57.05585000	6.86515700
65.69999628	0.00000000	58.96899000	11.09129000
65.89999626	0.00000000	61.62032000	15.74188000
66.09999625	0.00000000	63.89641000	20.01722000
66.29999624	0.00000000	64.73302000	23.17298000
66.49999623	0.00000000	64.73302000	25.12918000
66.69999622	0.00000000	63.93946000	25.91043000
66.89999620	0.00000000	61.99557000	25.17224000
67.09999619	0.00000000	59.75024000	23.59129000
67.29999618	0.00000000	57.84941000	21.22293000
67.49999617	0.00000000	57.51722000	17.74114000
67.69999616	0.00000000	59.01205000	14.25320000
67.89999615	0.00000000	61.66338000	11.09744000
68.09999613	0.00000000	64.35777000	8.40305000
68.29999612	0.00000000	66.32012000	6.86515700
68.49999611	0.00000000	67.43970000	6.86515700
68.69999610	0.00000000	66.97219000	8.44611200
68.89999609	0.00000000	64.31471000	11.55881000
69.09999607	0.00000000	60.45767000	15.83415000
69.29999606	0.00000000	56.58833000	20.47859000
69.49999605	0.00000000	53.14960000	24.71087000
69.69999604	0.00000000	51.66092000	27.40526000
69.89999603	0.00000000	52.77436000	27.82357000
70.09999601	0.00000000	55.89320000	26.24262000
70.29999600	0.00000000	60.54995000	22.71161000
70.49999599	0.00000000	65.94488000	17.32283000
70.69999598	0.00000000	70.55241000	11.60187000
70.89999597	0.00000000	73.25295000	7.33267600
71.09999596	0.00000000	73.20988000	5.37647600
71.29999594	0.00000000	70.13410000	5.75172200
71.49999593	0.00000000	64.73917000	8.44611200
71.69999592	0.00000000	58.54454000	12.67224000
71.89999591	0.00000000	52.77436000	17.32283000
72.09999590	0.00000000	48.91732000	21.54897000
72.29999588	0.00000000	48.12377000	24.24335000
72.49999587	0.00000000	50.03691000	24.66781000
72.69999586	0.00000000	54.31225000	23.17298000
72.89999585	0.00000000	60.12549000	20.47859000
73.09999584	0.00000000	66.27091000	17.41511000
73.29999582	0.00000000	71.29675000	14.72072000
73.49999581	0.00000000	73.58514000	13.18282000
73.69999580	0.00000000	72.87770000	13.13976000
73.89999579	0.00000000	69.43897000	14.25320000
74.09999578	0.00000000	64.82529000	15.74188000
74.29999577	0.00000000	60.12549000	16.89837000
74.49999575	0.00000000	55.89320000	17.23056000
74.69999574	0.00000000	53.19881000	16.48622000
74.89999573	0.00000000	52.77436000	14.62844000
75.09999572	0.00000000	54.26919000	13.13976000
75.29999571	0.00000000	56.96358000	12.72146000
75.49999569	0.00000000	60.08243000	13.13976000
75.69999568	0.00000000	63.15207000	14.72072000
75.89999567	0.00000000	65.47736000	17.41511000
76.09999566	0.00000000	66.27091000	20.52780000
76.29999565	0.00000000	65.93873000	23.54823000
76.49999563	0.00000000	64.78223000	25.44906000
76.69999562	0.00000000	63.24434000	25.03691000
76.89999561	0.00000000	61.70644000	22.71161000
77.09999560	0.00000000	60.59301000	18.43627000
77.29999559	0.00000000	60.50073000	13.04749000
77.49999558	0.00000000	60.82677000	8.02780400
77.69999556	0.00000000	60.45767000	4.21998000
77.89999555	0.00000000	60.12549000	3.10039400
78.09999554	0.00000000	60.03937000	5.37647600
78.29999553	0.00000000	59.66412000	10.02707000
78.49999552	0.00000000	58.91978000	16.16018000
78.69999550	0.00000000	58.54454000	22.33637000
78.89999549	0.00000000	58.59375000	26.61786000
79.09999548	0.00000000	59.38730000	28.89395000
79.29999547	0.00000000	61.28814000	28.14345000
79.49999546	0.00000000	63.20127000	24.39099000
79.69999544	0.00000000	64.78223000	20.10950000
79.89999543	0.00000000	65.89567000	15.32357000
80.09999542	0.00000000	65.85260000	10.02707000
80.29999541	0.00000000	64.35777000	6.17618100
80.49999540	0.00000000	62.03863000	4.95816900
80.69999539	0.00000000	59.70718000	5.70866100
80.89999537	0.00000000	57.38804000	8.44611200
81.09999536	0.00000000	55.89320000	12.67224000
81.29999535	0.00000000	55.85014000	17.27362000
81.49999534	0.00000000	57.01279000	21.17372000
81.69999533	0.00000000	58.96899000	23.54823000
81.89999531	0.00000000	61.66338000	24.79700000
82.09999530	0.00000000	64.31471000	25.12918000
82.29999529	0.00000000	65.89567000	24.33563000
82.49999528	0.00000000	66.27091000	22.01649000
82.69999527	0.00000000	65.52042000	18.94685000
82.89999525	0.00000000	63.61958000	15.78494000
83.09999524	0.00000000	61.70644000	12.67224000
83.29999523	0.00000000	60.12549000	9.98400600
83.49999522	0.00000000	58.96899000	8.44611200
83.69999521	0.00000000	58.59375000	8.44611200
83.89999520	0.00000000	58.96899000	10.02707000
84.09999518	0.00000000	60.08243000	13.09670000
84.29999517	0.00000000	61.19586000	16.94759000
84.49999516	0.00000000	61.62032000	20.47859000
84.69999515	0.00000000	61.66338000	23.59129000
84.89999514	0.00000000	61.66338000	25.86737000
85.09999512	0.00000000	61.66338000	26.24262000
85.29999511	0.00000000	61.66338000	24.71087000
85.49999510	0.00000000	61.70644000	21.54897000
85.69999509	0.00000000	62.08169000	16.94759000
85.89999508	0.00000000	62.82603000	11.97711000
86.09999506	0.00000000	63.20127000	8.48917200
86.29999505	0.00000000	63.20127000	6.86515700
86.49999504	0.00000000	62.77681000	6.90821800
86.69999503	0.00000000	61.62032000	8.86441900
86.89999502	0.00000000	60.08243000	12.72146000
87.09999501	0.00000000	58.54454000	17.32283000
87.29999499	0.00000000	57.38804000	21.59203000
87.49999498	0.00000000	57.05585000	24.66166000
87.69999497	0.00000000	57.80634000	25.78125000
87.89999496	0.00000000	59.70718000	24.24335000
88.09999495	0.00000000	61.62032000	20.43553000
88.29999493	0.00000000	63.20127000	15.83415000
88.49999492	0.00000000	64.35777000	11.55881000
88.69999491	0.00000000	64.73302000	8.48917200
88.89999490	0.00000000	64.31471000	7.33267600
89.09999489	0.00000000	62.77681000	8.48917200
89.29999487	0.00000000	60.50073000	11.55881000
89.49999486	0.00000000	58.59375000	15.78494000
89.69999485	0.00000000	57.38804000	20.01722000
89.89999484	0.00000000	57.01279000	23.08686000
90.09999483	0.00000000	57.38804000	24.24335000
90.29999482	0.00000000	58.54454000	23.08686000
90.49999480	0.00000000	60.08243000	20.01722000
90.69999479	0.00000000	61.62032000	15.78494000
90.89999478	0.00000000	62.77681000	11.55881000
91.09999477	0.00000000	63.20127000	8.53223400
91.29999476	0.00000000	63.20127000	7.75098400
91.49999474	0.00000000	62.82603000	9.65182000
91.69999473	0.00000000	62.08169000	13.09670000
91.89999472	0.00000000	61.70644000	17.36589000
92.09999471	0.00000000	61.62032000	21.54897000
92.29999470	0.00000000	61.24508000	24.24335000
92.49999468	0.00000000	60.50073000	24.61860000
92.69999467	0.00000000	60.12549000	22.71161000
92.89999466	0.00000000	60.03937000	18.85458000
93.09999465	0.00000000	59.66412000	14.30241000
93.29999464	0.00000000	58.91978000	10.44537000
93.49999463	0.00000000	58.54454000	8.53838500
93.69999461	0.00000000	58.54454000	8.86441900
93.89999460	0.00000000	58.96899000	11.22662000
94.09999459	0.00000000	60.12549000	15.04675000
94.29999458	0.00000000	61.66338000	19.64198000
94.49999457	0.00000000	63.24434000	23.08686000
94.69999455	0.00000000	64.78223000	24.61860000
94.89999454	0.00000000	65.89567000	23.82505000
95.09999453	0.00000000	65.85260000	20.39247000
95.29999452	0.00000000	64.31471000	15.87721000
95.49999451	0.00000000	61.62032000	11.97711000
95.69999449	0.00000000	58.54454000	9.65182000
95.89999448	0.00000000	55.85014000	8.86441900
96.09999447	0.00000000	54.26919000	10.07013000
96.29999446	0.00000000	53.89394000	13.09670000
96.49999445	0.00000000	54.73056000	16.90453000
96.69999444	0.00000000	57.43110000	19.97416000
96.89999442	0.00000000	61.24508000	21.59203000
97.09999441	0.00000000	64.78223000	21.96727000
97.29999440	0.00000000	67.85802000	21.17372000
97.49999439	0.00000000	69.75885000	18.85458000
97.69999438	0.00000000	69.34670000	15.83415000
97.89999436	0.00000000	67.10752000	13.18282000
98.09999435	0.00000000	63.57652000	11.97711000
98.29999434	0.00000000	59.70718000	12.29700000
98.49999433	0.00000000	55.85014000	13.04749000
98.69999432	0.00000000	53.14960000	14.25320000
98.89999430	0.00000000	52.35605000	15.74188000
99.09999429	0.00000000	53.10654000	16.89837000
99.29999428	0.00000000	55.47490000	17.32283000
99.49999427	0.00000000	58.91978000	17.36589000
99.69999426	0.00000000	62.82603000	17.36589000
99.89999425	0.00000000	66.22785000	17.36589000
100.09999423	0.00000000	68.22096000	17.36589000
100.29999422	0.00000000	68.23326000	17.36589000
100.49999421	0.00000000	67.10752000	17.36589000
100.69999420	0.00000000	64.78223000	17.36589000
100.89999419	0.00000000	62.03863000	17.32283000
101.09999417	0.00000000	59.28888000	16.89837000
101.29999416	0.00000000	56.22539000	15.74188000
101.49999415	0.00000000	54.35531000	14.21014000
101.69999414	0.00000000	54.26919000	12.67224000
101.89999413	0.00000000	55.38263000	11.55881000
102.09999411	0.00000000	56.96358000	11.60187000
102.29999410	0.00000000	58.96899000	13.13976000
102.49999409	0.00000000	61.62032000	15.78494000
102.69999408	0.00000000	63.93946000	18.47933000
102.89999407	0.00000000	65.10827000	20.43553000
103.09999406	0.00000000	65.52042000	21.59203000
103.29999404	0.00000000	64.73302000	21.59203000
103.49999403	0.00000000	63.24434000	20.39247000
103.69999402	0.00000000	61.62032000	18.06102000
103.89999401	0.00000000	59.70718000	14.62844000
104.09999400	0.00000000	57.80634000	11.60187000
104.29999398	0.00000000	57.01279000	10.02707000
104.49999397	0.00000000	56.96358000	10.02707000
104.69999396	0.00000000	57.38804000	11.51575000
104.89999395	0.00000000	58.54454000	13.83489000
105.09999394	0.00000000	60.08243000	16.16018000
105.29999392	0.00000000	61.62032000	18.52854000
105.49999391	0.00000000	62.77681000	20.39247000
105.69999390	0.00000000	63.15207000	21.17372000
105.89999389	0.00000000	62.77681000	20.39247000
106.09999388	0.00000000	61.66338000	18.47933000
106.29999387	0.00000000	60.50073000	15.83415000
106.49999385	0.00000000	59.70718000	13.55807000
106.69999384	0.00000000	58.96899000	12.72146000
106.89999383	0.00000000	58.96899000	12.72146000
107.09999382	0.00000000	59.70718000	13.50886000
107.29999381	0.00000000	60.50073000	15.40969000
107.49999379	0.00000000	61.66338000	17.27362000
107.69999378	0.00000000	62.73376000	18.47933000
107.89999377	0.00000000	62.73376000	18.85458000
108.09999376	0.00000000	61.66338000	18.47933000
108.29999375	0.00000000	60.50073000	17.32283000
108.49999374	0.00000000	59.66412000	15.78494000
108.69999372	0.00000000	58.54454000	14.25320000
108.89999371	0.00000000	57.80634000	13.13976000
109.09999370	0.00000000	58.16929000	13.13976000
109.29999369	0.00000000	58.91978000	14.25320000
109.49999368	0.00000000	60.12549000	15.78494000
109.69999366	0.00000000	61.66338000	17.36589000
109.89999365	0.00000000	63.15207000	18.85458000
110.09999364	0.00000000	63.93946000	19.59892000
110.29999363	0.00000000	63.57652000	18.85458000
110.49999362	0.00000000	62.77681000	17.40895000
110.69999360	0.00000000	61.24508000	16.20325000
110.89999359	0.00000000	59.33809000	15.36663000
111.09999358	0.00000000	58.16929000	14.21014000
111.29999357	0.00000000	57.38804000	13.09670000
111.49999356	0.00000000	57.38804000	12.72146000
111.69999355	0.00000000	58.12622000	13.09670000
111.89999353	0.00000000	58.91978000	14.25320000
112.09999352	0.00000000	60.08243000	15.74188000
112.29999351	0.00000000	61.19586000	16.94759000
112.49999350	0.00000000	61.62032000	17.69808000
112.69999349	0.00000000	61.66338000	18.11024000
112.89999347	0.00000000	61.62032000	17.69808000
113.09999346	0.00000000	61.24508000	16.99065000
113.29999345	0.00000000	60.45767000	16.20325000
113.49999344	0.00000000	59.70718000	15.82800000
113.69999343	0.00000000	58.91978000	15.78494000
113.89999341	0.00000000	58.59375000	15.78494000
114.09999340	0.00000000	58.91978000	15.78494000
114.29999339	0.00000000	59.66412000	15.74188000
114.49999338	0.00000000	60.08243000	15.36663000
114.69999337	0.00000000	60.50073000	14.62844000
114.89999336	0.00000000	61.24508000	14.25320000
115.09999334	0.00000000	61.62032000	14.21014000
115.29999333	0.00000000	61.66338000	14.21014000
115.49999332	0.00000000	61.62032000	14.25320000
115.69999331	0.00000000	61.24508000	14.62844000
115.89999330	0.00000000	60.50073000	15.40969000
116.09999328	0.00000000	60.08243000	16.16018000
116.29999327	0.00000000	59.66412000	16.94759000
116.49999326	0.00000000	58.91978000	17.32283000
116.69999325	0.00000000	58.54454000	17.36589000
116.89999324	0.00000000	58.54454000	17.32283000
117.09999322	0.00000000	58.96899000	16.94759000
117.29999321	0.00000000	60.08243000	16.16018000
117.49999320	0.00000000	61.24508000	15.40969000
117.69999319	0.00000000	62.03863000	14.58538000
117.89999318	0.00000000	62.82603000	13.87795000
118.09999317	0.00000000	63.15207000	13.46580000
118.29999315	0.00000000	62.77681000	13.87795000
118.49999314	0.00000000	61.62032000	14.58538000
118.69999313	0.00000000	60.12549000	15.36663000
118.89999312	0.00000000	58.91978000	15.78494000
119.09999311	0.00000000	58.12622000	16.20325000
119.29999309	0.00000000	57.38804000	16.94759000
119.49999308	0.00000000	57.38804000	17.32283000
119.69999307	0.00000000	58.12622000	17.36589000
119.89999306	0.00000000	58.91978000	17.36589000
120.09999305	0.00000000	60.12549000	17.32283000
120.29999303	0.00000000	61.62032000	16.94759000
120.49999302	0.00000000	62.77681000	16.16018000
120.69999301	0.00000000	63.20127000	15.40969000
120.89999300	0.00000000	63.20127000	14.62844000
121.09999299	0.00000000	62.77681000	14.25320000
121.29999298	0.00000000	61.62032000	14.21014000
121.49999296	0.00000000	60.12549000	14.21014000
121.69999295	0.00000000	58.91978000	14.25320000
121.89999294	0.00000000	58.12622000	14.62844000
122.09999293	0.00000000	57.33883000	15.36663000
122.29999292	0.00000000	57.01279000	15.78494000
122.49999290	0.00000000	57.38804000	16.20325000
122.69999289	0.00000000	58.54454000	16.94759000
122.89999288	0.00000000	60.03937000	17.32283000
123.09999287	0.00000000	61.19586000	17.32283000
123.29999286	0.00000000	61.66338000	16.94759000
123.49999284	0.00000000	62.03863000	16.20325000
123.69999283	0.00000000	62.40772000	15.78494000
123.89999282	0.00000000	62.03863000	15.36663000
124.09999281	0.00000000	61.66338000	14.62844000
124.29999280	0.00000000	61.19586000	14.25320000
124.49999279	0.00000000	60.08243000	14.21014000
124.69999277	0.00000000	58.96899000	14.25320000
124.89999276	0.00000000	58.54454000	14.62844000
125.09999275	0.00000000	58.50147000	15.36663000
125.29999274	0.00000000	58.50147000	15.74188000
125.49999273	0.00000000	58.54454000	15.82800000
125.69999271	0.00000000	58.91978000	16.20325000
125.89999270	0.00000000	59.70718000	16.94759000
126.09999269	0.00000000	60.45767000	17.32283000
126.29999268	0.00000000	61.24508000	17.36589000
126.49999267	0.00000000	61.66338000	17.32283000
126.69999265	0.00000000	62.03863000	16.94759000
126.89999264	0.00000000	62.35851000	16.20325000
127.09999263	0.00000000	61.62032000	15.82800000
127.29999262	0.00000000	60.50073000	15.74188000
127.49999261	0.00000000	59.66412000	15.40969000
127.69999260	0.00000000	58.50147000	15.00369000
127.89999258	0.00000000	57.43110000	15.04060000
128.09999257	0.00000000	57.38804000	15.00369000
128.29999256	0.00000000	58.12622000	15.40969000
128.49999255	0.00000000	58.91978000	15.74188000
128.69999254	0.00000000	60.08243000	15.78494000
128.89999252	0.00000000	61.24508000	15.78494000
129.09999251	0.00000000	61.99557000	15.78494000
129.29999250	0.00000000	62.35851000	15.78494000
129.49999249	0.00000000	61.57111000	15.74188000
129.69999248	0.00000000	60.12549000	15.36663000
129.89999246	0.00000000	58.91978000	14.67150000
130.09999245	0.00000000	58.12622000	14.67150000
130.29999244	0.00000000	57.38804000	15.36663000
130.49999243	0.00000000	57.38804000	15.74188000
130.69999242	0.00000000	58.12622000	15.78494000
130.89999241	0.00000000	58.91978000	15.82800000
131.09999239	0.00000000	60.08243000	16.16018000
131.29999238	0.00000000	61.19586000	16.52928000
131.49999237	0.00000000	61.62032000	16.11712000
131.69999236	0.00000000	61.62032000	15.40969000
131.89999235	0.00000000	61.28814000	14.62844000
132.09999233	0.00000000	60.83292000	14.25320000
132.29999232	0.00000000	60.45152000	14.21014000
132.49999231	0.00000000	59.29502000	14.25320000
132.69999230	0.00000000	58.59375000	14.62844000
132.89999229	0.00000000	58.54454000	15.40969000
133.09999227	0.00000000	58.91978000	16.16018000
133.29999226	0.00000000	59.66412000	16.99065000
133.49999225	0.00000000	60.03937000	17.69808000
133.69999224	0.00000000	60.08243000	18.11024000
133.89999223	0.00000000	60.08243000	17.74114000
134.09999222	0.00000000	60.08243000	17.36589000
134.29999220	0.00000000	60.08243000	16.89837000
134.49999219	0.00000000	60.08243000	15.78494000
134.69999218	0.00000000	60.08243000	14.67150000
134.89999217	0.00000000	60.08243000	14.25320000
135.09999216	0.00000000	60.12549000	14.21014000
135.29999214	0.00000000	60.45767000	14.25320000
135.49999213	0.00000000	60.82677000	14.62844000
135.69999212	0.00000000	60.45767000	15.40969000
135.89999211	0.00000000	60.12549000	16.16018000
136.09999210	0.00000000	60.03937000	16.94759000
136.29999208	0.00000000	59.66412000	17.32283000
136.49999207	0.00000000	58.91978000	17.36589000
136.69999206	0.00000000	58.54454000	17.32283000
136.89999205	0.00000000	58.50147000	16.94759000
137.09999204	0.00000000	58.54454000	16.16018000
137.29999203	0.00000000	58.91978000	15.40969000
137.49999201	0.00000000	59.70718000	14.62844000
137.69999200	0.00000000	60.45767000	14.25320000
137.89999199	0.00000000	61.24508000	14.21014000
138.09999198	0.00000000	61.57111000	14.21014000
138.29999197	0.00000000	61.24508000	14.21014000
138.49999195	0.00000000	60.45767000	14.21014000
138.69999194	0.00000000	59.70718000	14.25320000
138.89999193	0.00000000	58.91978000	14.62844000
139.09999192	0.00000000	58.54454000	15.36663000
139.29999191	0.00000000	58.50147000	15.78494000
139.49999189	0.00000000	58.54454000	16.20325000
139.69999188	0.00000000	58.91978000	16.94759000
139.89999187	0.00000000	59.66412000	17.27362000
140.09999186	0.00000000	60.08243000	16.94759000
140.29999185	0.00000000	60.45767000	16.16018000
140.49999184	0.00000000	60.82677000	15.36663000
140.69999182	0.00000000	60.45767000	14.21014000
140.89999181	0.00000000	60.12549000	13.13976000
141.09999180	0.00000000	60.03937000	13.09670000
141.29999179	0.00000000	59.66412000	13.79183000
141.49999178	0.00000000	58.96899000	14.21014000
141.69999176	0.00000000	58.91978000	14.67150000
141.89999175	0.00000000	59.28888000	15.78494000
142.09999174	0.00000000	59.29502000	16.89837000
142.29999173	0.00000000	59.70718000	17.32283000
142.49999172	0.00000000	60.03937000	17.36589000
142.69999170	0.00000000	60.08243000	17.32283000
142.89999169	0.00000000	60.08243000	16.94759000
143.09999168	0.00000000	60.08243000	16.16018000
143.29999167	0.00000000	60.03937000	15.40969000
143.49999166	0.00000000	59.66412000	14.58538000
143.69999165	0.00000000	58.96899000	13.87795000
143.89999163	0.00000000	58.96899000	13.46580000
144.09999162	0.00000000	59.66412000	13.87795000
144.29999161	0.00000000	60.03937000	14.58538000
144.49999160	0.00000000	60.08243000	15.40969000
144.69999159	0.00000000	60.08243000	16.16018000
144.89999157	0.00000000	60.08243000	16.94759000
145.09999156	0.00000000	60.08243000	17.32283000
145.29999155	0.00000000	60.03937000	17.32283000
145.49999154	0.00000000	59.66412000	16.94759000
145.69999153	0.00000000	58.91978000	16.16018000
145.89999151	0.00000000	58.54454000	15.40969000
146.09999150	0.00000000	58.50147000	14.62844000
146.29999149	0.00000000	58.54454000	14.25320000
146.49999148	0.00000000	58.91978000	14.25320000
146.69999147	0.00000000	59.66412000	14.62844000
146.89999146	0.00000000	60.03937000	15.36663000
147.09999144	0.00000000	60.08243000	15.74188000
147.29999143	0.00000000	60.08243000	15.78494000
147.49999142	0.00000000	60.08243000	15.78494000
147.69999141	0.00000000	60.03937000	15.78494000
147.89999140	0.00000000	59.66412000	15.78494000
148.09999138	0.00000000	58.91978000	15.78494000
148.29999137	0.00000000	58.54454000	15.78494000
148.49999136	0.00000000	58.50147000	15.78494000
148.69999135	0.00000000	58.50147000	15.78494000
148.89999134	0.00000000	58.54454000	15.78494000
149.09999132	0.00000000	58.91978000	15.78494000
149.29999131	0.00000000	59.66412000	15.74188000
149.49999130	0.00000000	60.03937000	15.36663000
149.69999129	0.00000000	60.08243000	14.67150000
149.89999128	0.00000000	60.08243000	14.67150000
150.09999127	0.00000000	60.08243000	15.36663000
150.29999125	0.00000000	60.08243000	15.74188000
150.49999124	0.00000000	60.08243000	15.82800000
150.69999123	0.00000000	60.03937000	16.16018000
150.89999122	0.00000000	59.66412000	16.57234000
151.09999121	0.00000000	58.91978000	16.53543000
151.29999119	0.00000000	58.54454000	16.57234000
151.49999118	0.00000000	58.50147000	16.16018000
151.69999117	0.00000000	58.54454000	15.78494000
151.89999116	0.00000000	58.91978000	15.36663000
152.09999115	0.00000000	59.66412000	14.62844000
152.29999113	0.00000000	60.03937000	14.25320000
152.49999112	0.00000000	60.08243000	14.25320000
152.69999111	0.00000000	60.08243000	14.62844000
152.89999110	0.00000000	60.08243000	15.36663000
153.09999109	0.00000000	60.08243000	15.74188000
153.29999108	0.00000000	60.08243000	15.78494000
153.49999106	0.00000000	60.03937000	15.78494000
153.69999105	0.00000000	59.66412000	15.78494000
153.89999104	0.00000000	58.91978000	15.78494000
154.09999103	0.00000000	58.54454000	15.78494000
154.29999102	0.00000000	58.50147000	15.78494000
154.49999100	0.00000000	58.50147000	15.78494000
154.69999099	0.00000000	58.54454000	15.78494000
154.89999098	0.00000000	58.91978000	15.78494000
155.09999097	0.00000000	59.66412000	15.78494000
155.29999096	0.00000000	60.03937000	15.74188000
155.49999094	0.00000000	60.08243000	15.36663000
155.69999093	0.00000000	60.08243000	14.62844000
155.89999092	0.00000000	60.08243000	14.25320000
156.09999091	0.00000000	60.08243000	14.25320000
156.29999090	0.00000000	60.08243000	14.62844000
156.49999089	0.00000000	60.03937000	15.36663000
156.69999087	0.00000000	59.66412000	15.78494000
156.89999086	0.00000000	58.91978000	16.20325000
157.09999085	0.00000000	58.54454000	16.89837000
157.29999084	0.00000000	58.50147000	16.94759000
157.49999083	0.00000000	58.50147000	16.57849000
157.69999081	0.00000000	58.50147000	16.57234000
157.89999080	0.00000000	58.54454000	16.11712000
158.09999079	0.00000000	58.91978000	15.40969000
158.29999078	0.00000000	59.66412000	14.62844000
158.49999077	0.00000000	60.03937000	14.25320000
158.69999075	0.00000000	60.08243000	14.21014000
158.89999074	0.00000000	60.08243000	14.25320000
159.09999073	0.00000000	60.03937000	14.62844000
159.29999072	0.00000000	59.70718000	15.40969000
159.49999071	0.00000000	59.29502000	16.11712000
159.69999070	0.00000000	59.28888000	16.57234000
159.89999068	0.00000000	58.87672000	16.57849000
160.09999067	0.00000000	58.54454000	16.94759000
160.29999066	0.00000000	58.50147000	16.89837000
160.49999065	0.00000000	58.50147000	16.20325000
160.69999064	0.00000000	58.50147000	15.82800000
160.89999062	0.00000000	58.50147000	15.74188000
161.09999061	0.00000000	58.54454000	15.36663000
161.29999060	0.00000000	58.91978000	14.62844000
161.49999059	0.00000000	59.66412000	14.25320000
161.69999058	0.00000000	60.03937000	14.25320000
161.89999056	0.00000000	60.08243000	14.62844000
162.09999055	0.00000000	60.08243000	15.36663000
162.29999054	0.00000000	60.08243000	15.74188000
162.49999053	0.00000000	60.08243000	15.78494000
162.69999052	0.00000000	60.08243000	15.78494000
162.89999051	0.00000000	60.03937000	15.78494000
163.09999049	0.00000000	59.66412000	15.78494000
163.29999048	0.00000000	58.91978000	15.78494000
163.49999047	0.00000000	58.54454000	15.78494000
163.69999046	0.00000000	58.50147000	15.78494000
163.89999045	0.00000000	58.45841000	15.74188000
164.09999043	0.00000000	58.16929000	15.40969000
164.29999042	0.00000000	58.18159000	15.00369000
164.49999041	0.00000000	59.28888000	15.04060000
164.69999040	0.00000000	59.99015000	14.95448000
164.89999039	0.00000000	60.08243000	15.04060000
165.09999037	0.00000000	60.08243000	15.00369000
165.29999036	0.00000000	60.08243000	15.40969000
165.49999035	0.00000000	60.08243000	15.74188000
165.69999034	0.00000000	60.03937000	15.78494000
165.89999033	0.00000000	59.66412000	15.78494000
166.09999032	0.00000000	58.91978000	15.78494000
166.29999030	0.00000000	58.54454000	15.78494000
166.49999029	0.00000000	58.50147000	15.78494000
166.69999028	0.00000000	58.50147000	15.78494000
166.89999027	0.00000000	58.50147000	15.74188000
167.09999026	0.00000000	58.50147000	15.40969000
167.29999024	0.00000000	58.50147000	15.00369000
167.49999023	0.00000000	58.54454000	15.04060000
167.69999022	0.00000000	58.91978000	15.00369000
167.89999021	0.00000000	59.66412000	15.40969000
168.09999020	0.00000000	60.03937000	15.74188000
168.29999018	0.00000000	60.08243000	15.78494000
168.49999017	0.00000000	60.08243000	15.78494000
168.69999016	0.00000000	60.03937000	15.78494000
168.89999015	0.00000000	59.66412000	15.78494000
169.09999014	0.00000000	58.91978000	15.74188000
169.29999013	0.00000000	58.54454000	15.40969000
169.49999011	0.00000000	58.50147000	15.08981000
169.69999010	0.00000000	58.50147000	15.74188000
169.89999009	0.00000000	58.50147000	16.11097000
170.09999008	0.00000000	58.50147000	15.42200000
170.29999007	0.00000000	58.50147000	15.45891000
170.49999005	0.00000000	58.50147000	15.74188000
170.69999004	0.00000000	58.54454000	15.78494000
170.89999003	0.00000000	58.91978000	15.78494000
171.09999002	0.00000000	59.66412000	15.78494000
171.29999001	0.00000000	60.03937000	15.78494000
171.49998999	0.00000000	60.08243000	15.78494000
171.69998998	0.00000000	60.03937000	15.78494000
171.89998997	0.00000000	59.66412000	15.74188000
172.09998996	0.00000000	58.91978000	15.36663000
172.29998995	0.00000000	58.54454000	14.67150000
172.49998994	0.00000000	58.50147000	14.67150000
172.69998992	0.00000000	58.54454000	15.36663000
172.89998991	0.00000000	58.87672000	15.74188000
173.09998990	0.00000000	59.24582000	15.78494000
173.29998989	0.00000000	58.91978000	15.78494000
173.49998988	0.00000000	58.91978000	15.78494000
173.69998986	0.00000000	59.24582000	15.78494000
173.89998985	0.00000000	58.87672000	15.78494000
174.09998984	0.00000000	58.59375000	15.78494000
174.29998983	0.00000000	58.87672000	15.78494000
174.49998982	0.00000000	59.24582000	15.74188000
174.69998980	0.00000000	58.87672000	15.36663000
174.89998979	0.00000000	58.54454000	14.62844000
175.09998978	0.00000000	58.50147000	14.30241000
175.29998977	0.00000000	58.50147000	14.62844000
175.49998976	0.00000000	58.50147000	15.36663000
175.69998975	0.00000000	58.50147000	15.74188000
175.89998973	0.00000000	58.50147000	15.78494000
176.09998972	0.00000000	58.50147000	15.78494000
176.29998971	0.00000000	58.50147000	15.78494000
176.49998970	0.00000000	58.50147000	15.78494000
176.69998969	0.00000000	58.50147000	15.78494000
176.89998967	0.00000000	58.50147000	15.74188000
177.09998966	0.00000000	58.50147000	15.40969000
177.29998965	0.00000000	58.50147000	15.04675000
177.49998964	0.00000000	58.50147000	15.36663000
177.69998963	0.00000000	58.50147000	15.32357000
177.89998961	0.00000000	58.50147000	14.62844000
178.09998960	0.00000000	58.50147000	14.30241000
178.29998959	0.00000000	58.50147000	14.62844000
178.49998958	0.00000000	58.50147000	15.36663000
178.69998957	0.00000000	58.50147000	15.74188000
178.89998956	0.00000000	58.50147000	15.78494000
179.09998954	0.00000000	58.50147000	15.78494000
179.29998953	0.00000000	58.50147000	15.78494000
179.49998952	0.00000000	58.54454000	15.78494000
179.69998951	0.00000000	58.87672000	15.74188000
179.89998950	0.00000000	59.24582000	15.36663000
180.09998948	0.00000000	58.87672000	14.62844000
180.29998947	0.00000000	58.54454000	14.25320000
180.49998946	0.00000000	58.50147000	14.21014000
180.69998945	0.00000000	58.50147000	14.25320000
180.89998944	0.00000000	58.50147000	14.62844000
181.09998942	0.00000000	58.50147000	15.36663000
181.29998941	0.00000000	58.50147000	15.74188000
181.49998940	0.00000000	58.50147000	15.78494000
181.69998939	0.00000000	58.50147000	15.78494000
181.89998938	0.00000000	58.50147000	15.78494000
182.09998937	0.00000000	58.50147000	15.78494000
182.29998935	0.00000000	58.50147000	15.78494000
182.49998934	0.00000000	58.50147000	15.78494000
182.69998933	0.00000000	58.50147000	15.74188000
182.89998932	0.00000000	58.50147000	15.36663000
183.09998931	0.00000000	58.50147000	14.62844000
183.29998929	0.00000000	58.50147000	14.25320000
183.49998928	0.00000000	58.50147000	14.21014000
183.69998927	0.00000000	58.50147000	14.25320000
183.89998926	0.00000000	58.50147000	14.62844000
184.09998925	0.00000000	58.50147000	15.32357000
184.29998923	0.00000000	58.50147000	15.36663000
184.49998922	0.00000000	58.50147000	15.04675000
184.69998921	0.00000000	58.50147000	15.45891000
184.89998920	0.00000000	58.50147000	16.11712000
185.09998919	0.00000000	58.50147000	16.52928000
185.29998918	0.00000000	58.50147000	16.16018000
185.49998916	0.00000000	58.50147000	15.78494000
185.69998915	0.00000000	58.50147000	15.36663000
185.89998914	0.00000000	58.50147000	14.62844000
186.09998913	0.00000000	58.54454000	14.25320000
186.29998912	0.00000000	58.87672000	14.21014000
186.49998910	0.00000000	59.24582000	14.21014000
186.69998909	0.00000000	58.87672000	14.25320000
186.89998908	0.00000000	58.54454000	14.62844000
187.09998907	0.00000000	58.50147000	15.36663000
187.29998906	0.00000000	58.50147000	15.74188000
187.49998904	0.00000000	58.50147000	15.78494000
187.69998903	0.00000000	58.50147000	15.78494000
187.89998902	0.00000000	58.50147000	15.78494000
188.09998901	0.00000000	58.50147000	15.78494000
188.29998900	0.00000000	58.50147000	15.78494000
188.49998899	0.00000000	58.50147000	15.74188000
188.69998897	0.00000000	58.50147000	15.36663000
188.89998896	0.00000000	58.50147000	14.62844000
189.09998895	0.00000000	58.50147000	14.25320000
189.29998894	0.00000000	58.50147000	14.21014000
189.49998893	0.00000000	58.50147000	14.25320000
189.69998891	0.00000000	58.50147000	14.58538000
189.89998890	0.00000000	58.50147000	14.99139000
190.09998889	0.00000000	58.50147000	15.00369000
190.29998888	0.00000000	58.50147000	15.40969000
190.49998887	0.00000000	58.50147000	15.74188000
190.69998885	0.00000000	58.50147000	15.78494000
190.89998884	0.00000000	58.50147000	15.78494000
191.09998883	0.00000000	58.50147000	15.78494000
191.29998882	0.00000000	58.50147000	15.78494000
191.49998881	0.00000000	58.50147000	15.78494000
191.69998880	0.00000000	58.50147000	15.78494000
191.89998878	0.00000000	58.54454000	15.74188000
192.09998877	0.00000000	58.87672000	15.36663000
192.29998876	0.00000000	59.24582000	14.62844000
192.49998875	0.00000000	58.87672000	14.25320000
192.69998874	0.00000000	58.54454000	14.21014000
192.89998872	0.00000000	58.50147000	14.25320000
193.09998871	0.00000000	58.45841000	14.62844000
193.29998870	0.00000000	58.08316000	15.36663000
193.49998869	0.00000000	57.38804000	15.74188000
193.69998868	0.00000000	57.38804000	15.78494000
193.89998866	0.00000000	58.08316000	15.78494000
194.09998865	0.00000000	58.45841000	15.78494000
194.29998864	0.00000000	58.50147000	15.78494000
194.49998863	0.00000000	58.54454000	15.78494000
194.69998862	0.00000000	58.87672000	15.78494000
194.89998861	0.00000000	59.24582000	15.78494000
195.09998859	0.00000000	58.87672000	15.74188000
195.29998858	0.00000000	58.54454000	15.40969000
195.49998857	0.00000000	58.50147000	15.00369000
195.69998856	0.00000000	58.50147000	14.99139000
195.89998855	0.00000000	58.50147000	14.62844000
196.09998853	0.00000000	58.45841000	14.62844000
