Time	Channel A	Channel B	Channel C
(us)	(V)	(mV)	(mV)

-4.49999956	0.00000000	60.08243000	30.00123000
-4.29999957	0.00000000	60.08243000	30.00123000
-4.09999958	0.00000000	60.08243000	30.00123000
-3.89999959	0.00000000	60.08243000	30.00123000
-3.69999960	0.00000000	60.08243000	30.00123000
-3.49999962	0.00000000	60.08243000	30.00123000
-3.29999963	0.00000000	60.08243000	30.00123000
-3.09999964	0.00000000	60.08243000	30.00123000
-2.89999965	0.00000000	60.08243000	30.00123000
-2.69999966	0.00000000	60.08243000	30.00123000
-2.49999968	0.00000000	60.08243000	30.00123000
-2.29999969	0.00000000	60.08243000	30.00123000
-2.09999970	0.00000000	60.08243000	30.00123000
-1.89999971	0.00000000	60.08243000	30.00123000
-1.69999972	0.00000000	60.08243000	30.00123000
-1.49999973	0.00000000	60.08243000	30.00123000
-1.29999975	0.00000000	60.08243000	30.00123000
-1.09999976	0.00000000	60.08243000	30.00123000
-0.89999977	0.00000000	60.08243000	30.00123000
-0.69999978	0.00000000	60.12549000	30.00123000
-0.49999979	0.00000000	60.45767000	30.00123000
-0.29999981	0.31803640	60.82677000	30.00123000
-0.09999982	0.63668800	60.45767000	30.00123000
0.10000017	0.95533960	60.12549000	30.00123000
0.30000016	0.95533960	60.08243000	30.00123000
0.50000015	0.79601380	60.08243000	30.00123000
0.70000013	0.31803640	60.08243000	30.00123000
0.90000012	-0.47736220	60.08243000	30.00123000
1.10000011	-1.59264300	60.08243000	30.00123000
1.30000010	-2.38927200	60.08243000	30.00123000
1.50000009	-2.86724900	60.08243000	30.00123000
1.70000008	-2.54859700	60.08243000	30.00123000
1.90000006	-1.43331700	60.08243000	30.00123000
2.10000005	0.47736220	60.08243000	30.00123000
2.30000004	2.54859700	60.08243000	30.00123000
2.50000003	4.30056600	60.08243000	30.00123000
2.70000002	5.25652100	60.08243000	29.95817000
2.90000000	4.93786900	60.08243000	29.58292000
3.09999999	3.02657500	60.08243000	28.88779000
3.29999998	0.00000000	60.08243000	28.88779000
3.49999997	-3.34522600	60.08243000	29.58292000
3.69999996	-6.37180100	60.08243000	29.95817000
3.89999994	-7.96444400	60.08243000	30.00123000
4.09999993	-7.48646600	60.08243000	30.04429000
4.29999992	-5.25652100	60.08243000	30.37647000
4.49999991	-1.43331700	60.08243000	30.73942000
4.69999990	3.02657500	60.08243000	30.37647000
4.89999989	7.00848900	60.08243000	30.04429000
5.09999987	9.23905000	60.08243000	30.00123000
5.29999986	9.07972400	60.08243000	29.95817000
5.49999985	6.84916400	60.08243000	29.58292000
5.69999984	2.70792300	60.08243000	28.83858000
5.89999983	-2.22994600	60.08243000	28.51255000
6.09999981	-6.53112700	60.08243000	28.83858000
6.29999980	-9.07972400	60.08243000	29.58292000
6.49999979	-9.39837600	60.08243000	29.95817000
6.69999978	-7.48646600	60.08243000	30.00123000
6.89999977	-3.66326300	60.08243000	30.00123000
7.09999975	0.79601380	60.08243000	30.00123000
7.29999974	4.61921700	60.08243000	30.00123000
7.49999973	7.16781500	60.08243000	30.00123000
7.69999972	7.80511800	60.08243000	30.00123000
7.89999971	6.37180100	60.08243000	30.00123000
8.09999970	3.50393700	60.08243000	30.00123000
8.29999968	0.15871060	60.08243000	30.00123000
8.49999967	-2.70792300	60.08243000	30.00123000
8.69999966	-4.61921700	60.08243000	30.00123000
8.89999965	-5.25652100	60.08243000	30.00123000
9.09999964	-4.45989200	60.08243000	30.00123000
9.29999962	-2.86724900	60.08243000	30.00123000
9.49999961	-0.79601380	60.08243000	30.04429000
9.69999960	0.95533960	60.08243000	30.37647000
9.89999959	2.07062000	60.08243000	30.73942000
10.09999958	2.54859700	60.08243000	30.37647000
10.29999956	2.22994600	60.08243000	30.04429000
10.49999955	1.43331700	60.08243000	30.00123000
10.69999954	0.47736220	60.08243000	30.00123000
10.89999953	-0.15871060	60.08243000	30.04429000
11.09999952	-0.79601380	60.08243000	30.37647000
11.29999951	-0.95533960	60.08243000	30.73942000
11.49999949	-0.95533960	60.08243000	30.37647000
11.69999948	-0.79601380	60.08243000	30.04429000
11.89999947	-0.47736220	60.08243000	30.00123000
12.09999946	-0.15871060	60.08243000	30.00123000
12.29999945	-0.15871060	60.08243000	30.00123000
12.49999943	-0.15871060	60.08243000	30.04429000
12.69999942	0.00000000	60.08243000	30.37647000
12.89999941	0.00000000	60.12549000	30.78248000
13.09999940	0.00000000	60.45767000	30.74557000
13.29999939	0.00000000	60.86983000	30.78248000
13.49999937	0.00000000	60.83292000	30.37647000
13.69999936	0.00000000	60.86983000	30.04429000
13.89999935	0.00000000	60.50073000	30.00123000
14.09999934	-0.15871060	60.54995000	30.00123000
14.29999933	-0.15871060	61.19586000	30.00123000
14.49999932	-0.15871060	61.24508000	30.00123000
14.69999930	-0.15871060	60.87598000	30.00123000
14.89999929	0.00000000	60.86983000	30.00123000
15.09999928	0.00000000	60.45767000	30.00123000
15.29999927	0.00000000	60.12549000	30.00123000
15.49999926	0.00000000	60.08243000	30.00123000
15.69999924	0.00000000	60.08243000	30.00123000
15.89999923	0.00000000	60.08243000	30.00123000
16.09999922	0.00000000	60.08243000	30.00123000
16.29999921	-0.15871060	60.08243000	30.00123000
16.49999920	-0.15871060	60.12549000	30.00123000
16.69999919	-0.15871060	60.50073000	30.00123000
16.89999917	-0.15871060	61.24508000	30.00123000
17.09999916	0.00000000	61.66338000	30.00123000
17.29999915	0.00000000	62.08169000	30.00123000
17.49999914	0.00000000	62.77681000	30.00123000
17.69999913	0.00000000	62.77681000	30.00123000
17.89999911	0.00000000	62.03863000	30.00123000
18.09999910	0.00000000	61.19586000	30.00123000
18.29999909	0.00000000	59.61491000	30.00123000
18.49999908	0.00000000	57.38804000	30.04429000
18.69999907	-0.15871060	55.85014000	30.37647000
18.89999905	0.00000000	55.43184000	30.73942000
19.09999904	-0.15871060	55.85014000	30.37647000
19.29999903	0.00000000	57.43110000	30.04429000
19.49999902	0.00000000	60.17470000	30.00123000
19.69999901	0.00000000	63.66264000	30.00123000
19.89999900	0.00000000	67.52583000	29.95817000
20.09999898	0.00000000	70.60162000	29.62598000
20.29999897	0.00000000	72.09030000	29.25689000
20.49999896	0.00000000	71.25368000	29.62598000
20.69999895	0.00000000	67.30437000	29.95817000
20.89999894	0.00000000	60.73450000	30.00123000
21.09999892	-0.15871060	52.64517000	30.00123000
21.29999891	0.00000000	45.33710000	30.00123000
21.49999890	0.00000000	40.72957000	30.00123000
21.69999889	0.00000000	40.03444000	30.00123000
21.89999888	0.00000000	44.35285000	30.00123000
22.09999886	0.00000000	53.28493000	30.00123000
22.29999885	0.00000000	65.29281000	30.00123000
22.49999884	0.00000000	78.03887000	30.00123000
22.69999883	0.00000000	88.37352000	30.00123000
22.89999882	0.00000000	93.30093000	30.04429000
23.09999881	-0.15871060	90.56348000	30.41954000
23.29999879	0.00000000	80.46875000	31.15772000
23.49999878	-0.15871060	64.96678000	31.57603000
23.69999877	0.00000000	46.82579000	31.99434000
23.89999876	0.00000000	30.63484000	32.68946000
24.09999875	0.00000000	20.25098000	32.68946000
24.29999873	0.00000000	18.39321000	31.95128000
24.49999872	0.00000000	26.62401000	31.11466000
24.69999871	0.00000000	43.61467000	29.58292000
24.89999870	0.00000000	65.98794000	27.67593000
25.09999869	0.00000000	87.95521000	26.51329000
25.29999867	0.00000000	104.23840000	25.72589000
25.49999866	0.00000000	111.54650000	25.81816000
25.69999865	-0.15871060	107.96010000	27.39296000
25.89999864	-0.15871060	93.25787000	30.46260000
26.09999863	0.00000000	70.50935000	34.36269000
26.29999862	0.00000000	45.42937000	38.22588000
26.49999860	0.00000000	23.79429000	41.65846000
26.69999859	0.00000000	10.67298000	43.10408000
26.89999858	0.00000000	9.13508800	41.56618000
27.09999857	0.00000000	19.55585000	37.29700000
27.29999856	0.00000000	39.60999000	31.06545000
27.49999854	0.00000000	64.27164000	23.68356000
27.69999853	0.00000000	87.48769000	16.38779000
27.89999852	0.00000000	104.15230000	11.09129000
28.09999851	0.00000000	111.12820000	9.97170200
28.29999850	0.00000000	106.88980000	13.82874000
28.49999848	0.00000000	92.65501000	21.63509000
28.69999847	0.00000000	72.22563000	32.46186000
28.89999846	0.00000000	50.54749000	44.39591000
29.09999845	0.00000000	32.34498000	54.02312000
29.29999844	0.00000000	21.09375000	59.41191000
29.49999843	0.00000000	19.09449000	58.95053000
29.69999841	0.00000000	25.97810000	51.98080000
29.89999840	0.00000000	39.52387000	39.99138000
30.09999839	0.00000000	56.92052000	25.26452000
30.29999838	0.00000000	74.32332000	10.62992000
30.49999837	0.00000000	87.86294000	-0.52288380
30.69999835	0.00000000	94.88189000	-5.12426100
30.89999834	0.00000000	94.18675000	-2.06077700
31.09999833	0.00000000	86.92790000	8.02165300
31.29999832	0.00000000	75.34448000	23.12377000
31.49999831	0.00000000	62.13090000	40.50196000
31.69999829	0.00000000	49.70472000	56.25000000
31.89999828	0.00000000	40.02829000	66.33243000
32.09999827	0.00000000	35.42076000	68.70693000
32.29999826	0.00000000	36.86639000	63.63803000
32.49999825	0.00000000	43.42396000	51.64862000
32.69999824	0.00000000	53.06348000	35.06397000
32.89999822	-0.15871060	63.89641000	18.05487000
33.09999821	0.00000000	73.16068000	3.70324800
33.29999820	0.00000000	79.02312000	-5.16732200
33.49999819	0.00000000	80.60408000	-6.70521600
33.69999818	0.00000000	77.90354000	-0.52288380
33.89999816	0.00000000	71.75812000	12.20472000
34.09999815	0.00000000	63.66264000	28.42027000
34.29999814	0.00000000	55.93627000	44.63582000
34.49999813	0.00000000	50.12303000	57.36958000
34.69999812	0.00000000	47.42864000	63.59498000
34.89999810	0.00000000	48.54207000	62.48154000
35.09999809	0.00000000	52.73130000	54.76132000
35.29999808	0.00000000	58.50147000	42.03371000
35.49999807	0.00000000	64.31471000	27.39296000
35.69999806	0.00000000	68.92839000	14.24705000
35.89999805	0.00000000	71.20448000	5.37032500
36.09999803	0.00000000	70.09104000	2.67593500
36.29999802	0.00000000	66.32012000	6.85900500
36.49999801	0.00000000	61.70644000	16.43085000
36.69999800	0.00000000	57.43110000	28.37721000
36.89999799	0.00000000	54.35531000	39.94832000
37.09999797	-0.15871060	53.19881000	48.40059000
37.29999796	0.00000000	54.40452000	51.47023000
37.49999795	0.00000000	57.80634000	48.44980000
37.69999794	0.00000000	62.40772000	40.45890000
37.89999793	0.00000000	66.27091000	30.46875000
38.09999791	0.00000000	69.06373000	21.25984000
38.29999790	0.00000000	70.55856000	15.13287000
38.49999789	0.00000000	70.13410000	14.38238000
38.69999788	0.00000000	67.43970000	18.94070000
38.89999787	0.00000000	63.24434000	27.34990000
39.09999786	0.00000000	58.96899000	36.87869000
39.29999784	0.00000000	55.43184000	44.17446000
39.49999783	-0.15871060	52.73130000	47.28715000
39.69999782	0.00000000	51.61786000	45.70620000
39.89999781	-0.15871060	52.77436000	39.57308000
40.09999780	0.00000000	55.85014000	30.37647000
40.29999778	0.00000000	60.12549000	21.16757000
40.49999777	0.00000000	64.73917000	14.24705000
40.69999776	0.00000000	68.64542000	11.64493000
40.89999775	0.00000000	70.97687000	14.66535000
41.09999774	0.00000000	71.76427000	22.33022000
41.29999772	0.00000000	70.60162000	31.90822000
41.49999771	0.00000000	67.90108000	41.19094000
41.69999770	0.00000000	64.36392000	47.66240000
41.89999769	-0.15871060	60.12549000	49.64936000
42.09999768	0.00000000	56.31151000	46.59203000
42.29999767	0.00000000	54.31225000	40.07751000
42.49999765	0.00000000	53.89394000	31.62524000
42.69999764	0.00000000	54.64444000	23.54207000
42.89999763	0.00000000	56.63754000	18.09793000
43.09999762	0.00000000	59.29502000	15.73573000
43.29999761	0.00000000	62.40772000	16.94144000
43.49999759	0.00000000	64.68996000	21.49975000
43.69999758	0.00000000	65.89567000	28.00197000
43.89999757	0.00000000	65.93873000	34.18430000
44.09999756	0.00000000	65.20053000	38.82874000
44.29999755	0.00000000	64.45004000	41.14788000
44.49999753	0.00000000	63.66264000	40.45275000
44.69999752	0.00000000	63.33661000	37.80758000
44.89999751	0.00000000	63.61958000	34.31963000
45.09999750	0.00000000	63.98867000	30.41954000
45.29999749	0.00000000	63.52731000	26.97465000
45.49999748	0.00000000	62.35851000	24.65551000
45.69999746	0.00000000	59.99015000	24.28026000
45.89999745	0.00000000	56.96358000	25.77510000
46.09999744	0.00000000	54.26919000	28.42027000
46.29999743	0.00000000	52.73130000	31.15772000
46.49999742	0.00000000	52.77436000	33.43996000
46.69999740	0.00000000	54.77977000	35.05782000
46.89999739	0.00000000	59.09818000	35.39616000
47.09999738	0.00000000	65.24360000	35.05782000
47.29999737	0.00000000	71.75812000	33.43996000
47.49999736	0.00000000	76.37180000	31.20078000
47.69999734	0.00000000	77.90354000	28.83858000
47.89999733	0.00000000	75.94734000	26.93159000
48.09999732	0.00000000	70.50935000	25.77510000
48.29999731	0.00000000	62.78297000	25.77510000
48.49999730	0.00000000	54.26919000	26.93159000
48.69999729	-0.15871060	47.01033000	28.88164000
48.89999727	0.00000000	43.14714000	31.57603000
49.09999726	0.00000000	43.93454000	34.27042000
49.29999725	0.00000000	48.96653000	36.22662000
49.49999724	0.00000000	57.47416000	37.34006000
49.69999723	0.00000000	67.48277000	36.92175000
49.89999721	0.00000000	76.32258000	34.60261000
50.09999720	0.00000000	81.67445000	31.15772000
50.29999719	0.00000000	81.67445000	27.30684000
50.49999718	0.00000000	76.32258000	24.23720000
50.69999717	0.00000000	67.52583000	22.65625000
50.89999715	0.00000000	57.84941000	22.65625000
51.09999714	0.00000000	49.74778000	24.23720000
51.29999713	0.00000000	44.72810000	27.34990000
51.49999712	0.00000000	44.40207000	31.57603000
51.69999711	0.00000000	48.96653000	35.75910000
51.89999710	0.00000000	57.01279000	38.50270000
52.09999708	0.00000000	65.85260000	39.29626000
52.29999707	0.00000000	73.16068000	38.50270000
52.49999706	0.00000000	77.02386000	35.80217000
52.69999705	0.00000000	76.27953000	31.95128000
52.89999704	0.00000000	71.71505000	28.08809000
53.09999702	0.00000000	64.78223000	24.65551000
53.29999701	0.00000000	57.47416000	23.12377000
53.49999700	0.00000000	51.70398000	23.81890000
53.69999699	0.00000000	49.00959000	25.72589000
53.89999698	0.00000000	50.17224000	28.46333000
54.09999696	0.00000000	54.77977000	31.48991000
54.29999695	0.00000000	61.66338000	33.80905000
54.49999694	0.00000000	68.51008000	34.60261000
54.69999693	0.00000000	72.83464000	34.27042000
54.89999692	0.00000000	74.00344000	33.11393000
55.09999691	0.00000000	72.45940000	31.57603000
55.29999689	0.00000000	67.81496000	30.04429000
55.49999688	0.00000000	61.75566000	28.97392000
55.69999687	0.00000000	56.31151000	29.34916000
55.89999686	0.00000000	52.82357000	31.20078000
56.09999685	0.00000000	51.70398000	33.06471000
56.29999683	0.00000000	53.61712000	34.22736000
56.49999682	0.00000000	58.16929000	34.22736000
56.69999681	0.00000000	63.20127000	33.06471000
56.89999680	0.00000000	67.81496000	31.06545000
57.09999679	0.00000000	70.92150000	28.04503000
57.29999677	0.00000000	71.30290000	25.03076000
57.49999676	0.00000000	69.85113000	23.90502000
57.69999675	0.00000000	66.69537000	24.65551000
57.89999674	0.00000000	62.91216000	27.39296000
58.09999673	0.00000000	59.38730000	31.61909000
58.29999672	0.00000000	57.09892000	36.22662000
58.49999670	0.00000000	56.31151000	40.07751000
58.69999669	0.00000000	57.43110000	41.94144000
58.89999668	0.00000000	59.70718000	41.19094000
59.09999667	0.00000000	62.03863000	37.67224000
59.29999666	0.00000000	64.35777000	32.32037000
59.49999664	0.00000000	65.89567000	26.14419000
59.69999663	0.00000000	66.31397000	21.16757000
59.89999662	0.00000000	65.93873000	18.47318000
60.09999661	0.00000000	64.78223000	18.89148000
60.29999660	-0.15871060	63.28740000	22.74852000
60.49999658	0.00000000	62.08169000	28.88164000
60.69999657	0.00000000	61.33120000	35.85138000
60.89999656	0.00000000	60.96825000	41.98450000
61.09999655	0.00000000	61.70644000	45.79232000
61.29999654	0.00000000	62.77681000	45.79232000
61.49999653	0.00000000	63.24434000	41.98450000
61.69999651	0.00000000	63.61958000	35.80217000
61.89999650	0.00000000	63.93946000	28.46333000
62.09999649	0.00000000	63.20127000	21.54281000
62.29999648	0.00000000	62.08169000	16.89222000
62.49999647	0.00000000	61.28814000	15.36048000
62.69999645	-0.15871060	60.54995000	17.31053000
62.89999644	0.00000000	60.54995000	22.69931000
63.09999643	0.00000000	61.28814000	30.00123000
63.29999642	0.00000000	62.08169000	37.34006000
63.49999641	0.00000000	63.24434000	43.14714000
63.69999639	0.00000000	64.35777000	46.16756000
63.89999638	0.00000000	64.78223000	45.42323000
64.09999637	0.00000000	64.78223000	40.87721000
64.29999636	0.00000000	64.35777000	34.73794000
64.49999635	0.00000000	63.20127000	28.46333000
64.69999634	0.00000000	61.70644000	22.69931000
64.89999632	0.00000000	60.54995000	18.84842000
65.09999631	0.00000000	60.17470000	18.01181000
65.29999630	0.00000000	60.54995000	19.50049000
65.49999629	0.00000000	61.66338000	22.65625000
65.69999628	0.00000000	62.82603000	27.30684000
65.89999626	0.00000000	63.57652000	32.68946000
66.09999625	0.00000000	63.98867000	37.29700000
66.29999624	0.00000000	63.57652000	40.08366000
66.49999623	0.00000000	62.82603000	40.87721000
66.69999622	0.00000000	61.66338000	40.12672000
66.89999620	0.00000000	60.54995000	37.80758000
67.09999619	0.00000000	60.17470000	34.73794000
67.29999618	0.00000000	60.54995000	31.57603000
67.49999617	0.00000000	61.75566000	28.46333000
67.69999616	0.00000000	63.66264000	25.72589000
67.89999615	0.00000000	65.94488000	23.72662000
68.09999613	0.00000000	67.48277000	22.23794000
68.29999612	0.00000000	67.85802000	21.87500000
68.49999611	0.00000000	67.01525000	23.40059000
68.69999610	0.00000000	64.31471000	25.77510000
68.89999609	0.00000000	60.50073000	29.34916000
69.09999607	0.00000000	57.05585000	34.27042000
69.29999606	0.00000000	54.68750000	38.50270000
69.49999605	0.00000000	53.93700000	40.87721000
69.69999604	0.00000000	54.77977000	41.65846000
69.89999603	0.00000000	57.89247000	40.45275000
70.09999601	0.00000000	62.86909000	37.38312000
70.29999600	0.00000000	67.90108000	33.06471000
70.49999599	0.00000000	72.13951000	28.08809000
70.69999598	0.00000000	74.41560000	23.44980000
70.89999597	0.00000000	73.67126000	20.74926000
71.09999596	0.00000000	70.60162000	19.96801000
71.29999594	0.00000000	65.94488000	21.54281000
71.49999593	0.00000000	60.50073000	25.39985000
71.69999592	0.00000000	55.51796000	30.37647000
71.89999591	0.00000000	52.03617000	35.38385000
72.09999590	0.00000000	51.28568000	38.87795000
72.29999588	-0.15871060	53.14960000	40.45890000
72.49999587	0.00000000	57.05585000	40.08366000
72.69999586	0.00000000	62.08169000	37.75836000
72.89999585	0.00000000	67.48277000	34.31963000
73.09999584	0.00000000	71.71505000	30.51181000
73.29999582	0.00000000	73.72047000	27.81127000
73.49999581	0.00000000	73.72047000	26.97465000
73.69999580	0.00000000	71.71505000	27.30684000
73.89999579	0.00000000	67.52583000	28.46333000
74.09999578	0.00000000	62.54921000	30.00123000
74.29999577	0.00000000	58.63681000	31.48991000
74.49999575	0.00000000	55.89320000	32.27116000
74.69999574	0.00000000	54.77977000	31.90822000
74.89999573	0.00000000	55.89320000	31.15772000
75.09999572	-0.15871060	58.54454000	30.00123000
75.29999571	0.00000000	61.66338000	28.93085000
75.49999569	0.00000000	64.73917000	28.97392000
75.69999568	0.00000000	67.06447000	30.51181000
75.89999567	0.00000000	67.85802000	33.15699000
76.09999566	0.00000000	67.52583000	35.80217000
76.29999565	0.00000000	66.36318000	37.34006000
76.49999563	0.00000000	64.86835000	37.34006000
76.69999562	0.00000000	63.66264000	35.80217000
76.89999561	0.00000000	62.91216000	33.06471000
77.09999560	0.00000000	62.50000000	29.58292000
77.29999559	0.00000000	62.86909000	25.72589000
77.49999558	0.00000000	63.24434000	22.65625000
77.69999556	0.00000000	63.57652000	21.16757000
77.89999555	0.00000000	63.56421000	22.01033000
78.09999554	0.00000000	62.41388000	25.81816000
78.29999553	0.00000000	61.33120000	31.15772000
78.49999552	0.00000000	60.54995000	36.17741000
78.69999550	0.00000000	60.59301000	40.07751000
78.89999549	0.00000000	61.75566000	41.99065000
79.09999548	0.00000000	63.66264000	41.61540000
79.29999547	0.00000000	65.94488000	38.92101000
79.49999546	0.00000000	67.48277000	34.69488000
79.69999544	0.00000000	67.90108000	30.04429000
79.89999543	0.00000000	67.52583000	25.77510000
80.09999542	0.00000000	66.32012000	22.65625000
80.29999541	0.00000000	64.35777000	21.12451000
80.49999540	0.00000000	61.66338000	21.49975000
80.69999539	0.00000000	59.01205000	23.81890000
80.89999537	0.00000000	57.47416000	27.25763000
81.09999536	0.00000000	57.43110000	31.11466000
81.29999535	0.00000000	58.59375000	34.22736000
81.49999534	0.00000000	60.54995000	36.22662000
81.69999533	0.00000000	63.24434000	37.42618000
81.89999531	0.00000000	65.89567000	37.80142000
82.09999530	0.00000000	67.48277000	37.38312000
82.29999529	0.00000000	67.90108000	35.80217000
82.49999528	0.00000000	67.48277000	33.15699000
82.69999527	0.00000000	65.94488000	30.41954000
82.89999525	0.00000000	63.66264000	28.04503000
83.09999524	0.00000000	61.75566000	25.72589000
83.29999523	0.00000000	60.54995000	24.19414000
83.49999522	0.00000000	60.17470000	23.81890000
83.69999521	0.00000000	60.54995000	24.61245000
83.89999520	0.00000000	61.66338000	26.93159000
84.09999518	0.00000000	62.82603000	30.04429000
84.29999517	0.00000000	63.61958000	33.53223000
84.49999516	0.00000000	64.40699000	37.01402000
84.69999515	0.00000000	64.78223000	39.29626000
84.89999514	0.00000000	64.82529000	40.08366000
85.09999512	0.00000000	64.82529000	38.87795000
85.29999511	0.00000000	64.78223000	35.80217000
85.49999510	0.00000000	64.45004000	31.57603000
85.69999509	0.00000000	64.08095000	27.34990000
85.89999508	0.00000000	64.40699000	24.23720000
86.09999506	0.00000000	64.35777000	22.65625000
86.29999505	0.00000000	63.61958000	22.69931000
86.49999504	0.00000000	62.82603000	24.65551000
86.69999503	0.00000000	61.66338000	28.51255000
86.89999502	0.00000000	60.59301000	33.11393000
87.09999501	0.00000000	60.54995000	37.38312000
87.29999499	0.00000000	61.28814000	40.40969000
87.49999498	0.00000000	62.08169000	41.19709000
87.69999497	0.00000000	63.28740000	39.29626000
87.89999496	0.00000000	64.78223000	35.85138000
88.09999495	0.00000000	65.93873000	31.53297000
88.29999493	0.00000000	66.36318000	26.97465000
88.49999492	0.00000000	66.36318000	23.49286000
88.69999491	0.00000000	65.93873000	22.37328000
88.89999490	0.00000000	64.78223000	23.49286000
89.09999489	0.00000000	63.28740000	27.01772000
89.29999487	0.00000000	62.08169000	31.95128000
89.49999486	0.00000000	61.33120000	36.96481000
89.69999485	0.00000000	60.96825000	40.36663000
89.89999484	-0.15871060	61.70644000	41.19709000
90.09999483	0.00000000	62.82603000	39.24704000
90.29999482	0.00000000	63.61958000	35.43307000
90.49999480	0.00000000	64.40699000	30.41954000
90.69999479	-0.15871060	64.73302000	25.81816000
90.89999478	0.00000000	64.45004000	22.70546000
91.09999477	0.00000000	64.03790000	21.58587000
91.29999476	0.00000000	64.03174000	23.16683000
91.49999474	0.00000000	63.66264000	27.34990000
91.69999473	0.00000000	63.71186000	32.68946000
91.89999472	0.00000000	64.40699000	37.34006000
92.09999471	0.00000000	64.78223000	40.40969000
92.29999470	0.00000000	64.82529000	41.14788000
92.49999468	0.00000000	64.78223000	38.87795000
92.69999467	0.00000000	64.35777000	34.69488000
92.89999466	0.00000000	63.20127000	30.04429000
93.09999465	0.00000000	61.70644000	25.81816000
93.29999464	0.00000000	60.54995000	23.12377000
93.49999463	0.00000000	60.17470000	22.74852000
93.69999461	0.00000000	60.54995000	24.65551000
93.89999460	0.00000000	61.75566000	28.51255000
94.09999459	0.00000000	63.66264000	33.06471000
94.29999458	0.00000000	65.98794000	36.92175000
94.49999457	0.00000000	67.90108000	38.82874000
94.69999455	-0.15871060	69.06373000	38.50270000
94.89999454	0.00000000	69.06373000	36.17741000
95.09999453	0.00000000	67.85802000	32.73868000
95.29999452	0.00000000	65.52657000	28.88779000
95.49999451	0.00000000	62.08169000	25.81816000
95.69999449	0.00000000	59.01205000	24.28026000
95.89999448	0.00000000	57.05585000	24.65551000
96.09999447	0.00000000	56.31151000	26.93159000
96.29999446	0.00000000	57.47416000	30.00123000
96.49999445	0.00000000	60.17470000	33.11393000
96.69999444	0.00000000	63.66264000	35.75910000
96.89999442	0.00000000	67.52583000	36.92175000
97.09999441	0.00000000	70.60162000	36.17741000
97.29999440	0.00000000	72.18258000	34.31963000
97.49999439	0.00000000	72.18258000	31.99434000
97.69999438	0.00000000	70.60162000	30.08735000
97.89999436	0.00000000	67.48277000	28.88779000
98.09999435	0.00000000	63.29355000	28.51255000
98.29999434	0.00000000	59.38730000	28.83858000
98.49999433	0.00000000	56.68061000	29.62598000
98.69999432	0.00000000	55.10580000	30.37647000
98.89999430	0.00000000	55.56717000	31.15772000
99.09999429	0.00000000	57.80634000	31.57603000
99.29999428	0.00000000	61.28814000	31.99434000
99.49999427	0.00000000	64.82529000	32.73868000
99.69999426	0.00000000	68.31938000	33.11393000
99.89999425	0.00000000	71.33981000	33.15699000
100.09999423	0.00000000	72.13951000	33.15699000
100.29999422	0.00000000	71.06299000	33.15699000
100.49999421	0.00000000	69.10678000	33.11393000
100.69999420	0.00000000	66.36318000	32.73868000
100.89999419	0.00000000	63.24434000	31.90822000
101.09999417	0.00000000	60.17470000	30.73942000
101.29999416	0.00000000	57.89247000	28.83858000
101.49999415	0.00000000	57.47416000	27.34990000
101.69999414	0.00000000	58.54454000	26.93159000
101.89999413	0.00000000	60.12549000	27.34990000
102.09999411	0.00000000	62.08169000	28.93085000
102.29999410	0.00000000	64.40699000	31.57603000
102.49999409	0.00000000	66.36318000	34.31963000
102.69999408	-0.15871060	67.94415000	36.60187000
102.89999407	0.00000000	69.06373000	38.12746000
103.09999406	0.00000000	69.02066000	37.71530000
103.29999404	0.00000000	67.52583000	35.85138000
103.49999403	0.00000000	65.24360000	33.11393000
103.69999402	0.00000000	63.28740000	30.04429000
103.89999401	0.00000000	61.70644000	27.34990000
104.09999400	0.00000000	60.54995000	25.81816000
104.29999398	0.00000000	60.17470000	25.81816000
104.49999397	0.00000000	60.54995000	27.34990000
104.69999396	-0.15871060	61.70644000	30.00123000
104.89999395	0.00000000	63.24434000	32.73868000
105.09999394	0.00000000	64.78223000	35.06397000
105.29999392	0.00000000	65.98794000	36.96481000
105.49999391	0.00000000	66.73843000	37.34006000
105.69999390	0.00000000	67.10752000	36.22662000
105.89999389	0.00000000	66.32012000	34.27042000
106.09999388	0.00000000	64.82529000	31.62524000
106.29999387	0.00000000	63.28740000	29.29995000
106.49999385	0.00000000	62.17396000	28.13730000
106.69999384	-0.15871060	62.17396000	27.72515000
106.89999383	0.00000000	63.24434000	28.55561000
107.09999382	0.00000000	64.40699000	30.41954000
107.29999381	0.00000000	65.20053000	32.69562000
107.49999379	0.00000000	65.98794000	34.22736000
107.69999378	0.00000000	66.31397000	34.64567000
107.89999377	-0.15871060	65.98794000	34.27042000
108.09999376	0.00000000	65.20053000	33.11393000
108.29999375	0.00000000	64.40699000	31.57603000
108.49999374	0.00000000	63.24434000	30.04429000
108.69999372	0.00000000	62.13090000	28.88779000
108.89999371	0.00000000	61.75566000	28.51255000
109.09999370	0.00000000	62.08169000	28.88779000
109.29999369	0.00000000	62.91216000	30.04429000
109.49999368	0.00000000	64.03790000	31.57603000
109.69999366	0.00000000	65.56963000	33.11393000
109.89999365	0.00000000	66.31397000	34.27042000
110.09999364	0.00000000	66.40624000	34.64567000
110.29999363	0.00000000	66.36318000	34.22736000
110.49999362	0.00000000	65.93873000	32.73868000
110.69999360	0.00000000	64.82529000	30.83784000
110.89999359	0.00000000	63.66264000	29.66904000
111.09999358	0.00000000	62.91216000	28.83858000
111.29999357	0.00000000	62.50000000	28.46333000
111.49999356	0.00000000	62.86909000	28.46333000
111.69999355	0.00000000	63.24434000	28.88779000
111.89999353	-0.15871060	63.66264000	30.00123000
112.09999352	0.00000000	64.40699000	31.15772000
112.29999351	0.00000000	64.78223000	31.95128000
112.49999350	0.00000000	64.86835000	32.73868000
112.69999349	0.00000000	65.20053000	33.11393000
112.89999347	0.00000000	65.56963000	33.11393000
113.09999346	0.00000000	65.20053000	32.73868000
113.29999345	0.00000000	64.86835000	31.99434000
113.49999344	0.00000000	64.78223000	31.61909000
113.69999343	0.00000000	64.45004000	31.53297000
113.89999341	0.00000000	64.08095000	31.20078000
114.09999340	0.00000000	64.40699000	30.79478000
114.29999339	0.00000000	64.35777000	30.78248000
114.49999338	0.00000000	63.71186000	30.37647000
114.69999337	0.00000000	63.71186000	30.04429000
114.89999336	0.00000000	64.40699000	30.00123000
115.09999334	0.00000000	64.78223000	30.00123000
115.29999333	0.00000000	64.82529000	30.04429000
115.49999332	0.00000000	64.82529000	30.41954000
115.69999331	0.00000000	64.82529000	31.20078000
115.89999330	0.00000000	64.82529000	31.99434000
116.09999328	0.00000000	64.82529000	33.15699000
116.29999327	0.00000000	64.78223000	34.22736000
116.49999326	0.00000000	64.40699000	34.27042000
116.69999325	0.00000000	63.71186000	33.53223000
116.89999324	0.00000000	63.71186000	32.78174000
117.09999322	0.00000000	64.40699000	31.95128000
117.29999321	0.00000000	64.82529000	31.20078000
117.49999320	0.00000000	65.24360000	30.41954000
117.69999319	0.00000000	65.98794000	30.04429000
117.89999318	0.00000000	66.36318000	30.00123000
118.09999317	0.00000000	66.40624000	30.04429000
118.29999315	0.00000000	66.36318000	30.46260000
118.49999314	0.00000000	65.93873000	31.57603000
118.69999313	0.00000000	64.78223000	32.68946000
118.89999312	0.00000000	63.33661000	33.15699000
119.09999311	0.00000000	62.50000000	33.57529000
119.29999309	0.00000000	62.49385000	34.31963000
119.49999308	0.00000000	62.50000000	34.64567000
119.69999307	0.00000000	63.28740000	34.31963000
119.89999306	0.00000000	64.45004000	33.53223000
120.09999305	0.00000000	65.61884000	32.78174000
120.29999303	0.00000000	67.15059000	31.99434000
120.49999302	0.00000000	67.90108000	31.57603000
120.69999301	0.00000000	67.95029000	31.20078000
120.89999300	0.00000000	67.57505000	30.83784000
121.09999299	0.00000000	66.78149000	31.20078000
121.29999298	0.00000000	65.98794000	31.53297000
121.49999296	0.00000000	64.78223000	31.57603000
121.69999295	0.00000000	63.28740000	31.57603000
121.89999294	0.00000000	62.13090000	31.61909000
122.09999293	0.00000000	61.75566000	31.99434000
122.29999292	0.00000000	62.13090000	32.73868000
122.49999290	0.00000000	63.24434000	33.11393000
122.69999289	0.00000000	64.40699000	33.15699000
122.89999288	0.00000000	65.24360000	33.15699000
123.09999287	0.00000000	66.40624000	33.11393000
123.29999286	0.00000000	67.52583000	32.73868000
123.49999284	0.00000000	67.90108000	31.99434000
123.69999283	0.00000000	67.57505000	31.61909000
123.89999282	0.00000000	66.78149000	31.53297000
124.09999281	0.00000000	66.03100000	31.15772000
124.29999280	0.00000000	65.20053000	30.41954000
124.49999279	0.00000000	64.45004000	30.09350000
124.69999277	0.00000000	63.66264000	30.41954000
124.89999276	0.00000000	63.28740000	31.15772000
125.09999275	0.00000000	63.24434000	31.57603000
125.29999274	0.00000000	63.28740000	31.99434000
125.49999273	0.00000000	63.66264000	32.73868000
125.69999271	0.00000000	64.45004000	33.11393000
125.89999270	0.00000000	65.20053000	33.15699000
126.09999269	0.00000000	66.03100000	33.11393000
126.29999268	0.00000000	66.78149000	32.73868000
126.49999267	0.00000000	67.52583000	31.99434000
126.69999265	0.00000000	67.48277000	31.57603000
126.89999264	0.00000000	66.40624000	31.15772000
127.09999263	0.00000000	65.24360000	30.41954000
127.29999262	0.00000000	64.40699000	30.04429000
127.49999261	0.00000000	63.24434000	30.00123000
127.69999260	0.00000000	62.13090000	30.04429000
127.89999258	0.00000000	61.75566000	30.41954000
128.09999257	0.00000000	62.13090000	31.15772000
128.29999256	0.00000000	63.28740000	31.57603000
128.49999255	0.00000000	64.78223000	31.95128000
128.69999254	0.00000000	65.98794000	32.32037000
128.89999252	0.00000000	66.73843000	31.95128000
129.09999251	0.00000000	67.15059000	31.61909000
129.29999250	0.00000000	66.73843000	31.53297000
129.49999249	0.00000000	65.98794000	31.20078000
129.69999248	0.00000000	64.82529000	30.83784000
129.89999246	0.00000000	63.71186000	31.20078000
130.09999245	0.00000000	63.28740000	31.53297000
130.29999244	0.00000000	63.24434000	31.57603000
130.49999243	0.00000000	63.28740000	31.61909000
130.69999242	0.00000000	63.66264000	31.99434000
130.89999241	0.00000000	64.45004000	32.73868000
131.09999239	0.00000000	65.20053000	33.06471000
131.29999238	0.00000000	65.98794000	32.73868000
131.49999237	0.00000000	66.36318000	31.99434000
131.69999236	0.00000000	66.36318000	31.61909000
131.89999235	0.00000000	65.98794000	31.53297000
132.09999233	0.00000000	65.24360000	31.20078000
132.29999232	0.00000000	64.86835000	30.83784000
132.49999231	0.00000000	64.82529000	31.20078000
132.69999230	0.00000000	64.82529000	31.57603000
132.89999229	0.00000000	64.82529000	31.99434000
133.09999227	0.00000000	64.82529000	32.73868000
133.29999226	0.00000000	64.82529000	33.11393000
133.49999225	0.00000000	64.82529000	33.15699000
133.69999224	0.00000000	64.82529000	33.15699000
133.89999223	0.00000000	64.82529000	33.11393000
134.09999222	0.00000000	64.82529000	32.73868000
134.29999220	0.00000000	64.82529000	31.99434000
134.49999219	0.00000000	64.86835000	31.57603000
134.69999218	0.00000000	65.24360000	31.15772000
134.89999217	0.00000000	65.98794000	30.46260000
135.09999216	0.00000000	66.36318000	30.46260000
135.29999214	0.00000000	66.40624000	31.15772000
135.49999213	0.00000000	66.36318000	31.57603000
135.69999212	0.00000000	65.98794000	31.99434000
135.89999211	0.00000000	65.24360000	32.73868000
136.09999210	0.00000000	64.82529000	33.11393000
136.29999208	0.00000000	64.45004000	33.15699000
136.49999207	0.00000000	64.08095000	33.15699000
136.69999206	0.00000000	64.45004000	33.15699000
136.89999205	0.00000000	64.82529000	33.11393000
137.09999204	0.00000000	65.24360000	32.73868000
137.29999203	0.00000000	65.98794000	31.99434000
137.49999201	0.00000000	66.36318000	31.57603000
137.69999200	0.00000000	66.40624000	31.15772000
137.89999199	-0.15871060	66.40624000	30.41954000
138.09999198	0.00000000	66.36318000	30.09350000
138.29999197	0.00000000	65.93873000	30.41954000
138.49999195	0.00000000	64.86835000	31.15772000
138.69999194	0.00000000	64.13016000	31.57603000
138.89999193	0.00000000	64.45004000	31.99434000
139.09999192	0.00000000	64.78223000	32.73868000
139.29999191	0.00000000	64.86835000	33.11393000
139.49999189	0.00000000	65.24360000	33.15699000
139.69999188	0.00000000	65.98794000	33.15699000
139.89999187	-0.15871060	66.36318000	33.11393000
140.09999186	0.00000000	66.40624000	32.73868000
140.29999185	0.00000000	66.40624000	31.95128000
140.49999184	0.00000000	66.36318000	31.20078000
140.69999182	0.00000000	65.98794000	30.41954000
140.89999181	0.00000000	65.24360000	30.04429000
141.09999180	0.00000000	64.86835000	30.04429000
141.29999179	0.00000000	64.82529000	30.41954000
141.49999178	0.00000000	64.82529000	31.20078000
141.69999176	0.00000000	64.86835000	31.95128000
141.89999175	0.00000000	65.24360000	32.73868000
142.09999174	0.00000000	65.98794000	33.11393000
142.29999173	0.00000000	66.36318000	33.15699000
142.49999172	0.00000000	66.36318000	33.11393000
142.69999170	0.00000000	65.98794000	32.73868000
142.89999169	0.00000000	65.24360000	31.99434000
143.09999168	0.00000000	64.86835000	31.57603000
143.29999167	0.00000000	64.82529000	31.15772000
143.49999166	0.00000000	64.82529000	30.41954000
143.69999165	0.00000000	64.86835000	30.09350000
143.89999163	-0.15871060	65.24360000	30.41954000
144.09999162	0.00000000	65.98794000	31.15772000
144.29999161	0.00000000	66.36318000	31.57603000
144.49999160	0.00000000	66.40624000	31.99434000
144.69999159	0.00000000	66.40624000	32.73868000
144.89999157	0.00000000	66.40624000	33.11393000
145.09999156	-0.15871060	66.36318000	33.15699000
145.29999155	0.00000000	65.98794000	33.11393000
145.49999154	-0.15871060	65.24360000	32.73868000
145.69999153	0.00000000	64.86835000	31.99434000
145.89999151	0.00000000	64.82529000	31.61909000
146.09999150	0.00000000	64.86835000	31.57603000
146.29999149	0.00000000	65.24360000	31.57603000
146.49999148	0.00000000	65.98794000	31.57603000
146.69999147	0.00000000	66.36318000	31.57603000
146.89999146	0.00000000	66.40624000	31.57603000
147.09999144	0.00000000	66.40624000	31.61909000
147.29999143	0.00000000	66.40624000	31.99434000
147.49999142	0.00000000	66.36318000	32.73868000
147.69999141	0.00000000	65.98794000	33.11393000
147.89999140	0.00000000	65.24360000	33.11393000
148.09999138	0.00000000	64.86835000	32.73868000
148.29999137	0.00000000	64.82529000	31.99434000
148.49999136	0.00000000	64.82529000	31.61909000
148.69999135	0.00000000	64.86835000	31.57603000
148.89999134	0.00000000	65.24360000	31.57603000
149.09999132	-0.15871060	65.98794000	31.57603000
149.29999131	0.00000000	66.36318000	31.57603000
149.49999130	0.00000000	66.40624000	31.61909000
149.69999129	0.00000000	66.40624000	31.99434000
149.89999128	0.00000000	66.40624000	32.73868000
150.09999127	0.00000000	66.40624000	33.11393000
150.29999125	0.00000000	66.40624000	33.15699000
150.49999124	0.00000000	66.40624000	33.15699000
150.69999123	0.00000000	66.36318000	33.15699000
150.89999122	0.00000000	65.98794000	33.15699000
151.09999121	0.00000000	65.29281000	33.15699000
151.29999119	0.00000000	65.24360000	33.11393000
151.49999118	0.00000000	65.61269000	32.78174000
151.69999117	0.00000000	65.61884000	32.41265000
151.89999116	0.00000000	66.03100000	32.78174000
152.09999115	0.00000000	66.40624000	33.11393000
152.29999113	0.00000000	66.82455000	33.15699000
152.49999112	0.00000000	67.57505000	33.15699000
152.69999111	0.00000000	67.90108000	33.15699000
152.89999110	0.00000000	67.57505000	33.15699000
153.09999109	0.00000000	66.82455000	33.15699000
153.29999108	0.00000000	66.44931000	33.15699000
153.49999106	0.00000000	66.36318000	33.15699000
153.69999105	0.00000000	65.98794000	33.15699000
153.89999104	0.00000000	65.24360000	33.15699000
154.09999103	0.00000000	64.86835000	33.15699000
154.29999102	0.00000000	64.86835000	33.15699000
154.49999100	0.00000000	65.24360000	33.11393000
154.69999099	0.00000000	65.98794000	32.73868000
154.89999098	0.00000000	66.36318000	31.99434000
155.09999097	0.00000000	66.44931000	31.61909000
155.29999096	0.00000000	66.78149000	31.57603000
155.49999094	0.00000000	67.15059000	31.57603000
155.69999093	0.00000000	66.78149000	31.57603000
155.89999092	0.00000000	66.44931000	31.57603000
156.09999091	0.00000000	66.36318000	31.57603000
156.29999090	-0.15871060	65.98794000	31.61909000
156.49999089	0.00000000	65.24360000	31.99434000
156.69999087	0.00000000	64.86835000	32.73868000
156.89999086	0.00000000	64.82529000	33.11393000
157.09999085	0.00000000	64.82529000	33.11393000
157.29999084	-0.15871060	64.82529000	32.73868000
157.49999083	0.00000000	64.86835000	31.99434000
157.69999081	0.00000000	65.24360000	31.57603000
157.89999080	0.00000000	65.98794000	31.15772000
158.09999079	0.00000000	66.36318000	30.46260000
158.29999078	0.00000000	66.40624000	30.46260000
158.49999077	0.00000000	66.40624000	31.15772000
158.69999075	0.00000000	66.40624000	31.53297000
158.89999074	0.00000000	66.36318000	31.57603000
159.09999073	0.00000000	66.03100000	31.61909000
159.29999072	0.00000000	65.66190000	31.99434000
159.49999071	0.00000000	66.03100000	32.73868000
159.69999070	0.00000000	66.31397000	33.06471000
159.89999068	0.00000000	66.03100000	32.78174000
160.09999067	0.00000000	65.66190000	32.36959000
160.29999066	0.00000000	65.98794000	32.36343000
160.49999065	0.00000000	65.98794000	31.95128000
160.69999064	0.00000000	65.66190000	31.61909000
160.89999062	0.00000000	66.03100000	31.57603000
161.09999061	0.00000000	66.36318000	31.57603000
161.29999060	0.00000000	66.40624000	31.57603000
161.49999059	0.00000000	66.44931000	31.61909000
161.69999058	0.00000000	66.82455000	31.99434000
161.89999056	0.00000000	67.52583000	32.73868000
162.09999055	0.00000000	67.52583000	33.11393000
162.29999054	0.00000000	66.82455000	33.15699000
162.49999053	0.00000000	66.44931000	33.15699000
162.69999052	0.00000000	66.40624000	33.15699000
162.89999051	0.00000000	66.40624000	33.15699000
163.09999049	0.00000000	66.36318000	33.15699000
163.29999048	0.00000000	65.98794000	33.15699000
163.49999047	0.00000000	65.29281000	33.15699000
163.69999046	0.00000000	65.29281000	33.15699000
163.89999045	0.00000000	65.98794000	33.15699000
164.09999043	0.00000000	66.36318000	33.15699000
164.29999042	0.00000000	66.44931000	33.11393000
164.49999041	0.00000000	66.82455000	32.78174000
164.69999040	0.00000000	67.57505000	32.41265000
164.89999039	0.00000000	67.95029000	32.78174000
165.09999037	0.00000000	67.95029000	33.11393000
165.29999036	0.00000000	67.57505000	33.15699000
165.49999035	0.00000000	66.82455000	33.15699000
165.69999034	0.00000000	66.44931000	33.15699000
165.89999033	0.00000000	66.40624000	33.15699000
166.09999032	0.00000000	66.36318000	33.15699000
166.29999030	0.00000000	66.03100000	33.15699000
166.49999029	0.00000000	65.66190000	33.15699000
166.69999028	0.00000000	66.03100000	33.15699000
166.89999027	0.00000000	66.36318000	33.15699000
167.09999026	0.00000000	66.40624000	33.15699000
167.29999024	0.00000000	66.40624000	33.11393000
167.49999023	0.00000000	66.44931000	32.78174000
167.69999022	0.00000000	66.82455000	32.41265000
167.89999021	0.00000000	67.52583000	32.78174000
168.09999020	0.00000000	67.52583000	33.11393000
168.29999018	0.00000000	66.82455000	33.15699000
168.49999017	-0.15871060	66.44931000	33.15699000
168.69999016	0.00000000	66.40624000	33.15699000
168.89999015	0.00000000	66.40624000	33.15699000
169.09999014	0.00000000	66.40624000	33.15699000
169.29999013	0.00000000	66.40624000	33.15699000
169.49999011	0.00000000	66.40624000	33.11393000
169.69999010	0.00000000	66.40624000	32.73868000
169.89999009	0.00000000	66.40624000	31.99434000
170.09999008	0.00000000	66.40624000	31.61909000
170.29999007	0.00000000	66.40624000	31.57603000
170.49999005	0.00000000	66.44931000	31.61909000
170.69999004	0.00000000	66.78149000	31.95128000
170.89999003	0.00000000	67.15059000	32.32037000
171.09999002	0.00000000	66.78149000	31.95128000
171.29999001	0.00000000	66.44931000	31.61909000
171.49998999	0.00000000	66.40624000	31.57603000
171.69998998	0.00000000	66.40624000	31.57603000
171.89998997	0.00000000	66.40624000	31.57603000
172.09998996	0.00000000	66.40624000	31.57603000
172.29998995	0.00000000	66.40624000	31.57603000
172.49998994	0.00000000	66.40624000	31.57603000
172.69998992	0.00000000	66.40624000	31.57603000
172.89998991	0.00000000	66.40624000	31.57603000
173.09998990	0.00000000	66.40624000	31.57603000
173.29998989	0.00000000	66.40624000	31.57603000
173.49998988	0.00000000	66.40624000	31.57603000
173.69998986	0.00000000	66.40624000	31.57603000
173.89998985	0.00000000	66.40624000	31.57603000
174.09998984	0.00000000	66.40624000	31.57603000
174.29998983	0.00000000	66.40624000	31.57603000
174.49998982	0.00000000	66.40624000	31.57603000
174.69998980	0.00000000	66.40624000	31.57603000
174.89998979	0.00000000	66.40624000	31.57603000
175.09998978	0.00000000	66.40624000	31.57603000
175.29998977	0.00000000	66.40624000	31.57603000
175.49998976	0.00000000	66.40624000	31.57603000
175.69998975	0.00000000	66.40624000	31.61909000
175.89998973	0.00000000	66.40624000	31.95128000
176.09998972	0.00000000	66.40624000	32.32037000
176.29998971	0.00000000	66.40624000	31.99434000
176.49998970	0.00000000	66.40624000	32.04355000
176.69998969	0.00000000	66.40624000	32.68946000
176.89998967	0.00000000	66.40624000	32.73868000
177.09998966	0.00000000	66.40624000	32.36959000
177.29998965	0.00000000	66.40624000	32.40649000
177.49998964	0.00000000	66.40624000	32.36959000
177.69998963	0.00000000	66.40624000	32.78174000
177.89998961	0.00000000	66.40624000	33.11393000
178.09998960	0.00000000	66.40624000	33.15699000
178.29998959	0.00000000	66.40624000	33.15699000
178.49998958	0.00000000	66.40624000	33.15699000
178.69998957	0.00000000	66.40624000	33.15699000
178.89998956	0.00000000	66.44931000	33.15699000
179.09998954	0.00000000	66.82455000	33.15699000
179.29998953	0.00000000	67.57505000	33.15699000
179.49998952	-0.15871060	67.95029000	33.15699000
179.69998951	0.00000000	67.99335000	33.15699000
179.89998950	0.00000000	67.99335000	33.15699000
180.09998948	0.00000000	67.95029000	33.15699000
180.29998947	0.00000000	67.57505000	33.15699000
180.49998946	0.00000000	66.82455000	33.15699000
180.69998945	0.00000000	66.44931000	33.15699000
180.89998944	0.00000000	66.40624000	33.15699000
181.09998942	0.00000000	66.40624000	33.15699000
181.29998941	0.00000000	66.44931000	33.15699000
181.49998940	0.00000000	66.78149000	33.15699000
181.69998939	0.00000000	67.15059000	33.15699000
181.89998938	0.00000000	66.82455000	33.15699000
182.09998937	0.00000000	66.87376000	33.15699000
182.29998935	0.00000000	67.57505000	33.15699000
182.49998934	0.00000000	67.95029000	33.11393000
182.69998933	0.00000000	67.95029000	32.73868000
182.89998932	0.00000000	67.61810000	31.99434000
183.09998931	0.00000000	67.24901000	31.66830000
183.29998929	0.00000000	67.57505000	31.99434000
183.49998928	0.00000000	67.52583000	32.73868000
183.69998927	0.00000000	66.82455000	33.11393000
183.89998926	-0.15871060	66.44931000	33.15699000
184.09998925	0.00000000	66.44931000	33.15699000
184.29998923	0.00000000	66.78149000	33.15699000
184.49998922	0.00000000	67.15059000	33.15699000
184.69998921	0.00000000	66.82455000	33.15699000
184.89998920	0.00000000	66.87376000	33.15699000
185.09998919	0.00000000	67.57505000	33.15699000
185.29998918	0.00000000	67.95029000	33.11393000
185.49998916	0.00000000	67.99335000	32.73868000
185.69998915	0.00000000	67.99335000	31.99434000
185.89998914	0.00000000	67.99335000	31.61909000
186.09998913	0.00000000	67.99335000	31.57603000
186.29998912	0.00000000	67.99335000	31.57603000
186.49998910	0.00000000	67.99335000	31.61909000
186.69998909	0.00000000	67.95029000	31.99434000
186.89998908	0.00000000	67.57505000	32.73868000
187.09998907	0.00000000	66.82455000	33.11393000
187.29998906	0.00000000	66.44931000	33.15699000
187.49998904	-0.15871060	66.40624000	33.15699000
187.69998903	0.00000000	66.40624000	33.15699000
187.89998902	0.00000000	66.40624000	33.15699000
188.09998901	0.00000000	66.44931000	33.11393000
188.29998900	0.00000000	66.82455000	32.73868000
188.49998899	0.00000000	67.57505000	31.99434000
188.69998897	0.00000000	67.95029000	31.61909000
188.89998896	0.00000000	67.99335000	31.57603000
189.09998895	0.00000000	67.99335000	31.57603000
189.29998894	0.00000000	67.95029000	31.57603000
189.49998893	0.00000000	67.57505000	31.57603000
189.69998891	0.00000000	66.82455000	31.57603000
189.89998890	0.00000000	66.44931000	31.61909000
190.09998889	0.00000000	66.40624000	31.99434000
190.29998888	0.00000000	66.40624000	32.73868000
190.49998887	0.00000000	66.44931000	33.11393000
190.69998885	0.00000000	66.82455000	33.11393000
190.89998884	0.00000000	67.57505000	32.78174000
191.09998883	0.00000000	67.95029000	32.41265000
191.29998882	0.00000000	67.99335000	32.78174000
191.49998881	0.00000000	67.99335000	33.06471000
191.69998880	0.00000000	67.95029000	32.73868000
191.89998878	0.00000000	67.57505000	32.04355000
192.09998877	0.00000000	66.87376000	31.99434000
192.29998876	-0.15871060	66.82455000	32.36343000
192.49998875	0.00000000	67.15059000	32.32653000
192.69998874	0.00000000	66.78149000	32.40649000
192.89998872	0.00000000	66.49852000	32.36959000
193.09998871	0.00000000	66.82455000	32.78174000
193.29998870	0.00000000	67.57505000	33.11393000
193.49998869	0.00000000	67.95029000	33.15699000
193.69998868	0.00000000	67.99335000	33.15699000
193.89998866	0.00000000	67.99335000	33.15699000
194.09998865	0.00000000	67.99335000	33.15699000
194.29998864	0.00000000	67.99335000	33.15699000
194.49998863	0.00000000	67.99335000	33.15699000
194.69998862	0.00000000	67.99335000	33.15699000
194.89998861	0.00000000	67.99335000	33.15699000
195.09998859	0.00000000	67.95029000	33.15699000
195.29998858	0.00000000	67.61810000	33.15699000
195.49998857	0.00000000	67.24901000	33.15699000
195.69998856	0.00000000	67.61810000	33.15699000
195.89998855	0.00000000	67.95029000	33.15699000
196.09998853	0.00000000	67.99335000	33.15699000
