Time	Channel A	Channel B	Channel C
(us)	(V)	(mV)	(mV)

-4.49999956	0.00000000	91.70767000	39.47465000
-4.29999957	0.00000000	91.70767000	39.47465000
-4.09999958	-0.15871060	91.70767000	39.47465000
-3.89999959	0.00000000	91.70767000	39.47465000
-3.69999960	0.00000000	91.70767000	39.47465000
-3.49999962	0.00000000	91.70767000	39.47465000
-3.29999963	0.00000000	91.70767000	39.47465000
-3.09999964	0.00000000	91.75073000	39.47465000
-2.89999965	0.00000000	92.08292000	39.47465000
-2.69999966	0.00000000	92.45201000	39.47465000
-2.49999968	0.00000000	92.08292000	39.47465000
-2.29999969	0.00000000	91.75073000	39.47465000
-2.09999970	0.00000000	91.75073000	39.47465000
-1.89999971	0.00000000	92.08292000	39.47465000
-1.69999972	0.00000000	92.45201000	39.47465000
-1.49999973	0.00000000	92.08292000	39.47465000
-1.29999975	0.00000000	91.75073000	39.47465000
-1.09999976	0.00000000	91.70767000	39.47465000
-0.89999977	0.00000000	91.75073000	39.47465000
-0.69999978	0.00000000	92.12598000	39.47465000
-0.49999979	0.00000000	92.82111000	39.47465000
-0.29999981	0.31803640	92.82111000	39.47465000
-0.09999982	0.63668800	92.12598000	39.47465000
0.10000017	0.95533960	91.75073000	39.47465000
0.30000016	0.95533960	91.70767000	39.47465000
0.50000015	0.63668800	91.70767000	39.47465000
0.70000013	0.00000000	91.70767000	39.47465000
0.90000012	-0.79601380	91.70767000	39.47465000
1.10000011	-1.91129400	91.70767000	39.47465000
1.30000010	-2.54859700	91.70767000	39.47465000
1.50000009	-2.86724900	91.70767000	39.47465000
1.70000008	-2.22994600	91.70767000	39.47465000
1.90000006	-0.79601380	91.70767000	39.47465000
2.10000005	1.27399100	91.70767000	39.47465000
2.30000004	3.34522600	91.70767000	39.47465000
2.50000003	4.77854300	91.70767000	39.43159000
2.70000002	5.25652100	91.70767000	39.05635000
2.90000000	4.30056600	91.70767000	38.31200000
3.09999999	1.91129400	91.70767000	37.93676000
3.29999998	-1.27399100	91.70767000	37.89370000
3.49999997	-4.61921700	91.70767000	37.93676000
3.69999996	-7.16781500	91.70767000	38.31200000
3.89999994	-8.12377000	91.70767000	39.05635000
4.09999993	-6.84916400	91.70767000	39.43159000
4.29999992	-3.82258900	91.70767000	39.47465000
4.49999991	0.31803640	91.70767000	39.47465000
4.69999990	4.77854300	91.70767000	39.43159000
4.89999989	8.12377000	91.70767000	39.05635000
5.09999987	9.39837600	91.66460000	38.31200000
5.29999986	8.44242100	91.33242000	37.93676000
5.49999985	5.25652100	90.96333000	37.89370000
5.69999984	0.79601380	91.33242000	37.89370000
5.89999983	-3.98191400	91.66460000	37.89370000
6.09999981	-7.64579200	91.70767000	37.93676000
6.29999980	-9.39837600	91.70767000	38.31200000
6.49999979	-8.92039900	91.70767000	39.05635000
6.69999978	-6.05315000	91.70767000	39.43159000
6.89999977	-1.91129400	91.70767000	39.47465000
7.09999975	2.38927200	91.70767000	39.47465000
7.29999974	5.89382400	91.70767000	39.43159000
7.49999973	7.64579200	91.70767000	39.05635000
7.69999972	7.48646600	91.70767000	38.31200000
7.89999971	5.41584600	91.66460000	37.93676000
8.09999970	2.22994600	91.33242000	37.89370000
8.29999968	-0.95533960	90.96333000	37.93676000
8.49999967	-3.66326300	91.33242000	38.31200000
8.69999966	-5.09719500	91.66460000	39.05635000
8.89999965	-5.09719500	91.70767000	39.43159000
9.09999964	-3.98191400	91.70767000	39.47465000
9.29999962	-2.07062000	91.70767000	39.47465000
9.49999961	0.00000000	91.70767000	39.47465000
9.69999960	1.43331700	91.70767000	39.47465000
9.89999959	2.38927200	91.70767000	39.47465000
10.09999958	2.54859700	91.70767000	39.47465000
10.29999956	1.91129400	91.70767000	39.47465000
10.49999955	1.11466500	91.70767000	39.47465000
10.69999954	0.31803640	91.70767000	39.47465000
10.89999953	-0.47736220	91.70767000	39.47465000
11.09999952	-0.95533960	91.70767000	39.47465000
11.29999951	-0.95533960	91.70767000	39.47465000
11.49999949	-0.95533960	91.70767000	39.47465000
11.69999948	-0.63668800	91.70767000	39.47465000
11.89999947	-0.31803640	91.70767000	39.47465000
12.09999946	-0.15871060	91.70767000	39.47465000
12.29999945	-0.15871060	91.70767000	39.47465000
12.49999943	0.00000000	91.70767000	39.43159000
12.69999942	0.00000000	91.75073000	39.09941000
12.89999941	0.00000000	92.08292000	38.73031000
13.09999940	0.00000000	92.45201000	39.09941000
13.29999939	0.00000000	92.08292000	39.43159000
13.49999937	0.00000000	91.75073000	39.47465000
13.69999936	0.00000000	91.70767000	39.47465000
13.89999935	-0.15871060	91.70767000	39.47465000
14.09999934	-0.15871060	91.70767000	39.47465000
14.29999933	-0.15871060	91.70767000	39.47465000
14.49999932	-0.15871060	91.70767000	39.47465000
14.69999930	-0.15871060	91.70767000	39.47465000
14.89999929	0.00000000	91.70767000	39.47465000
15.09999928	0.00000000	91.70767000	39.47465000
15.29999927	0.00000000	91.70767000	39.47465000
15.49999926	0.00000000	91.70767000	39.47465000
15.69999924	0.00000000	91.70767000	39.47465000
15.89999923	0.00000000	91.70767000	39.47465000
16.09999922	0.00000000	91.70767000	39.47465000
16.29999921	-0.15871060	91.75073000	39.47465000
16.49999920	-0.15871060	92.12598000	39.47465000
16.69999919	-0.15871060	92.87032000	39.47465000
16.89999917	-0.15871060	93.24557000	39.47465000
17.09999916	0.00000000	93.33169000	39.47465000
17.29999915	0.00000000	93.66387000	39.47465000
17.49999914	0.00000000	94.03297000	39.43159000
17.69999913	0.00000000	93.62081000	39.05635000
17.89999911	0.00000000	92.87032000	38.31200000
18.09999910	0.00000000	91.66460000	37.98597000
18.29999909	0.00000000	90.12672000	38.31200000
18.49999908	0.00000000	88.54576000	39.05635000
18.69999907	-0.15871060	87.05708000	39.43159000
18.89999905	-0.15871060	86.31274000	39.47465000
19.09999904	-0.15871060	87.14320000	39.43159000
19.29999903	0.00000000	89.43159000	39.05635000
19.49999902	0.00000000	92.95644000	38.36122000
19.69999901	0.00000000	96.82578000	38.31200000
19.89999900	0.00000000	100.68900000	38.63804000
20.09999898	0.00000000	103.34030000	38.26894000
20.29999897	0.00000000	103.67250000	37.93676000
20.49999896	0.00000000	101.29800000	37.89370000
20.69999895	0.00000000	95.85383000	37.89370000
20.89999894	0.00000000	88.50270000	37.93676000
21.09999892	-0.15871060	80.77632000	38.26894000
21.29999891	-0.15871060	74.21874000	38.63804000
21.49999890	0.00000000	70.81693000	38.26894000
21.69999889	0.00000000	71.65969000	37.93676000
21.89999888	0.00000000	77.55905000	37.89370000
22.09999886	0.00000000	87.98597000	37.89370000
22.29999885	0.00000000	100.78120000	37.89370000
22.49999884	0.00000000	113.06590000	37.89370000
22.69999883	0.00000000	121.89960000	37.93676000
22.89999882	0.00000000	124.09570000	38.31200000
23.09999881	-0.15871060	118.69460000	39.05635000
23.29999879	0.00000000	106.28080000	39.47465000
23.49999878	0.00000000	89.61613000	39.89296000
23.69999877	0.00000000	71.84424000	40.63730000
23.89999876	0.00000000	56.86515000	40.96333000
24.09999875	0.00000000	49.22490000	40.63730000
24.29999873	0.00000000	51.18110000	39.80684000
24.49999872	0.00000000	62.85679000	38.63804000
24.69999871	0.00000000	82.21579000	36.68799000
24.89999870	0.00000000	105.33960000	34.82406000
25.09999869	0.00000000	126.51330000	33.66756000
25.29999867	0.00000000	140.00980000	33.66756000
25.49999866	0.00000000	142.75340000	34.82406000
25.69999865	0.00000000	134.19660000	36.82332000
25.89999864	0.00000000	115.99410000	39.93602000
26.09999863	0.00000000	91.66460000	43.79306000
26.29999862	0.00000000	67.00294000	47.28100000
26.49999860	0.00000000	48.06225000	49.92618000
26.69999859	0.00000000	39.17938000	50.62130000
26.89999858	0.00000000	42.29823000	48.25910000
27.09999857	0.00000000	56.95128000	43.23941000
27.29999856	0.00000000	79.70595000	36.26968000
27.49999854	0.00000000	104.78590000	28.93085000
27.69999853	0.00000000	126.42100000	22.74852000
27.89999852	-0.15871060	139.63460000	18.98376000
28.09999851	0.00000000	142.00910000	19.44513000
28.29999850	0.00000000	133.90750000	24.88312000
28.49999848	0.00000000	116.87990000	34.17815000
28.69999847	0.00000000	94.91880000	45.79232000
28.89999846	0.00000000	73.32677000	57.31422000
29.09999845	0.00000000	57.41879000	65.77264000
29.29999844	0.00000000	50.34449000	68.84227000
29.49999843	-0.15871060	52.20841000	65.68036000
29.69999841	0.00000000	62.21087000	56.38533000
29.89999840	0.00000000	77.70054000	42.49508000
30.09999839	0.00000000	95.10950000	27.43602000
30.29999838	-0.15871060	111.34350000	14.24705000
30.49999837	0.00000000	122.18870000	5.41338600
30.69999835	0.00000000	125.81200000	3.18651600
30.89999834	0.00000000	122.74240000	8.99360200
31.09999833	0.00000000	113.85330000	21.72121000
31.29999832	0.00000000	101.10730000	38.31200000
31.49999831	0.00000000	87.56766000	55.36417000
31.69999829	0.00000000	75.89198000	69.21751000
31.89999828	0.00000000	68.15944000	76.96850000
32.09999827	0.00000000	65.79109000	76.55634000
32.29999826	0.00000000	69.23597000	68.46703000
32.49999825	0.00000000	76.96235000	54.15846000
32.69999824	0.00000000	87.38312000	36.78026000
32.89999822	0.00000000	98.17298000	20.14641000
33.09999821	0.00000000	106.32380000	7.36958600
33.29999820	0.00000000	110.64840000	1.19340500
33.49999819	0.00000000	110.64840000	2.72514700
33.69999818	0.00000000	106.45920000	11.64493000
33.89999816	0.00000000	99.47710000	26.27953000
34.09999815	0.00000000	91.42470000	43.23941000
34.29999814	0.00000000	84.07972000	58.34153000
34.49999813	0.00000000	79.79207000	68.79305000
34.69999812	0.00000000	78.58636000	72.65009000
34.89999810	0.00000000	80.54256000	68.84227000
35.09999809	0.00000000	85.56225000	58.80290000
35.29999808	0.00000000	91.99065000	44.90649000
35.49999807	0.00000000	97.79773000	29.85974000
35.69999806	0.00000000	100.88580000	17.53814000
35.89999805	0.00000000	101.38410000	10.56841000
36.09999803	0.00000000	99.39098000	10.56841000
36.29999802	0.00000000	95.56471000	17.40280000
36.49999801	0.00000000	90.54502000	28.55561000
36.69999800	0.00000000	85.98056000	40.87721000
36.89999799	0.00000000	83.28617000	51.64862000
37.09999797	-0.15871060	83.24310000	57.83095000
37.29999796	0.00000000	85.51919000	58.24926000
37.49999795	0.00000000	89.01328000	53.27264000
37.69999794	0.00000000	93.28863000	44.07603000
37.89999793	0.00000000	97.52091000	33.80290000
38.09999791	0.00000000	100.55360000	25.71973000
38.29999790	0.00000000	101.34100000	22.23179000
38.49999789	0.00000000	99.43405000	23.76353000
38.69999788	0.00000000	95.98302000	29.90280000
38.89999787	0.00000000	91.70767000	39.05635000
39.09999786	0.00000000	87.47539000	47.88385000
39.29999784	0.00000000	84.35654000	54.02312000
39.49999783	0.00000000	82.77559000	55.87475000
39.69999782	0.00000000	82.81864000	52.06693000
39.89999781	0.00000000	84.73178000	44.07603000
40.09999780	0.00000000	88.21358000	34.83022000
40.29999778	0.00000000	92.12598000	26.37180000
40.49999777	0.00000000	96.40748000	21.02608000
40.69999776	0.00000000	100.22150000	20.70005000
40.89999775	0.00000000	102.13460000	25.62746000
41.09999774	0.00000000	101.80240000	34.45497000
41.29999772	0.00000000	99.52632000	44.07603000
41.49999771	0.00000000	96.40748000	52.53445000
41.69999770	0.00000000	92.87032000	57.49876000
41.89999769	0.00000000	89.01328000	57.17889000
42.09999768	0.00000000	85.93749000	52.62057000
42.29999767	0.00000000	84.31348000	45.28174000
42.49999765	0.00000000	83.98129000	36.82332000
42.69999764	0.00000000	85.15009000	29.52756000
42.89999763	0.00000000	88.21358000	25.25221000
43.09999762	0.00000000	91.61539000	24.83391000
43.29999761	0.00000000	94.35899000	27.86048000
43.49999759	0.00000000	95.93995000	33.24926000
43.69999758	0.00000000	96.35826000	39.38238000
43.89999757	0.00000000	96.03223000	44.82037000
44.09999756	0.00000000	95.24483000	48.30832000
44.29999755	0.00000000	94.53739000	49.50787000
44.49999753	0.00000000	94.12524000	48.35138000
44.69999752	0.00000000	94.49434000	45.28174000
44.89999751	0.00000000	94.77731000	41.05561000
45.09999750	0.00000000	94.40206000	36.82332000
45.29999749	0.00000000	93.24557000	33.71063000
45.49999748	0.00000000	91.66460000	32.12967000
45.69999746	0.00000000	89.61613000	32.12967000
45.89999745	0.00000000	86.58956000	33.66756000
46.09999744	0.00000000	83.56915000	36.31274000
46.29999743	0.00000000	82.44955000	39.05635000
46.49999742	0.00000000	83.24310000	41.38164000
46.69999740	0.00000000	86.40501000	43.28247000
46.89999739	0.00000000	91.79995000	43.65773000
47.09999738	0.00000000	97.98843000	42.58735000
47.29999737	0.00000000	103.75860000	41.00639000
47.49999736	0.00000000	107.57260000	39.00713000
47.69999734	0.00000000	107.90480000	36.36196000
47.89999733	0.00000000	104.41070000	34.08588000
48.09999732	0.00000000	97.47784000	33.29232000
48.29999731	0.00000000	88.96407000	33.66756000
48.49999730	0.00000000	80.86860000	35.24852000
48.69999729	0.00000000	74.72932000	37.94291000
48.89999727	0.00000000	72.81618000	41.00639000
49.09999726	-0.15871060	75.51672000	43.70079000
49.29999725	0.00000000	82.12352000	45.23868000
49.49999724	0.00000000	91.75688000	45.28174000
49.69999723	0.00000000	101.71630000	44.07603000
49.89999721	0.00000000	109.02440000	41.70152000
50.09999720	0.00000000	111.76180000	37.85064000
50.29999719	0.00000000	109.48570000	33.71063000
50.49999718	0.00000000	103.29720000	30.97318000
50.69999717	-0.15871060	94.40822000	30.17962000
50.89999715	0.00000000	84.82406000	30.93012000
51.09999714	0.00000000	77.51599000	33.29232000
51.29999713	0.00000000	74.39714000	36.78026000
51.49999712	0.00000000	75.93503000	41.00639000
51.69999711	0.00000000	81.70521000	44.86343000
51.89999710	0.00000000	90.12672000	47.14566000
52.09999708	0.00000000	98.59743000	47.55782000
52.29999707	0.00000000	104.74290000	45.61392000
52.49999706	0.00000000	107.06820000	42.21210000
52.69999705	0.00000000	104.78590000	38.31200000
52.89999704	0.00000000	99.05880000	34.87328000
53.09999702	-0.15871060	91.75073000	32.54798000
53.29999701	0.00000000	84.82406000	32.12967000
53.49999700	0.00000000	80.21653000	33.24926000
53.69999699	0.00000000	79.05388000	35.19931000
53.89999698	0.00000000	81.74828000	37.89370000
54.09999696	0.00000000	87.47539000	40.54502000
54.29999695	0.00000000	94.40822000	42.07677000
54.49999694	0.00000000	100.55360000	42.16904000
54.69999693	0.00000000	104.36760000	41.38164000
54.89999692	0.00000000	104.36760000	40.26205000
55.09999691	-0.15871060	100.59670000	38.68725000
55.29999689	0.00000000	94.86958000	37.61073000
55.49999688	0.00000000	89.05634000	37.19857000
55.69999687	0.00000000	84.39960000	37.98597000
55.89999686	0.00000000	81.70521000	39.47465000
56.09999685	0.00000000	81.74828000	41.00639000
56.29999683	0.00000000	84.77485000	42.11983000
56.49999682	0.00000000	89.75147000	42.07677000
56.69999681	0.00000000	94.77731000	40.54502000
56.89999680	0.00000000	99.01575000	37.85064000
57.09999679	0.00000000	101.29180000	34.82406000
57.29999677	0.00000000	100.59670000	32.54798000
57.49999676	0.00000000	97.94537000	32.17273000
57.69999675	0.00000000	94.45127000	33.71063000
57.89999674	0.00000000	90.59423000	36.86639000
58.09999673	0.00000000	87.51845000	41.47392000
58.29999672	0.00000000	85.93749000	46.39517000
58.49999670	0.00000000	85.93749000	49.46481000
58.69999669	0.00000000	87.43233000	49.88312000
58.89999668	0.00000000	89.75147000	47.93307000
59.09999667	0.00000000	92.08292000	43.65773000
59.29999666	0.00000000	94.40206000	37.89370000
59.49999664	0.00000000	95.89690000	32.12967000
59.69999663	0.00000000	95.93995000	27.90354000
59.89999662	0.00000000	94.82652000	26.37180000
60.09999661	0.00000000	93.33169000	27.94660000
60.29999660	0.00000000	92.12598000	32.59719000
60.49999658	0.00000000	91.33242000	39.51771000
60.69999657	0.00000000	90.59423000	46.81348000
60.89999656	0.00000000	90.63730000	52.53445000
61.09999655	0.00000000	91.70767000	54.85359000
61.29999654	0.00000000	92.82111000	52.95275000
61.49999653	0.00000000	93.24557000	47.97613000
61.69999651	0.00000000	93.24557000	40.96333000
61.89999650	0.00000000	92.87032000	33.29232000
62.09999649	0.00000000	92.08292000	26.74705000
62.29999648	0.00000000	91.33242000	23.30216000
62.49999647	0.00000000	90.54502000	23.62820000
62.69999645	0.00000000	90.16978000	27.48524000
62.89999644	0.00000000	90.16978000	33.66756000
63.09999643	0.00000000	90.59423000	41.00639000
63.29999642	0.00000000	91.75073000	47.93307000
63.49999641	0.00000000	93.24557000	52.57751000
63.69999639	0.00000000	94.40206000	54.10925000
63.89999638	0.00000000	94.77731000	52.15920000
64.09999637	0.00000000	94.40206000	46.81348000
64.29999636	0.00000000	93.24557000	39.89296000
64.49999635	0.00000000	91.75073000	33.33538000
64.69999634	0.00000000	90.59423000	28.27879000
64.89999632	0.00000000	90.16978000	25.90428000
65.09999631	0.00000000	90.16978000	25.86122000
65.29999630	0.00000000	90.54502000	27.86048000
65.49999629	0.00000000	91.33242000	32.08661000
65.69999628	0.00000000	92.08292000	37.42618000
65.89999626	0.00000000	92.82111000	42.11983000
66.09999625	0.00000000	92.82111000	45.65698000
66.29999624	0.00000000	92.08292000	47.97613000
66.49999623	0.00000000	91.28937000	48.35138000
66.69999622	0.00000000	90.12672000	46.85654000
66.89999620	0.00000000	89.05634000	44.16830000
67.09999619	0.00000000	89.05634000	41.05561000
67.29999618	0.00000000	90.21899000	37.89370000
67.49999617	0.00000000	92.12598000	34.78100000
67.69999616	0.00000000	94.45127000	32.04355000
67.89999615	0.00000000	96.35826000	30.08735000
68.09999613	0.00000000	97.47784000	28.97392000
68.29999612	0.00000000	97.10260000	29.39222000
68.49999611	0.00000000	95.15255000	31.71137000
68.69999610	0.00000000	92.45201000	35.15625000
68.89999609	0.00000000	88.92101000	39.09941000
69.09999607	0.00000000	85.51919000	43.00566000
69.29999606	0.00000000	83.19389000	46.85654000
69.49999605	0.00000000	82.86786000	49.50787000
69.69999604	0.00000000	84.77485000	49.88312000
69.89999603	0.00000000	88.63803000	47.93307000
70.09999601	0.00000000	93.28863000	43.70079000
70.29999600	0.00000000	97.94537000	38.31200000
70.49999599	0.00000000	101.75930000	33.29232000
70.69999598	0.00000000	103.29720000	29.39222000
70.89999597	0.00000000	102.13460000	27.48524000
71.09999596	0.00000000	98.64050000	27.86048000
71.29999594	0.00000000	93.24557000	30.55487000
71.49999593	0.00000000	87.47539000	34.83022000
71.69999592	0.00000000	82.81864000	39.84990000
71.89999591	0.00000000	80.12425000	44.82037000
72.09999590	0.00000000	80.12425000	47.88385000
72.29999588	0.00000000	82.81864000	48.35138000
72.49999587	0.00000000	87.43233000	46.81348000
72.69999586	0.00000000	92.87032000	43.74385000
72.89999585	0.00000000	97.89616000	39.93602000
73.09999584	0.00000000	101.75930000	36.82332000
73.29999582	0.00000000	103.29720000	34.87328000
73.49999581	-0.15871060	102.17770000	34.08588000
73.69999580	0.00000000	99.10187000	34.87328000
73.89999579	0.00000000	94.82652000	36.68799000
74.09999578	0.00000000	90.21899000	38.58883000
74.29999577	0.00000000	86.35580000	39.38238000
74.49999575	0.00000000	84.35654000	39.43159000
74.69999574	0.00000000	83.98129000	39.05635000
74.89999573	0.00000000	85.15009000	38.26894000
75.09999572	0.00000000	88.21358000	37.56152000
75.29999571	0.00000000	91.61539000	37.19857000
75.49999569	0.00000000	94.40206000	38.02903000
75.69999568	0.00000000	96.31520000	39.89296000
75.89999567	0.00000000	97.10260000	42.21210000
76.09999566	0.00000000	96.35826000	44.11909000
76.29999565	0.00000000	94.86958000	45.23868000
76.49999563	0.00000000	93.33169000	44.82037000
76.69999562	0.00000000	92.17519000	42.49508000
76.89999561	0.00000000	91.75073000	39.05635000
77.09999560	0.00000000	91.70767000	35.15625000
77.29999559	0.00000000	91.70767000	31.71137000
77.49999558	0.00000000	91.70767000	29.39222000
77.69999556	0.00000000	91.66460000	29.06619000
77.89999555	0.00000000	91.28937000	30.97318000
78.09999554	0.00000000	90.50197000	34.87328000
78.29999553	0.00000000	89.79453000	39.84990000
78.49999552	0.00000000	89.38238000	44.86343000
78.69999550	0.00000000	89.84374000	48.30832000
78.89999549	0.00000000	90.96333000	49.50787000
79.09999548	0.00000000	92.91338000	48.35138000
79.29999547	0.00000000	94.82652000	45.28174000
79.49999546	0.00000000	96.35826000	41.00639000
79.69999544	0.00000000	97.10260000	36.36196000
79.89999543	0.00000000	96.31520000	32.12967000
80.09999542	0.00000000	94.45127000	29.43528000
80.29999541	0.00000000	92.08292000	28.97392000
80.49999540	0.00000000	89.75147000	30.13656000
80.69999539	0.00000000	87.43233000	32.46186000
80.89999537	0.00000000	85.98056000	35.93750000
81.09999536	0.00000000	86.31274000	39.42544000
81.29999535	0.00000000	88.21358000	42.54429000
81.49999534	0.00000000	90.54502000	44.86343000
81.69999533	0.00000000	93.28863000	45.70005000
81.89999531	0.00000000	95.93995000	45.70005000
82.09999530	0.00000000	97.47784000	44.86343000
82.29999529	0.00000000	97.47784000	42.58735000
82.49999528	0.00000000	95.98302000	39.89296000
82.69999527	0.00000000	93.66387000	37.47539000
82.89999525	0.00000000	91.37549000	34.73794000
83.09999524	0.00000000	89.43159000	32.08661000
83.29999523	0.00000000	88.63803000	30.55487000
83.49999522	0.00000000	88.58882000	30.55487000
83.69999521	0.00000000	89.01328000	32.08661000
83.89999520	0.00000000	90.12672000	34.82406000
84.09999518	0.00000000	91.28937000	38.31200000
84.29999517	0.00000000	92.08292000	42.16904000
84.49999516	0.00000000	92.87032000	45.23868000
84.69999515	0.00000000	93.24557000	46.81348000
84.89999514	0.00000000	93.24557000	46.77042000
85.09999512	0.00000000	92.87032000	44.86343000
85.29999511	0.00000000	92.17519000	41.38164000
85.49999510	0.00000000	92.17519000	37.51845000
85.69999509	0.00000000	92.82111000	33.62450000
85.89999508	0.00000000	92.82111000	30.59793000
86.09999506	0.00000000	92.12598000	29.39222000
86.29999505	0.00000000	91.70767000	30.22268000
86.49999504	0.00000000	91.28937000	32.92323000
86.69999503	0.00000000	90.54502000	37.56152000
86.89999502	0.00000000	90.16978000	42.49508000
87.09999501	0.00000000	90.12672000	46.39517000
87.29999499	0.00000000	90.16978000	48.30216000
87.49999498	0.00000000	90.59423000	47.97613000
87.69999497	0.00000000	91.75073000	45.61392000
87.89999496	0.00000000	93.24557000	41.75073000
88.09999495	0.00000000	94.40206000	36.78026000
88.29999493	0.00000000	94.77731000	32.54798000
88.49999492	0.00000000	94.40206000	30.22268000
88.69999491	0.00000000	93.28863000	29.85974000
88.89999490	0.00000000	92.12598000	32.17273000
89.09999489	0.00000000	91.33242000	36.40502000
89.29999487	0.00000000	90.54502000	41.42470000
89.49999486	0.00000000	90.16978000	46.35211000
89.69999485	0.00000000	90.16978000	49.04650000
89.89999484	0.00000000	90.54502000	48.67741000
90.09999483	0.00000000	91.33242000	46.01993000
90.29999482	0.00000000	92.08292000	41.38164000
90.49999480	0.00000000	92.87032000	36.40502000
90.69999479	0.00000000	93.24557000	32.12967000
90.89999478	0.00000000	93.28863000	29.48450000
91.09999477	0.00000000	93.24557000	29.48450000
91.29999476	0.00000000	92.87032000	32.17273000
91.49999474	0.00000000	92.17519000	36.78026000
91.69999473	0.00000000	92.17519000	42.16289000
91.89999472	0.00000000	92.87032000	46.72736000
92.09999471	0.00000000	93.24557000	49.04650000
92.29999470	0.00000000	93.24557000	48.30832000
92.49999468	0.00000000	92.82111000	45.23868000
92.69999467	0.00000000	91.70767000	40.58809000
92.89999466	0.00000000	90.54502000	35.24852000
93.09999465	0.00000000	89.75147000	31.01624000
93.29999464	0.00000000	88.96407000	29.10925000
93.49999463	0.00000000	88.63803000	29.85974000
93.69999461	0.00000000	89.05634000	33.29232000
93.89999460	0.00000000	90.59423000	37.85064000
94.09999459	0.00000000	92.87032000	42.11983000
94.29999458	0.00000000	94.82652000	45.18947000
94.49999457	0.00000000	96.40748000	46.35211000
94.69999455	0.00000000	97.47784000	45.18947000
94.89999454	0.00000000	97.05954000	42.11983000
95.09999453	-0.15871060	94.77731000	37.93676000
95.29999452	0.00000000	91.70767000	34.08588000
95.49999451	0.00000000	88.58882000	31.75443000
95.69999449	0.00000000	85.89443000	30.97318000
95.89999448	0.00000000	84.35654000	32.17888000
96.09999447	0.00000000	84.35654000	35.15625000
96.29999446	0.00000000	85.93749000	38.63804000
96.49999445	0.00000000	89.01328000	41.33858000
96.69999444	0.00000000	92.87032000	43.28247000
96.89999442	0.00000000	96.35826000	43.65773000
97.09999441	0.00000000	99.10187000	42.54429000
97.29999440	0.00000000	100.59670000	40.63730000
97.49999439	0.00000000	100.17840000	38.31200000
97.69999438	0.00000000	97.47784000	36.40502000
97.89999436	0.00000000	93.33169000	35.24852000
98.09999435	0.00000000	89.43159000	35.19931000
98.29999434	0.00000000	86.63262000	35.93750000
98.49999433	0.00000000	84.31348000	36.73105000
98.69999432	0.00000000	83.24310000	37.89370000
98.89999430	0.00000000	84.35654000	39.00713000
99.09999429	0.00000000	87.05708000	39.43159000
99.29999428	0.00000000	90.54502000	39.47465000
99.49999427	0.00000000	94.40206000	39.51771000
99.69999426	0.00000000	97.47784000	39.89296000
99.89999425	0.00000000	99.05880000	40.63730000
100.09999423	0.00000000	99.10187000	41.01255000
100.29999422	0.00000000	97.93922000	41.05561000
100.49999421	0.00000000	95.98302000	41.01255000
100.69999420	0.00000000	93.24557000	40.58809000
100.89999419	0.00000000	90.16978000	39.38238000
101.09999417	0.00000000	87.47539000	37.51845000
101.29999416	0.00000000	85.93749000	35.61762000
101.49999415	0.00000000	85.89443000	34.83022000
101.69999414	0.00000000	87.05708000	34.83022000
101.89999413	0.00000000	88.96407000	35.61762000
102.09999411	-0.15871060	91.33242000	37.56767000
102.29999410	0.00000000	93.62081000	39.84990000
102.49999409	0.00000000	95.56471000	42.21210000
102.69999408	0.00000000	96.35826000	44.07603000
102.89999407	0.00000000	96.40748000	44.86343000
103.09999406	0.00000000	95.98302000	44.03297000
103.29999404	0.00000000	94.77731000	41.79380000
103.49999403	0.00000000	92.87032000	38.68725000
103.69999402	0.00000000	90.54502000	35.98671000
103.89999401	0.00000000	88.63803000	33.66756000
104.09999400	0.00000000	87.47539000	32.54798000
104.29999398	0.00000000	87.47539000	33.29232000
104.49999397	0.00000000	88.58882000	35.19931000
104.69999396	0.00000000	90.12672000	37.89370000
104.89999395	0.00000000	91.70767000	40.58809000
105.09999394	0.00000000	93.24557000	42.54429000
105.29999392	0.00000000	94.40206000	43.70079000
105.49999391	0.00000000	94.77731000	43.65773000
105.69999390	0.00000000	94.40206000	42.16904000
105.89999389	0.00000000	93.24557000	39.84990000
106.09999388	0.00000000	91.75073000	37.51845000
106.29999387	0.00000000	90.59423000	35.24852000
106.49999385	0.00000000	90.16978000	34.12894000
106.69999384	0.00000000	90.16978000	34.82406000
106.89999383	0.00000000	90.59423000	36.36196000
107.09999382	0.00000000	91.70767000	38.31200000
107.29999381	0.00000000	92.87032000	40.58809000
107.49999379	0.00000000	93.62081000	42.07677000
107.69999378	0.00000000	94.03297000	42.11983000
107.89999377	0.00000000	93.62081000	41.00639000
108.09999376	0.00000000	92.87032000	39.47465000
108.29999375	0.00000000	91.70767000	37.89370000
108.49999374	0.00000000	90.59423000	36.36196000
108.69999372	0.00000000	90.16978000	35.24852000
108.89999371	0.00000000	90.16978000	35.24852000
109.09999370	0.00000000	90.54502000	36.36196000
109.29999369	0.00000000	91.33242000	37.89370000
109.49999368	0.00000000	92.12598000	39.47465000
109.69999366	0.00000000	93.24557000	40.96333000
109.89999365	0.00000000	94.03297000	41.75073000
110.09999364	0.00000000	94.03912000	41.38164000
110.29999363	0.00000000	94.03297000	40.63730000
110.49999362	0.00000000	93.24557000	39.43159000
110.69999360	0.00000000	92.12598000	37.89370000
110.89999359	0.00000000	91.33242000	36.36196000
111.09999358	0.00000000	90.54502000	35.19931000
111.29999357	0.00000000	90.16978000	34.83022000
111.49999356	0.00000000	90.16978000	35.19931000
111.69999355	0.00000000	90.54502000	36.31274000
111.89999353	0.00000000	91.28937000	37.47539000
112.09999352	0.00000000	91.70767000	38.26894000
112.29999351	0.00000000	92.12598000	39.05635000
112.49999350	0.00000000	92.87032000	39.43159000
112.69999349	0.00000000	93.24557000	39.47465000
112.89999347	0.00000000	93.24557000	39.47465000
113.09999346	0.00000000	92.87032000	39.43159000
113.29999345	0.00000000	92.12598000	39.05635000
113.49999344	0.00000000	91.75073000	38.31200000
113.69999343	0.00000000	91.70767000	37.93676000
113.89999341	0.00000000	91.70767000	37.85064000
114.09999340	0.00000000	91.70767000	37.47539000
114.29999339	0.00000000	91.66460000	36.73105000
114.49999338	0.00000000	91.33242000	36.35580000
114.69999337	0.00000000	90.96333000	36.31274000
114.89999336	0.00000000	91.33242000	36.35580000
115.09999334	-0.15871060	91.66460000	36.73105000
115.29999333	0.00000000	91.70767000	37.47539000
115.49999332	0.00000000	91.75073000	37.89370000
115.69999331	0.00000000	92.08292000	38.31200000
115.89999330	0.00000000	92.45201000	39.09941000
116.09999328	0.00000000	92.08292000	39.84990000
116.29999327	0.00000000	91.75073000	40.63730000
116.49999326	0.00000000	91.66460000	40.96333000
116.69999325	0.00000000	91.28937000	40.58809000
116.89999324	0.00000000	90.59423000	39.43159000
117.09999322	0.00000000	90.59423000	37.93676000
117.29999321	0.00000000	91.33242000	36.78026000
117.49999320	0.00000000	92.08292000	36.35580000
117.69999319	0.00000000	92.87032000	36.31274000
117.89999318	0.00000000	93.24557000	36.35580000
118.09999317	0.00000000	93.24557000	36.73105000
118.29999315	0.00000000	92.87032000	37.51845000
118.49999314	0.00000000	92.08292000	38.31200000
118.69999313	0.00000000	91.33242000	39.47465000
118.89999312	0.00000000	90.50197000	40.58809000
119.09999311	0.00000000	89.79453000	41.01255000
119.29999309	0.00000000	89.38238000	41.01255000
119.49999308	0.00000000	89.79453000	40.63730000
119.69999307	0.00000000	90.54502000	39.89296000
119.89999306	0.00000000	91.75073000	39.47465000
120.09999305	0.00000000	93.24557000	39.05635000
120.29999303	0.00000000	94.40206000	38.31200000
120.49999302	0.00000000	94.82652000	37.93676000
120.69999301	0.00000000	94.82652000	37.89370000
120.89999300	0.00000000	94.40206000	37.89370000
121.09999299	0.00000000	93.24557000	37.89370000
121.29999298	0.00000000	91.70767000	37.89370000
121.49999296	0.00000000	90.16978000	37.93676000
121.69999295	0.00000000	89.01328000	38.31200000
121.89999294	0.00000000	88.63803000	39.05635000
122.09999293	0.00000000	88.96407000	39.43159000
122.29999292	0.00000000	89.75147000	39.47465000
122.49999290	0.00000000	90.54502000	39.47465000
122.69999289	0.00000000	91.70767000	39.47465000
122.89999288	0.00000000	92.87032000	39.47465000
123.09999287	0.00000000	93.66387000	39.43159000
123.29999286	0.00000000	94.45127000	39.05635000
123.49999284	0.00000000	94.77731000	38.31200000
123.69999283	0.00000000	94.45127000	37.93676000
123.89999282	0.00000000	93.66387000	37.85064000
124.09999281	0.00000000	92.87032000	37.51845000
124.29999280	0.00000000	91.70767000	37.14936000
124.49999279	0.00000000	90.59423000	37.51845000
124.69999277	0.00000000	90.16978000	37.85064000
124.89999276	0.00000000	90.12672000	37.93676000
125.09999275	0.00000000	90.12672000	38.31200000
125.29999274	0.00000000	90.16978000	39.05635000
125.49999273	0.00000000	90.54502000	39.43159000
125.69999271	0.00000000	91.33242000	39.47465000
125.89999270	0.00000000	92.12598000	39.47465000
126.09999269	0.00000000	93.28863000	39.43159000
126.29999268	0.00000000	94.35899000	39.05635000
126.49999267	0.00000000	94.40206000	38.31200000
126.69999265	0.00000000	93.66387000	37.89370000
126.89999264	0.00000000	92.87032000	37.47539000
127.09999263	0.00000000	91.70767000	36.78026000
127.29999262	0.00000000	90.54502000	36.78026000
127.49999261	0.00000000	89.79453000	37.47539000
127.69999260	0.00000000	89.38238000	37.85064000
127.89999258	0.00000000	89.79453000	37.93676000
128.09999257	0.00000000	90.50197000	38.31200000
128.29999256	0.00000000	91.33242000	39.05635000
128.49999255	0.00000000	92.08292000	39.38238000
128.69999254	0.00000000	92.87032000	39.09941000
128.89999252	0.00000000	93.24557000	38.68725000
129.09999251	0.00000000	93.24557000	38.68110000
129.29999250	0.00000000	92.82111000	38.26894000
129.49999249	0.00000000	91.70767000	37.93676000
129.69999248	0.00000000	90.59423000	37.85064000
129.89999246	0.00000000	90.16978000	37.51845000
130.09999245	0.00000000	90.12672000	37.14936000
130.29999244	0.00000000	90.12672000	37.51845000
130.49999243	0.00000000	90.16978000	37.89370000
130.69999242	0.00000000	90.54502000	38.31200000
130.89999241	0.00000000	91.33242000	39.00713000
131.09999239	0.00000000	92.08292000	39.00713000
131.29999238	0.00000000	92.87032000	38.31200000
131.49999237	0.00000000	93.19635000	37.93676000
131.69999236	0.00000000	92.87032000	37.89370000
131.89999235	0.00000000	92.12598000	37.89370000
132.09999233	0.00000000	91.75073000	37.89370000
132.29999232	0.00000000	91.70767000	37.89370000
132.49999231	0.00000000	91.70767000	37.93676000
132.69999230	-0.15871060	91.70767000	38.31200000
132.89999229	0.00000000	91.70767000	39.05635000
133.09999227	0.00000000	91.70767000	39.43159000
133.29999226	0.00000000	91.70767000	39.47465000
133.49999225	0.00000000	91.70767000	39.47465000
133.69999224	0.00000000	91.70767000	39.43159000
133.89999223	0.00000000	91.70767000	39.05635000
134.09999222	0.00000000	91.70767000	38.31200000
134.29999220	0.00000000	91.70767000	37.89370000
134.49999219	0.00000000	91.75073000	37.47539000
134.69999218	-0.15871060	92.12598000	36.73105000
134.89999217	0.00000000	92.87032000	36.40502000
135.09999216	0.00000000	93.19635000	36.73105000
135.29999214	0.00000000	92.87032000	37.47539000
135.49999213	0.00000000	92.12598000	37.89370000
135.69999212	0.00000000	91.70767000	38.31200000
135.89999211	0.00000000	91.28937000	39.09941000
136.09999210	0.00000000	90.54502000	39.80684000
136.29999208	0.00000000	90.16978000	40.21899000
136.49999207	0.00000000	90.16978000	39.84990000
136.69999206	0.00000000	90.54502000	39.47465000
136.89999205	0.00000000	91.33242000	39.05635000
137.09999204	0.00000000	92.08292000	38.31200000
137.29999203	0.00000000	92.87032000	37.93676000
137.49999201	0.00000000	93.24557000	37.89370000
137.69999200	0.00000000	93.28863000	37.89370000
137.89999199	0.00000000	93.28863000	37.89370000
138.09999198	0.00000000	93.24557000	37.89370000
138.29999197	0.00000000	92.87032000	37.93676000
138.49999195	0.00000000	92.08292000	38.31200000
138.69999194	0.00000000	91.37549000	39.09941000
138.89999193	0.00000000	90.92027000	39.80684000
139.09999192	0.00000000	90.95718000	40.26205000
139.29999191	0.00000000	90.92027000	40.26821000
139.49999189	0.00000000	91.37549000	40.63730000
139.69999188	0.00000000	92.08292000	40.58809000
139.89999187	0.00000000	92.87032000	39.84990000
140.09999186	0.00000000	93.24557000	39.09941000
140.29999185	0.00000000	93.24557000	38.26894000
140.49999184	0.00000000	92.87032000	37.51845000
140.69999182	0.00000000	92.12598000	36.73105000
140.89999181	0.00000000	91.75073000	36.40502000
141.09999180	0.00000000	91.70767000	36.73105000
141.29999179	0.00000000	91.70767000	37.51845000
141.49999178	0.00000000	91.70767000	38.26894000
141.69999176	0.00000000	91.70767000	39.05635000
141.89999175	0.00000000	91.70767000	39.43159000
142.09999174	0.00000000	91.70767000	39.47465000
142.29999173	0.00000000	91.70767000	39.47465000
142.49999172	0.00000000	91.70767000	39.43159000
142.69999170	0.00000000	91.70767000	39.00713000
142.89999169	0.00000000	91.66460000	37.89370000
143.09999168	0.00000000	91.33242000	36.78026000
143.29999167	0.00000000	90.96333000	36.35580000
143.49999166	0.00000000	91.33242000	36.31274000
143.69999165	0.00000000	91.66460000	36.35580000
143.89999163	0.00000000	91.70767000	36.73105000
144.09999162	0.00000000	91.70767000	37.47539000
144.29999161	0.00000000	91.70767000	37.89370000
144.49999160	0.00000000	91.70767000	38.31200000
144.69999159	0.00000000	91.70767000	39.05635000
144.89999157	0.00000000	91.70767000	39.38238000
145.09999156	0.00000000	91.70767000	39.05635000
145.29999155	0.00000000	91.66460000	38.31200000
145.49999154	0.00000000	91.28937000	37.93676000
145.69999153	0.00000000	90.54502000	37.85064000
145.89999151	0.00000000	90.21899000	37.47539000
146.09999150	0.00000000	90.54502000	36.73105000
146.29999149	0.00000000	91.28937000	36.40502000
146.49999148	0.00000000	91.66460000	36.73105000
146.69999147	0.00000000	91.70767000	37.51845000
146.89999146	0.00000000	91.75073000	38.26894000
147.09999144	0.00000000	92.08292000	39.05635000
147.29999143	0.00000000	92.45201000	39.43159000
147.49999142	0.00000000	92.08292000	39.47465000
147.69999141	0.00000000	91.75073000	39.47465000
147.89999140	0.00000000	91.70767000	39.47465000
148.09999138	-0.15871060	91.70767000	39.43159000
148.29999137	0.00000000	91.70767000	39.05635000
148.49999136	0.00000000	91.70767000	38.31200000
148.69999135	0.00000000	91.70767000	37.93676000
148.89999134	0.00000000	91.70767000	37.89370000
149.09999132	0.00000000	91.70767000	37.89370000
149.29999131	0.00000000	91.75073000	37.89370000
149.49999130	0.00000000	92.12598000	37.93676000
149.69999129	0.00000000	92.87032000	38.31200000
149.89999128	0.00000000	93.19635000	39.05635000
150.09999127	0.00000000	92.87032000	39.43159000
150.29999125	0.00000000	92.12598000	39.47465000
150.49999124	0.00000000	91.75073000	39.47465000
150.69999123	0.00000000	91.70767000	39.47465000
150.89999122	0.00000000	91.70767000	39.47465000
151.09999121	0.00000000	91.70767000	39.43159000
151.29999119	0.00000000	91.70767000	39.05635000
151.49999118	0.00000000	91.70767000	38.31200000
151.69999117	0.00000000	91.70767000	37.93676000
151.89999116	0.00000000	91.70767000	37.89370000
152.09999115	0.00000000	91.75073000	37.89370000
152.29999113	0.00000000	92.12598000	37.89370000
152.49999112	0.00000000	92.87032000	37.89370000
152.69999111	0.00000000	93.19635000	37.93676000
152.89999110	0.00000000	92.87032000	38.31200000
153.09999109	0.00000000	92.12598000	39.00713000
153.29999108	0.00000000	91.75073000	39.05635000
153.49999106	0.00000000	91.66460000	38.73031000
153.69999105	0.00000000	91.28937000	39.09941000
153.89999104	0.00000000	90.50197000	39.43159000
154.09999103	0.00000000	89.84374000	39.47465000
154.29999102	0.00000000	89.75762000	39.43159000
154.49999100	0.00000000	90.53887000	39.05635000
154.69999099	0.00000000	90.87720000	38.31200000
154.89999098	0.00000000	91.33242000	37.93676000
155.09999097	0.00000000	91.70767000	37.89370000
155.29999096	0.00000000	92.08292000	37.89370000
155.49999094	0.00000000	92.45201000	37.89370000
155.69999093	0.00000000	92.08292000	37.89370000
155.89999092	0.00000000	91.75073000	37.89370000
156.09999091	0.00000000	91.70767000	37.93676000
156.29999090	0.00000000	91.66460000	38.31200000
156.49999089	0.00000000	91.28937000	39.05635000
156.69999087	0.00000000	90.54502000	39.43159000
156.89999086	0.00000000	90.16978000	39.43159000
157.09999085	0.00000000	90.12672000	39.05635000
157.29999084	0.00000000	90.16978000	38.31200000
157.49999083	0.00000000	90.54502000	37.93676000
157.69999081	0.00000000	91.28937000	37.85064000
157.89999080	0.00000000	91.66460000	37.47539000
158.09999079	0.00000000	91.70767000	36.78026000
158.29999078	0.00000000	91.75073000	36.78026000
158.49999077	0.00000000	92.08292000	37.47539000
158.69999075	0.00000000	92.45201000	37.85064000
158.89999074	0.00000000	92.08292000	37.89370000
159.09999073	0.00000000	91.75073000	37.93676000
159.29999072	0.00000000	91.66460000	38.31200000
159.49999071	0.00000000	91.28937000	39.05635000
159.69999070	0.00000000	90.59423000	39.43159000
159.89999068	0.00000000	90.59423000	39.43159000
160.09999067	0.00000000	91.28937000	39.05635000
160.29999066	0.00000000	91.66460000	38.31200000
160.49999065	0.00000000	91.70767000	37.93676000
160.69999064	0.00000000	91.70767000	37.89370000
160.89999062	0.00000000	91.70767000	37.89370000
161.09999061	0.00000000	91.70767000	37.89370000
161.29999060	0.00000000	91.70767000	37.89370000
161.49999059	0.00000000	91.70767000	37.89370000
161.69999058	0.00000000	91.70767000	37.89370000
161.89999056	0.00000000	91.75073000	37.93676000
162.09999055	0.00000000	92.08292000	38.31200000
162.29999054	0.00000000	92.45201000	39.05635000
162.49999053	0.00000000	92.03986000	39.38238000
162.69999052	0.00000000	91.33242000	39.05635000
162.89999051	0.00000000	90.54502000	38.31200000
163.09999049	0.00000000	90.16978000	37.93676000
163.29999048	0.00000000	90.12672000	37.89370000
163.49999047	0.00000000	90.12672000	37.89370000
163.69999046	0.00000000	90.16978000	37.89370000
163.89999045	0.00000000	90.54502000	37.89370000
164.09999043	0.00000000	91.28937000	37.89370000
164.29999042	0.00000000	91.70767000	37.89370000
164.49999041	0.00000000	92.12598000	37.89370000
164.69999040	0.00000000	92.82111000	37.89370000
164.89999039	0.00000000	92.82111000	37.89370000
165.09999037	0.00000000	92.12598000	37.89370000
165.29999036	0.00000000	91.75073000	37.89370000
165.49999035	0.00000000	91.70767000	37.93676000
165.69999034	0.00000000	91.70767000	38.31200000
165.89999033	0.00000000	91.70767000	39.05635000
166.09999032	0.00000000	91.70767000	39.38238000
166.29999030	0.00000000	91.66460000	39.05635000
166.49999029	0.00000000	91.33242000	38.31200000
166.69999028	0.00000000	90.96333000	37.93676000
166.89999027	0.00000000	91.33242000	37.89370000
167.09999026	0.00000000	91.66460000	37.89370000
167.29999024	0.00000000	91.70767000	37.89370000
167.49999023	0.00000000	91.70767000	37.89370000
167.69999022	0.00000000	91.70767000	37.89370000
167.89999021	0.00000000	91.70767000	37.89370000
168.09999020	0.00000000	91.70767000	37.89370000
168.29999018	0.00000000	91.70767000	37.89370000
168.49999017	0.00000000	91.70767000	37.89370000
168.69999016	0.00000000	91.70767000	37.89370000
168.89999015	0.00000000	91.70767000	37.89370000
169.09999014	0.00000000	91.70767000	37.89370000
169.29999013	0.00000000	91.70767000	37.89370000
169.49999011	0.00000000	91.70767000	37.89370000
169.69999010	0.00000000	91.70767000	37.89370000
169.89999009	0.00000000	91.70767000	37.89370000
170.09999008	0.00000000	91.70767000	37.89370000
170.29999007	0.00000000	91.70767000	37.89370000
170.49999005	0.00000000	91.70767000	37.89370000
170.69999004	0.00000000	91.70767000	37.93676000
170.89999003	0.00000000	91.70767000	38.26894000
171.09999002	0.00000000	91.70767000	38.63804000
171.29999001	0.00000000	91.70767000	38.26894000
171.49998999	0.00000000	91.70767000	37.93676000
171.69998998	0.00000000	91.70767000	37.89370000
171.89998997	0.00000000	91.70767000	37.89370000
172.09998996	0.00000000	91.70767000	37.89370000
172.29998995	0.00000000	91.70767000	37.89370000
172.49998994	0.00000000	91.70767000	37.89370000
172.69998992	0.00000000	91.70767000	37.89370000
172.89998991	0.00000000	91.70767000	37.89370000
173.09998990	0.00000000	91.70767000	37.89370000
173.29998989	0.00000000	91.70767000	37.89370000
173.49998988	0.00000000	91.70767000	37.89370000
173.69998986	0.00000000	91.70767000	37.89370000
173.89998985	0.00000000	91.70767000	37.89370000
174.09998984	0.00000000	91.70767000	37.89370000
174.29998983	0.00000000	91.70767000	37.89370000
174.49998982	0.00000000	91.70767000	37.89370000
174.69998980	0.00000000	91.70767000	37.89370000
174.89998979	0.00000000	91.70767000	37.89370000
175.09998978	0.00000000	91.70767000	37.89370000
175.29998977	0.00000000	91.70767000	37.89370000
175.49998976	0.00000000	91.70767000	37.89370000
175.69998975	0.00000000	91.70767000	37.89370000
175.89998973	0.00000000	91.66460000	37.89370000
176.09998972	0.00000000	91.33242000	37.89370000
176.29998971	0.00000000	90.96333000	37.89370000
176.49998970	0.00000000	91.33242000	37.89370000
176.69998969	0.00000000	91.66460000	37.89370000
176.89998967	0.00000000	91.70767000	37.89370000
177.09998966	0.00000000	91.70767000	37.89370000
177.29998965	0.00000000	91.70767000	37.89370000
177.49998964	0.00000000	91.70767000	37.89370000
177.69998963	0.00000000	91.70767000	37.89370000
177.89998961	0.00000000	91.70767000	37.89370000
178.09998960	0.00000000	91.70767000	37.89370000
178.29998959	0.00000000	91.70767000	37.89370000
178.49998958	0.00000000	91.70767000	37.89370000
178.69998957	0.00000000	91.70767000	37.89370000
178.89998956	0.00000000	91.70767000	37.89370000
179.09998954	0.00000000	91.70767000	37.89370000
179.29998953	0.00000000	91.70767000	37.89370000
179.49998952	0.00000000	91.70767000	37.89370000
179.69998951	0.00000000	91.70767000	37.89370000
179.89998950	-0.15871060	91.70767000	37.89370000
180.09998948	0.00000000	91.70767000	37.89370000
180.29998947	0.00000000	91.70767000	37.89370000
180.49998946	0.00000000	91.70767000	37.89370000
180.69998945	0.00000000	91.70767000	37.93676000
180.89998944	0.00000000	91.70767000	38.26894000
181.09998942	0.00000000	91.70767000	38.68110000
181.29998941	0.00000000	91.70767000	38.68725000
181.49998940	0.00000000	91.70767000	39.05635000
181.69998939	0.00000000	91.70767000	39.00713000
181.89998938	0.00000000	91.70767000	38.31200000
182.09998937	0.00000000	91.70767000	37.93676000
182.29998935	0.00000000	91.70767000	37.89370000
182.49998934	0.00000000	91.70767000	37.89370000
182.69998933	-0.15871060	91.70767000	37.89370000
182.89998932	0.00000000	91.70767000	37.89370000
183.09998931	0.00000000	91.70767000	37.89370000
183.29998929	0.00000000	91.66460000	37.89370000
183.49998928	0.00000000	91.33242000	37.89370000
183.69998927	0.00000000	90.96333000	37.89370000
183.89998926	0.00000000	91.33242000	37.93676000
184.09998925	0.00000000	91.66460000	38.31200000
184.29998923	0.00000000	91.70767000	39.05635000
184.49998922	0.00000000	91.70767000	39.43159000
184.69998921	0.00000000	91.70767000	39.43159000
184.89998920	0.00000000	91.70767000	39.05635000
185.09998919	0.00000000	91.70767000	38.31200000
185.29998918	0.00000000	91.70767000	37.93676000
185.49998916	0.00000000	91.70767000	37.89370000
185.69998915	0.00000000	91.70767000	37.89370000
185.89998914	0.00000000	91.70767000	37.89370000
186.09998913	0.00000000	91.70767000	37.89370000
186.29998912	0.00000000	91.70767000	37.89370000
186.49998910	0.00000000	91.70767000	37.89370000
186.69998909	0.00000000	91.70767000	37.89370000
186.89998908	0.00000000	91.66460000	37.89370000
187.09998907	-0.15871060	91.28937000	37.93676000
187.29998906	0.00000000	90.59423000	38.26894000
187.49998904	0.00000000	90.59423000	38.63804000
187.69998903	0.00000000	91.28937000	38.26894000
187.89998902	0.00000000	91.66460000	37.93676000
188.09998901	0.00000000	91.70767000	37.89370000
188.29998900	0.00000000	91.70767000	37.85064000
188.49998899	0.00000000	91.70767000	37.47539000
188.69998897	0.00000000	91.70767000	36.78026000
188.89998896	0.00000000	91.70767000	36.73105000
189.09998895	0.00000000	91.66460000	37.10014000
189.29998894	0.00000000	91.33242000	37.10630000
189.49998893	0.00000000	90.96333000	37.51845000
189.69998891	0.00000000	91.33242000	37.85064000
189.89998890	-0.15871060	91.61539000	37.89370000
190.09998889	0.00000000	91.28937000	37.89370000
190.29998888	0.00000000	90.54502000	37.89370000
190.49998887	0.00000000	90.21899000	37.89370000
190.69998885	0.00000000	90.54502000	37.89370000
190.89998884	0.00000000	91.28937000	37.89370000
191.09998883	-0.15871060	91.66460000	37.89370000
191.29998882	0.00000000	91.70767000	37.89370000
191.49998881	0.00000000	91.70767000	37.89370000
191.69998880	0.00000000	91.70767000	37.89370000
191.89998878	0.00000000	91.70767000	37.89370000
192.09998877	0.00000000	91.70767000	37.89370000
192.29998876	0.00000000	91.70767000	37.89370000
192.49998875	0.00000000	91.70767000	37.89370000
192.69998874	0.00000000	91.70767000	37.89370000
192.89998872	0.00000000	91.70767000	37.89370000
193.09998871	0.00000000	91.66460000	37.93676000
193.29998870	0.00000000	91.33242000	38.26894000
193.49998869	0.00000000	90.96333000	38.63804000
193.69998868	0.00000000	91.33242000	38.26894000
193.89998866	0.00000000	91.61539000	37.93676000
194.09998865	0.00000000	91.33242000	37.89370000
194.29998864	0.00000000	90.96333000	37.89370000
194.49998863	0.00000000	91.33242000	37.89370000
194.69998862	0.00000000	91.66460000	37.93676000
194.89998861	0.00000000	91.70767000	38.26894000
195.09998859	0.00000000	91.70767000	38.63804000
195.29998858	0.00000000	91.70767000	38.26894000
195.49998857	0.00000000	91.70767000	37.93676000
195.69998856	0.00000000	91.70767000	37.89370000
195.89998855	0.00000000	91.70767000	37.89370000
196.09998853	0.00000000	91.66460000	37.89370000
