Time	Channel A	Channel B	Channel C
(us)	(V)	(mV)	(mV)

-4.59999956	0.00000000	29.66289000	7.89247000
-4.39999957	0.00000000	29.29380000	7.89247000
-4.19999958	0.00000000	29.66289000	7.89247000
-3.99999959	0.00000000	29.99508000	7.89247000
-3.79999960	0.00000000	30.03814000	7.89247000
-3.59999962	0.00000000	30.03814000	7.84940900
-3.39999963	0.00000000	30.03814000	7.51722400
-3.19999964	0.00000000	30.03814000	7.14812900
-2.99999965	0.00000000	30.03814000	7.51722400
-2.79999966	0.00000000	30.03814000	7.84940900
-2.59999968	0.00000000	30.03814000	7.89247000
-2.39999969	0.00000000	30.03814000	7.89247000
-2.19999970	0.00000000	30.03814000	7.89247000
-1.99999971	0.00000000	30.03814000	7.89247000
-1.79999972	0.00000000	30.03814000	7.89247000
-1.59999973	0.00000000	30.03814000	7.89247000
-1.39999975	0.00000000	30.03814000	7.89247000
-1.19999976	0.00000000	30.03814000	7.89247000
-0.99999977	0.00000000	30.03814000	7.89247000
-0.79999978	0.00000000	30.08120000	7.89247000
-0.59999979	0.00000000	30.37032000	7.84940900
-0.39999981	0.15871060	30.40723000	7.51722400
-0.19999982	0.47736220	29.66904000	7.14812900
0.00000017	0.79601380	29.70595000	7.51722400
0.20000016	0.95533960	29.99508000	7.84940900
0.40000015	0.95533960	30.03814000	7.84940900
0.60000013	0.63668800	29.99508000	7.51722400
0.80000012	0.00000000	29.66289000	7.14812900
1.00000011	-1.11466500	29.25074000	7.51722400
1.20000010	-2.07062000	29.28765000	7.84940900
1.40000009	-2.70792300	29.25074000	7.89247000
1.60000008	-2.70792300	29.66289000	7.89247000
1.80000006	-2.07062000	29.99508000	7.89247000
2.00000005	-0.47736220	30.03814000	7.89247000
2.20000004	1.59264300	30.03814000	7.89247000
2.40000003	3.66326300	30.03814000	7.89247000
2.60000002	4.93786900	29.99508000	7.84940900
2.80000000	5.25652100	29.61983000	7.47416300
2.99999999	3.98191400	28.87549000	6.72982200
3.19999998	1.59264300	28.54946000	6.35457700
3.39999997	-1.75196900	28.87549000	6.35457700
3.59999996	-5.09719500	29.61983000	6.72982200
3.79999994	-7.32714100	29.99508000	7.47416300
3.99999993	-7.96444400	30.03814000	7.84940900
4.19999992	-6.53112700	30.03814000	7.89247000
4.39999991	-3.34522600	30.03814000	7.89247000
4.59999990	0.95533960	30.03814000	7.89247000
4.79999989	5.41584600	29.99508000	7.84940900
4.99999987	8.44242100	29.61983000	7.47416300
5.19999986	9.55770200	28.87549000	6.72982200
5.39999985	8.12377000	28.54946000	6.35457700
5.59999984	4.77854300	28.83243000	6.31151500
5.79999983	0.00000000	29.20152000	6.31151500
5.99999981	-4.61921700	28.83243000	6.35457700
6.19999980	-8.12377000	28.54946000	6.72982200
6.39999979	-9.55770200	28.87549000	7.47416300
6.59999978	-8.60174700	29.57062000	7.84940900
6.79999977	-5.57517200	29.61983000	7.89247000
6.99999975	-1.27399100	29.25074000	7.89247000
7.19999974	3.02657500	29.24459000	7.89247000
7.39999973	6.21247500	28.87549000	7.89247000
7.59999972	7.64579200	28.87549000	7.89247000
7.79999971	7.16781500	29.20152000	7.84940900
7.99999970	4.93786900	28.83243000	7.47416300
8.19999968	1.75196900	28.54946000	6.77903500
8.39999967	-1.43331700	28.83243000	6.77903500
8.59999966	-3.82258900	29.24459000	7.47416300
8.79999965	-5.09719500	29.20767000	7.84940900
8.99999964	-4.93786900	29.24459000	7.89247000
9.19999962	-3.66326300	28.87549000	7.89247000
9.39999961	-1.75196900	28.92470000	7.89247000
9.59999960	0.15871060	29.57062000	7.89247000
9.79999959	1.59264300	29.57062000	7.89247000
9.99999958	2.38927200	28.87549000	7.89247000
10.19999956	2.38927200	28.50024000	7.84940900
10.39999955	1.91129400	28.50024000	7.51722400
10.59999954	0.95533960	28.83243000	7.10506800
10.79999953	0.15871060	29.20152000	7.14197800
10.99999952	-0.47736220	28.83243000	7.10506800
11.19999951	-0.95533960	28.50024000	7.47416300
11.39999949	-0.95533960	28.45718000	7.47416300
11.59999948	-0.95533960	28.50024000	7.14812900
11.79999947	-0.63668800	28.83243000	7.47416300
11.99999946	-0.31803640	29.24459000	7.47416300
12.19999945	-0.15871060	29.20767000	7.14812900
12.39999943	-0.15871060	29.24459000	7.51722400
12.59999942	0.00000000	28.87549000	7.84940900
12.79999941	0.00000000	28.87549000	7.84940900
12.99999940	0.00000000	29.20152000	7.51722400
13.19999939	0.00000000	28.83243000	7.14812900
13.39999937	0.00000000	28.50024000	7.47416300
13.59999936	0.00000000	28.45718000	7.47416300
13.79999935	0.00000000	28.45718000	7.14812900
13.99999934	0.00000000	28.50024000	7.51722400
14.19999933	-0.15871060	28.83243000	7.84940900
14.39999932	-0.15871060	29.24459000	7.89247000
14.59999930	-0.15871060	29.20767000	7.89247000
14.79999929	0.00000000	29.24459000	7.89247000
14.99999928	0.00000000	28.83243000	7.89247000
15.19999927	0.00000000	28.50024000	7.89247000
15.39999926	0.00000000	28.50024000	7.89247000
15.59999924	0.00000000	28.83243000	7.84940900
15.79999923	0.00000000	29.20152000	7.51722400
15.99999922	0.00000000	28.83243000	7.14812900
16.19999921	0.00000000	28.50024000	7.51722400
16.39999920	-0.15871060	28.50024000	7.84940900
16.59999919	-0.15871060	28.87549000	7.84940900
16.79999917	-0.15871060	29.61983000	7.51722400
16.99999916	-0.15871060	29.99508000	7.14812900
17.19999915	0.00000000	30.08120000	7.51722400
17.39999914	0.00000000	30.41338000	7.84940900
17.59999913	0.00000000	30.78248000	7.89247000
17.79999911	0.00000000	30.37032000	7.89247000
17.99999910	0.00000000	29.61983000	7.89247000
18.19999909	0.00000000	28.41412000	7.89247000
18.39999908	0.00000000	26.91929000	7.89247000
18.59999907	0.00000000	25.71358000	7.89247000
18.79999905	0.00000000	24.92003000	7.84940900
18.99999904	0.00000000	24.22490000	7.51722400
19.19999903	0.00000000	24.68627000	7.10506800
19.39999902	0.00000000	27.01156000	7.14197800
19.59999901	0.00000000	30.45644000	7.10506800
19.79999900	0.00000000	34.36884000	7.47416300
19.99999898	0.00000000	37.81373000	7.47416300
20.19999897	0.00000000	40.13902000	7.14812900
20.39999896	0.00000000	40.42199000	7.47416300
20.59999895	0.00000000	38.04749000	7.47416300
20.79999894	0.00000000	32.60334000	7.14812900
20.99999892	0.00000000	25.25221000	7.47416300
21.19999891	-0.15871060	17.56890000	7.42495000
21.39999890	0.00000000	11.34350000	6.72982200
21.59999889	0.00000000	8.35383800	6.40378900
21.79999888	0.00000000	9.20275500	6.72982200
21.99999886	0.00000000	15.52042000	7.42495000
22.19999885	0.00000000	26.27337000	7.42495000
22.39999884	0.00000000	39.11171000	6.77903500
22.59999883	0.00000000	51.35334000	6.72982200
22.79999882	0.00000000	59.81176000	7.09891700
22.99999881	0.00000000	61.26353000	7.10506800
23.19999879	0.00000000	55.44414000	7.51722400
23.39999878	0.00000000	42.60580000	7.89247000
23.59999877	0.00000000	25.25221000	8.31077700
23.79999876	0.00000000	7.48031400	9.05511800
23.99999875	0.00000000	-6.76058000	9.38115100
24.19999873	0.00000000	-13.64419000	9.00590400
24.39999872	0.00000000	-10.85753000	7.84940900
24.59999871	0.00000000	1.56865100	6.31151500
24.79999870	0.00000000	21.66585000	4.73671200
24.99999869	0.00000000	44.74655000	3.19881900
25.19999867	0.00000000	64.84375000	2.08538400
25.39999866	0.00000000	77.17765000	2.08538400
25.59999865	0.00000000	79.08464000	3.24803100
25.79999864	-0.15871060	69.36516000	5.24729300
25.99999863	-0.15871060	50.04921000	8.35998900
26.19999862	0.00000000	25.34449000	12.21087000
26.39999860	0.00000000	1.05807100	15.64960000
26.59999859	0.00000000	-16.71383000	17.97490000
26.79999858	0.00000000	-24.06496000	18.25787000
26.99999857	0.00000000	-19.45743000	15.92642000
27.19999856	0.00000000	-4.01697800	10.82677000
27.39999854	0.00000000	18.41166000	3.90009800
27.59999853	0.00000000	43.11638000	-3.80782500
27.79999852	0.00000000	64.33317000	-9.94094400
27.99999851	0.00000000	76.75935000	-13.01058000
28.19999850	0.00000000	78.34030000	-12.17397000
28.39999848	0.00000000	69.07603000	-6.69906400
28.59999847	0.00000000	50.97810000	2.59596400
28.79999846	0.00000000	28.96776000	14.21014000
28.99999845	0.00000000	8.07701800	25.73203000
29.19999844	0.00000000	-7.41264700	34.14124000
29.39999843	0.00000000	-14.06250000	36.84178000
29.59999841	0.00000000	-11.41117000	32.94168000
29.79999840	0.00000000	-0.61515740	23.27141000
29.99999839	0.00000000	15.94488000	9.29502900
30.19999838	0.00000000	33.76599000	-6.09005900
30.39999837	0.00000000	49.30487000	-19.60507000
30.59999835	0.00000000	60.14394000	-27.65133000
30.79999834	0.00000000	63.63189000	-28.43258000
30.99999833	0.00000000	59.49188000	-21.46899000
31.19999832	0.00000000	49.44020000	-8.36614100
31.39999831	0.00000000	35.94980000	7.94168200
31.59999829	0.00000000	21.99188000	24.57554000
31.79999828	0.00000000	10.72835000	38.42273000
31.99999827	0.00000000	3.75246000	45.71235000
32.19999826	0.00000000	2.54675200	44.59892000
32.39999825	0.00000000	7.14812900	35.72219000
32.59999824	0.00000000	15.62500000	21.03838000
32.79999822	0.00000000	26.45792000	3.62327700
32.99999821	0.00000000	36.88484000	-12.96752000
33.19999820	0.00000000	44.65428000	-25.36909000
33.39999819	0.00000000	48.56053000	-30.76402000
33.59999818	0.00000000	47.77313000	-28.48179000
33.79999816	0.00000000	42.79035000	-18.77460000
33.99999815	0.00000000	34.73794000	-3.76476400
34.19999814	0.00000000	26.27337000	13.23819000
34.39999813	0.00000000	19.66043000	28.29724000
34.59999812	0.00000000	15.76033000	38.37352000
34.79999810	0.00000000	15.38509000	41.44316000
34.99999809	0.00000000	18.41166000	36.84178000
35.19999808	0.00000000	23.75738000	25.73203000
35.39999807	0.00000000	29.57677000	11.47269000
35.59999806	0.00000000	34.60876000	-2.51599400
35.79999805	0.00000000	38.04749000	-14.08095000
35.99999803	0.00000000	38.42273000	-20.58317000
36.19999802	0.00000000	35.81446000	-19.84498000
36.39999801	0.00000000	31.53297000	-12.54921000
36.59999800	0.00000000	26.54404000	-0.69512790
36.79999799	0.00000000	21.94882000	12.35236000
36.99999797	0.00000000	19.66043000	22.39788000
37.19999796	0.00000000	19.99262000	27.82972000
37.39999795	0.00000000	22.68701000	27.45448000
37.59999794	0.00000000	26.91929000	21.37057000
37.79999793	0.00000000	31.53297000	12.16781000
37.99999791	0.00000000	35.43922000	2.17765700
38.19999790	0.00000000	37.72145000	-5.85629900
38.39999789	0.00000000	38.09055000	-9.30118100
38.59999788	0.00000000	35.76525000	-7.43725300
38.79999787	0.00000000	31.61909000	-0.93503930
38.99999786	0.00000000	27.34375000	7.89247000
39.19999784	0.00000000	23.80659000	16.67692000
39.39999783	0.00000000	21.06299000	22.76083000
39.59999782	0.00000000	19.56816000	23.51132000
39.79999781	0.00000000	19.94340000	19.00221000
39.99999780	0.00000000	22.22564000	10.91289000
40.19999778	0.00000000	25.33834000	1.71013800
40.39999777	0.00000000	28.92470000	-6.36687900
40.59999776	0.00000000	33.15699000	-10.92520000
40.79999775	0.00000000	36.92790000	-10.54995000
40.99999774	0.00000000	38.50886000	-5.16117100
41.19999772	0.00000000	37.81373000	3.66633800
41.39999771	0.00000000	35.85752000	13.61343000
41.59999770	0.00000000	32.68946000	21.64739000
41.79999769	-0.15871060	28.45718000	25.17839000
41.99999768	0.00000000	24.22490000	24.10802000
42.19999767	0.00000000	21.14911000	19.46358000
42.39999765	0.00000000	19.94340000	12.11860000
42.59999764	0.00000000	20.64468000	3.66633800
42.79999763	0.00000000	22.17643000	-3.62942900
42.99999762	0.00000000	24.18184000	-7.89862200
43.19999761	0.00000000	26.87623000	-8.27386800
43.39999759	0.00000000	29.57062000	-4.87819900
43.59999758	0.00000000	31.48376000	1.24877000
43.79999757	0.00000000	32.31422000	7.75713500
43.99999756	0.00000000	31.99434000	13.23819000
44.19999755	-0.15871060	31.61909000	16.67692000
44.39999753	0.00000000	31.20078000	17.50738000
44.59999752	0.00000000	30.45644000	15.60654000
44.79999751	0.00000000	30.08120000	12.16166000
44.99999750	0.00000000	30.08120000	7.93553100
45.19999749	0.00000000	30.32111000	4.08464600
45.39999748	0.00000000	29.89665000	1.75319900
45.59999746	0.00000000	27.58366000	0.87967510
45.79999745	0.00000000	24.92003000	1.29183100
45.99999744	0.00000000	22.13336000	2.46063000
46.19999743	0.00000000	19.52510000	4.77977300
46.39999742	0.00000000	18.41166000	7.43110200
46.59999740	0.00000000	19.61737000	9.38115100
46.79999739	0.00000000	23.10531000	10.58686000
46.99999738	0.00000000	28.54946000	10.95595000
47.19999737	0.00000000	34.69488000	10.53765000
47.39999736	0.00000000	40.13902000	9.00590400
47.59999734	0.00000000	43.54084000	6.68676100
47.79999733	0.00000000	43.86073000	4.40452700
47.99999732	0.00000000	39.99754000	2.46063000
48.19999731	0.00000000	33.06471000	1.71013800
48.39999730	0.00000000	24.92003000	2.08538400
48.59999729	0.00000000	16.83071000	3.66633800
48.79999727	0.00000000	11.10359000	6.36072800
48.99999726	0.00000000	9.52263600	9.42421200
49.19999725	0.00000000	12.26624000	12.11860000
49.39999724	0.00000000	18.87303000	13.65650000
49.59999723	0.00000000	28.50640000	13.65650000
49.79999721	0.00000000	38.46580000	12.11860000
49.99999720	0.00000000	45.77386000	9.38115100
50.19999719	0.00000000	48.51131000	5.93626900
50.39999718	0.00000000	46.19217000	2.46063000
50.59999717	0.00000000	39.62844000	0.13533460
50.79999715	0.00000000	30.03814000	-1.02116100
50.99999714	0.00000000	20.41092000	-0.60285430
51.19999713	0.00000000	13.47195000	1.71013800
51.39999712	0.00000000	10.36540000	5.15501900
51.59999711	0.00000000	12.30930000	9.05511800
51.79999710	0.00000000	18.41166000	12.49385000
51.99999708	0.00000000	26.87623000	14.81299000
52.19999707	0.00000000	35.30389000	15.18824000
52.39999706	0.00000000	41.11712000	13.65650000
52.59999705	0.00000000	43.07332000	10.58686000
52.79999704	0.00000000	41.16019000	6.72982200
52.99999702	0.00000000	35.76525000	3.29109200
53.19999701	0.00000000	28.45718000	0.92888770
53.39999700	0.00000000	21.19833000	0.17839570
53.59999699	0.00000000	16.22170000	0.92888770
53.79999698	0.00000000	15.42815000	3.24803100
53.99999696	0.00000000	18.41166000	6.26845500
54.19999695	0.00000000	23.84965000	8.96284400
54.39999694	0.00000000	30.37032000	10.53765000
54.59999693	0.00000000	36.46653000	10.91289000
54.79999692	0.00000000	39.53617000	10.16855000
54.99999691	0.00000000	38.88410000	8.26771600
55.19999689	0.00000000	35.76525000	6.40378900
55.39999688	0.00000000	30.73942000	5.24729300
55.59999687	0.00000000	24.60015000	5.24729300
55.79999686	-0.15871060	19.66043000	6.36072800
55.99999685	0.00000000	17.29208000	7.89247000
56.19999683	0.00000000	18.03642000	9.42421200
56.39999682	0.00000000	21.10605000	10.49459000
56.59999681	0.00000000	25.76279000	10.07628000
56.79999680	0.00000000	31.10851000	7.80019600
56.99999679	0.00000000	35.34695000	4.77977300
57.19999677	0.00000000	37.30315000	2.04232300
57.39999676	0.00000000	36.92790000	0.13533460
57.59999675	0.00000000	34.23351000	-0.55979330
57.79999674	0.00000000	30.03814000	1.02116100
57.99999673	0.00000000	25.80585000	4.82898600
58.19999672	0.00000000	22.68701000	9.47342500
58.39999670	0.00000000	21.14911000	14.07480000
58.59999669	0.00000000	21.52436000	17.50738000
58.79999668	0.00000000	23.75738000	18.21481000
58.99999667	0.00000000	26.45792000	15.92642000
59.19999666	0.00000000	28.78937000	10.91289000
59.39999664	0.00000000	30.73326000	4.77977300
59.59999663	0.00000000	31.48376000	-1.02116100
59.79999662	0.00000000	31.15157000	-5.24729300
59.99999661	0.00000000	29.99508000	-6.73597400
60.19999660	0.00000000	28.45718000	-4.78592500
60.39999658	0.00000000	26.91929000	0.59670270
60.59999657	0.00000000	25.80585000	7.84940900
60.79999656	0.00000000	25.76279000	14.81299000
60.99999655	0.00000000	26.50098000	19.83883000
61.19999654	0.00000000	27.29453000	22.10876000
61.39999653	0.00000000	28.45718000	20.53395000
61.59999651	0.00000000	29.52756000	15.18824000
61.79999650	0.00000000	29.57062000	7.84940900
61.99999649	0.00000000	28.83243000	0.13533460
62.19999648	0.00000000	28.03888000	-6.36687900
62.39999647	0.00000000	26.87623000	-9.43036400
62.59999645	0.00000000	25.76279000	-8.36614100
62.79999644	0.00000000	25.38755000	-4.14000900
62.99999643	0.00000000	25.76279000	2.08538400
63.19999642	0.00000000	26.91929000	9.42421200
63.39999641	0.00000000	28.41412000	16.30167000
63.59999639	0.00000000	29.61983000	20.57702000
63.79999638	0.00000000	30.41338000	21.37057000
63.99999637	0.00000000	31.15157000	19.08834000
64.19999636	0.00000000	31.10851000	14.07480000
64.39999635	0.00000000	29.94586000	7.89247000
64.59999634	0.00000000	28.08194000	1.71013800
64.79999632	0.00000000	26.18110000	-3.29724400
64.99999631	0.00000000	25.38755000	-5.62253900
65.19999630	0.00000000	25.33834000	-5.29650500
65.39999629	0.00000000	25.76279000	-2.60211600
65.59999628	0.00000000	26.91929000	1.62401600
65.79999626	0.00000000	28.41412000	6.26845500
65.99999625	0.00000000	29.52756000	10.53765000
66.19999624	0.00000000	29.57062000	13.65650000
66.39999623	0.00000000	28.83243000	15.27436000
66.59999622	0.00000000	28.03888000	15.64960000
66.79999620	0.00000000	26.87623000	14.90526000
66.99999619	0.00000000	25.76279000	12.91215000
67.19999618	0.00000000	25.43061000	10.21161000
67.39999617	0.00000000	26.18110000	6.68676100
67.59999616	0.00000000	28.08194000	3.24803100
67.79999615	0.00000000	29.99508000	0.46751960
67.99999613	0.00000000	31.57603000	-1.43946800
68.19999612	0.00000000	32.68946000	-2.26993100
68.39999611	0.00000000	32.64640000	-1.81471400
68.59999610	0.00000000	31.06545000	-0.22760820
68.79999609	0.00000000	27.98966000	3.24803100
68.99999607	0.00000000	24.18184000	7.47416300
69.19999606	0.00000000	21.06299000	11.42347000
69.39999605	0.00000000	19.14985000	15.27436000
69.59999604	0.00000000	18.78691000	17.92569000
69.79999603	0.00000000	20.78002000	18.30093000
69.99999601	0.00000000	24.60015000	16.35089000
70.19999600	0.00000000	29.66289000	12.11860000
70.39999599	0.00000000	34.65182000	6.72982200
70.59999598	0.00000000	38.50886000	1.66707700
70.79999597	0.00000000	40.00369000	-2.55905500
70.99999596	0.00000000	38.46580000	-4.82898600
71.19999594	0.00000000	34.23351000	-4.09079700
71.39999593	0.00000000	28.45718000	-1.07037400
71.59999592	0.00000000	22.64394000	3.20497000
71.79999591	0.00000000	17.98720000	7.84940900
71.99999590	0.00000000	15.29281000	12.11860000
72.19999588	0.00000000	15.29281000	15.14518000
72.39999587	0.00000000	17.98720000	15.92642000
72.59999586	0.00000000	22.64394000	14.07480000
72.79999585	0.00000000	28.41412000	11.04823000
72.99999584	0.00000000	33.80905000	7.89247000
73.19999582	0.00000000	37.30315000	4.82283400
73.39999581	0.00000000	38.50886000	2.54675200
73.59999580	0.00000000	37.35236000	2.12844500
73.79999579	0.00000000	34.27657000	3.19881900
73.99999578	0.00000000	29.99508000	4.73671200
74.19999577	0.00000000	25.38755000	6.26845500
74.39999575	0.00000000	21.52436000	7.38188900
74.59999574	0.00000000	19.56816000	7.38188900
74.79999573	0.00000000	19.52510000	6.26845500
74.99999572	0.00000000	21.10605000	4.77977300
75.19999571	0.00000000	24.13263000	3.66633800
75.39999569	0.00000000	27.62057000	3.66633800
75.59999568	0.00000000	30.32111000	4.82283400
75.79999567	0.00000000	32.27116000	6.77903500
75.99999566	0.00000000	32.64640000	9.42421200
76.19999565	0.00000000	31.61909000	11.74951000
76.39999563	0.00000000	30.41338000	12.86909000
76.59999562	0.00000000	29.24459000	12.86294000
76.79999561	0.00000000	27.71284000	10.82677000
76.99999560	0.00000000	26.96850000	7.05585600
77.19999559	0.00000000	26.87623000	2.46063000
77.39999558	0.00000000	26.87623000	-1.02116100
77.59999556	0.00000000	26.87623000	-2.97736200
77.79999555	0.00000000	26.83317000	-3.29724400
77.99999554	0.00000000	26.45792000	-0.97810030
78.19999553	0.00000000	25.71358000	3.24803100
78.39999552	0.00000000	25.33834000	8.26771600
78.59999550	0.00000000	25.33834000	13.28125000
78.79999549	0.00000000	25.76279000	16.72613000
78.99999548	0.00000000	26.91929000	17.88263000
79.19999547	0.00000000	28.45718000	16.35089000
79.39999546	0.00000000	30.03814000	12.53691000
79.59999544	0.00000000	31.57603000	7.93553100
79.79999543	0.00000000	32.68946000	3.62327700
79.99999542	0.00000000	32.64640000	0.13533460
80.19999541	0.00000000	31.06545000	-2.18380900
80.39999540	0.00000000	28.03888000	-2.55905500
80.59999539	0.00000000	24.60015000	-1.07037400
80.79999537	0.00000000	22.31176000	1.62401600
80.99999536	0.00000000	21.48130000	4.73671200
81.19999535	0.00000000	22.26870000	7.84940900
81.39999534	0.00000000	24.18184000	10.58686000
81.59999533	0.00000000	26.87623000	12.53691000
81.79999531	0.00000000	29.57062000	13.69956000
81.99999530	0.00000000	31.52682000	13.69956000
82.19999529	0.00000000	32.68946000	12.53691000
82.39999528	0.00000000	32.64640000	10.58686000
82.59999527	0.00000000	31.15157000	7.89247000
82.79999525	0.00000000	28.87549000	5.15501900
82.99999524	0.00000000	26.91929000	2.78051200
83.19999523	0.00000000	25.33834000	0.46751960
83.39999522	0.00000000	24.22490000	-1.02116100
83.59999521	0.00000000	24.22490000	-1.02116100
83.79999520	0.00000000	25.29527000	0.51058070
83.99999518	0.00000000	26.45792000	3.24803100
84.19999517	0.00000000	27.25147000	6.72982200
84.39999516	0.00000000	28.03888000	10.58686000
84.59999515	0.00000000	28.41412000	13.65650000
84.79999514	0.00000000	28.45718000	15.23130000
84.99999512	0.00000000	28.45718000	15.23130000
85.19999511	0.00000000	28.45718000	13.60728000
85.39999510	0.00000000	28.45718000	10.11934000
85.59999509	0.00000000	28.45718000	5.15501900
85.79999508	0.00000000	28.45718000	0.59670270
85.99999506	0.00000000	28.45718000	-2.18380900
86.19999505	0.00000000	28.41412000	-2.97736200
86.39999504	0.00000000	27.98966000	-2.18380900
86.59999503	0.00000000	26.87623000	0.59670270
86.79999502	0.00000000	25.76279000	5.15501900
86.99999501	0.00000000	25.33834000	10.16855000
87.19999499	0.00000000	25.33834000	13.98253000
87.39999498	0.00000000	25.71358000	15.97564000
87.59999497	0.00000000	26.50098000	15.56348000
87.79999496	0.00000000	27.29453000	13.23819000
87.99999495	0.00000000	28.45718000	9.00590400
88.19999493	0.00000000	29.57062000	4.04158400
88.39999492	0.00000000	29.94586000	0.17839570
88.59999491	0.00000000	29.57062000	-2.14074800
88.79999490	0.00000000	28.45718000	-2.14074800
88.99999489	0.00000000	27.29453000	0.17839570
89.19999487	0.00000000	26.50098000	4.04158400
89.39999486	0.00000000	25.71358000	9.00590400
89.59999485	0.00000000	25.33834000	13.18898000
89.79999484	0.00000000	25.33834000	15.18824000
89.99999483	0.00000000	25.76279000	15.18824000
90.19999482	0.00000000	26.87623000	13.18898000
90.39999480	0.00000000	27.98966000	8.96284400
90.59999479	0.00000000	28.41412000	3.66633800
90.79999478	0.00000000	28.45718000	-0.55979330
90.99999477	0.00000000	28.45718000	-2.50984200
91.19999476	0.00000000	28.41412000	-2.14074800
91.39999474	0.00000000	28.03888000	0.55364170
91.59999473	0.00000000	27.34375000	4.77977300
91.79999472	-0.15871060	27.34375000	9.43036400
91.99999471	0.00000000	28.03888000	13.61343000
92.19999470	0.00000000	28.41412000	15.88336000
92.39999468	0.00000000	28.41412000	15.14518000
92.59999467	0.00000000	27.98966000	12.11860000
92.79999466	0.00000000	26.87623000	7.84940900
92.99999465	0.00000000	25.71358000	3.24803100
93.19999464	0.00000000	24.92003000	-0.55979330
93.39999463	0.00000000	24.18184000	-2.09153500
93.59999461	0.00000000	24.22490000	-0.97810030
93.79999460	0.00000000	25.33834000	2.08538400
93.99999459	0.00000000	26.87623000	6.31151500
94.19999458	0.00000000	28.45718000	10.53765000
94.39999457	0.00000000	30.03814000	13.60728000
94.59999455	0.00000000	31.57603000	14.72687000
94.79999454	0.00000000	32.64640000	13.18898000
94.99999453	0.00000000	32.22810000	9.43036400
95.19999452	0.00000000	29.94586000	5.19808000
95.39999451	0.00000000	26.87623000	1.75935000
95.59999449	0.00000000	23.75738000	-0.23375980
95.79999448	0.00000000	21.06299000	-0.23991140
95.99999447	0.00000000	19.52510000	0.92888770
96.19999446	0.00000000	19.52510000	3.62327700
96.39999445	0.00000000	21.10605000	7.01279500
96.59999444	0.00000000	24.22490000	9.38115100
96.79999442	0.00000000	28.41412000	10.96211000
96.99999441	0.00000000	32.27116000	11.65723000
97.19999440	0.00000000	34.65182000	10.53765000
97.39999439	0.00000000	35.81446000	8.26771600
97.59999438	0.00000000	35.34695000	5.98548200
97.79999436	0.00000000	32.68946000	4.03543200
97.99999435	0.00000000	28.87549000	3.29109200
98.19999434	0.00000000	25.33834000	3.57406500
98.39999433	0.00000000	22.17643000	4.36146600
98.59999432	0.00000000	19.52510000	5.15501900
98.79999430	0.00000000	18.41166000	6.31151500
98.99999429	0.00000000	19.56816000	7.42495000
99.19999428	0.00000000	22.60088000	7.84940900
99.39999427	0.00000000	26.45792000	7.89247000
99.59999426	0.00000000	29.94586000	7.89247000
99.79999425	0.00000000	32.68946000	7.89247000
99.99999423	0.00000000	34.23351000	7.93553100
100.19999422	0.00000000	34.27657000	8.31077700
100.39999421	0.00000000	33.11393000	9.00590400
100.59999420	0.00000000	31.15157000	8.96284400
100.79999419	0.00000000	28.41412000	7.84940900
100.99999417	0.00000000	25.33834000	6.31151500
101.19999416	0.00000000	22.64394000	4.73671200
101.39999415	0.00000000	21.10605000	3.19881900
101.59999414	0.00000000	21.06299000	2.08538400
101.79999413	0.00000000	22.22564000	2.08538400
101.99999411	0.00000000	24.13263000	3.24803100
102.19999410	0.00000000	26.45792000	5.15501900
102.39999409	0.00000000	28.41412000	7.51722400
102.59999408	0.00000000	29.99508000	9.79945900
102.79999407	0.00000000	31.15157000	11.74951000
102.99999406	0.00000000	31.52682000	12.45079000
103.19999404	0.00000000	31.10851000	11.70029000
103.39999403	0.00000000	29.57062000	9.38115100
103.59999402	0.00000000	27.29453000	6.31151500
103.79999401	0.00000000	25.33834000	3.24803100
103.99999400	0.00000000	23.75738000	0.92888770
104.19999398	0.00000000	22.64394000	0.13533460
104.39999397	0.00000000	22.64394000	0.51058070
104.59999396	0.00000000	23.75738000	2.08538400
104.79999395	0.00000000	25.29527000	4.77977300
104.99999394	0.00000000	26.87623000	7.84940900
105.19999392	0.00000000	28.41412000	10.49459000
105.39999391	0.00000000	29.52756000	11.65723000
105.59999390	0.00000000	29.57062000	10.96211000
105.79999389	0.00000000	28.83243000	9.42421200
105.99999388	0.00000000	28.03888000	7.43110200
106.19999387	0.00000000	26.87623000	4.77977300
106.39999385	0.00000000	25.76279000	2.50369100
106.59999384	0.00000000	25.33834000	1.75319900
106.79999383	0.00000000	25.33834000	2.46063000
106.99999382	0.00000000	25.76279000	4.36146600
107.19999381	0.00000000	26.87623000	6.26845500
107.39999379	0.00000000	27.98966000	7.84940900
107.59999378	0.00000000	28.41412000	9.00590400
107.79999377	0.00000000	28.41412000	9.38115100
107.99999376	0.00000000	27.98966000	9.00590400
108.19999375	0.00000000	26.87623000	7.84940900
108.39999374	0.00000000	25.76279000	6.31151500
108.59999372	0.00000000	25.29527000	4.77977300
108.79999371	0.00000000	24.92003000	3.66633800
108.99999370	0.00000000	24.60015000	3.66633800
109.19999369	0.00000000	25.33834000	4.73671200
109.39999368	0.00000000	26.45792000	5.93626900
109.59999366	0.00000000	27.25147000	7.10506800
109.79999365	0.00000000	28.03888000	8.63681000
109.99999364	0.00000000	28.41412000	9.33809000
110.19999363	0.00000000	28.45718000	9.05511800
110.39999362	0.00000000	28.41412000	8.26771600
110.59999360	0.00000000	27.98966000	7.47416300
110.79999359	0.00000000	26.87623000	6.26845500
110.99999358	0.00000000	25.76279000	4.77977300
111.19999357	0.00000000	25.33834000	3.62327700
111.39999356	0.00000000	25.29527000	3.24803100
111.59999355	0.00000000	25.33834000	3.62327700
111.79999353	0.00000000	25.71358000	4.73671200
111.99999352	0.00000000	26.45792000	5.85014700
112.19999351	0.00000000	26.87623000	6.31151500
112.39999350	0.00000000	27.25147000	6.72982200
112.59999349	0.00000000	27.62057000	7.47416300
112.79999347	0.00000000	27.25147000	7.84940900
112.99999346	0.00000000	26.91929000	7.89247000
113.19999345	0.00000000	26.87623000	7.84940900
113.39999344	0.00000000	26.87623000	7.47416300
113.59999343	-0.15871060	26.87623000	6.72982200
113.79999341	0.00000000	26.87623000	6.31151500
113.99999340	0.00000000	26.87623000	5.89320800
114.19999339	0.00000000	26.83317000	5.15501900
114.39999338	0.00000000	26.50098000	4.77977300
114.59999337	0.00000000	26.13189000	4.73671200
114.79999336	0.00000000	26.50098000	4.73671200
114.99999334	0.00000000	26.83317000	4.73671200
115.19999333	0.00000000	26.87623000	4.77977300
115.39999332	0.00000000	26.87623000	5.15501900
115.59999331	0.00000000	26.87623000	5.93626900
115.79999330	0.00000000	26.87623000	6.68676100
115.99999328	0.00000000	26.87623000	7.47416300
116.19999327	0.00000000	26.87623000	7.84940900
116.39999326	0.00000000	26.83317000	7.89247000
116.59999325	0.00000000	26.45792000	7.89247000
116.79999324	0.00000000	25.76279000	7.84940900
116.99999322	0.00000000	25.76279000	7.42495000
117.19999321	0.00000000	26.50098000	6.31151500
117.39999320	0.00000000	27.25147000	5.15501900
117.59999319	0.00000000	28.03888000	4.40452700
117.79999318	0.00000000	28.41412000	3.99237200
117.99999317	0.00000000	28.45718000	4.36146600
118.19999315	0.00000000	28.41412000	4.73671200
118.39999314	0.00000000	28.03888000	5.19808000
118.59999313	0.00000000	27.20841000	6.31151500
118.79999312	0.00000000	26.08268000	7.42495000
118.99999311	0.00000000	24.55093000	7.84940900
119.19999309	0.00000000	23.80659000	7.89247000
119.39999308	0.00000000	23.75738000	7.89247000
119.59999307	0.00000000	24.18184000	7.84940900
119.79999306	0.00000000	25.33834000	7.47416300
119.99999305	0.00000000	26.83317000	6.72982200
120.19999303	0.00000000	28.03888000	6.31151500
120.39999302	0.00000000	28.83243000	5.89320800
120.59999301	0.00000000	29.57062000	5.15501900
120.79999300	0.00000000	29.57062000	4.77977300
120.99999299	0.00000000	28.83243000	4.73671200
121.19999298	0.00000000	28.03888000	4.77977300
121.39999296	0.00000000	26.83317000	5.15501900
121.59999295	0.00000000	25.33834000	5.89320800
121.79999294	0.00000000	24.18184000	6.26845500
121.99999293	0.00000000	23.75738000	6.31151500
122.19999292	0.00000000	23.75738000	6.35457700
122.39999290	0.00000000	24.18184000	6.72982200
122.59999289	0.00000000	25.29527000	7.47416300
122.79999288	0.00000000	26.45792000	7.80019600
122.99999287	0.00000000	27.25147000	7.47416300
123.19999286	0.00000000	28.03888000	6.72982200
123.39999284	0.00000000	28.41412000	6.35457700
123.59999283	0.00000000	28.45718000	6.26845500
123.79999282	0.00000000	28.41412000	5.89320800
123.99999281	0.00000000	28.03888000	5.15501900
124.19999280	0.00000000	27.25147000	4.77977300
124.39999279	0.00000000	26.50098000	4.73671200
124.59999277	0.00000000	25.67052000	4.77977300
124.79999276	0.00000000	24.92003000	5.15501900
124.99999275	0.00000000	24.13263000	5.89320800
125.19999274	0.00000000	23.80659000	6.26845500
125.39999273	0.00000000	24.18184000	6.35457700
125.59999271	0.00000000	25.29527000	6.72982200
125.79999270	0.00000000	26.45792000	7.47416300
125.99999269	0.00000000	27.25147000	7.84940900
126.19999268	0.00000000	28.03888000	7.84940900
126.39999267	0.00000000	28.41412000	7.47416300
126.59999265	0.00000000	28.41412000	6.72982200
126.79999264	0.00000000	27.98966000	6.31151500
126.99999263	0.00000000	26.87623000	5.89320800
127.19999262	0.00000000	25.71358000	5.15501900
127.39999261	0.00000000	24.92003000	4.77977300
127.59999260	0.00000000	24.18184000	4.77977300
127.79999258	0.00000000	24.18184000	5.15501900
127.99999257	0.00000000	24.92003000	5.93626900
128.19999256	0.00000000	25.71358000	6.68676100
128.39999255	0.00000000	26.87623000	7.42495000
128.59999254	0.00000000	27.98966000	7.42495000
128.79999252	0.00000000	28.41412000	6.72982200
128.99999251	0.00000000	28.45718000	6.35457700
129.19999250	0.00000000	28.41412000	6.26845500
129.39999249	0.00000000	27.98966000	5.89320800
129.59999248	0.00000000	26.87623000	5.15501900
129.79999246	0.00000000	25.71358000	4.82898600
129.99999245	0.00000000	24.96309000	5.15501900
130.19999244	0.00000000	24.55093000	5.89320800
130.39999243	0.00000000	24.92003000	6.26845500
130.59999242	0.00000000	25.29527000	6.31151500
130.79999241	0.00000000	25.76279000	6.31151500
130.99999239	0.00000000	26.87623000	6.31151500
131.19999238	0.00000000	27.98966000	6.31151500
131.39999237	0.00000000	28.36491000	6.26845500
131.59999236	0.00000000	28.03888000	5.89320800
131.79999235	0.00000000	27.29453000	5.15501900
131.99999233	0.00000000	26.87623000	4.77977300
132.19999232	0.00000000	26.45792000	4.73671200
132.39999231	0.00000000	25.71358000	4.77977300
132.59999230	0.00000000	25.38755000	5.15501900
132.79999229	0.00000000	25.67052000	5.89320800
132.99999227	0.00000000	26.08268000	6.31151500
133.19999226	0.00000000	26.08883000	6.72982200
133.39999225	0.00000000	26.50098000	7.47416300
133.59999224	0.00000000	26.83317000	7.80019600
133.79999223	0.00000000	26.87623000	7.47416300
133.99999222	0.00000000	26.83317000	6.68676100
134.19999220	0.00000000	26.50098000	5.93626900
134.39999219	0.00000000	26.13189000	5.15501900
134.59999218	0.00000000	26.54404000	4.77977300
134.79999217	0.00000000	27.20841000	4.73671200
134.99999216	0.00000000	27.62057000	4.73671200
135.19999214	0.00000000	27.25147000	4.77977300
135.39999213	0.00000000	26.91929000	5.15501900
135.59999212	0.00000000	26.83317000	5.89320800
135.79999211	0.00000000	26.45792000	6.31151500
135.99999210	0.00000000	25.71358000	6.68676100
136.19999208	0.00000000	25.33834000	7.05585600
136.39999207	0.00000000	25.29527000	6.68676100
136.59999206	0.00000000	25.29527000	6.35457700
136.79999205	0.00000000	25.33834000	6.31151500
136.99999204	0.00000000	25.71358000	6.26845500
137.19999203	0.00000000	26.45792000	5.89320800
137.39999201	0.00000000	26.87623000	5.15501900
137.59999200	0.00000000	27.25147000	4.77977300
137.79999199	0.00000000	27.62057000	4.73671200
137.99999198	0.00000000	27.25147000	4.73671200
138.19999197	0.00000000	26.87623000	4.73671200
138.39999195	0.00000000	26.45792000	4.77977300
138.59999194	0.00000000	25.71358000	5.15501900
138.79999193	0.00000000	25.33834000	5.93626900
138.99999192	0.00000000	25.29527000	6.68676100
139.19999191	0.00000000	25.29527000	7.47416300
139.39999189	0.00000000	25.33834000	7.84940900
139.59999188	0.00000000	25.71358000	7.84940900
139.79999187	0.00000000	26.45792000	7.47416300
139.99999186	0.00000000	26.83317000	6.72982200
140.19999185	0.00000000	26.87623000	6.31151500
140.39999184	0.00000000	26.87623000	5.89320800
140.59999182	0.00000000	26.83317000	5.11195900
140.79999181	0.00000000	26.45792000	4.40452700
140.99999180	0.00000000	25.71358000	3.99237200
141.19999179	0.00000000	25.33834000	4.40452700
141.39999178	0.00000000	25.29527000	5.11195900
141.59999176	0.00000000	25.33834000	5.93626900
141.79999175	0.00000000	25.71358000	6.68676100
141.99999174	0.00000000	26.45792000	7.47416300
142.19999173	0.00000000	26.83317000	7.84940900
142.39999172	0.00000000	26.87623000	7.84940900
142.59999170	0.00000000	26.87623000	7.47416300
142.79999169	0.00000000	26.83317000	6.68676100
142.99999168	0.00000000	26.45792000	5.93626900
143.19999167	0.00000000	25.71358000	5.15501900
143.39999166	0.00000000	25.33834000	4.77977300
143.59999165	0.00000000	25.29527000	4.73671200
143.79999163	0.00000000	25.33834000	4.73671200
143.99999162	0.00000000	25.71358000	4.77977300
144.19999161	0.00000000	26.45792000	5.19808000
144.39999160	0.00000000	26.83317000	6.31151500
144.59999159	0.00000000	26.87623000	7.42495000
144.79999157	0.00000000	26.87623000	7.80019600
144.99999156	0.00000000	26.83317000	7.47416300
145.19999155	0.00000000	26.45792000	6.72982200
145.39999154	0.00000000	25.71358000	6.35457700
145.59999153	0.00000000	25.33834000	6.26845500
145.79999151	0.00000000	25.29527000	5.89320800
145.99999150	0.00000000	25.33834000	5.15501900
146.19999149	-0.15871060	25.71358000	4.77977300
146.39999148	0.00000000	26.45792000	4.73671200
146.59999147	0.00000000	26.83317000	4.77977300
146.79999146	0.00000000	26.87623000	5.15501900
146.99999144	0.00000000	26.87623000	5.93626900
147.19999143	0.00000000	26.87623000	6.64370100
147.39999142	0.00000000	26.83317000	7.05585600
147.59999141	0.00000000	26.45792000	6.68676100
147.79999140	0.00000000	25.71358000	6.35457700
147.99999138	0.00000000	25.33834000	6.31151500
148.19999137	0.00000000	25.29527000	6.26845500
148.39999136	0.00000000	25.29527000	5.93626900
148.59999135	0.00000000	25.29527000	5.53026500
148.79999134	0.00000000	25.33834000	5.51796200
148.99999132	0.00000000	25.71358000	5.11195900
149.19999131	0.00000000	26.45792000	4.77977300
149.39999130	0.00000000	26.83317000	4.77977300
149.59999129	0.00000000	26.87623000	5.15501900
149.79999128	0.00000000	26.87623000	5.89320800
149.99999127	0.00000000	26.83317000	6.26845500
150.19999125	0.00000000	26.45792000	6.31151500
150.39999124	0.00000000	25.71358000	6.31151500
150.59999123	0.00000000	25.33834000	6.31151500
150.79999122	0.00000000	25.29527000	6.31151500
150.99999121	0.00000000	25.29527000	6.31151500
151.19999119	0.00000000	25.29527000	6.26845500
151.39999118	0.00000000	25.29527000	5.93626900
151.59999117	0.00000000	25.29527000	5.53026500
151.79999116	0.00000000	25.33834000	5.56717500
151.99999115	0.00000000	25.71358000	5.48105300
152.19999113	0.00000000	26.45792000	5.51796200
152.39999112	0.00000000	26.83317000	5.11195900
152.59999111	0.00000000	26.87623000	4.82898600
152.79999110	0.00000000	26.87623000	5.15501900
152.99999109	0.00000000	26.83317000	5.89320800
153.19999108	0.00000000	26.45792000	6.26845500
153.39999106	0.00000000	25.71358000	6.31151500
153.59999105	0.00000000	25.33834000	6.31151500
153.79999104	0.00000000	25.29527000	6.31151500
153.99999103	0.00000000	25.29527000	6.35457700
154.19999102	0.00000000	25.29527000	6.68676100
154.39999100	0.00000000	25.29527000	7.05585600
154.59999099	0.00000000	25.29527000	6.68676100
154.79999098	0.00000000	25.33834000	6.31151500
154.99999097	0.00000000	25.71358000	5.89320800
155.19999096	0.00000000	26.45792000	5.15501900
155.39999094	0.00000000	26.83317000	4.77977300
155.59999093	0.00000000	26.87623000	4.77977300
155.79999092	0.00000000	26.83317000	5.15501900
155.99999091	0.00000000	26.45792000	5.89320800
156.19999090	0.00000000	25.71358000	6.26845500
156.39999089	0.00000000	25.33834000	6.31151500
156.59999087	0.00000000	25.29527000	6.31151500
156.79999086	0.00000000	25.29527000	6.31151500
156.99999085	0.00000000	25.29527000	6.31151500
157.19999084	0.00000000	25.29527000	6.31151500
157.39999083	0.00000000	25.29527000	6.26845500
157.59999081	0.00000000	25.33834000	5.89320800
157.79999080	0.00000000	25.67052000	5.15501900
157.99999079	0.00000000	26.08268000	4.77977300
158.19999078	0.00000000	26.08883000	4.73671200
158.39999077	0.00000000	26.50098000	4.77977300
158.59999075	0.00000000	26.83317000	5.15501900
158.79999074	0.00000000	26.87623000	5.89320800
158.99999073	0.00000000	26.83317000	6.26845500
159.19999072	0.00000000	26.45792000	6.31151500
159.39999071	0.00000000	25.71358000	6.35457700
159.59999070	0.00000000	25.33834000	6.68676100
159.79999068	0.00000000	25.29527000	7.05585600
159.99999067	0.00000000	25.29527000	6.68676100
160.19999066	0.00000000	25.29527000	6.35457700
160.39999065	0.00000000	25.29527000	6.26845500
160.59999064	0.00000000	25.29527000	5.89320800
160.79999062	0.00000000	25.29527000	5.15501900
160.99999061	0.00000000	25.29527000	4.77977300
161.19999060	0.00000000	25.29527000	4.73671200
161.39999059	0.00000000	25.33834000	4.77977300
161.59999058	0.00000000	25.67052000	5.15501900
161.79999056	0.00000000	26.08268000	5.89320800
161.99999055	0.00000000	26.08883000	6.26845500
162.19999054	0.00000000	26.50098000	6.31151500
162.39999053	0.00000000	26.78395000	6.31151500
162.59999052	0.00000000	26.45792000	6.31151500
162.79999051	0.00000000	25.71358000	6.31151500
162.99999049	0.00000000	25.33834000	6.31151500
163.19999048	0.00000000	25.29527000	6.31151500
163.39999047	0.00000000	25.29527000	6.31151500
163.59999046	0.00000000	25.29527000	6.26845500
163.79999045	0.00000000	25.29527000	5.89320800
163.99999043	0.00000000	25.29527000	5.15501900
164.19999042	0.00000000	25.29527000	4.77977300
164.39999041	0.00000000	25.33834000	4.77977300
164.59999040	0.00000000	25.71358000	5.11195900
164.79999039	0.00000000	26.45792000	5.51796200
164.99999037	0.00000000	26.83317000	5.53026500
165.19999036	0.00000000	26.83317000	5.93626900
165.39999035	0.00000000	26.45792000	6.26845500
165.59999034	0.00000000	25.71358000	6.31151500
165.79999033	0.00000000	25.29527000	6.31151500
165.99999032	0.00000000	24.92003000	6.31151500
166.19999030	0.00000000	24.55093000	6.31151500
166.39999029	0.00000000	24.92003000	6.26845500
166.59999028	0.00000000	25.25221000	5.93626900
166.79999027	0.00000000	25.29527000	5.57332700
166.99999026	0.00000000	25.29527000	5.89320800
167.19999024	0.00000000	25.29527000	5.85014700
167.39999023	0.00000000	25.33834000	5.15501900
167.59999022	0.00000000	25.71358000	4.77977300
167.79999021	0.00000000	26.45792000	4.77977300
167.99999020	0.00000000	26.78395000	5.15501900
168.19999018	0.00000000	26.45792000	5.89320800
168.39999017	0.00000000	25.71358000	6.26845500
168.59999016	0.00000000	25.33834000	6.26845500
168.79999015	0.00000000	25.29527000	5.93626900
168.99999014	0.00000000	25.29527000	5.57332700
169.19999013	0.00000000	25.29527000	5.93626900
169.39999011	0.00000000	25.29527000	6.26845500
169.59999010	0.00000000	25.29527000	6.31151500
169.79999009	0.00000000	25.29527000	6.31151500
169.99999008	0.00000000	25.29527000	6.31151500
170.19999007	0.00000000	25.29527000	6.31151500
170.39999005	0.00000000	25.29527000	6.31151500
170.59999004	0.00000000	25.29527000	6.31151500
170.79999003	0.00000000	25.29527000	6.26845500
170.99999002	0.00000000	25.29527000	5.93626900
171.19999001	0.00000000	25.29527000	5.57332700
171.39998999	0.00000000	25.29527000	5.93626900
171.59998998	0.00000000	25.33834000	6.26845500
171.79998997	0.00000000	25.67052000	6.31151500
171.99998996	0.00000000	26.03961000	6.31151500
172.19998995	0.00000000	25.67052000	6.31151500
172.39998994	0.00000000	25.33834000	6.31151500
172.59998992	0.00000000	25.29527000	6.31151500
172.79998991	0.00000000	25.29527000	6.26845500
172.99998990	0.00000000	25.29527000	5.93626900
173.19998989	0.00000000	25.29527000	5.57332700
173.39998988	0.00000000	25.29527000	5.89320800
173.59998986	0.00000000	25.29527000	5.85014700
173.79998985	0.00000000	25.29527000	5.19808000
173.99998984	0.00000000	25.29527000	5.15501900
174.19998983	0.00000000	25.29527000	5.51796200
174.39998982	0.00000000	25.29527000	5.48105300
174.59998980	0.00000000	25.29527000	5.51796200
174.79998979	0.00000000	25.29527000	5.11195900
174.99998978	0.00000000	25.29527000	4.82898600
175.19998977	0.00000000	25.29527000	5.11195900
175.39998976	0.00000000	25.29527000	5.47490100
175.59998975	0.00000000	25.29527000	5.15501900
175.79998973	0.00000000	25.29527000	5.19808000
175.99998972	0.00000000	25.29527000	5.85014700
176.19998971	0.00000000	25.29527000	5.89320800
176.39998970	0.00000000	25.29527000	5.57332700
176.59998969	0.00000000	25.29527000	5.93626900
176.79998967	0.00000000	25.29527000	6.21924200
176.99998966	0.00000000	25.29527000	5.93626900
177.19998965	0.00000000	25.29527000	5.53026500
177.39998964	0.00000000	25.29527000	5.56717500
177.59998963	0.00000000	25.29527000	5.53026500
177.79998961	0.00000000	25.29527000	5.93626900
177.99998960	0.00000000	25.29527000	6.26845500
178.19998959	0.00000000	25.29527000	6.31151500
178.39998958	0.00000000	25.29527000	6.31151500
178.59998957	0.00000000	25.29527000	6.31151500
178.79998956	0.00000000	25.29527000	6.31151500
178.99998954	0.00000000	25.29527000	6.31151500
179.19998953	0.00000000	25.29527000	6.26845500
179.39998952	0.00000000	25.29527000	5.93626900
179.59998951	0.00000000	25.29527000	5.53026500
179.79998950	0.00000000	25.29527000	5.51796200
179.99998948	0.00000000	25.29527000	5.11195900
180.19998947	0.00000000	25.29527000	4.77977300
180.39998946	0.00000000	25.29527000	4.77977300
180.59998945	0.00000000	25.29527000	5.11195900
180.79998944	0.00000000	25.29527000	5.51796200
180.99998942	0.00000000	25.29527000	5.53026500
181.19998941	0.00000000	25.29527000	5.93626900
181.39998940	0.00000000	25.29527000	6.26845500
181.59998939	0.00000000	25.29527000	6.31151500
181.79998938	0.00000000	25.29527000	6.31151500
181.99998937	0.00000000	25.29527000	6.31151500
182.19998935	0.00000000	25.29527000	6.31151500
182.39998934	0.00000000	25.29527000	6.26845500
182.59998933	0.00000000	25.29527000	5.89320800
182.79998932	0.00000000	25.29527000	5.15501900
182.99998931	0.00000000	25.29527000	4.77977300
183.19998929	0.00000000	25.29527000	4.77977300
183.39998928	0.00000000	25.29527000	5.11195900
183.59998927	0.00000000	25.29527000	5.51796200
183.79998926	0.00000000	25.29527000	5.53026500
183.99998925	0.00000000	25.29527000	5.93626900
184.19998923	0.00000000	25.29527000	6.26845500
184.39998922	0.00000000	25.29527000	6.31151500
184.59998921	0.00000000	25.29527000	6.31151500
184.79998920	0.00000000	25.29527000	6.31151500
184.99998919	0.00000000	25.29527000	6.31151500
185.19998918	0.00000000	25.29527000	6.26845500
185.39998916	0.00000000	25.29527000	5.89320800
185.59998915	0.00000000	25.29527000	5.15501900
185.79998914	0.00000000	25.29527000	4.77977300
185.99998913	0.00000000	25.29527000	4.73671200
186.19998912	0.00000000	25.29527000	4.73671200
186.39998910	0.00000000	25.29527000	4.73671200
186.59998909	0.00000000	25.29527000	4.77977300
186.79998908	0.00000000	25.29527000	5.15501900
186.99998907	0.00000000	25.29527000	5.89320800
187.19998906	0.00000000	25.29527000	6.26845500
187.39998904	0.00000000	25.29527000	6.31151500
187.59998903	0.00000000	25.29527000	6.31151500
187.79998902	0.00000000	25.29527000	6.31151500
187.99998901	0.00000000	25.29527000	6.26845500
188.19998900	0.00000000	25.29527000	5.89320800
188.39998899	0.00000000	25.29527000	5.15501900
188.59998897	0.00000000	25.29527000	4.77977300
188.79998896	0.00000000	25.29527000	4.73671200
188.99998895	0.00000000	25.29527000	4.73671200
189.19998894	0.00000000	25.29527000	4.73671200
189.39998893	0.00000000	25.29527000	4.73671200
189.59998891	0.00000000	25.29527000	4.77977300
189.79998890	0.00000000	25.29527000	5.15501900
189.99998889	0.00000000	25.29527000	5.89320800
190.19998888	0.00000000	25.29527000	6.26845500
190.39998887	0.00000000	25.29527000	6.31151500
190.59998885	0.00000000	25.29527000	6.31151500
190.79998884	0.00000000	25.29527000	6.31151500
190.99998883	0.00000000	25.29527000	6.26845500
191.19998882	0.00000000	25.29527000	5.93626900
191.39998881	0.00000000	25.29527000	5.57332700
191.59998880	0.00000000	25.29527000	5.89320800
191.79998878	0.00000000	25.29527000	5.85014700
191.99998877	0.00000000	25.29527000	5.15501900
192.19998876	0.00000000	25.29527000	4.77977300
192.39998875	0.00000000	25.29527000	4.73671200
192.59998874	0.00000000	25.29527000	4.73671200
192.79998872	0.00000000	25.29527000	4.77977300
192.99998871	0.00000000	25.29527000	5.11195900
193.19998870	0.00000000	25.29527000	5.51796200
193.39998869	0.00000000	25.29527000	5.53026500
193.59998868	0.00000000	25.29527000	5.93626900
193.79998866	0.00000000	25.29527000	6.26845500
193.99998865	0.00000000	25.29527000	6.31151500
194.19998864	0.00000000	25.29527000	6.31151500
194.39998863	0.00000000	25.29527000	6.31151500
194.59998862	0.00000000	25.29527000	6.26845500
194.79998861	0.00000000	25.29527000	5.89320800
194.99998859	0.00000000	25.29527000	5.15501900
195.19998858	0.00000000	25.29527000	4.77977300
195.39998857	0.00000000	25.29527000	4.73671200
195.59998856	0.00000000	25.29527000	4.73671200
195.79998855	0.00000000	25.29527000	4.73671200
195.99998853	0.00000000	25.29527000	4.73671200
