Time	Channel A	Channel B	Channel C
(us)	(V)	(mV)	(mV)

-4.49999956	0.00000000	-23.71432000	-15.78494000
-4.29999957	0.00000000	-23.71432000	-15.78494000
-4.09999958	0.00000000	-23.71432000	-15.78494000
-3.89999959	0.00000000	-23.71432000	-15.74188000
-3.69999960	0.00000000	-23.71432000	-15.36663000
-3.49999962	0.00000000	-23.71432000	-14.67150000
-3.29999963	0.00000000	-23.71432000	-14.67150000
-3.09999964	0.00000000	-23.71432000	-15.36663000
-2.89999965	0.00000000	-23.71432000	-15.74188000
-2.69999966	0.00000000	-23.71432000	-15.78494000
-2.49999968	-0.15871060	-23.71432000	-15.78494000
-2.29999969	0.00000000	-23.71432000	-15.78494000
-2.09999970	0.00000000	-23.71432000	-15.78494000
-1.89999971	0.00000000	-23.71432000	-15.78494000
-1.69999972	0.00000000	-23.71432000	-15.78494000
-1.49999973	0.00000000	-23.71432000	-15.78494000
-1.29999975	0.00000000	-23.71432000	-15.78494000
-1.09999976	0.00000000	-23.71432000	-15.78494000
-0.89999977	0.00000000	-23.71432000	-15.78494000
-0.69999978	0.00000000	-23.71432000	-15.78494000
-0.49999979	0.00000000	-23.71432000	-15.78494000
-0.29999981	0.31803640	-23.75738000	-15.78494000
-0.09999982	0.63668800	-24.08957000	-15.78494000
0.10000017	0.95533960	-24.50172000	-15.78494000
0.30000016	0.95533960	-24.46481000	-15.78494000
0.50000015	0.79601380	-24.50172000	-15.78494000
0.70000013	0.31803640	-24.08957000	-15.78494000
0.90000012	-0.47736220	-23.75738000	-15.78494000
1.10000011	-1.59264300	-23.71432000	-15.78494000
1.30000010	-2.38927200	-23.71432000	-15.78494000
1.50000009	-2.86724900	-23.71432000	-15.78494000
1.70000008	-2.38927200	-23.71432000	-15.74188000
1.90000006	-1.27399100	-23.71432000	-15.40969000
2.10000005	0.47736220	-23.71432000	-15.00369000
2.30000004	2.70792300	-23.71432000	-15.04060000
2.50000003	4.45989200	-23.71432000	-15.00369000
2.70000002	5.25652100	-23.71432000	-15.40969000
2.90000000	4.77854300	-23.71432000	-15.74188000
3.09999999	2.86724900	-23.71432000	-15.78494000
3.29999998	-0.15871060	-23.71432000	-15.78494000
3.49999997	-3.50393700	-23.71432000	-15.78494000
3.69999996	-6.37180100	-23.71432000	-15.74188000
3.89999994	-7.96444400	-23.71432000	-15.36663000
4.09999993	-7.48646600	-23.71432000	-14.62844000
4.29999992	-4.93786900	-23.71432000	-14.25320000
4.49999991	-1.11466500	-23.71432000	-14.16708000
4.69999990	3.34522600	-23.71432000	-13.83489000
4.89999989	7.16781500	-23.71432000	-13.46580000
5.09999987	9.23905000	-23.71432000	-13.87795000
5.29999986	9.07972400	-23.71432000	-14.58538000
5.49999985	6.53112700	-23.75738000	-15.36663000
5.69999984	2.38927200	-24.08957000	-15.74188000
5.89999983	-2.38927200	-24.45866000	-15.78494000
6.09999981	-6.69045300	-24.08957000	-15.78494000
6.29999980	-9.07972400	-23.75738000	-15.74188000
6.49999979	-9.23905000	-23.71432000	-15.36663000
6.69999978	-7.16781500	-23.71432000	-14.62844000
6.89999977	-3.34522600	-23.71432000	-14.25320000
7.09999975	0.95533960	-23.71432000	-14.25320000
7.29999974	4.93786900	-23.71432000	-14.62844000
7.49999973	7.16781500	-23.75738000	-15.36663000
7.69999972	7.64579200	-24.13263000	-15.78494000
7.89999971	6.21247500	-24.87697000	-16.16018000
8.09999970	3.34522600	-25.25221000	-16.52928000
8.29999968	0.00000000	-25.29527000	-16.16018000
8.49999967	-2.86724900	-25.29527000	-15.82800000
8.69999966	-4.77854300	-25.25221000	-15.78494000
8.89999965	-5.25652100	-24.87697000	-15.78494000
9.09999964	-4.30056600	-24.13263000	-15.78494000
9.29999962	-2.70792300	-23.80659000	-15.78494000
9.49999961	-0.63668800	-24.13263000	-15.78494000
9.69999960	1.11466500	-24.87697000	-15.78494000
9.89999959	2.22994600	-25.20300000	-15.78494000
10.09999958	2.54859700	-24.92003000	-15.78494000
10.29999956	2.22994600	-24.55093000	-15.78494000
10.49999955	1.43331700	-24.87697000	-15.78494000
10.69999954	0.47736220	-24.87697000	-15.78494000
10.89999953	-0.31803640	-24.55093000	-15.78494000
11.09999952	-0.79601380	-24.92003000	-15.78494000
11.29999951	-0.95533960	-25.20300000	-15.78494000
11.49999949	-0.95533960	-24.92003000	-15.78494000
11.69999948	-0.79601380	-24.55093000	-15.78494000
11.89999947	-0.47736220	-24.87697000	-15.78494000
12.09999946	-0.15871060	-24.87697000	-15.78494000
12.29999945	-0.15871060	-24.55093000	-15.78494000
12.49999943	-0.15871060	-24.92003000	-15.78494000
12.69999942	0.00000000	-25.25221000	-15.78494000
12.89999941	0.00000000	-25.29527000	-15.78494000
13.09999940	0.00000000	-25.29527000	-15.78494000
13.29999939	0.00000000	-25.29527000	-15.78494000
13.49999937	0.00000000	-25.29527000	-15.78494000
13.69999936	0.00000000	-25.25221000	-15.78494000
13.89999935	-0.15871060	-24.92003000	-15.78494000
14.09999934	-0.15871060	-24.55093000	-15.78494000
14.29999933	-0.15871060	-24.87697000	-15.78494000
14.49999932	-0.15871060	-24.87697000	-15.78494000
14.69999930	-0.15871060	-24.55093000	-15.78494000
14.89999929	0.00000000	-24.92003000	-15.78494000
15.09999928	0.00000000	-25.25221000	-15.78494000
15.29999927	0.00000000	-25.29527000	-15.78494000
15.49999926	0.00000000	-25.29527000	-15.78494000
15.69999924	0.00000000	-25.29527000	-15.78494000
15.89999923	0.00000000	-25.29527000	-15.78494000
16.09999922	0.00000000	-25.29527000	-15.78494000
16.29999921	-0.15871060	-25.25221000	-15.78494000
16.49999920	-0.15871060	-24.87697000	-15.78494000
16.69999919	-0.15871060	-24.13263000	-15.78494000
16.89999917	-0.15871060	-23.75738000	-15.78494000
17.09999916	0.00000000	-23.67126000	-15.78494000
17.29999915	0.00000000	-23.29601000	-15.78494000
17.49999914	0.00000000	-22.60088000	-15.78494000
17.69999913	0.00000000	-22.64394000	-15.78494000
17.89999911	0.00000000	-23.71432000	-15.78494000
18.09999910	0.00000000	-24.92003000	-15.78494000
18.29999909	0.00000000	-26.13189000	-15.78494000
18.49999908	0.00000000	-28.03888000	-15.78494000
18.69999907	0.00000000	-29.52756000	-15.78494000
18.89999905	-0.15871060	-29.94586000	-15.78494000
19.09999904	0.00000000	-29.52756000	-15.78494000
19.29999903	0.00000000	-27.94660000	-15.78494000
19.49999902	0.00000000	-25.20300000	-15.78494000
19.69999901	0.00000000	-21.71506000	-15.82800000
19.89999900	0.00000000	-17.85802000	-16.16018000
20.09999898	0.00000000	-14.78223000	-16.52928000
20.29999897	0.00000000	-13.29355000	-16.16018000
20.49999896	0.00000000	-14.17938000	-15.82800000
20.69999895	0.00000000	-18.45472000	-15.78494000
20.89999894	0.00000000	-25.38755000	-15.78494000
21.09999892	0.00000000	-33.11393000	-15.78494000
21.29999891	0.00000000	-40.08981000	-15.78494000
21.49999890	0.00000000	-44.65428000	-15.78494000
21.69999889	0.00000000	-45.34940000	-15.78494000
21.89999888	0.00000000	-41.02485000	-15.78494000
22.09999886	0.00000000	-32.09276000	-15.78494000
22.29999885	0.00000000	-20.08489000	-15.78494000
22.49999884	0.00000000	-7.38804100	-15.78494000
22.69999883	0.00000000	2.61441900	-15.78494000
22.89999882	0.00000000	7.17888700	-15.78494000
23.09999881	0.00000000	4.80437900	-15.74188000
23.29999879	0.00000000	-4.95816900	-15.36663000
23.49999878	0.00000000	-20.41092000	-14.62844000
23.69999877	0.00000000	-38.60113000	-14.25320000
23.89999876	-0.15871060	-55.12426000	-14.21014000
24.09999875	0.00000000	-65.91412000	-14.25320000
24.29999873	0.00000000	-67.73499000	-14.62844000
24.49999872	0.00000000	-59.59030000	-15.45891000
24.69999871	0.00000000	-42.56274000	-16.62155000
24.89999870	0.00000000	-20.55241000	-18.57160000
25.09999869	0.00000000	1.45177200	-20.43553000
25.29999867	0.00000000	18.38706000	-21.59203000
25.49999866	0.00000000	25.68897000	-21.54897000
25.69999865	0.00000000	21.41363000	-19.97416000
25.89999864	-0.15871060	6.33612200	-16.85531000
26.09999863	0.00000000	-16.45546000	-12.62918000
26.29999862	0.00000000	-41.53543000	-8.40305000
26.49999860	0.00000000	-63.17052000	-5.33341500
26.69999859	0.00000000	-76.29182000	-4.17691900
26.89999858	0.00000000	-77.82972000	-5.42568800
27.09999857	0.00000000	-67.40895000	-9.33193800
27.29999856	0.00000000	-47.35482000	-15.92027000
27.49999854	0.00000000	-22.64394000	-23.59129000
27.69999853	0.00000000	0.89812980	-30.56102000
27.89999852	-0.15871060	17.91953000	-35.16240000
28.09999851	0.00000000	24.53248000	-36.27584000
28.29999850	0.00000000	19.96801000	-33.07701000
28.49999848	0.00000000	5.68405400	-25.31373000
28.69999847	0.00000000	-14.78223000	-14.16092000
28.89999846	0.00000000	-36.79257000	-2.59596400
29.09999845	0.00000000	-55.40108000	6.69906400
29.29999844	0.00000000	-66.62155000	12.08169000
29.49999843	0.00000000	-68.65772000	11.95251000
29.69999841	0.00000000	-61.31274000	5.35187000
29.89999840	0.00000000	-47.10876000	-7.00049200
30.09999839	0.00000000	-29.25074000	-22.05955000
30.29999838	0.00000000	-11.89099000	-36.74335000
30.49999837	0.00000000	1.68553100	-47.89616000
30.69999835	0.00000000	8.29232200	-52.49754000
30.89999834	0.00000000	7.26500900	-49.42790000
31.09999833	0.00000000	-0.07997046	-39.30241000
31.29999832	0.00000000	-12.03863000	-23.87426000
31.49999831	0.00000000	-25.99655000	-6.13312000
31.69999829	0.00000000	-38.79183000	9.30118100
31.89999828	0.00000000	-48.46825000	19.42667000
32.09999827	0.00000000	-52.70054000	22.44709000
32.29999826	0.00000000	-50.51673000	17.42741000
32.49999825	0.00000000	-43.58390000	5.07504900
32.69999824	0.00000000	-33.90133000	-11.51575000
32.89999822	0.00000000	-23.06225000	-28.93701000
33.09999821	0.00000000	-13.80413000	-43.62082000
33.29999820	0.00000000	-7.94168200	-52.49754000
33.49999819	0.00000000	-6.36072800	-53.70325000
33.69999818	0.00000000	-9.06126900	-47.10876000
33.89999816	0.00000000	-15.24975000	-34.36884000
34.09999815	0.00000000	-23.67126000	-17.78420000
34.29999814	0.00000000	-31.76058000	-1.56865100
34.49999813	0.00000000	-37.21087000	10.83292000
34.69999812	0.00000000	-39.57923000	17.42741000
34.89999810	0.00000000	-38.42273000	16.59695000
35.09999809	0.00000000	-34.18430000	8.59375000
35.29999808	0.00000000	-28.03888000	-4.49680100
35.49999807	0.00000000	-21.52436000	-18.81152000
35.69999806	0.00000000	-16.91683000	-32.00664000
35.89999805	0.00000000	-15.33587000	-41.52928000
36.09999803	0.00000000	-16.83071000	-44.27288000
36.29999802	0.00000000	-20.68774000	-39.72071000
36.49999801	0.00000000	-25.67052000	-30.14272000
36.69999800	0.00000000	-30.64714000	-17.78420000
36.89999799	0.00000000	-33.72293000	-5.88705700
37.09999797	0.00000000	-34.18430000	2.56520700
37.29999796	0.00000000	-32.64640000	5.30265700
37.49999795	0.00000000	-29.52756000	1.91314000
37.69999794	0.00000000	-25.29527000	-5.75172200
37.89999793	0.00000000	-21.06299000	-15.74188000
38.09999791	0.00000000	-17.98720000	-25.31373000
38.29999790	0.00000000	-16.83071000	-31.40379000
38.49999789	0.00000000	-17.98720000	-32.23425000
38.69999788	0.00000000	-21.01993000	-27.64517000
38.89999787	0.00000000	-24.92003000	-19.64198000
39.09999786	0.00000000	-28.83243000	-10.40231000
39.29999784	0.00000000	-32.68946000	-2.81742100
39.49999783	-0.15871060	-35.34695000	0.65821850
39.69999782	0.00000000	-35.76525000	-1.28567900
39.89999781	0.00000000	-34.23351000	-7.75098400
40.09999780	0.00000000	-31.10851000	-16.99065000
40.29999778	0.00000000	-26.87623000	-26.19955000
40.49999777	0.00000000	-22.60088000	-33.07701000
40.69999776	0.00000000	-19.10679000	-35.34695000
40.89999775	0.00000000	-16.78149000	-31.91437000
41.09999774	0.00000000	-16.40625000	-24.29257000
41.29999772	0.00000000	-17.90108000	-14.67766000
41.49999771	0.00000000	-20.64468000	-5.80093500
41.69999770	0.00000000	-24.13263000	0.38139760
41.89999769	-0.15871060	-28.03888000	2.65132900
42.09999768	0.00000000	-31.48376000	-0.03690945
42.29999767	0.00000000	-33.80905000	-6.91437000
42.49999765	0.00000000	-34.23351000	-15.74188000
42.69999764	0.00000000	-33.11393000	-24.20029000
42.89999763	0.00000000	-31.15157000	-30.00738000
43.09999762	0.00000000	-28.41412000	-31.95743000
43.29999761	0.00000000	-25.38755000	-30.09350000
43.49999759	0.00000000	-23.06225000	-25.12918000
43.69999758	0.00000000	-22.22564000	-18.98991000
43.89999757	0.00000000	-22.17643000	-13.13976000
44.09999756	0.00000000	-22.55167000	-8.53838500
44.29999755	0.00000000	-23.29601000	-6.21924200
44.49999753	0.00000000	-23.67126000	-6.91437000
44.69999752	0.00000000	-23.71432000	-9.55954600
44.89999751	0.00000000	-23.75738000	-13.09670000
45.09999750	0.00000000	-24.13263000	-17.32283000
45.29999749	0.00000000	-24.96309000	-21.13066000
45.49999748	0.00000000	-26.18110000	-23.08686000
45.69999746	0.00000000	-28.54946000	-23.17298000
45.89999745	0.00000000	-31.57603000	-22.01649000
46.09999744	0.00000000	-34.27657000	-20.06029000
46.29999743	-0.15871060	-35.81446000	-17.36589000
46.49999742	0.00000000	-35.72219000	-14.67150000
46.69999740	0.00000000	-33.39075000	-12.72146000
46.89999739	0.00000000	-28.69709000	-11.55881000
47.09999738	0.00000000	-22.92076000	-11.60187000
47.29999737	0.00000000	-16.73843000	-13.13976000
47.49999736	0.00000000	-12.17397000	-15.78494000
47.69999734	0.00000000	-10.64222000	-18.47933000
47.89999733	-0.15871060	-12.59842000	-20.43553000
48.09999732	0.00000000	-18.03642000	-21.59203000
48.29999731	0.00000000	-25.76279000	-21.59203000
48.49999730	0.00000000	-34.27657000	-20.43553000
48.69999729	0.00000000	-41.53543000	-18.47933000
48.89999727	0.00000000	-45.34940000	-15.74188000
49.09999726	0.00000000	-44.23597000	-12.67224000
49.29999725	0.00000000	-38.84104000	-10.02707000
49.49999724	0.00000000	-30.69020000	-8.86441900
49.69999723	0.00000000	-21.06299000	-9.65182000
49.89999721	0.00000000	-12.64149000	-11.93405000
50.09999720	0.00000000	-7.94168200	-15.40969000
50.29999719	0.00000000	-7.56643700	-18.89764000
50.49999718	0.00000000	-11.47884000	-22.01649000
50.69999717	0.00000000	-19.56816000	-24.29257000
50.89999715	0.00000000	-29.52756000	-24.66781000
51.09999714	-0.15871060	-38.37352000	-23.12992000
51.29999713	0.00000000	-43.76845000	-20.01722000
51.49999712	0.00000000	-44.14370000	-15.78494000
51.69999711	0.00000000	-39.62844000	-11.55881000
51.89999710	0.00000000	-31.90822000	-8.48917200
52.09999708	0.00000000	-23.43135000	-7.33267600
52.29999707	0.00000000	-15.76033000	-8.44611200
52.49999706	0.00000000	-11.57111000	-11.14050000
52.69999705	0.00000000	-12.26624000	-14.62844000
52.89999704	0.00000000	-16.83071000	-18.47933000
53.09999702	0.00000000	-23.75738000	-21.54897000
53.29999701	0.00000000	-31.06545000	-23.08686000
53.49999700	0.00000000	-36.83563000	-22.75467000
53.69999699	0.00000000	-39.53617000	-20.85384000
53.89999698	0.00000000	-38.42273000	-18.52854000
54.09999696	0.00000000	-34.18430000	-15.78494000
54.29999695	0.00000000	-28.03888000	-13.18282000
54.49999694	0.00000000	-21.52436000	-12.02018000
54.69999693	0.00000000	-16.91683000	-12.72146000
54.89999692	0.00000000	-15.33587000	-14.25320000
55.09999691	0.00000000	-16.87377000	-16.16018000
55.29999689	0.00000000	-21.10605000	-18.06102000
55.49999688	0.00000000	-26.83317000	-18.76845000
55.69999687	0.00000000	-32.22810000	-18.06102000
55.89999686	0.00000000	-35.72219000	-16.16018000
56.09999685	0.00000000	-36.88484000	-14.29626000
56.29999683	0.00000000	-35.30389000	-13.13976000
56.49999682	0.00000000	-31.10851000	-13.18282000
56.69999681	0.00000000	-25.76279000	-14.72072000
56.89999680	0.00000000	-21.10605000	-17.41511000
57.09999679	0.00000000	-18.03642000	-20.47859000
57.29999677	0.00000000	-17.24902000	-23.12992000
57.49999676	0.00000000	-19.14985000	-24.24335000
57.69999675	0.00000000	-22.60088000	-23.12992000
57.89999674	0.00000000	-26.83317000	-20.39247000
58.09999673	0.00000000	-30.64714000	-16.48622000
58.29999672	0.00000000	-32.64640000	-11.51575000
58.49999670	0.00000000	-33.06471000	-7.33267600
58.69999669	0.00000000	-32.27116000	-5.42568800
58.89999668	0.00000000	-29.99508000	-6.21924200
59.09999667	0.00000000	-27.34375000	-10.11319000
59.29999666	0.00000000	-25.33834000	-16.20325000
59.49999664	0.00000000	-23.80659000	-22.75467000
59.69999663	0.00000000	-23.06225000	-27.77436000
59.89999662	0.00000000	-23.80659000	-30.46875000
60.09999661	0.00000000	-25.29527000	-30.05044000
60.29999660	0.00000000	-26.87623000	-26.15034000
60.49999658	0.00000000	-28.36491000	-19.64198000
60.69999657	0.00000000	-29.15231000	-11.97711000
60.89999656	0.00000000	-28.78937000	-5.79478300
61.09999655	0.00000000	-28.08194000	-2.31299200
61.29999654	0.00000000	-27.25147000	-1.94389800
61.49999653	0.00000000	-26.50098000	-5.46875000
61.69999651	0.00000000	-25.76279000	-11.97711000
61.89999650	0.00000000	-25.80585000	-20.06029000
62.09999649	0.00000000	-26.87623000	-27.35605000
62.29999648	0.00000000	-28.03888000	-32.00664000
62.49999647	0.00000000	-28.83243000	-33.16314000
62.69999645	0.00000000	-29.61983000	-30.46875000
62.89999644	0.00000000	-29.94586000	-24.71087000
63.09999643	0.00000000	-29.57062000	-17.36589000
63.29999642	0.00000000	-28.41412000	-10.02707000
63.49999641	0.00000000	-26.87623000	-4.26304100
63.69999639	0.00000000	-25.33834000	-1.56865100
63.89999638	0.00000000	-24.22490000	-2.68208600
64.09999637	0.00000000	-24.22490000	-6.86515700
64.29999636	0.00000000	-25.33834000	-12.67224000
64.49999635	0.00000000	-26.87623000	-18.90379000
64.69999634	0.00000000	-28.41412000	-24.71087000
64.89999632	0.00000000	-29.57062000	-28.89395000
65.09999631	0.00000000	-29.99508000	-30.09350000
65.29999630	0.00000000	-29.94586000	-28.19882000
65.49999629	0.00000000	-29.20152000	-24.37869000
65.69999628	0.00000000	-27.66978000	-19.36516000
65.89999626	0.00000000	-26.54404000	-14.72072000
66.09999625	0.00000000	-25.76279000	-11.14050000
66.29999624	0.00000000	-25.76279000	-8.40305000
66.49999623	0.00000000	-26.54404000	-6.90821800
66.69999622	0.00000000	-27.66978000	-7.24040300
66.89999620	0.00000000	-29.20152000	-9.14124000
67.09999619	0.00000000	-29.94586000	-11.51575000
67.29999618	0.00000000	-29.94586000	-14.67150000
67.49999617	0.00000000	-29.10925000	-18.47933000
67.69999616	0.00000000	-26.83317000	-21.59203000
67.89999615	0.00000000	-24.22490000	-23.64050000
68.09999613	0.00000000	-22.64394000	-25.17224000
68.29999612	0.00000000	-22.26870000	-25.86737000
68.49999611	0.00000000	-23.06225000	-24.71087000
68.69999610	0.00000000	-25.43061000	-22.01649000
68.89999609	0.00000000	-28.87549000	-18.47933000
69.09999607	0.00000000	-32.73868000	-14.16708000
69.29999606	0.00000000	-35.76525000	-9.60875900
69.49999605	0.00000000	-36.92790000	-6.12696800
69.69999604	0.00000000	-35.76525000	-4.95816900
69.89999603	0.00000000	-32.64640000	-5.75172200
70.09999601	0.00000000	-28.03888000	-8.91363100
70.29999600	-0.15871060	-23.01919000	-14.25320000
70.49999599	0.00000000	-19.14985000	-20.01722000
70.69999598	0.00000000	-16.78149000	-24.71087000
70.89999597	0.00000000	-16.49852000	-27.78051000
71.09999596	0.00000000	-18.82997000	-28.56176000
71.29999594	0.00000000	-23.84965000	-26.61786000
71.49999593	0.00000000	-29.95201000	-22.79773000
71.69999592	0.00000000	-35.39001000	-17.74114000
71.89999591	0.00000000	-38.88410000	-12.76452000
72.09999590	0.00000000	-40.04675000	-8.90747900
72.29999588	0.00000000	-38.50886000	-7.37573800
72.49999587	0.00000000	-34.65182000	-8.44611200
72.69999586	0.00000000	-29.61983000	-11.09744000
72.89999585	0.00000000	-24.18184000	-14.21014000
73.09999584	0.00000000	-19.56816000	-17.32283000
73.29999582	0.00000000	-16.87377000	-20.01722000
73.49999581	0.00000000	-16.87377000	-21.54897000
73.69999580	0.00000000	-19.52510000	-21.59203000
73.89999579	0.00000000	-23.75738000	-20.47859000
74.09999578	0.00000000	-28.41412000	-18.94685000
74.29999577	0.00000000	-32.68946000	-17.40895000
74.49999575	0.00000000	-35.76525000	-16.29552000
74.69999574	0.00000000	-36.92790000	-16.29552000
74.89999573	0.00000000	-35.81446000	-17.40895000
75.09999572	0.00000000	-33.11393000	-18.85458000
75.29999571	0.00000000	-29.66289000	-19.59892000
75.49999569	0.00000000	-26.22416000	-18.85458000
75.69999568	0.00000000	-24.22490000	-17.32283000
75.89999567	0.00000000	-23.38214000	-15.36663000
76.09999566	0.00000000	-23.06225000	-13.04749000
76.29999565	0.00000000	-24.22490000	-11.18356000
76.49999563	0.00000000	-26.40871000	-10.44537000
76.69999562	0.00000000	-27.94660000	-11.65108000
76.89999561	0.00000000	-28.41412000	-14.72072000
77.09999560	0.00000000	-28.45718000	-18.94685000
77.29999559	0.00000000	-28.45718000	-23.17298000
77.49999558	0.00000000	-28.45718000	-26.24262000
77.69999556	0.00000000	-28.50024000	-27.39911000
77.89999555	0.00000000	-28.87549000	-26.24262000
78.09999554	0.00000000	-29.66289000	-23.12992000
78.29999553	0.00000000	-30.37032000	-18.47933000
78.49999552	0.00000000	-30.78248000	-13.13976000
78.69999550	0.00000000	-30.37032000	-8.90747900
78.89999549	0.00000000	-29.57062000	-6.90821800
79.09999548	0.00000000	-27.98966000	-6.90821800
79.29999547	0.00000000	-25.71358000	-8.86441900
79.49999546	0.00000000	-23.80659000	-12.72146000
79.69999544	0.00000000	-22.64394000	-17.32283000
79.89999543	0.00000000	-22.68701000	-21.59203000
80.09999542	0.00000000	-24.22490000	-24.66166000
80.29999541	0.00000000	-26.87623000	-25.86737000
80.49999540	0.00000000	-29.57062000	-25.12918000
80.69999539	0.00000000	-31.57603000	-23.22219000
80.89999537	0.00000000	-33.11393000	-20.47859000
81.09999536	0.00000000	-33.80905000	-17.36589000
81.29999535	0.00000000	-32.64640000	-14.25320000
81.49999534	0.00000000	-29.99508000	-11.55881000
81.69999533	0.00000000	-26.91929000	-9.98400600
81.89999531	0.00000000	-24.22490000	-9.60875900
82.09999530	0.00000000	-22.68701000	-10.35310000
82.29999529	0.00000000	-22.64394000	-12.30315000
82.49999528	0.00000000	-23.75738000	-14.62844000
82.69999527	0.00000000	-25.33834000	-17.36589000
82.89999525	0.00000000	-27.29453000	-20.10950000
83.09999524	0.00000000	-29.57062000	-22.43479000
83.29999523	0.00000000	-31.10851000	-24.33563000
83.49999522	0.00000000	-31.52682000	-24.71087000
83.69999521	0.00000000	-31.15157000	-23.59129000
83.89999520	0.00000000	-30.03814000	-21.59203000
84.09999518	0.00000000	-28.87549000	-18.47933000
84.29999517	0.00000000	-28.08194000	-14.62844000
84.49999516	0.00000000	-27.29453000	-11.18356000
84.69999515	0.00000000	-26.91929000	-8.82135800
84.89999514	0.00000000	-26.87623000	-8.07086500
85.09999512	0.00000000	-26.87623000	-8.86441900
85.29999511	0.00000000	-26.87623000	-11.60187000
85.49999510	0.00000000	-26.87623000	-15.83415000
85.69999509	0.00000000	-26.87623000	-20.43553000
85.89999508	0.00000000	-26.91929000	-24.29257000
86.09999506	0.00000000	-27.29453000	-26.24262000
86.29999505	0.00000000	-28.03888000	-26.24262000
86.49999504	0.00000000	-28.45718000	-24.29257000
86.69999503	0.00000000	-28.92470000	-20.43553000
86.89999502	0.00000000	-29.99508000	-15.83415000
87.09999501	0.00000000	-30.73326000	-11.55881000
87.29999499	0.00000000	-30.37032000	-8.48917200
87.49999498	0.00000000	-29.61983000	-7.37573800
87.69999497	0.00000000	-28.45718000	-8.90747900
87.89999496	0.00000000	-27.29453000	-12.72146000
88.09999495	0.00000000	-26.50098000	-17.36589000
88.29999493	0.00000000	-25.76279000	-21.96727000
88.49999492	0.00000000	-25.80585000	-25.44906000
88.69999491	0.00000000	-26.87623000	-26.56865000
88.89999490	0.00000000	-28.03888000	-25.44906000
89.09999489	-0.15871060	-28.87549000	-21.96727000
89.29999487	0.00000000	-30.03814000	-17.36589000
89.49999486	0.00000000	-31.10851000	-12.76452000
89.69999485	0.00000000	-31.15157000	-9.33193800
89.89999484	0.00000000	-30.41338000	-8.53838500
90.09999483	0.00000000	-29.66289000	-10.02707000
90.29999482	0.00000000	-28.87549000	-13.18282000
90.49999480	0.00000000	-28.45718000	-17.78420000
90.69999479	0.00000000	-28.08194000	-22.75467000
90.89999478	0.00000000	-27.71284000	-26.19955000
91.09999477	0.00000000	-28.08194000	-27.35605000
91.29999476	0.00000000	-28.41412000	-25.82431000
91.49999474	0.00000000	-28.45718000	-21.96727000
91.69999473	0.00000000	-28.45718000	-16.99065000
91.89999472	0.00000000	-28.45718000	-12.02018000
92.09999471	0.00000000	-28.45718000	-8.95669300
92.29999470	0.00000000	-28.41412000	-8.53838500
92.49999468	0.00000000	-28.12500000	-10.44537000
92.69999467	0.00000000	-28.13730000	-14.30241000
92.89999466	0.00000000	-29.28765000	-18.90379000
93.09999465	-0.15871060	-30.41338000	-23.12992000
93.29999464	0.00000000	-31.57603000	-25.82431000
93.49999463	0.00000000	-32.31422000	-26.19955000
93.69999461	0.00000000	-31.90207000	-24.29257000
93.89999460	0.00000000	-30.78248000	-20.43553000
94.09999459	0.00000000	-28.83243000	-15.87721000
94.29999458	0.00000000	-26.87623000	-12.02018000
94.49999457	0.00000000	-24.92003000	-10.07013000
94.69999455	0.00000000	-23.06225000	-10.07013000
94.89999454	0.00000000	-22.73007000	-12.02018000
95.09999453	0.00000000	-24.22490000	-15.83415000
95.29999452	0.00000000	-26.91929000	-20.01722000
95.49999451	0.00000000	-30.03814000	-23.08686000
95.69999449	0.00000000	-33.11393000	-24.24335000
95.89999448	0.00000000	-35.43922000	-23.12992000
96.09999447	0.00000000	-36.18971000	-20.47859000
96.29999446	0.00000000	-35.43922000	-17.41511000
96.49999445	0.00000000	-33.06471000	-14.67150000
96.69999444	0.00000000	-29.61983000	-12.76452000
96.89999442	0.00000000	-25.76279000	-11.97711000
97.09999441	0.00000000	-22.64394000	-12.72146000
97.29999440	0.00000000	-20.68774000	-14.25320000
97.49999439	0.00000000	-19.99262000	-16.20325000
97.69999438	0.00000000	-21.52436000	-18.47933000
97.89999436	0.00000000	-24.96309000	-20.01722000
98.09999435	0.00000000	-28.87549000	-20.43553000
98.29999434	0.00000000	-33.11393000	-20.10950000
98.49999433	0.00000000	-36.55265000	-19.32210000
98.69999432	0.00000000	-37.72145000	-18.52854000
98.89999430	0.00000000	-37.02018000	-17.36589000
99.09999429	0.00000000	-34.69488000	-16.25246000
99.29999428	0.00000000	-31.57603000	-15.82800000
99.49999427	0.00000000	-28.08194000	-15.78494000
99.69999426	0.00000000	-24.60015000	-15.78494000
99.89999425	0.00000000	-22.31176000	-15.74188000
100.09999423	0.00000000	-21.48130000	-15.36663000
100.29999422	0.00000000	-22.26870000	-14.67150000
100.49999421	0.00000000	-24.18184000	-14.67150000
100.69999420	0.00000000	-26.91929000	-15.40969000
100.89999419	0.00000000	-29.99508000	-16.25246000
101.09999417	0.00000000	-32.73868000	-17.83341000
101.29999416	0.00000000	-34.65182000	-20.06029000
101.49999415	0.00000000	-35.43922000	-21.59203000
101.69999414	0.00000000	-34.69488000	-22.01033000
101.89999413	0.00000000	-33.15699000	-21.59203000
102.09999411	0.00000000	-31.20078000	-20.01722000
102.29999410	0.00000000	-28.87549000	-17.36589000
102.49999409	0.00000000	-26.91929000	-14.67150000
102.69999408	0.00000000	-25.33834000	-12.72146000
102.89999407	0.00000000	-24.22490000	-11.55881000
103.09999406	0.00000000	-24.26796000	-11.60187000
103.29999404	0.00000000	-25.76279000	-13.13976000
103.49999403	0.00000000	-28.03888000	-15.83415000
103.69999402	0.00000000	-29.99508000	-18.89764000
103.89999401	-0.15871060	-31.61909000	-21.64124000
104.09999400	0.00000000	-33.11393000	-23.54823000
104.29999398	0.00000000	-33.85211000	-24.29257000
104.49999397	0.00000000	-33.11393000	-23.12992000
104.69999396	0.00000000	-31.61909000	-20.47859000
104.89999395	0.00000000	-30.03814000	-17.41511000
105.09999394	-0.15871060	-28.50024000	-14.72072000
105.29999392	0.00000000	-27.34375000	-13.18282000
105.49999391	0.00000000	-26.96850000	-13.13976000
105.69999390	0.00000000	-27.34375000	-14.29626000
105.89999389	0.00000000	-28.45718000	-16.20325000
106.09999388	0.00000000	-29.61983000	-18.52854000
106.29999387	0.00000000	-30.41338000	-20.43553000
106.49999385	0.00000000	-31.20078000	-21.64124000
106.69999384	0.00000000	-31.52682000	-21.96727000
106.89999383	0.00000000	-31.20078000	-21.22293000
107.09999382	0.00000000	-30.41338000	-19.32210000
107.29999381	0.00000000	-29.66289000	-17.40895000
107.49999379	-0.15871060	-28.87549000	-15.83415000
107.69999378	0.00000000	-28.50024000	-14.72072000
107.89999377	0.00000000	-28.50024000	-14.72072000
108.09999376	0.00000000	-28.87549000	-15.83415000
108.29999375	0.00000000	-29.66289000	-17.36589000
108.49999374	0.00000000	-30.41338000	-18.90379000
108.69999372	0.00000000	-31.20078000	-20.06029000
108.89999371	0.00000000	-31.52682000	-20.43553000
109.09999370	0.00000000	-31.20078000	-20.06029000
109.29999369	0.00000000	-30.41338000	-18.90379000
109.49999368	0.00000000	-29.61983000	-17.36589000
109.69999366	0.00000000	-28.45718000	-15.83415000
109.89999365	0.00000000	-27.34375000	-14.67150000
110.09999364	0.00000000	-26.96850000	-14.30241000
110.29999363	0.00000000	-27.34375000	-14.72072000
110.49999362	0.00000000	-28.45718000	-16.20325000
110.69999360	0.00000000	-29.61983000	-18.11024000
110.89999359	0.00000000	-30.41338000	-19.27903000
111.09999358	0.00000000	-31.20078000	-20.10950000
111.29999357	0.00000000	-31.57603000	-20.48474000
111.49999356	0.00000000	-31.57603000	-20.48474000
111.69999355	0.00000000	-31.20078000	-20.06029000
111.89999353	0.00000000	-30.41338000	-18.90379000
112.09999352	0.00000000	-29.66289000	-17.40895000
112.29999351	0.00000000	-28.87549000	-16.25246000
112.49999350	0.00000000	-28.50024000	-15.82800000
112.69999349	0.00000000	-28.45718000	-15.78494000
112.89999347	0.00000000	-28.45718000	-15.82800000
113.09999346	0.00000000	-28.50024000	-16.20325000
113.29999345	0.00000000	-28.87549000	-16.94759000
113.49999344	0.00000000	-29.61983000	-17.36589000
113.69999343	0.00000000	-29.99508000	-17.78420000
113.89999341	0.00000000	-30.03814000	-18.47933000
114.09999340	0.00000000	-30.03814000	-18.52854000
114.29999339	0.00000000	-30.08120000	-18.20251000
114.49999338	0.00000000	-30.41338000	-18.57160000
114.69999337	0.00000000	-30.78248000	-18.90379000
114.89999336	0.00000000	-30.41338000	-18.94685000
115.09999334	0.00000000	-30.03814000	-18.94685000
115.29999333	0.00000000	-29.61983000	-18.90379000
115.49999332	0.00000000	-28.92470000	-18.52854000
115.69999331	0.00000000	-28.92470000	-17.74114000
115.89999330	0.00000000	-29.61983000	-16.99065000
116.09999328	0.00000000	-29.99508000	-16.20325000
116.29999327	0.00000000	-30.03814000	-15.82800000
116.49999326	0.00000000	-30.08120000	-15.82800000
116.69999325	0.00000000	-30.41338000	-16.20325000
116.89999324	0.00000000	-30.78248000	-16.99065000
117.09999322	0.00000000	-30.41338000	-17.78420000
117.29999321	0.00000000	-30.03814000	-18.94685000
117.49999320	0.00000000	-29.61983000	-20.06029000
117.69999319	0.00000000	-28.87549000	-20.48474000
117.89999318	0.00000000	-28.50024000	-20.48474000
118.09999317	0.00000000	-28.45718000	-20.10950000
118.29999315	0.00000000	-28.50024000	-19.32210000
118.49999314	0.00000000	-28.92470000	-18.52854000
118.69999313	0.00000000	-30.08120000	-17.36589000
118.89999312	0.00000000	-31.57603000	-16.25246000
119.09999311	0.00000000	-32.73252000	-15.82800000
119.29999309	0.00000000	-33.10777000	-15.82800000
119.49999308	0.00000000	-32.73252000	-16.20325000
119.69999307	0.00000000	-31.57603000	-16.94759000
119.89999306	0.00000000	-30.08120000	-17.36589000
120.09999305	0.00000000	-28.87549000	-17.78420000
120.29999303	0.00000000	-28.08194000	-18.52854000
120.49999302	0.00000000	-27.29453000	-18.90379000
120.69999301	0.00000000	-26.96850000	-18.94685000
120.89999300	0.00000000	-27.34375000	-18.94685000
121.09999299	0.00000000	-28.45718000	-18.94685000
121.29999298	0.00000000	-29.66289000	-18.94685000
121.49999296	0.00000000	-30.83169000	-18.94685000
121.69999295	0.00000000	-32.36343000	-18.90379000
121.89999294	0.00000000	-33.10777000	-18.52854000
122.09999293	0.00000000	-33.15699000	-17.78420000
122.29999292	0.00000000	-32.73252000	-17.40895000
122.49999290	0.00000000	-31.61909000	-17.36589000
122.69999289	0.00000000	-30.45644000	-17.36589000
122.89999288	0.00000000	-29.66289000	-17.36589000
123.09999287	0.00000000	-28.87549000	-17.36589000
123.29999286	0.00000000	-28.50024000	-17.40895000
123.49999284	0.00000000	-28.45718000	-17.78420000
123.69999283	0.00000000	-28.45718000	-18.52854000
123.89999282	0.00000000	-28.50024000	-18.90379000
124.09999281	0.00000000	-28.92470000	-18.94685000
124.29999280	0.00000000	-30.03814000	-18.94685000
124.49999279	0.00000000	-31.20078000	-18.94685000
124.69999277	0.00000000	-31.99434000	-18.94685000
124.89999276	0.00000000	-32.78174000	-18.94685000
125.09999275	0.00000000	-33.10777000	-18.90379000
125.29999274	0.00000000	-32.78174000	-18.52854000
125.49999273	0.00000000	-31.99434000	-17.74114000
125.69999271	0.00000000	-31.20078000	-16.99065000
125.89999270	0.00000000	-30.03814000	-16.25246000
126.09999269	0.00000000	-28.92470000	-16.25246000
126.29999268	0.00000000	-28.50024000	-16.94759000
126.49999267	0.00000000	-28.45718000	-17.36589000
126.69999265	0.00000000	-28.50024000	-17.78420000
126.89999264	0.00000000	-28.92470000	-18.52854000
127.09999263	0.00000000	-30.08120000	-18.90379000
127.29999262	0.00000000	-31.57603000	-18.94685000
127.49999261	0.00000000	-32.73252000	-18.94685000
127.69999260	0.00000000	-33.15699000	-18.94685000
127.89999258	0.00000000	-33.15699000	-18.90379000
128.09999257	0.00000000	-32.73252000	-18.52854000
128.29999256	0.00000000	-31.61909000	-17.78420000
128.49999255	0.00000000	-30.45644000	-17.40895000
128.69999254	0.00000000	-29.66289000	-17.36589000
128.89999252	0.00000000	-28.87549000	-17.36589000
129.09999251	0.00000000	-28.54946000	-17.40895000
129.29999250	0.00000000	-28.87549000	-17.78420000
129.49999249	0.00000000	-29.66289000	-18.52854000
129.69999248	0.00000000	-30.45644000	-18.90379000
129.89999246	0.00000000	-31.61909000	-18.94685000
130.09999245	0.00000000	-32.73252000	-18.90379000
130.29999244	0.00000000	-33.10777000	-18.52854000
130.49999243	0.00000000	-32.78174000	-17.83341000
130.69999242	-0.15871060	-31.99434000	-17.74114000
130.89999241	0.00000000	-31.20078000	-17.73499000
131.09999239	0.00000000	-30.03814000	-16.99680000
131.29999238	0.00000000	-28.96776000	-17.08292000
131.49999237	0.00000000	-28.92470000	-17.74114000
131.69999236	0.00000000	-29.61983000	-18.52854000
131.89999235	0.00000000	-30.03814000	-18.90379000
132.09999233	0.00000000	-30.45644000	-18.94685000
132.29999232	0.00000000	-31.20078000	-18.94685000
132.49999231	0.00000000	-31.57603000	-18.94685000
132.69999230	0.00000000	-31.61909000	-18.90379000
132.89999229	0.00000000	-31.61909000	-18.47933000
133.09999227	0.00000000	-31.61909000	-17.40895000
133.29999226	0.00000000	-31.57603000	-16.67077000
133.49999225	0.00000000	-31.24384000	-16.99065000
133.69999224	0.00000000	-30.87475000	-17.32283000
133.89999223	0.00000000	-31.24384000	-17.40895000
134.09999222	0.00000000	-31.52682000	-17.78420000
134.29999220	0.00000000	-31.24384000	-18.57160000
134.49999219	0.00000000	-30.83169000	-19.32210000
134.69999218	0.00000000	-30.82554000	-20.10950000
134.89999217	0.00000000	-30.41338000	-20.43553000
135.09999216	0.00000000	-30.08120000	-20.10950000
135.29999214	0.00000000	-30.03814000	-19.36516000
135.49999213	0.00000000	-30.08120000	-18.98991000
135.69999212	0.00000000	-30.50566000	-18.90379000
135.89999211	0.00000000	-31.57603000	-18.52854000
136.09999210	0.00000000	-32.36343000	-17.78420000
136.29999208	0.00000000	-32.36959000	-17.40895000
136.49999207	0.00000000	-32.40649000	-17.36589000
136.69999206	0.00000000	-31.99434000	-17.40895000
136.89999205	0.00000000	-31.61909000	-17.78420000
137.09999204	0.00000000	-31.20078000	-18.57160000
137.29999203	0.00000000	-30.45644000	-19.32210000
137.49999201	0.00000000	-30.08120000	-20.10950000
137.69999200	0.00000000	-30.03814000	-20.48474000
137.89999199	0.00000000	-30.08120000	-20.52780000
138.09999198	0.00000000	-30.45644000	-20.52780000
138.29999197	0.00000000	-31.24384000	-20.48474000
138.49999195	0.00000000	-31.99434000	-20.10950000
138.69999194	0.00000000	-32.78174000	-19.32210000
138.89999193	0.00000000	-33.10777000	-18.57160000
139.09999192	0.00000000	-32.78174000	-17.78420000
139.29999191	0.00000000	-32.03740000	-17.40895000
139.49999189	0.00000000	-31.61909000	-17.36589000
139.69999188	0.00000000	-31.20078000	-17.36589000
139.89999187	0.00000000	-30.45644000	-17.40895000
140.09999186	0.00000000	-30.08120000	-17.78420000
140.29999185	-0.15871060	-30.08120000	-18.57160000
140.49999184	0.00000000	-30.45644000	-19.32210000
140.69999182	0.00000000	-31.20078000	-20.10950000
140.89999181	0.00000000	-31.57603000	-20.48474000
141.09999180	0.00000000	-31.61909000	-20.48474000
141.29999179	0.00000000	-31.61909000	-20.10950000
141.49999178	0.00000000	-31.61909000	-19.32210000
141.69999176	0.00000000	-31.57603000	-18.57160000
141.89999175	0.00000000	-31.20078000	-17.78420000
142.09999174	0.00000000	-30.45644000	-17.40895000
142.29999173	0.00000000	-30.08120000	-17.36589000
142.49999172	0.00000000	-30.03814000	-17.36589000
142.69999170	0.00000000	-30.03814000	-17.40895000
142.89999169	0.00000000	-30.08120000	-17.78420000
143.09999168	0.00000000	-30.45644000	-18.57160000
143.29999167	0.00000000	-31.20078000	-19.32210000
143.49999166	0.00000000	-31.57603000	-20.10950000
143.69999165	0.00000000	-31.61909000	-20.43553000
143.89999163	0.00000000	-31.57603000	-20.10950000
144.09999162	0.00000000	-31.20078000	-19.32210000
144.29999161	0.00000000	-30.45644000	-18.57160000
144.49999160	0.00000000	-30.08120000	-17.78420000
144.69999159	0.00000000	-30.03814000	-17.40895000
144.89999157	0.00000000	-30.08120000	-17.36589000
145.09999156	0.00000000	-30.45644000	-17.36589000
145.29999155	0.00000000	-31.20078000	-17.40895000
145.49999154	0.00000000	-31.57603000	-17.78420000
145.69999153	0.00000000	-31.61909000	-18.52854000
145.89999151	0.00000000	-31.61909000	-18.90379000
146.09999150	0.00000000	-31.61909000	-18.98991000
146.29999149	0.00000000	-31.61909000	-19.32210000
146.49999148	0.00000000	-31.57603000	-19.69119000
146.69999147	0.00000000	-31.20078000	-19.32210000
146.89999146	0.00000000	-30.50566000	-18.98991000
147.09999144	0.00000000	-30.45644000	-18.90379000
147.29999143	0.00000000	-30.82554000	-18.52854000
147.49999142	0.00000000	-30.83169000	-17.78420000
147.69999141	0.00000000	-31.24384000	-17.40895000
147.89999140	0.00000000	-31.57603000	-17.40895000
148.09999138	0.00000000	-31.61909000	-17.78420000
148.29999137	0.00000000	-31.61909000	-18.52854000
148.49999136	0.00000000	-31.61909000	-18.90379000
148.69999135	0.00000000	-31.61909000	-18.94685000
148.89999134	0.00000000	-31.61909000	-18.94685000
149.09999132	0.00000000	-31.61909000	-18.94685000
149.29999131	0.00000000	-31.57603000	-18.94685000
149.49999130	0.00000000	-31.24384000	-18.94685000
149.69999129	0.00000000	-30.87475000	-18.94685000
149.89999128	0.00000000	-31.24384000	-18.90379000
150.09999127	0.00000000	-31.52682000	-18.52854000
150.29999125	0.00000000	-31.24384000	-17.78420000
150.49999124	0.00000000	-30.87475000	-17.45817000
150.69999123	0.00000000	-31.24384000	-17.78420000
150.89999122	0.00000000	-31.61909000	-18.52854000
151.09999121	0.00000000	-32.03740000	-18.90379000
151.29999119	0.00000000	-32.73252000	-18.94685000
151.49999118	0.00000000	-32.78174000	-18.98991000
151.69999117	0.00000000	-32.41265000	-19.32210000
151.89999116	0.00000000	-32.40649000	-19.69119000
152.09999115	0.00000000	-31.99434000	-19.32210000
152.29999113	0.00000000	-31.66215000	-18.98991000
152.49999112	0.00000000	-31.57603000	-18.94685000
152.69999111	0.00000000	-31.24384000	-18.94685000
152.89999110	0.00000000	-30.87475000	-18.94685000
153.09999109	0.00000000	-31.24384000	-18.94685000
153.29999108	0.00000000	-31.61909000	-18.94685000
153.49999106	0.00000000	-32.03740000	-18.94685000
153.69999105	0.00000000	-32.78174000	-18.94685000
153.89999104	0.00000000	-33.15699000	-18.94685000
154.09999103	0.00000000	-33.20005000	-18.94685000
154.29999102	0.00000000	-33.20005000	-18.94685000
154.49999100	0.00000000	-33.15699000	-18.94685000
154.69999099	0.00000000	-32.78174000	-18.94685000
154.89999098	0.00000000	-32.03740000	-18.98991000
155.09999097	0.00000000	-31.66215000	-19.32210000
155.29999096	0.00000000	-31.61909000	-19.69119000
155.49999094	0.00000000	-31.61909000	-19.32210000
155.69999093	0.00000000	-31.61909000	-18.98991000
155.89999092	0.00000000	-31.61909000	-18.90379000
156.09999091	0.00000000	-31.61909000	-18.57160000
156.29999090	0.00000000	-31.66215000	-18.15945000
156.49999089	0.00000000	-32.03740000	-18.15330000
156.69999087	0.00000000	-32.78174000	-17.74114000
156.89999086	0.00000000	-33.15699000	-17.45817000
157.09999085	0.00000000	-33.20005000	-17.78420000
157.29999084	0.00000000	-33.20005000	-18.47933000
157.49999083	0.00000000	-33.15699000	-18.52854000
157.69999081	0.00000000	-32.78174000	-18.20251000
157.89999080	0.00000000	-32.03740000	-18.57160000
158.09999079	0.00000000	-31.66215000	-18.90379000
158.29999078	0.00000000	-31.61909000	-18.94685000
158.49999077	0.00000000	-31.61909000	-18.94685000
158.69999075	0.00000000	-31.61909000	-18.94685000
158.89999074	0.00000000	-31.61909000	-18.90379000
159.09999073	0.00000000	-31.61909000	-18.52854000
159.29999072	0.00000000	-31.61909000	-17.78420000
159.49999071	0.00000000	-31.66215000	-17.40895000
159.69999070	0.00000000	-31.99434000	-17.36589000
159.89999068	0.00000000	-32.40649000	-17.40895000
160.09999067	0.00000000	-32.36959000	-17.78420000
160.29999066	0.00000000	-32.40649000	-18.52854000
160.49999065	0.00000000	-32.03740000	-18.90379000
160.69999064	0.00000000	-32.08661000	-18.94685000
160.89999062	0.00000000	-32.73252000	-18.94685000
161.09999061	0.00000000	-32.73252000	-18.94685000
161.29999060	0.00000000	-32.03740000	-18.94685000
161.49999059	0.00000000	-31.66215000	-18.94685000
161.69999058	0.00000000	-31.61909000	-18.94685000
161.89999056	0.00000000	-31.61909000	-18.90379000
162.09999055	0.00000000	-31.61909000	-18.57160000
162.29999054	0.00000000	-31.61909000	-18.20251000
162.49999053	0.00000000	-31.66215000	-18.57160000
162.69999052	0.00000000	-32.03740000	-18.85458000
162.89999051	0.00000000	-32.73252000	-18.57160000
163.09999049	0.00000000	-32.78174000	-18.20251000
163.29999048	0.00000000	-32.45571000	-18.57160000
163.49999047	0.00000000	-32.82480000	-18.90379000
163.69999046	0.00000000	-33.15699000	-18.94685000
163.89999045	0.00000000	-33.15699000	-18.94685000
164.09999043	0.00000000	-32.78174000	-18.94685000
164.29999042	0.00000000	-32.03740000	-18.94685000
164.49999041	0.00000000	-31.66215000	-18.94685000
164.69999040	0.00000000	-31.61909000	-18.94685000
164.89999039	0.00000000	-31.61909000	-18.94685000
165.09999037	0.00000000	-31.61909000	-18.94685000
165.29999036	0.00000000	-31.66215000	-18.94685000
165.49999035	0.00000000	-32.03740000	-18.94685000
165.69999034	0.00000000	-32.78174000	-18.94685000
165.89999033	0.00000000	-33.15699000	-18.94685000
166.09999032	0.00000000	-33.20005000	-18.94685000
166.29999030	0.00000000	-33.20005000	-18.94685000
166.49999029	0.00000000	-33.20005000	-18.94685000
166.69999028	0.00000000	-33.20005000	-18.94685000
166.89999027	0.00000000	-33.15699000	-18.98991000
167.09999026	0.00000000	-32.82480000	-19.36516000
167.29999024	0.00000000	-32.45571000	-20.10950000
167.49999023	0.00000000	-32.82480000	-20.48474000
167.69999022	0.00000000	-33.15699000	-20.48474000
167.89999021	0.00000000	-33.20005000	-20.15256000
168.09999020	0.00000000	-33.20005000	-19.74040000
168.29999018	0.00000000	-33.20005000	-19.73425000
168.49999017	0.00000000	-33.20005000	-19.32210000
168.69999016	0.00000000	-33.20005000	-18.98991000
168.89999015	0.00000000	-33.20005000	-18.94685000
169.09999014	0.00000000	-33.20005000	-18.94685000
169.29999013	0.00000000	-33.20005000	-18.94685000
169.49999011	0.00000000	-33.20005000	-18.94685000
169.69999010	0.00000000	-33.20005000	-18.94685000
169.89999009	0.00000000	-33.20005000	-18.94685000
170.09999008	0.00000000	-33.20005000	-18.94685000
170.29999007	0.00000000	-33.20005000	-18.94685000
170.49999005	0.00000000	-33.20005000	-18.94685000
170.69999004	0.00000000	-33.20005000	-18.94685000
170.89999003	0.00000000	-33.15699000	-18.94685000
171.09999002	0.00000000	-32.78174000	-18.94685000
171.29999001	0.00000000	-32.03740000	-18.94685000
171.49998999	0.00000000	-31.71137000	-18.94685000
171.69998998	0.00000000	-31.99434000	-18.94685000
171.89998997	0.00000000	-32.40649000	-18.94685000
172.09998996	0.00000000	-32.41265000	-18.94685000
172.29998995	0.00000000	-32.82480000	-18.94685000
172.49998994	0.00000000	-33.15699000	-18.94685000
172.69998992	0.00000000	-33.20005000	-18.94685000
172.89998991	0.00000000	-33.20005000	-18.94685000
173.09998990	0.00000000	-33.20005000	-18.94685000
173.29998989	0.00000000	-33.20005000	-18.94685000
173.49998988	0.00000000	-33.20005000	-18.94685000
173.69998986	0.00000000	-33.20005000	-18.94685000
173.89998985	0.00000000	-33.20005000	-18.94685000
174.09998984	0.00000000	-33.20005000	-18.94685000
174.29998983	0.00000000	-33.20005000	-18.94685000
174.49998982	0.00000000	-33.20005000	-18.94685000
174.69998980	0.00000000	-33.15699000	-18.94685000
174.89998979	0.00000000	-32.82480000	-18.94685000
175.09998978	0.00000000	-32.45571000	-18.94685000
175.29998977	0.00000000	-32.82480000	-18.94685000
175.49998976	0.00000000	-33.15699000	-18.94685000
175.69998975	0.00000000	-33.20005000	-18.94685000
175.89998973	0.00000000	-33.20005000	-18.94685000
176.09998972	0.00000000	-33.15699000	-18.94685000
176.29998971	0.00000000	-32.82480000	-18.94685000
176.49998970	0.00000000	-32.45571000	-18.94685000
176.69998969	0.00000000	-32.82480000	-18.94685000
176.89998967	0.00000000	-33.15699000	-18.94685000
177.09998966	0.00000000	-33.20005000	-18.94685000
177.29998965	0.00000000	-33.20005000	-18.94685000
177.49998964	0.00000000	-33.20005000	-18.94685000
177.69998963	0.00000000	-33.20005000	-18.94685000
177.89998961	0.00000000	-33.20005000	-18.94685000
178.09998960	0.00000000	-33.20005000	-18.94685000
178.29998959	0.00000000	-33.20005000	-18.94685000
178.49998958	0.00000000	-33.20005000	-18.94685000
178.69998957	0.00000000	-33.20005000	-18.94685000
178.89998956	0.00000000	-33.20005000	-18.94685000
179.09998954	0.00000000	-33.20005000	-18.98991000
179.29998953	0.00000000	-33.20005000	-19.32210000
179.49998952	0.00000000	-33.20005000	-19.73425000
179.69998951	0.00000000	-33.20005000	-19.74040000
179.89998950	0.00000000	-33.20005000	-20.15256000
180.09998948	0.00000000	-33.20005000	-20.43553000
180.29998947	0.00000000	-33.20005000	-20.15256000
180.49998946	0.00000000	-33.20005000	-19.74040000
180.69998945	0.00000000	-33.20005000	-19.73425000
180.89998944	0.00000000	-33.20005000	-19.32210000
181.09998942	0.00000000	-33.20005000	-18.98991000
181.29998941	0.00000000	-33.20005000	-18.94685000
181.49998940	0.00000000	-33.20005000	-18.94685000
181.69998939	0.00000000	-33.20005000	-18.94685000
181.89998938	0.00000000	-33.20005000	-18.94685000
182.09998937	0.00000000	-33.20005000	-18.94685000
182.29998935	0.00000000	-33.20005000	-18.94685000
182.49998934	0.00000000	-33.20005000	-18.98991000
182.69998933	0.00000000	-33.20005000	-19.36516000
182.89998932	0.00000000	-33.20005000	-20.10950000
183.09998931	0.00000000	-33.20005000	-20.48474000
183.29998929	0.00000000	-33.20005000	-20.48474000
183.49998928	0.00000000	-33.20005000	-20.10950000
183.69998927	0.00000000	-33.20005000	-19.36516000
183.89998926	0.00000000	-33.20005000	-18.98991000
184.09998925	0.00000000	-33.20005000	-18.94685000
184.29998923	0.00000000	-33.20005000	-18.94685000
184.49998922	0.00000000	-33.20005000	-18.94685000
184.69998921	0.00000000	-33.20005000	-18.94685000
184.89998920	0.00000000	-33.20005000	-18.94685000
185.09998919	0.00000000	-33.20005000	-18.94685000
185.29998918	0.00000000	-33.20005000	-18.98991000
185.49998916	0.00000000	-33.20005000	-19.36516000
185.69998915	0.00000000	-33.20005000	-20.10950000
185.89998914	0.00000000	-33.20005000	-20.43553000
186.09998913	0.00000000	-33.20005000	-20.15256000
186.29998912	0.00000000	-33.24311000	-19.78346000
186.49998910	0.00000000	-33.57529000	-20.10950000
186.69998909	0.00000000	-33.98745000	-20.06029000
186.89998908	0.00000000	-33.95054000	-19.36516000
187.09998907	0.00000000	-33.98745000	-18.98991000
187.29998906	-0.15871060	-33.57529000	-18.94685000
187.49998904	0.00000000	-33.24311000	-18.94685000
187.69998903	0.00000000	-33.20005000	-18.94685000
187.89998902	0.00000000	-33.20005000	-18.94685000
188.09998901	0.00000000	-33.20005000	-18.94685000
188.29998900	0.00000000	-33.20005000	-18.98991000
188.49998899	0.00000000	-33.20005000	-19.36516000
188.69998897	0.00000000	-33.20005000	-20.10950000
188.89998896	0.00000000	-33.20005000	-20.48474000
189.09998895	0.00000000	-33.20005000	-20.48474000
189.29998894	0.00000000	-33.20005000	-20.10950000
189.49998893	0.00000000	-33.24311000	-19.36516000
189.69998891	0.00000000	-33.61835000	-18.98991000
189.89998890	0.00000000	-34.36884000	-18.94685000
190.09998889	0.00000000	-34.69488000	-18.94685000
190.29998888	0.00000000	-34.41191000	-18.94685000
190.49998887	0.00000000	-33.99975000	-18.94685000
190.69998885	0.00000000	-33.98745000	-18.94685000
190.89998884	0.00000000	-33.57529000	-18.94685000
191.09998883	0.00000000	-33.24311000	-18.94685000
191.29998882	0.00000000	-33.20005000	-18.94685000
191.49998881	0.00000000	-33.20005000	-18.94685000
191.69998880	0.00000000	-33.20005000	-18.94685000
191.89998878	0.00000000	-33.20005000	-18.94685000
192.09998877	0.00000000	-33.20005000	-18.98991000
192.29998876	0.00000000	-33.24311000	-19.32210000
192.49998875	0.00000000	-33.57529000	-19.73425000
192.69998874	0.00000000	-33.98745000	-19.69734000
192.89998872	0.00000000	-33.99975000	-19.73425000
193.09998871	0.00000000	-34.41191000	-19.32210000
193.29998870	0.00000000	-34.69488000	-18.98991000
193.49998869	0.00000000	-34.41191000	-18.94685000
193.69998868	0.00000000	-33.99975000	-18.94685000
193.89998866	0.00000000	-33.98745000	-18.94685000
194.09998865	0.00000000	-33.57529000	-18.94685000
194.29998864	0.00000000	-33.24311000	-18.94685000
194.49998863	0.00000000	-33.20005000	-18.94685000
194.69998862	-0.15871060	-33.20005000	-18.98991000
194.89998861	0.00000000	-33.20005000	-19.32210000
195.09998859	0.00000000	-33.20005000	-19.73425000
195.29998858	0.00000000	-33.24311000	-19.74040000
195.49998857	0.00000000	-33.61835000	-20.10950000
195.69998856	0.00000000	-34.36884000	-20.10950000
195.89998855	0.00000000	-34.74409000	-19.78346000
196.09998853	0.00000000	-34.74409000	-20.15256000
