Time	Channel A	Channel B	Channel C
(us)	(V)	(mV)	(mV)

-4.49999956	0.00000000	12.60458000	-0.04306102
-4.29999957	0.00000000	12.64764000	0.00000000
-4.09999958	0.00000000	12.64764000	0.00000000
-3.89999959	0.00000000	12.64764000	0.00000000
-3.69999960	0.00000000	12.64764000	0.00000000
-3.49999962	0.00000000	12.64764000	0.00000000
-3.29999963	0.00000000	12.64764000	0.00000000
-3.09999964	0.00000000	12.64764000	0.00000000
-2.89999965	0.00000000	12.64764000	0.00000000
-2.69999966	0.00000000	12.64764000	0.00000000
-2.49999968	0.00000000	12.64764000	0.00000000
-2.29999969	0.00000000	12.64764000	0.00000000
-2.09999970	0.00000000	12.64764000	0.00000000
-1.89999971	0.00000000	12.64764000	0.00000000
-1.69999972	0.00000000	12.64764000	0.00000000
-1.49999973	0.00000000	12.64764000	0.00000000
-1.29999975	0.00000000	12.64764000	0.00000000
-1.09999976	0.00000000	12.64764000	0.00000000
-0.89999977	0.00000000	12.60458000	0.00000000
-0.69999978	0.00000000	12.27239000	0.00000000
-0.49999979	0.00000000	11.90330000	0.00000000
-0.29999981	0.31803640	12.27239000	0.00000000
-0.09999982	0.63668800	12.60458000	0.00000000
0.10000017	0.95533960	12.64764000	0.00000000
0.30000016	0.95533960	12.64764000	0.00000000
0.50000015	0.79601380	12.60458000	0.00000000
0.70000013	0.31803640	12.27239000	0.00000000
0.90000012	-0.47736220	11.90330000	0.00000000
1.10000011	-1.43331700	12.27239000	0.00000000
1.30000010	-2.38927200	12.60458000	0.00000000
1.50000009	-2.86724900	12.64764000	0.00000000
1.70000008	-2.54859700	12.64764000	0.00000000
1.90000006	-1.27399100	12.64764000	0.00000000
2.10000005	0.47736220	12.64764000	0.00000000
2.30000004	2.54859700	12.64764000	0.00000000
2.50000003	4.30056600	12.60458000	0.00000000
2.70000002	5.25652100	12.22933000	0.00000000
2.90000000	4.77854300	11.53420000	0.00000000
3.09999999	3.02657500	11.48499000	0.00000000
3.29999998	0.00000000	11.81102000	0.00000000
3.49999997	-3.34522600	11.44193000	0.00000000
3.69999996	-6.37180100	11.15896000	0.00000000
3.89999994	-7.96444400	11.48499000	0.04306102
4.09999993	-7.48646600	12.22933000	0.37524600
4.29999992	-5.25652100	12.60458000	0.73818890
4.49999991	-1.27399100	12.64764000	0.37524600
4.69999990	3.18590100	12.60458000	0.04306102
4.89999989	7.00848900	12.27239000	0.00000000
5.09999987	9.23905000	11.86024000	0.00000000
5.29999986	9.07972400	11.85408000	-0.04306102
5.49999985	6.69045300	11.44193000	-0.37524600
5.69999984	2.54859700	11.10974000	-0.73818890
5.89999983	-2.38927200	11.10974000	-0.37524600
6.09999981	-6.53112700	11.48499000	-0.04306102
6.29999980	-9.07972400	12.22933000	0.00000000
6.49999979	-9.39837600	12.60458000	0.00000000
6.69999978	-7.32714100	12.64764000	0.00000000
6.89999977	-3.50393700	12.64764000	0.00000000
7.09999975	0.79601380	12.64764000	0.00000000
7.29999974	4.61921700	12.64764000	0.00000000
7.49999973	7.16781500	12.64764000	0.00000000
7.69999972	7.64579200	12.64764000	0.00000000
7.89999971	6.21247500	12.64764000	0.00000000
8.09999970	3.50393700	12.60458000	0.00000000
8.29999968	0.15871060	12.27239000	0.00000000
8.49999967	-2.70792300	11.90330000	0.00000000
8.69999966	-4.77854300	12.27239000	0.00000000
8.89999965	-5.25652100	12.60458000	0.00000000
9.09999964	-4.45989200	12.60458000	0.00000000
9.29999962	-2.86724900	12.22933000	0.00000000
9.49999961	-0.79601380	11.53420000	0.00000000
9.69999960	0.95533960	11.48499000	0.00000000
9.89999959	2.22994600	11.81102000	0.00000000
10.09999958	2.54859700	11.48499000	0.00000000
10.29999956	2.22994600	11.53420000	0.00000000
10.49999955	1.43331700	12.22933000	0.00000000
10.69999954	0.47736220	12.60458000	0.00000000
10.89999953	-0.15871060	12.60458000	0.00000000
11.09999952	-0.79601380	12.27239000	0.00000000
11.29999951	-0.95533960	11.90330000	0.00000000
11.49999949	-0.95533960	12.27239000	0.00000000
11.69999948	-0.79601380	12.60458000	0.00000000
11.89999947	-0.47736220	12.60458000	0.00000000
12.09999946	-0.15871060	12.22933000	0.00000000
12.29999945	-0.15871060	11.53420000	0.00000000
12.49999943	0.00000000	11.53420000	0.00000000
12.69999942	0.00000000	12.22933000	0.00000000
12.89999941	0.00000000	12.60458000	0.00000000
13.09999940	0.00000000	12.60458000	0.00000000
13.29999939	0.00000000	12.27239000	0.00000000
13.49999937	0.00000000	11.90330000	0.00000000
13.69999936	0.00000000	12.22933000	0.00000000
13.89999935	-0.15871060	12.22933000	0.00000000
14.09999934	-0.15871060	11.90330000	0.00000000
14.29999933	-0.15871060	12.22933000	0.00000000
14.49999932	-0.15871060	12.22933000	0.00000000
14.69999930	-0.15871060	11.86024000	0.00000000
14.89999929	0.00000000	11.85408000	0.00000000
15.09999928	0.00000000	11.44193000	0.00000000
15.29999927	0.00000000	11.10974000	0.00000000
15.49999926	0.00000000	11.06668000	0.00000000
15.69999924	0.00000000	11.06668000	0.00000000
15.89999923	0.00000000	11.06668000	0.00000000
16.09999922	0.00000000	11.06668000	0.00000000
16.29999921	-0.15871060	11.10974000	0.00000000
16.49999920	-0.15871060	11.48499000	0.00000000
16.69999919	-0.15871060	12.22933000	0.00000000
16.89999917	-0.15871060	12.64764000	0.00000000
17.09999916	0.00000000	13.06594000	0.00000000
17.29999915	0.00000000	13.81028000	0.00000000
17.49999914	0.00000000	14.18553000	0.00000000
17.69999913	0.00000000	14.18553000	0.00000000
17.89999911	0.00000000	13.76107000	0.00000000
18.09999910	0.00000000	12.60458000	0.00000000
18.29999909	0.00000000	11.06668000	0.00000000
18.49999908	0.00000000	9.48572700	0.00000000
18.69999907	0.00000000	7.94783400	0.00000000
18.89999905	-0.15871060	6.83439900	0.00000000
19.09999904	-0.15871060	6.87746000	0.00000000
19.29999903	0.00000000	8.41535400	0.00000000
19.49999902	0.00000000	11.15896000	0.00000000
19.69999901	0.00000000	14.64690000	0.00000000
19.89999900	0.00000000	18.50394000	0.00000000
20.09999898	0.00000000	21.57972000	0.00000000
20.29999897	0.00000000	23.06841000	0.00000000
20.49999896	0.00000000	22.23179000	0.00000000
20.69999895	0.00000000	18.32554000	0.00000000
20.89999894	0.00000000	12.09400000	0.00000000
21.09999892	0.00000000	4.36761800	0.00000000
21.29999891	-0.15871060	-3.30339500	0.00000000
21.49999890	-0.15871060	-8.24311000	0.00000000
21.69999889	0.00000000	-9.03051100	0.00000000
21.89999888	0.00000000	-5.03198800	0.00000000
22.09999886	0.00000000	3.53100400	0.00000000
22.29999885	0.00000000	15.90182000	0.00000000
22.49999884	0.00000000	28.93085000	0.00000000
22.69999883	0.00000000	38.98253000	0.00000000
22.89999882	0.00000000	43.59005000	0.00000000
23.09999881	-0.15871060	41.54773000	0.04306102
23.29999879	0.00000000	32.19119000	0.41830710
23.49999878	0.00000000	16.70152000	1.15649600
23.69999877	0.00000000	-1.44562000	1.53174200
23.89999876	0.00000000	-18.38090000	1.57480300
24.09999875	0.00000000	-29.49680000	1.53174200
24.29999873	0.00000000	-31.36688000	1.11343500
24.49999872	0.00000000	-23.22219000	-0.04306102
24.69999871	0.00000000	-6.19463500	-1.57480300
24.89999870	0.00000000	15.80955000	-3.15575800
25.09999869	0.00000000	37.81988000	-4.64443900
25.29999867	0.00000000	54.79822000	-5.38262700
25.49999866	-0.15871060	62.48154000	-4.64443900
25.69999865	-0.15871060	58.94439000	-3.06348400
25.89999864	-0.15871060	44.24212000	-0.69512790
26.09999863	0.00000000	21.49360000	2.82972400
26.29999862	0.00000000	-3.58636800	6.64370100
26.49999860	0.00000000	-25.26452000	10.07628000
26.69999859	0.00000000	-38.71801000	11.56496000
26.89999858	0.00000000	-40.71112000	10.40846000
27.09999857	0.00000000	-30.62254000	6.87130900
27.29999856	0.00000000	-11.34966000	1.02116100
27.49999854	0.00000000	13.39198000	-6.31766700
27.69999853	0.00000000	37.26624000	-13.61343000
27.89999852	-0.15871060	54.71210000	-18.95300000
28.09999851	0.00000000	62.05708000	-20.44168000
28.29999850	0.00000000	57.87401000	-17.28592000
28.49999848	0.00000000	43.63311000	-9.57185000
28.69999847	0.00000000	23.16068000	1.24877000
28.89999846	0.00000000	1.15649600	12.45079000
29.09999845	0.00000000	-17.45202000	22.10876000
29.29999844	0.00000000	-28.71555000	27.82972000
29.49999843	0.00000000	-31.12697000	27.78666000
29.69999841	0.00000000	-24.56939000	21.55512000
29.89999840	0.00000000	-11.02977000	9.89788300
30.09999839	0.00000000	6.74212600	-5.11195900
30.29999838	0.00000000	24.84006000	-20.15871000
30.49999837	0.00000000	38.42889000	-31.31767000
30.69999835	0.00000000	45.12795000	-36.33120000
30.89999834	0.00000000	44.79576000	-33.58760000
31.09999833	0.00000000	37.81988000	-23.55438000
31.29999832	0.00000000	25.86122000	-8.45841400
31.49999831	0.00000000	11.57726000	8.91978400
31.69999829	0.00000000	-1.58710600	24.76009000
31.89999828	0.00000000	-10.89444000	35.54380000
32.09999827	0.00000000	-14.84375000	39.01944000
32.29999826	-0.15871060	-12.93676000	34.00591000
32.49999825	0.00000000	-6.42224400	22.06570000
32.69999824	0.00000000	3.29724400	5.80708600
32.89999822	0.00000000	14.09326000	-11.61417000
33.09999821	0.00000000	23.76353000	-26.66708000
33.29999820	0.00000000	29.95817000	-36.28814000
33.49999819	0.00000000	31.53912000	-37.86294000
33.69999818	0.00000000	28.50640000	-31.36073000
33.89999816	0.00000000	21.95497000	-19.00221000
34.09999815	0.00000000	13.85334000	-3.11269700
34.29999814	0.00000000	5.76402500	13.10285000
34.49999813	0.00000000	-0.00615157	26.20571000
34.69999812	0.00000000	-2.00541300	33.16929000
34.89999810	0.00000000	-0.51673230	32.43110000
35.09999809	0.00000000	3.71555100	24.76009000
35.29999808	0.00000000	9.48572700	12.03248000
35.49999807	0.00000000	15.25591000	-2.60211600
35.69999806	0.00000000	19.48819000	-15.74803000
35.89999805	0.00000000	21.06914000	-24.66781000
36.09999803	0.00000000	19.95571000	-27.73745000
36.29999802	0.00000000	16.83686000	-24.29257000
36.49999801	0.00000000	12.22933000	-15.05290000
36.69999800	0.00000000	7.25270600	-2.82972400
36.89999799	0.00000000	3.80782500	9.14739100
37.09999797	0.00000000	2.64517700	17.61196000
37.29999796	-0.15871060	4.18307100	21.09375000
37.49999795	-0.15871060	7.99704600	18.39936000
37.69999794	0.00000000	12.60458000	10.40846000
37.89999793	0.00000000	16.87992000	0.09227362
38.09999791	0.00000000	19.95571000	-9.52263600
38.29999790	0.00000000	21.11220000	-15.66191000
38.49999789	0.00000000	19.95571000	-16.81841000
38.69999788	0.00000000	16.87992000	-12.59227000
38.89999787	0.00000000	12.64764000	-4.22613100
39.09999786	0.00000000	8.37229300	5.33956700
39.29999784	0.00000000	4.87819900	13.01058000
39.49999783	-0.15871060	2.55290300	16.81841000
39.69999782	0.00000000	2.17765700	15.28666000
39.89999781	0.00000000	3.67249000	8.78444900
40.09999780	0.00000000	6.41609200	-0.41830710
40.29999778	0.00000000	9.95324800	-9.99015700
40.49999777	0.00000000	14.18553000	-16.86762000
40.69999776	0.00000000	18.04257000	-18.81767000
40.89999775	0.00000000	20.37401000	-15.79724000
41.09999774	0.00000000	21.16142000	-8.82750900
41.29999772	0.00000000	19.99877000	0.41830710
41.49999771	0.00000000	17.29823000	9.99015700
41.69999770	0.00000000	13.81028000	16.86762000
41.89999769	0.00000000	9.90403500	18.81767000
42.09999768	-0.15871060	6.45915300	15.79724000
42.29999767	0.00000000	4.13385800	8.91978400
42.49999765	0.00000000	3.71555100	0.46751960
42.69999764	0.00000000	4.83513700	-7.29576700
42.89999763	0.00000000	6.79133800	-13.10285000
43.09999762	0.00000000	9.48572700	-15.74803000
43.29999761	0.00000000	12.18012000	-14.25935000
43.49999759	0.00000000	14.13632000	-9.33809000
43.69999758	0.00000000	15.34203000	-3.15575800
43.89999757	0.00000000	15.71727000	3.02042300
44.09999756	0.00000000	15.39124000	8.03395600
44.29999755	0.00000000	14.64690000	10.35925000
44.49999753	0.00000000	14.27165000	10.03322000
44.69999752	0.00000000	14.22859000	7.33882900
44.89999751	0.00000000	14.22859000	3.15575800
45.09999750	0.00000000	14.18553000	-1.07037400
45.29999749	0.00000000	13.71801000	-4.22613100
45.49999748	0.00000000	12.13706000	-6.17618100
45.69999746	0.00000000	9.44266700	-6.92052100
45.89999745	0.00000000	6.36687900	-5.75787400
46.09999744	0.00000000	3.67249000	-3.15575800
46.29999743	0.00000000	2.13459600	-0.41830710
46.49999742	0.00000000	2.17765700	1.90698800
46.69999740	0.00000000	4.18307100	3.85088600
46.89999739	0.00000000	8.45841400	4.60137700
47.09999738	-0.15871060	14.27165000	4.22613100
47.29999737	0.00000000	20.41708000	2.69439000
47.49999736	0.00000000	25.39370000	0.41830710
47.69999734	0.00000000	27.30069000	-1.57480300
47.89999733	0.00000000	25.71973000	-3.53100400
48.09999732	0.00000000	20.65084000	-5.38262700
48.29999731	0.00000000	12.55536000	-5.75787400
48.49999730	-0.15871060	3.71555100	-4.64443900
48.69999729	0.00000000	-3.58636800	-2.69439000
48.89999727	0.00000000	-7.44955700	0.04306102
49.09999726	0.00000000	-6.66215500	3.11269700
49.29999725	0.00000000	-1.63016700	5.75787400
49.49999724	0.00000000	6.87746000	6.92052100
49.69999723	0.00000000	16.87992000	6.13312000
49.89999721	0.00000000	25.71973000	3.85088600
50.09999720	0.00000000	31.11466000	0.37524600
50.29999719	0.00000000	31.48991000	-3.06348400
50.49999718	0.00000000	26.88238000	-5.85014700
50.69999717	0.00000000	18.41781000	-7.75713500
50.89999715	0.00000000	8.45841400	-8.50147600
51.09999714	0.00000000	-0.04921259	-7.29576700
51.29999713	0.00000000	-5.08120100	-4.22613100
51.49999712	0.00000000	-5.86860200	0.00000000
51.69999711	0.00000000	-2.00541300	4.22613100
51.89999710	0.00000000	5.25344500	7.29576700
52.09999708	0.00000000	13.71801000	8.45226300
52.29999707	0.00000000	21.02608000	7.33882900
52.49999706	0.00000000	25.30143000	4.64443900
52.69999705	0.00000000	25.67667000	1.15649600
52.89999704	0.00000000	22.18258000	-2.69439000
53.09999702	-0.15871060	15.29897000	-5.75787400
53.29999701	0.00000000	7.29576700	-7.29576700
53.49999700	0.00000000	1.15649600	-6.96358300
53.69999699	0.00000000	-1.58710600	-5.06274600
53.89999698	0.00000000	-0.47367120	-2.73745100
54.09999696	0.00000000	3.75861200	0.00000000
54.29999695	0.00000000	9.90403500	2.60211600
54.49999694	0.00000000	16.46161000	3.76476400
54.69999693	0.00000000	21.40133000	3.06348400
54.89999692	0.00000000	23.34522000	1.57480300
55.09999691	0.00000000	21.44439000	0.00000000
55.29999689	0.00000000	16.87992000	-1.48868100
55.49999688	0.00000000	11.10974000	-2.22687000
55.69999687	0.00000000	5.71481200	-1.48868100
55.89999686	0.00000000	2.22687000	0.00000000
56.09999685	0.00000000	1.06422200	1.53174200
56.29999683	0.00000000	2.64517700	2.68823800
56.49999682	0.00000000	6.83439900	3.02042300
56.69999681	0.00000000	12.18012000	2.22687000
56.89999680	0.00000000	16.79380000	-0.13533460
57.09999679	0.00000000	19.53125000	-3.48794300
57.29999677	0.00000000	19.95571000	-6.54527500
57.49999676	-0.15871060	18.46087000	-7.67101300
57.69999675	0.00000000	15.71727000	-6.92052100
57.89999674	0.00000000	12.22933000	-4.18307100
58.09999673	-0.15871060	8.41535400	0.04306102
58.29999672	0.00000000	5.76402500	4.69365100
58.49999670	0.00000000	5.29650500	8.87672100
58.69999669	0.00000000	6.41609200	11.14665000
58.89999668	0.00000000	8.37229300	10.35925000
59.09999667	0.00000000	11.06668000	6.92052100
59.29999666	0.00000000	13.71801000	1.48868100
59.49999664	0.00000000	15.25591000	-4.64443900
59.69999663	0.00000000	15.29897000	-10.03322000
59.89999662	0.00000000	14.18553000	-13.10285000
60.09999661	0.00000000	12.64764000	-13.05364000
60.29999660	0.00000000	11.10974000	-9.56569900
60.49999658	0.00000000	9.95324800	-3.06348400
60.69999657	-0.15871060	9.52879000	4.22613100
60.89999656	0.00000000	9.52879000	10.40846000
61.09999655	0.00000000	9.95324800	14.25935000
61.29999654	0.00000000	11.06668000	14.58538000
61.49999653	0.00000000	12.18012000	11.14665000
61.69999651	0.00000000	12.60458000	4.60137700
61.89999650	0.00000000	12.60458000	-3.06348400
62.09999649	0.00000000	12.18012000	-10.03322000
62.29999648	0.00000000	11.06668000	-14.67766000
62.49999647	0.00000000	9.90403500	-16.20940000
62.69999645	0.00000000	9.15354300	-14.25935000
62.89999644	0.00000000	8.79060000	-8.87057000
63.09999643	0.00000000	9.57800100	-1.58095500
63.29999642	0.00000000	11.06668000	5.75787400
63.49999641	0.00000000	12.60458000	11.56496000
63.69999639	0.00000000	13.76107000	14.63459000
63.89999638	0.00000000	14.13632000	14.21629000
64.09999637	0.00000000	13.81028000	10.03322000
64.29999636	0.00000000	12.97982000	3.53100400
64.49999635	0.00000000	11.85408000	-3.02042300
64.69999634	-0.15871060	10.27928000	-8.50147600
64.89999632	0.00000000	9.15354300	-11.98942000
65.09999631	0.00000000	8.37229300	-13.14591000
65.29999630	0.00000000	8.41535400	-11.61417000
65.49999629	0.00000000	9.52879000	-7.80019600
65.69999628	0.00000000	11.02362000	-3.15575800
65.89999626	0.00000000	12.18012000	1.48868100
66.09999625	0.00000000	12.60458000	5.38262700
66.29999624	0.00000000	12.60458000	7.75713500
66.49999623	0.00000000	12.18012000	8.96284400
66.69999622	0.00000000	11.02362000	8.91978400
66.89999620	0.00000000	9.52879000	7.38188900
67.09999619	0.00000000	8.41535400	4.68750000
67.29999618	0.00000000	8.45841400	1.58095500
67.49999617	0.00000000	9.95324800	-1.58095500
67.69999616	0.00000000	12.27239000	-4.68750000
67.89999615	0.00000000	14.60384000	-7.38188900
68.09999613	0.00000000	16.83686000	-8.96284400
68.29999612	0.00000000	17.57505000	-9.33809000
68.49999611	0.00000000	16.04946000	-8.50147600
68.69999610	0.00000000	13.39198000	-5.75787400
68.89999609	0.00000000	9.86097400	-1.57480300
69.09999607	0.00000000	6.41609200	2.73745100
69.29999606	0.00000000	3.67249000	6.59448800
69.49999605	0.00000000	2.17765700	9.70103300
69.69999604	0.00000000	2.60211600	10.82677000
69.89999603	0.00000000	5.33956700	10.07628000
70.09999601	0.00000000	9.95324800	7.29576700
70.29999600	0.00000000	15.34203000	2.69439000
70.49999599	0.00000000	19.95571000	-2.73745100
70.69999598	0.00000000	22.65010000	-7.71407400
70.89999597	0.00000000	22.65010000	-11.18971000
71.09999596	0.00000000	19.95571000	-11.94021000
71.29999594	0.00000000	15.29897000	-10.07628000
71.49999593	0.00000000	9.52879000	-6.21924200
71.69999592	0.00000000	4.13385800	-1.57480300
71.89999591	0.00000000	0.59670270	3.06963600
72.09999590	0.00000000	-0.93503930	6.92052100
72.29999588	-0.15871060	-0.09842519	8.82750900
72.49999587	0.00000000	3.75861200	8.45226300
72.69999586	0.00000000	9.48572700	5.80093500
72.89999585	0.00000000	15.29897000	1.99311000
73.09999584	0.00000000	19.90650000	-1.44562000
73.29999582	0.00000000	22.27485000	-3.85088600
73.49999581	0.00000000	21.90576000	-4.97662400
73.69999580	0.00000000	19.62352000	-5.01353300
73.89999579	0.00000000	15.71727000	-3.48179100
74.09999578	0.00000000	11.10974000	-1.66707700
74.29999577	0.00000000	6.83439900	-0.46136810
74.49999575	0.00000000	3.75861200	-0.04306102
74.69999574	0.00000000	2.60211600	-0.04306102
74.89999573	0.00000000	3.71555100	-0.46136810
75.09999572	0.00000000	6.36687900	-1.57480300
75.29999571	0.00000000	9.48572700	-2.64517700
75.49999569	0.00000000	12.55536000	-2.60211600
75.69999568	0.00000000	14.88066000	-1.11343500
75.89999567	0.00000000	15.67421000	1.20570900
76.09999566	0.00000000	15.34203000	3.48179100
76.29999565	0.00000000	14.18553000	5.43184000
76.49999563	0.00000000	12.64764000	6.09005900
76.69999562	0.00000000	11.10974000	4.96432100
76.89999561	0.00000000	9.95324800	1.86392700
77.09999560	0.00000000	9.57800100	-1.95004900
77.29999559	0.00000000	9.90403500	-5.85014700
77.49999558	0.00000000	10.64838000	-8.87057000
77.69999556	0.00000000	10.97441000	-10.03322000
77.89999555	0.00000000	10.64838000	-8.87057000
78.09999554	0.00000000	9.86097400	-5.75787400
78.29999553	0.00000000	9.11048200	-1.15649600
78.49999552	0.00000000	8.37229300	3.85703700
78.69999550	-0.15871060	8.41535400	7.71407400
78.89999549	0.00000000	9.52879000	10.03322000
79.09999548	0.00000000	11.10974000	10.03322000
79.29999547	0.00000000	13.02288000	7.71407400
79.49999546	0.00000000	14.97293000	3.90009800
79.69999544	0.00000000	16.09252000	-0.78124990
79.89999543	0.00000000	16.46161000	-4.97662400
80.09999542	0.00000000	15.25591000	-8.12622900
80.29999541	0.00000000	12.64764000	-9.29502900
80.49999540	0.00000000	9.90403500	-8.96284400
80.69999539	0.00000000	7.57258800	-7.33882900
80.89999537	0.00000000	5.67175200	-4.26919300
81.09999536	0.00000000	5.29650500	-0.41830710
81.29999535	0.00000000	6.41609200	3.02042300
81.49999534	0.00000000	8.37229300	5.43184000
81.69999533	0.00000000	11.10974000	6.59448800
81.89999531	0.00000000	14.13632000	7.00664300
82.09999530	0.00000000	16.41855000	6.17618100
82.29999529	0.00000000	16.83686000	4.31840500
82.49999528	0.00000000	15.71727000	1.95004900
82.69999527	0.00000000	13.81028000	-0.41830710
82.89999525	0.00000000	11.48499000	-3.15575800
83.09999524	0.00000000	9.52879000	-5.80093500
83.29999523	0.00000000	7.99704600	-7.38188900
83.49999522	0.00000000	7.25270600	-7.80019600
83.69999521	0.00000000	7.94783400	-7.33882900
83.89999520	0.00000000	9.06742000	-5.38262700
84.09999518	0.00000000	9.90403500	-1.95004900
84.29999517	0.00000000	11.06668000	1.53174200
84.49999516	0.00000000	12.18012000	4.68750000
84.69999515	0.00000000	12.55536000	7.33882900
84.89999514	0.00000000	12.22933000	8.45226300
85.09999512	0.00000000	11.48499000	7.33882900
85.29999511	0.00000000	11.15896000	4.64443900
85.49999510	0.00000000	11.48499000	1.11343500
85.69999509	0.00000000	12.22933000	-3.15575800
85.89999508	0.00000000	12.55536000	-7.33882900
86.09999506	0.00000000	12.22933000	-10.03322000
86.29999505	0.00000000	11.44193000	-10.40846000
86.49999504	0.00000000	10.69144000	-8.50147600
86.69999503	0.00000000	9.86097400	-4.64443900
86.89999502	0.00000000	9.11048200	-0.04306102
87.09999501	0.00000000	8.37229300	4.22613100
87.29999499	0.00000000	8.37229300	7.29576700
87.49999498	0.00000000	9.15354300	8.45226300
87.69999497	0.00000000	10.27928000	7.29576700
87.89999496	0.00000000	11.85408000	4.22613100
88.09999495	0.00000000	12.97982000	-0.04306102
88.29999493	0.00000000	13.76107000	-4.64443900
88.49999492	0.00000000	13.76107000	-8.45226300
88.69999491	-0.15871060	12.97982000	-9.99015700
88.89999490	0.00000000	11.85408000	-8.82750900
89.09999489	0.00000000	10.27928000	-5.38262700
89.29999487	0.00000000	9.15354300	-0.41830710
89.49999486	0.00000000	8.37229300	4.18307100
89.69999485	0.00000000	8.37229300	7.29576700
89.89999484	0.00000000	9.11048200	8.45226300
90.09999483	0.00000000	9.86097400	7.29576700
90.29999482	0.00000000	10.64838000	4.18307100
90.49999480	0.00000000	11.06668000	-0.41830710
90.69999479	0.00000000	11.44193000	-5.38262700
90.89999478	0.00000000	11.85408000	-8.78444900
91.09999477	0.00000000	11.81717000	-9.61491000
91.29999476	0.00000000	11.85408000	-7.71407400
91.49999474	0.00000000	11.48499000	-4.22613100
91.69999473	0.00000000	11.48499000	0.41830710
91.89999472	0.00000000	11.81102000	5.33956700
92.09999471	0.00000000	11.48499000	8.40920300
92.29999470	0.00000000	11.48499000	8.82750900
92.49999468	0.00000000	11.76181000	6.92052100
92.69999467	0.00000000	11.02362000	3.06963600
92.89999466	0.00000000	9.90403500	-1.53174200
93.09999465	0.00000000	9.11048200	-5.75787400
93.29999464	0.00000000	8.32308000	-8.45226300
93.49999463	0.00000000	7.99704600	-8.82750900
93.69999461	0.00000000	8.37229300	-6.92052100
93.89999460	0.00000000	9.52879000	-3.11269700
94.09999459	0.00000000	11.10974000	1.11343500
94.29999458	0.00000000	13.06594000	4.60137700
94.49999457	0.00000000	15.34203000	6.87746000
94.69999455	0.00000000	16.83686000	6.87746000
94.89999454	0.00000000	16.83686000	4.60137700
95.09999453	0.00000000	15.29897000	1.15649600
95.29999452	0.00000000	12.60458000	-2.69439000
95.49999451	0.00000000	9.48572700	-5.75787400
95.69999449	0.00000000	6.41609200	-7.29576700
95.89999448	0.00000000	4.09079700	-6.92052100
96.09999447	0.00000000	3.34030500	-4.64443900
96.29999446	0.00000000	4.09079700	-1.58095500
96.49999445	0.00000000	6.45915300	1.48868100
96.69999444	0.00000000	9.90403500	3.80782500
96.89999442	0.00000000	13.81028000	4.60137700
97.09999441	0.00000000	17.25517000	4.22613100
97.29999440	0.00000000	19.58046000	2.64517700
97.49999439	0.00000000	19.95571000	0.04306102
97.69999438	0.00000000	18.41781000	-2.27608300
97.89999436	0.00000000	15.29897000	-3.48794300
98.09999435	0.00000000	11.06668000	-4.26919300
98.29999434	0.00000000	6.83439900	-4.22613100
98.49999433	0.00000000	3.71555100	-3.11269700
98.69999432	0.00000000	2.17765700	-1.62401600
98.89999430	0.00000000	2.55290300	-0.46136810
99.09999429	0.00000000	4.87819900	-0.04306102
99.29999428	0.00000000	8.32308000	0.04306102
99.49999427	0.00000000	12.18012000	0.37524600
99.69999426	0.00000000	15.29897000	0.78124990
99.89999425	0.00000000	17.29823000	0.83661410
100.09999423	0.00000000	18.46087000	1.57480300
100.29999422	0.00000000	18.37475000	2.26993100
100.49999421	0.00000000	16.50467000	1.90698800
100.69999420	0.00000000	13.39813000	1.19955700
100.89999419	0.00000000	10.31619000	0.32603340
101.09999417	0.00000000	7.20964500	-0.83661410
101.29999416	0.00000000	5.29650500	-2.73745100
101.49999415	0.00000000	4.83513700	-4.22613100
101.69999414	0.00000000	5.25344500	-4.64443900
101.89999413	0.00000000	6.79133800	-4.26919300
102.09999411	0.00000000	9.11048200	-3.06348400
102.29999410	0.00000000	11.44193000	-1.11343500
102.49999409	0.00000000	13.76107000	1.58095500
102.69999408	0.00000000	15.29897000	4.22613100
102.89999407	0.00000000	15.71727000	5.75787400
103.09999406	0.00000000	15.34203000	5.75787400
103.29999404	0.00000000	14.13632000	4.22613100
103.49999403	0.00000000	12.22933000	1.53174200
103.69999402	0.00000000	9.90403500	-1.58095500
103.89999401	-0.15871060	7.99704600	-4.64443900
104.09999400	0.00000000	6.79133800	-6.92052100
104.29999398	0.00000000	6.41609200	-7.29576700
104.49999397	0.00000000	6.79133800	-5.80093500
104.69999396	0.00000000	7.99704600	-3.11269700
104.89999395	0.00000000	9.86097400	-0.04306102
105.09999394	0.00000000	11.81102000	2.64517700
105.29999392	0.00000000	12.97982000	4.22613100
105.49999391	0.00000000	13.76107000	4.60137700
105.69999390	0.00000000	13.71801000	3.85088600
105.89999389	0.00000000	12.60458000	1.90698800
106.09999388	0.00000000	11.06668000	-0.37524600
106.29999387	0.00000000	9.52879000	-2.69439000
106.49999385	0.00000000	8.41535400	-4.18307100
106.69999384	0.00000000	8.37229300	-4.22613100
106.89999383	0.00000000	9.11048200	-3.11269700
107.09999382	0.00000000	9.90403500	-1.57480300
107.29999381	0.00000000	11.06668000	0.00000000
107.49999379	0.00000000	12.18012000	1.53174200
107.69999378	0.00000000	12.60458000	2.64517700
107.89999377	0.00000000	12.60458000	2.64517700
108.09999376	0.00000000	12.18012000	1.53174200
108.29999375	0.00000000	11.02362000	0.00000000
108.49999374	0.00000000	9.52879000	-1.53174200
108.69999372	0.00000000	8.37229300	-2.68823800
108.89999371	0.00000000	7.99704600	-3.06348400
109.09999370	0.00000000	8.37229300	-2.68823800
109.29999369	0.00000000	9.52879000	-1.53174200
109.49999368	0.00000000	11.02362000	0.00000000
109.69999366	0.00000000	12.18012000	1.53174200
109.89999365	0.00000000	12.60458000	2.68823800
110.09999364	0.00000000	12.64764000	3.06348400
110.29999363	0.00000000	12.60458000	2.68823800
110.49999362	0.00000000	12.22933000	1.53174200
110.69999360	0.00000000	11.44193000	0.00000000
110.89999359	0.00000000	10.64838000	-1.53174200
111.09999358	0.00000000	9.52879000	-2.68823800
111.29999357	0.00000000	8.79060000	-3.11269700
111.49999356	0.00000000	9.11048200	-3.11269700
111.69999355	0.00000000	9.48572700	-2.68823800
111.89999353	0.00000000	9.90403500	-1.57480300
112.09999352	0.00000000	10.64838000	-0.41830710
112.29999351	0.00000000	11.02362000	0.37524600
112.49999350	0.00000000	11.06668000	1.11343500
112.69999349	0.00000000	11.06668000	1.11343500
112.89999347	0.00000000	11.06668000	0.41830710
113.09999346	0.00000000	11.06668000	0.04306102
113.29999345	0.00000000	11.06668000	0.00000000
113.49999344	0.00000000	11.06668000	-0.04306102
113.69999343	0.00000000	11.06668000	-0.41830710
113.89999341	0.00000000	11.02362000	-1.15649600
114.09999340	0.00000000	10.69144000	-1.53174200
114.29999339	0.00000000	10.27928000	-1.61786400
114.49999338	0.00000000	10.31619000	-1.95004900
114.69999337	0.00000000	10.27928000	-2.31914400
114.89999336	0.00000000	10.69144000	-1.95004900
115.09999334	0.00000000	11.02362000	-1.61786400
115.29999333	0.00000000	11.06668000	-1.53174200
115.49999332	0.00000000	11.06668000	-1.15649600
115.69999331	0.00000000	11.06668000	-0.37524600
115.89999330	0.00000000	11.02362000	0.37524600
116.09999328	0.00000000	10.64838000	1.15649600
116.29999327	0.00000000	9.90403500	1.53174200
116.49999326	0.00000000	9.52879000	1.53174200
116.69999325	-0.15871060	9.48572700	1.15649600
116.89999324	0.00000000	9.52879000	0.37524600
117.09999322	0.00000000	9.90403500	-0.41830710
117.29999321	0.00000000	10.64838000	-1.57480300
117.49999320	0.00000000	11.06668000	-2.68823800
117.69999319	0.00000000	11.48499000	-3.11269700
117.89999318	0.00000000	12.22933000	-3.11269700
118.09999317	0.00000000	12.55536000	-2.73745100
118.29999315	0.00000000	12.22933000	-1.95004900
118.49999314	0.00000000	11.44193000	-1.19955700
118.69999313	0.00000000	10.64838000	-0.37524600
118.89999312	0.00000000	9.48572700	0.37524600
119.09999311	0.00000000	8.41535400	1.15649600
119.29999309	0.00000000	8.32308000	1.48253000
119.49999308	0.00000000	8.69217500	1.15649600
119.69999307	0.00000000	8.74138700	0.41830710
119.89999306	0.00000000	9.57800100	0.04306102
120.09999305	0.00000000	11.06668000	0.00000000
120.29999303	0.00000000	12.60458000	-0.04306102
120.49999302	0.00000000	13.71801000	-0.41830710
120.69999301	0.00000000	13.76107000	-1.15649600
120.89999300	0.00000000	13.02288000	-1.53174200
121.09999299	0.00000000	12.22933000	-1.53174200
121.29999298	0.00000000	11.02362000	-1.19955700
121.49999296	0.00000000	9.52879000	-0.83661410
121.69999295	0.00000000	8.32308000	-1.15649600
121.89999294	0.00000000	7.57258800	-1.11343500
122.09999293	0.00000000	7.16043300	-0.41830710
122.29999292	0.00000000	7.57258800	-0.04306102
122.49999290	0.00000000	8.32308000	0.00000000
122.69999289	0.00000000	9.48572700	0.00000000
122.89999288	0.00000000	10.64838000	0.00000000
123.09999287	0.00000000	11.44193000	0.00000000
123.29999286	0.00000000	12.22933000	0.00000000
123.49999284	0.00000000	12.55536000	-0.04306102
123.69999283	0.00000000	12.27239000	-0.41830710
123.89999282	0.00000000	11.86024000	-1.15649600
124.09999281	0.00000000	11.81102000	-1.53174200
124.29999280	0.00000000	11.02362000	-1.57480300
124.49999279	0.00000000	9.90403500	-1.57480300
124.69999277	0.00000000	9.11048200	-1.57480300
124.89999276	0.00000000	8.37229300	-1.53174200
125.09999275	0.00000000	8.37229300	-1.15649600
125.29999274	0.00000000	9.06742000	-0.41830710
125.49999273	0.00000000	9.48572700	0.00000000
125.69999271	0.00000000	9.90403500	0.37524600
125.89999270	0.00000000	10.69144000	0.73818890
126.09999269	0.00000000	11.44193000	0.37524600
126.29999268	0.00000000	12.22933000	0.04306102
126.49999267	0.00000000	12.60458000	-0.04306102
126.69999265	0.00000000	12.60458000	-0.41830710
126.89999264	0.00000000	12.18012000	-1.15649600
127.09999263	0.00000000	11.02362000	-1.53174200
127.29999262	0.00000000	9.52879000	-1.57480300
127.49999261	0.00000000	8.37229300	-1.53174200
127.69999260	0.00000000	7.94783400	-1.15649600
127.89999258	0.00000000	7.94783400	-0.41830710
128.09999257	0.00000000	8.37229300	-0.04306102
128.29999256	0.00000000	9.52879000	0.00000000
128.49999255	0.00000000	11.02362000	0.00000000
128.69999254	0.00000000	12.18012000	0.00000000
128.89999252	0.00000000	12.60458000	-0.04306102
129.09999251	0.00000000	12.60458000	-0.41830710
129.29999250	0.00000000	12.22933000	-1.15649600
129.49999249	0.00000000	11.44193000	-1.53174200
129.69999248	0.00000000	10.69144000	-1.57480300
129.89999246	0.00000000	9.86097400	-1.57480300
130.09999245	0.00000000	9.11048200	-1.57480300
130.29999244	0.00000000	8.37229300	-1.53174200
130.49999243	0.00000000	8.37229300	-1.15649600
130.69999242	0.00000000	9.11048200	-0.41830710
130.89999241	0.00000000	9.86097400	-0.04306102
131.09999239	0.00000000	10.64838000	0.00000000
131.29999238	0.00000000	11.02362000	-0.04306102
131.49999237	0.00000000	11.06668000	-0.41830710
131.69999236	0.00000000	11.06668000	-1.15649600
131.89999235	0.00000000	11.02362000	-1.53174200
132.09999233	0.00000000	10.64838000	-1.57480300
132.29999232	0.00000000	9.95324800	-1.57480300
132.49999231	0.00000000	9.90403500	-1.53174200
132.69999230	0.00000000	10.23007000	-1.15649600
132.89999229	0.00000000	9.86097400	-0.41830710
133.09999227	0.00000000	9.52879000	0.00000000
133.29999226	0.00000000	9.52879000	0.41830710
133.49999225	0.00000000	9.86097400	1.11343500
133.69999224	0.00000000	10.27313000	1.11343500
133.89999223	0.00000000	10.23622000	0.37524600
134.09999222	0.00000000	10.31619000	-0.37524600
134.29999220	0.00000000	10.27928000	-1.15649600
134.49999219	0.00000000	10.69144000	-1.57480300
134.69999218	0.00000000	11.02362000	-1.95004900
134.89999217	0.00000000	11.06668000	-2.31914400
135.09999216	0.00000000	11.06668000	-1.95004900
135.29999214	0.00000000	11.06668000	-1.61786400
135.49999213	0.00000000	11.02362000	-1.53174200
135.69999212	0.00000000	10.64838000	-1.15649600
135.89999211	0.00000000	9.90403500	-0.41830710
136.09999210	0.00000000	9.52879000	-0.04306102
136.29999208	0.00000000	9.48572700	0.00000000
136.49999207	0.00000000	9.52879000	0.00000000
136.69999206	0.00000000	9.86097400	0.00000000
136.89999205	0.00000000	10.27313000	-0.04306102
137.09999204	0.00000000	10.27928000	-0.41830710
137.29999203	0.00000000	10.73450000	-1.15649600
137.49999201	0.00000000	11.39887000	-1.53174200
137.69999200	0.00000000	11.81102000	-1.57480300
137.89999199	0.00000000	11.44193000	-1.57480300
138.09999198	0.00000000	11.06668000	-1.57480300
138.29999197	0.00000000	10.64838000	-1.57480300
138.49999195	0.00000000	9.90403500	-1.53174200
138.69999194	0.00000000	9.52879000	-1.15649600
138.89999193	0.00000000	9.48572700	-0.41830710
139.09999192	0.00000000	9.48572700	0.00000000
139.29999191	0.00000000	9.52879000	0.37524600
139.49999189	0.00000000	9.90403500	0.73818890
139.69999188	0.00000000	10.64838000	0.37524600
139.89999187	0.00000000	11.02362000	0.00000000
140.09999186	0.00000000	11.06668000	-0.41830710
140.29999185	0.00000000	11.06668000	-1.15649600
140.49999184	0.00000000	11.06668000	-1.57480300
140.69999182	0.00000000	11.02362000	-1.99311000
140.89999181	0.00000000	10.64838000	-2.68823800
141.09999180	0.00000000	9.90403500	-2.68823800
141.29999179	0.00000000	9.52879000	-1.95004900
141.49999178	0.00000000	9.52879000	-1.19955700
141.69999176	0.00000000	9.90403500	-0.41830710
141.89999175	0.00000000	10.64838000	0.00000000
142.09999174	0.00000000	11.02362000	0.41830710
142.29999173	0.00000000	11.06668000	1.11343500
142.49999172	0.00000000	11.06668000	1.11343500
142.69999170	0.00000000	11.02362000	0.37524600
142.89999169	0.00000000	10.64838000	-0.37524600
143.09999168	0.00000000	9.90403500	-1.15649600
143.29999167	0.00000000	9.52879000	-1.57480300
143.49999166	0.00000000	9.48572700	-1.95004900
143.69999165	0.00000000	9.48572700	-2.31914400
143.89999163	0.00000000	9.52879000	-1.95004900
144.09999162	0.00000000	9.90403500	-1.57480300
144.29999161	0.00000000	10.64838000	-1.15649600
144.49999160	0.00000000	11.02362000	-0.41830710
144.69999159	0.00000000	11.06668000	-0.04306102
144.89999157	0.00000000	11.02362000	0.00000000
145.09999156	0.00000000	10.64838000	0.00000000
145.29999155	0.00000000	9.90403500	-0.04306102
145.49999154	0.00000000	9.52879000	-0.41830710
145.69999153	0.00000000	9.48572700	-1.15649600
145.89999151	0.00000000	9.48572700	-1.53174200
146.09999150	0.00000000	9.48572700	-1.57480300
146.29999149	0.00000000	9.52879000	-1.57480300
146.49999148	0.00000000	9.90403500	-1.57480300
146.69999147	0.00000000	10.64838000	-1.53174200
146.89999146	0.00000000	11.02362000	-1.15649600
147.09999144	0.00000000	11.06668000	-0.41830710
147.29999143	0.00000000	11.06668000	-0.04306102
147.49999142	0.00000000	11.02362000	0.00000000
147.69999141	0.00000000	10.64838000	0.00000000
147.89999140	0.00000000	9.90403500	0.00000000
148.09999138	0.00000000	9.52879000	0.00000000
148.29999137	0.00000000	9.48572700	-0.04306102
148.49999136	0.00000000	9.48572700	-0.41830710
148.69999135	0.00000000	9.52879000	-1.15649600
148.89999134	0.00000000	9.90403500	-1.53174200
149.09999132	0.00000000	10.64838000	-1.57480300
149.29999131	0.00000000	11.02362000	-1.57480300
149.49999130	0.00000000	11.06668000	-1.53174200
149.69999129	0.00000000	11.06668000	-1.15649600
149.89999128	0.00000000	11.06668000	-0.41830710
150.09999127	0.00000000	11.06668000	-0.04306102
150.29999125	0.00000000	11.02362000	0.00000000
150.49999124	0.00000000	10.64838000	0.00000000
150.69999123	0.00000000	9.90403500	0.00000000
150.89999122	0.00000000	9.52879000	0.00000000
151.09999121	0.00000000	9.48572700	-0.04306102
151.29999119	0.00000000	9.48572700	-0.41830710
151.49999118	0.00000000	9.48572700	-1.11343500
151.69999117	0.00000000	9.52879000	-1.15649600
151.89999116	0.00000000	9.90403500	-0.83661410
152.09999115	0.00000000	10.64838000	-1.19955700
152.29999113	0.00000000	11.02362000	-1.53174200
152.49999112	0.00000000	11.06668000	-1.57480300
152.69999111	0.00000000	11.06668000	-1.53174200
152.89999110	0.00000000	11.06668000	-1.15649600
153.09999109	0.00000000	11.02362000	-0.41830710
153.29999108	0.00000000	10.64838000	-0.04306102
153.49999106	0.00000000	9.90403500	0.00000000
153.69999105	0.00000000	9.52879000	0.00000000
153.89999104	0.00000000	9.48572700	0.00000000
154.09999103	0.00000000	9.48572700	0.00000000
154.29999102	0.00000000	9.48572700	0.00000000
154.49999100	0.00000000	9.48572700	-0.04306102
154.69999099	-0.15871060	9.48572700	-0.41830710
154.89999098	0.00000000	9.52879000	-1.15649600
155.09999097	0.00000000	9.90403500	-1.53174200
155.29999096	0.00000000	10.64838000	-1.57480300
155.49999094	0.00000000	11.06668000	-1.53174200
155.69999093	0.00000000	11.44193000	-1.19955700
155.89999092	0.00000000	11.76181000	-0.79355310
156.09999091	0.00000000	11.02362000	-0.78124990
156.29999090	0.00000000	9.95324800	-0.37524600
156.49999089	0.00000000	9.52879000	-0.04306102
156.69999087	0.00000000	9.44266700	0.00000000
156.89999086	0.00000000	9.11048200	0.00000000
157.09999085	0.00000000	8.74138700	0.00000000
157.29999084	0.00000000	9.11048200	0.00000000
157.49999083	0.00000000	9.44266700	-0.04306102
157.69999081	0.00000000	9.52879000	-0.41830710
157.89999080	0.00000000	9.90403500	-1.15649600
158.09999079	0.00000000	10.64838000	-1.53174200
158.29999078	0.00000000	11.02362000	-1.57480300
158.49999077	0.00000000	11.06668000	-1.57480300
158.69999075	0.00000000	11.06668000	-1.53174200
158.89999074	0.00000000	11.02362000	-1.15649600
159.09999073	0.00000000	10.64838000	-0.41830710
159.29999072	0.00000000	9.90403500	-0.04306102
159.49999071	0.00000000	9.52879000	0.00000000
159.69999070	0.00000000	9.48572700	0.00000000
159.89999068	0.00000000	9.48572700	0.00000000
160.09999067	0.00000000	9.48572700	-0.04306102
160.29999066	0.00000000	9.48572700	-0.41830710
160.49999065	0.00000000	9.48572700	-1.15649600
160.69999064	0.00000000	9.48572700	-1.53174200
160.89999062	0.00000000	9.48572700	-1.57480300
161.09999061	0.00000000	9.52879000	-1.57480300
161.29999060	0.00000000	9.90403500	-1.57480300
161.49999059	0.00000000	10.64838000	-1.53174200
161.69999058	-0.15871060	11.02362000	-1.15649600
161.89999056	0.00000000	11.06668000	-0.41830710
162.09999055	0.00000000	11.06668000	-0.04306102
162.29999054	0.00000000	11.02362000	0.00000000
162.49999053	0.00000000	10.64838000	0.00000000
162.69999052	0.00000000	9.90403500	0.00000000
162.89999051	0.00000000	9.52879000	0.00000000
163.09999049	0.00000000	9.48572700	0.00000000
163.29999048	0.00000000	9.48572700	-0.04306102
163.49999047	0.00000000	9.48572700	-0.37524600
163.69999046	0.00000000	9.48572700	-0.78124990
163.89999045	0.00000000	9.48572700	-0.79355310
164.09999043	0.00000000	9.52879000	-1.19955700
164.29999042	0.00000000	9.95324800	-1.53174200
164.49999041	0.00000000	11.02362000	-1.57480300
164.69999040	0.00000000	11.76181000	-1.53174200
164.89999039	0.00000000	11.44193000	-1.15649600
165.09999037	0.00000000	11.10974000	-0.41830710
165.29999036	0.00000000	11.02362000	-0.09227362
165.49999035	0.00000000	10.64838000	-0.37524600
165.69999034	0.00000000	9.90403500	-0.73818890
165.89999033	0.00000000	9.52879000	-0.37524600
166.09999032	0.00000000	9.48572700	-0.04306102
166.29999030	0.00000000	9.48572700	0.00000000
166.49999029	0.00000000	9.48572700	-0.04306102
166.69999028	0.00000000	9.48572700	-0.37524600
166.89999027	0.00000000	9.48572700	-0.78124990
167.09999026	0.00000000	9.48572700	-0.79355310
167.29999024	0.00000000	9.52879000	-1.19955700
167.49999023	0.00000000	9.90403500	-1.48253000
167.69999022	0.00000000	10.64838000	-1.19955700
167.89999021	0.00000000	10.97441000	-0.83661410
168.09999020	0.00000000	10.64838000	-1.15649600
168.29999018	0.00000000	9.95324800	-1.15649600
168.49999017	0.00000000	9.90403500	-0.83661410
168.69999016	0.00000000	10.23007000	-1.15649600
168.89999015	0.00000000	9.86097400	-1.11343500
169.09999014	0.00000000	9.52879000	-0.46136810
169.29999013	0.00000000	9.48572700	-0.46136810
169.49999011	0.00000000	9.48572700	-1.11343500
169.69999010	0.00000000	9.48572700	-1.11343500
169.89999009	0.00000000	9.48572700	-0.41830710
170.09999008	0.00000000	9.48572700	-0.04306102
170.29999007	0.00000000	9.48572700	0.00000000
170.49999005	0.00000000	9.52879000	0.00000000
170.69999004	0.00000000	9.86097400	0.00000000
170.89999003	0.00000000	10.23007000	-0.04306102
171.09999002	0.00000000	9.86097400	-0.41830710
171.29999001	0.00000000	9.52879000	-1.15649600
171.49998999	0.00000000	9.48572700	-1.53174200
171.69998998	0.00000000	9.48572700	-1.57480300
171.89998997	0.00000000	9.48572700	-1.57480300
172.09998996	0.00000000	9.48572700	-1.57480300
172.29998995	0.00000000	9.48572700	-1.57480300
172.49998994	0.00000000	9.48572700	-1.57480300
172.69998992	0.00000000	9.48572700	-1.57480300
172.89998991	0.00000000	9.48572700	-1.57480300
173.09998990	0.00000000	9.48572700	-1.57480300
173.29998989	0.00000000	9.48572700	-1.57480300
173.49998988	0.00000000	9.48572700	-1.57480300
173.69998986	0.00000000	9.48572700	-1.57480300
173.89998985	0.00000000	9.48572700	-1.53174200
174.09998984	0.00000000	9.48572700	-1.19955700
174.29998983	0.00000000	9.48572700	-0.83661410
174.49998982	0.00000000	9.48572700	-1.15649600
174.69998980	0.00000000	9.48572700	-1.11343500
174.89998979	0.00000000	9.48572700	-0.46136810
175.09998978	0.00000000	9.48572700	-0.46136810
175.29998977	0.00000000	9.48572700	-1.15649600
175.49998976	0.00000000	9.48572700	-1.48253000
175.69998975	0.00000000	9.48572700	-1.19955700
175.89998973	0.00000000	9.48572700	-0.83661410
176.09998972	-0.15871060	9.48572700	-1.19955700
176.29998971	0.00000000	9.48572700	-1.53174200
176.49998970	0.00000000	9.48572700	-1.57480300
176.69998969	0.00000000	9.48572700	-1.57480300
176.89998967	0.00000000	9.48572700	-1.57480300
177.09998966	0.00000000	9.48572700	-1.57480300
177.29998965	0.00000000	9.48572700	-1.53174200
177.49998964	0.00000000	9.48572700	-1.19955700
177.69998963	0.00000000	9.48572700	-0.83661410
177.89998961	0.00000000	9.48572700	-1.15649600
178.09998960	0.00000000	9.48572700	-1.15649600
178.29998959	0.00000000	9.48572700	-0.79355310
178.49998958	0.00000000	9.48572700	-0.78124990
178.69998957	0.00000000	9.48572700	-0.37524600
178.89998956	0.00000000	9.48572700	-0.09227362
179.09998954	0.00000000	9.48572700	-0.37524600
179.29998953	0.00000000	9.48572700	-0.78124990
179.49998952	0.00000000	9.48572700	-0.79355310
179.69998951	0.00000000	9.48572700	-1.19955700
179.89998950	0.00000000	9.48572700	-1.53174200
180.09998948	0.00000000	9.48572700	-1.57480300
180.29998947	0.00000000	9.48572700	-1.57480300
180.49998946	0.00000000	9.48572700	-1.57480300
180.69998945	0.00000000	9.48572700	-1.57480300
180.89998944	0.00000000	9.48572700	-1.53174200
181.09998942	0.00000000	9.48572700	-1.15649600
181.29998941	0.00000000	9.48572700	-0.41830710
181.49998940	0.00000000	9.48572700	-0.04306102
181.69998939	0.00000000	9.48572700	0.00000000
181.89998938	0.00000000	9.52879000	0.00000000
182.09998937	0.00000000	9.86097400	-0.04306102
182.29998935	0.00000000	10.23007000	-0.41830710
182.49998934	0.00000000	9.86097400	-1.15649600
182.69998933	0.00000000	9.52879000	-1.53174200
182.89998932	0.00000000	9.48572700	-1.57480300
183.09998931	0.00000000	9.48572700	-1.57480300
183.29998929	0.00000000	9.48572700	-1.57480300
183.49998928	0.00000000	9.48572700	-1.53174200
183.69998927	0.00000000	9.48572700	-1.15649600
183.89998926	0.00000000	9.48572700	-0.41830710
184.09998925	0.00000000	9.48572700	-0.04306102
184.29998923	0.00000000	9.48572700	0.00000000
184.49998922	0.00000000	9.48572700	0.00000000
184.69998921	0.00000000	9.48572700	0.00000000
184.89998920	0.00000000	9.48572700	0.00000000
185.09998919	0.00000000	9.48572700	0.00000000
185.29998918	0.00000000	9.48572700	-0.04306102
185.49998916	0.00000000	9.48572700	-0.41830710
185.69998915	0.00000000	9.52879000	-1.15649600
185.89998914	0.00000000	9.86097400	-1.53174200
186.09998913	0.00000000	10.23007000	-1.57480300
186.29998912	0.00000000	9.86097400	-1.57480300
186.49998910	0.00000000	9.52879000	-1.53174200
186.69998909	0.00000000	9.48572700	-1.15649600
186.89998908	0.00000000	9.48572700	-0.41830710
187.09998907	0.00000000	9.48572700	-0.04306102
187.29998906	0.00000000	9.48572700	0.00000000
187.49998904	0.00000000	9.48572700	0.00000000
187.69998903	0.00000000	9.52879000	0.00000000
187.89998902	0.00000000	9.86097400	0.00000000
188.09998901	0.00000000	10.27313000	-0.04306102
188.29998900	0.00000000	10.23622000	-0.41830710
188.49998899	0.00000000	10.27313000	-1.15649600
188.69998897	0.00000000	9.86097400	-1.53174200
188.89998896	0.00000000	9.52879000	-1.57480300
189.09998895	0.00000000	9.48572700	-1.57480300
189.29998894	0.00000000	9.48572700	-1.57480300
189.49998893	0.00000000	9.48572700	-1.57480300
189.69998891	0.00000000	9.48572700	-1.57480300
189.89998890	0.00000000	9.48572700	-1.53174200
190.09998889	0.00000000	9.48572700	-1.19955700
190.29998888	0.00000000	9.48572700	-0.79355310
190.49998887	0.00000000	9.48572700	-0.78124990
190.69998885	0.00000000	9.48572700	-0.37524600
190.89998884	0.00000000	9.48572700	-0.09227362
191.09998883	0.00000000	9.48572700	-0.41830710
191.29998882	0.00000000	9.48572700	-1.15649600
191.49998881	0.00000000	9.48572700	-1.53174200
191.69998880	0.00000000	9.48572700	-1.57480300
191.89998878	0.00000000	9.48572700	-1.57480300
192.09998877	0.00000000	9.48572700	-1.57480300
192.29998876	0.00000000	9.48572700	-1.57480300
192.49998875	0.00000000	9.48572700	-1.57480300
192.69998874	0.00000000	9.48572700	-1.57480300
192.89998872	0.00000000	9.48572700	-1.57480300
193.09998871	0.00000000	9.48572700	-1.53174200
193.29998870	0.00000000	9.48572700	-1.15649600
193.49998869	0.00000000	9.48572700	-0.41830710
193.69998868	0.00000000	9.48572700	-0.04306102
193.89998866	0.00000000	9.48572700	0.00000000
194.09998865	0.00000000	9.48572700	0.00000000
194.29998864	0.00000000	9.48572700	0.00000000
194.49998863	0.00000000	9.48572700	-0.04306102
194.69998862	0.00000000	9.48572700	-0.41830710
194.89998861	0.00000000	9.48572700	-1.15649600
195.09998859	0.00000000	9.48572700	-1.53174200
195.29998858	0.00000000	9.48572700	-1.57480300
195.49998857	0.00000000	9.48572700	-1.57480300
195.69998856	0.00000000	9.48572700	-1.57480300
195.89998855	0.00000000	9.48572700	-1.57480300
196.09998853	0.00000000	9.48572700	-1.57480300
