Time	Channel A	Channel B	Channel C
(us)	(V)	(mV)	(mV)

-4.59999956	0.00000000	-21.75812000	-14.21014000
-4.39999957	0.00000000	-22.09030000	-14.21014000
-4.19999958	0.00000000	-22.13336000	-14.21014000
-3.99999959	0.00000000	-22.13336000	-14.21014000
-3.79999960	0.00000000	-22.13336000	-14.21014000
-3.59999962	0.00000000	-22.17643000	-14.21014000
-3.39999963	0.00000000	-22.50861000	-14.21014000
-3.19999964	0.00000000	-22.87770000	-14.21014000
-2.99999965	0.00000000	-22.50861000	-14.21014000
-2.79999966	0.00000000	-22.17643000	-14.21014000
-2.59999968	0.00000000	-22.13336000	-14.21014000
-2.39999969	0.00000000	-22.13336000	-14.21014000
-2.19999970	0.00000000	-22.13336000	-14.21014000
-1.99999971	0.00000000	-22.13336000	-14.21014000
-1.79999972	0.00000000	-22.13336000	-14.21014000
-1.59999973	0.00000000	-22.13336000	-14.16708000
-1.39999975	0.00000000	-22.13336000	-13.79183000
-1.19999976	0.00000000	-22.13336000	-13.09670000
-0.99999977	0.00000000	-22.13336000	-13.04749000
-0.79999978	0.00000000	-22.13336000	-13.41658000
-0.59999979	0.00000000	-22.13336000	-13.37967000
-0.39999981	0.15871060	-22.13336000	-13.45964000
-0.19999982	0.47736220	-22.13336000	-13.37967000
0.00000017	0.79601380	-22.13336000	-13.45964000
0.20000016	0.95533960	-22.13336000	-13.42274000
0.40000015	0.95533960	-22.13336000	-13.83489000
0.60000013	0.47736220	-22.13336000	-14.16708000
0.80000012	-0.15871060	-22.13336000	-14.21014000
1.00000011	-1.11466500	-22.13336000	-14.21014000
1.20000010	-2.07062000	-22.13336000	-14.21014000
1.40000009	-2.70792300	-22.13336000	-14.16708000
1.60000008	-2.70792300	-22.17643000	-13.79183000
1.80000006	-1.75196900	-22.50861000	-13.04749000
2.00000005	-0.15871060	-22.87770000	-12.72146000
2.20000004	1.91129400	-22.50861000	-13.04749000
2.40000003	3.98191400	-22.17643000	-13.79183000
2.60000002	5.09719500	-22.13336000	-14.16708000
2.80000000	5.25652100	-22.17643000	-14.21014000
2.99999999	3.82258900	-22.50861000	-14.21014000
3.19999998	1.11466500	-22.92076000	-14.21014000
3.39999997	-2.38927200	-22.88386000	-14.21014000
3.59999996	-5.57517200	-22.92076000	-14.21014000
3.79999994	-7.64579200	-22.50861000	-14.16708000
3.99999993	-7.80511800	-22.17643000	-13.79183000
4.19999992	-6.05315000	-22.13336000	-13.04749000
4.39999991	-2.54859700	-22.13336000	-12.67224000
4.59999990	1.75196900	-22.17643000	-12.67224000
4.79999989	5.89382400	-22.55167000	-13.04749000
4.99999987	8.76107300	-23.29601000	-13.79183000
5.19999986	9.39837600	-23.67126000	-14.21014000
5.39999985	7.64579200	-23.71432000	-14.62844000
5.59999984	3.98191400	-23.71432000	-15.36663000
5.79999983	-0.63668800	-23.71432000	-15.69267000
5.99999981	-5.25652100	-23.71432000	-15.36663000
6.19999980	-8.44242100	-23.71432000	-14.62844000
6.39999979	-9.39837600	-23.67126000	-14.25320000
6.59999978	-8.12377000	-23.33907000	-14.21014000
6.79999977	-4.77854300	-22.96998000	-14.21014000
6.99999975	-0.63668800	-23.33907000	-14.21014000
7.19999974	3.50393700	-23.67126000	-14.25320000
7.39999973	6.53112700	-23.71432000	-14.62844000
7.59999972	7.80511800	-23.71432000	-15.36663000
7.79999971	6.84916400	-23.71432000	-15.74188000
7.99999970	4.61921700	-23.71432000	-15.78494000
8.19999968	1.27399100	-23.71432000	-15.74188000
8.39999967	-1.91129400	-23.71432000	-15.36663000
8.59999966	-4.14124000	-23.71432000	-14.62844000
8.79999965	-5.09719500	-23.71432000	-14.25320000
8.99999964	-4.77854300	-23.71432000	-14.21014000
9.19999962	-3.34522600	-23.71432000	-14.21014000
9.39999961	-1.43331700	-23.71432000	-14.21014000
9.59999960	0.47736220	-23.71432000	-14.21014000
9.79999959	1.91129400	-23.71432000	-14.21014000
9.99999958	2.54859700	-23.71432000	-14.21014000
10.19999956	2.38927200	-23.71432000	-14.21014000
10.39999955	1.75196900	-23.71432000	-14.21014000
10.59999954	0.79601380	-23.71432000	-14.21014000
10.79999953	0.00000000	-23.71432000	-14.21014000
10.99999952	-0.63668800	-23.71432000	-14.21014000
11.19999951	-0.95533960	-23.67126000	-14.21014000
11.39999949	-0.95533960	-23.33907000	-14.21014000
11.59999948	-0.79601380	-22.96998000	-14.21014000
11.79999947	-0.47736220	-23.33907000	-14.21014000
11.99999946	-0.15871060	-23.67126000	-14.21014000
12.19999945	-0.15871060	-23.71432000	-14.21014000
12.39999943	-0.15871060	-23.71432000	-14.21014000
12.59999942	0.00000000	-23.71432000	-14.21014000
12.79999941	0.00000000	-23.71432000	-14.21014000
12.99999940	0.00000000	-23.71432000	-14.16708000
13.19999939	0.15871060	-23.67126000	-13.83489000
13.39999937	0.00000000	-23.33907000	-13.46580000
13.59999936	0.00000000	-22.96998000	-13.83489000
13.79999935	0.00000000	-23.33907000	-14.16708000
13.99999934	-0.15871060	-23.67126000	-14.21014000
14.19999933	-0.15871060	-23.71432000	-14.21014000
14.39999932	-0.15871060	-23.71432000	-14.21014000
14.59999930	-0.15871060	-23.71432000	-14.21014000
14.79999929	0.00000000	-23.71432000	-14.21014000
14.99999928	0.00000000	-23.71432000	-14.21014000
15.19999927	0.00000000	-23.67126000	-14.21014000
15.39999926	0.00000000	-23.33907000	-14.21014000
15.59999924	0.00000000	-22.96998000	-14.16708000
15.79999923	0.00000000	-23.33907000	-13.83489000
15.99999922	0.00000000	-23.67126000	-13.46580000
16.19999921	0.00000000	-23.71432000	-13.83489000
16.39999920	0.00000000	-23.67126000	-14.16708000
16.59999919	-0.15871060	-23.33907000	-14.21014000
16.79999917	0.00000000	-22.92692000	-14.21014000
16.99999916	0.00000000	-22.92076000	-14.21014000
17.19999915	0.00000000	-22.50861000	-14.21014000
17.39999914	0.00000000	-22.17643000	-14.21014000
17.59999913	0.00000000	-22.13336000	-14.21014000
17.79999911	0.00000000	-22.17643000	-14.21014000
17.99999910	0.00000000	-22.60088000	-14.21014000
18.19999909	0.00000000	-23.75738000	-14.21014000
18.39999908	0.00000000	-25.29527000	-14.21014000
18.59999907	0.00000000	-26.83317000	-14.21014000
18.79999905	0.00000000	-27.98966000	-14.21014000
18.99999904	0.00000000	-28.36491000	-14.21014000
19.19999903	0.00000000	-27.90354000	-14.21014000
19.39999902	0.00000000	-25.94734000	-14.21014000
19.59999901	0.00000000	-22.46555000	-14.21014000
19.79999900	0.00000000	-18.59621000	-14.21014000
19.99999898	0.00000000	-14.73917000	-14.21014000
20.19999897	0.00000000	-12.13091000	-14.21014000
20.39999896	0.00000000	-12.17397000	-14.21014000
20.59999895	0.00000000	-15.29281000	-14.21014000
20.79999894	0.00000000	-21.10605000	-14.21014000
20.99999892	0.00000000	-28.45718000	-14.21014000
21.19999891	0.00000000	-35.81446000	-14.21014000
21.39999890	0.00000000	-41.58464000	-14.25320000
21.59999889	0.00000000	-44.23597000	-14.62844000
21.79999888	0.00000000	-42.56274000	-15.32357000
21.99999886	0.00000000	-35.95595000	-15.36663000
22.19999885	0.00000000	-25.11688000	-15.04675000
22.39999884	0.00000000	-12.78297000	-15.40969000
22.59999883	0.00000000	-1.57480300	-15.69267000
22.79999882	0.00000000	5.73326700	-15.36663000
22.99999881	0.00000000	7.17888700	-14.62844000
23.19999879	0.00000000	1.64247000	-14.21014000
23.39999878	0.00000000	-11.14665000	-13.79183000
23.59999877	0.00000000	-28.50640000	-13.04749000
23.79999876	0.00000000	-46.23523000	-12.67224000
23.99999875	0.00000000	-60.10088000	-12.67224000
24.19999873	0.00000000	-66.19709000	-13.09670000
24.39999872	0.00000000	-62.70300000	-14.25320000
24.59999871	0.00000000	-49.87081000	-15.78494000
24.79999870	0.00000000	-30.17962000	-17.36589000
24.99999869	0.00000000	-7.72022600	-18.90379000
25.19999867	0.00000000	12.24778000	-20.01722000
25.39999866	0.00000000	24.94463000	-20.01722000
25.59999865	0.00000000	26.02116000	-18.85458000
25.79999864	0.00000000	15.31742000	-16.85531000
25.99999863	0.00000000	-4.45374000	-13.69956000
26.19999862	0.00000000	-28.78937000	-9.51648500
26.39999860	0.00000000	-52.70054000	-5.66560000
26.59999859	0.00000000	-70.06028000	-3.38336600
26.79999858	0.00000000	-76.66708000	-3.05733300
26.99999857	0.00000000	-71.64124000	-5.79478300
27.19999856	0.00000000	-55.77633000	-11.18356000
27.39999854	0.00000000	-32.64640000	-17.78420000
27.59999853	0.00000000	-7.94168200	-24.79700000
27.79999852	0.00000000	12.52461000	-30.88705000
27.99999851	0.00000000	24.20029000	-34.32578000
28.19999850	0.00000000	24.99385000	-33.45226000
28.39999848	0.00000000	15.36048000	-28.00812000
28.59999847	0.00000000	-2.78051200	-18.35015000
28.79999846	0.00000000	-24.74163000	-6.77903500
28.99999845	0.00000000	-45.25713000	4.04773600
29.19999844	0.00000000	-60.00861000	12.13091000
29.39999843	0.00000000	-66.28937000	15.10827000
29.59999841	0.00000000	-63.58883000	11.57726000
29.79999840	0.00000000	-52.79281000	1.53789400
29.99999839	0.00000000	-36.23277000	-12.72146000
30.19999838	0.00000000	-18.45472000	-27.82357000
30.39999837	0.00000000	-3.29109200	-40.92643000
30.59999835	0.00000000	6.80364100	-49.00344000
30.79999834	0.00000000	9.92249000	-49.75393000
30.99999833	0.00000000	5.73326700	-43.20251000
31.19999832	0.00000000	-4.26919300	-30.38263000
31.39999831	0.00000000	-17.43356000	-13.74262000
31.59999829	0.00000000	-30.97933000	3.58636800
31.79999828	0.00000000	-42.23056000	17.47047000
31.99999827	0.00000000	-48.84350000	24.44636000
32.19999826	0.00000000	-50.09227000	23.65280000
32.39999825	0.00000000	-46.19217000	14.73302000
32.59999824	0.00000000	-38.09055000	-0.64591530
32.79999822	0.00000000	-27.25147000	-18.43627000
32.99999821	0.00000000	-16.49852000	-35.07013000
33.19999820	0.00000000	-8.31692900	-47.47170000
33.39999819	0.00000000	-4.45374000	-52.87278000
33.59999818	0.00000000	-5.15501900	-50.58440000
33.79999816	0.00000000	-10.17470000	-40.87721000
33.99999815	0.00000000	-17.85802000	-25.86737000
34.19999814	0.00000000	-26.36565000	-8.86441900
34.39999813	0.00000000	-33.67372000	6.18848400
34.59999812	0.00000000	-37.95522000	16.26476000
34.79999810	0.00000000	-38.37352000	19.37746000
34.99999809	0.00000000	-35.34695000	15.15133000
35.19999808	0.00000000	-29.95201000	4.74286400
35.39999807	0.00000000	-23.80659000	-9.56569900
35.59999806	0.00000000	-18.36245000	-24.57554000
35.79999805	0.00000000	-14.91757000	-36.88484000
35.99999803	0.00000000	-14.17938000	-43.06717000
36.19999802	0.00000000	-16.83071000	-41.99680000
36.39999801	0.00000000	-21.75812000	-34.74409000
36.59999800	0.00000000	-26.78395000	-23.54823000
36.79999799	0.00000000	-31.02239000	-11.23277000
36.99999797	0.00000000	-33.34769000	-0.46136810
37.19999796	0.00000000	-32.97859000	5.67790300
37.39999795	0.00000000	-30.69020000	5.72096400
37.59999794	0.00000000	-26.78395000	0.00615157
37.79999793	0.00000000	-22.22564000	-9.56569900
37.99999791	0.00000000	-18.31939000	-19.88189000
38.19999790	0.00000000	-16.03715000	-27.96506000
38.39999789	0.00000000	-15.62500000	-31.45300000
38.59999788	0.00000000	-17.56890000	-29.91511000
38.79999787	0.00000000	-21.01993000	-23.78199000
38.99999786	0.00000000	-25.29527000	-14.62844000
39.19999784	0.00000000	-29.57062000	-5.80093500
39.39999783	0.00000000	-33.02165000	0.33218500
39.59999782	0.00000000	-34.92864000	2.18996000
39.79999781	0.00000000	-34.18430000	-1.66092500
39.99999780	0.00000000	-31.53297000	-10.02707000
40.19999778	0.00000000	-27.98966000	-19.97416000
40.39999777	0.00000000	-23.71432000	-28.42643000
40.59999776	0.00000000	-19.48204000	-33.07701000
40.79999775	0.00000000	-16.36319000	-33.07701000
40.99999774	0.00000000	-14.78223000	-28.42643000
41.19999772	0.00000000	-14.82529000	-19.97416000
41.39999771	0.00000000	-16.78149000	-10.02707000
41.59999770	0.00000000	-20.59547000	-1.57480300
41.79999769	0.00000000	-24.82775000	3.07578700
41.99999768	0.00000000	-28.36491000	3.07578700
42.19999767	0.00000000	-31.10851000	-1.52559000
42.39999765	0.00000000	-32.64640000	-9.56569900
42.59999764	0.00000000	-32.64640000	-18.39321000
42.79999763	0.00000000	-31.10851000	-25.73203000
42.99999762	0.00000000	-28.41412000	-29.95817000
43.19999761	0.00000000	-25.33834000	-30.05044000
43.39999759	0.00000000	-22.60088000	-26.61786000
43.59999758	0.00000000	-20.68774000	-21.26599000
43.79999757	0.00000000	-19.90034000	-15.04675000
43.99999756	0.00000000	-20.59547000	-9.65182000
44.19999755	0.00000000	-21.66585000	-5.75172200
44.39999753	0.00000000	-22.13336000	-4.21998000
44.59999752	0.00000000	-22.55167000	-5.33341500
44.79999751	0.00000000	-23.29601000	-8.40305000
44.99999750	0.00000000	-23.62205000	-12.62918000
45.19999749	0.00000000	-23.38214000	-16.85531000
45.39999748	0.00000000	-23.48056000	-19.92495000
45.59999746	0.00000000	-25.38755000	-21.13066000
45.79999745	0.00000000	-28.03888000	-20.39247000
45.99999744	0.00000000	-30.41338000	-18.52854000
46.19999743	0.00000000	-32.68946000	-16.16018000
46.39999742	0.00000000	-33.80905000	-13.83489000
46.59999740	0.00000000	-33.02165000	-11.51575000
46.79999739	0.00000000	-30.59793000	-10.02707000
46.99999738	0.00000000	-25.90428000	-9.98400600
47.19999737	0.00000000	-19.43897000	-11.09744000
47.39999736	0.00000000	-13.66880000	-12.67224000
47.59999734	0.00000000	-10.17470000	-14.62844000
47.79999733	0.00000000	-9.47957600	-16.94759000
47.99999732	0.00000000	-12.64149000	-18.85458000
48.19999731	0.00000000	-19.56816000	-20.01722000
48.39999730	0.00000000	-28.37106000	-19.97416000
48.59999729	-0.15871060	-36.50959000	-18.43627000
48.79999727	0.00000000	-41.91068000	-15.74188000
48.99999726	0.00000000	-43.86073000	-12.67224000
49.19999725	0.00000000	-41.44931000	-9.93479300
49.39999724	0.00000000	-34.92864000	-8.07086500
49.59999723	0.00000000	-25.67052000	-7.70792300
49.79999721	0.00000000	-16.40625000	-9.60875900
49.99999720	0.00000000	-9.10433000	-12.67224000
50.19999719	0.00000000	-5.66560000	-16.20325000
50.39999718	0.00000000	-7.56643700	-20.06029000
50.59999717	0.00000000	-13.71186000	-23.08686000
50.79999715	0.00000000	-22.60088000	-24.24335000
50.99999714	0.00000000	-32.18504000	-23.12992000
51.19999713	0.00000000	-39.49311000	-20.43553000
51.39999712	0.00000000	-42.61196000	-16.90453000
51.59999711	0.00000000	-41.07406000	-12.67224000
51.79999710	0.00000000	-35.34695000	-8.86441900
51.99999708	0.00000000	-27.25147000	-6.90821800
52.19999707	0.00000000	-19.19906000	-6.86515700
52.39999706	0.00000000	-13.01673000	-8.44611200
52.59999705	0.00000000	-10.72835000	-11.55881000
52.79999704	0.00000000	-12.59842000	-15.74188000
52.99999702	0.00000000	-17.98720000	-19.54970000
53.19999701	0.00000000	-25.25221000	-21.54897000
53.39999700	0.00000000	-32.18504000	-21.96727000
53.59999699	0.00000000	-36.79257000	-21.17372000
53.79999698	0.00000000	-37.99828000	-18.85458000
53.99999696	0.00000000	-35.67913000	-15.83415000
54.19999695	0.00000000	-30.69020000	-13.13976000
54.39999694	0.00000000	-24.18184000	-11.60187000
54.59999693	0.00000000	-18.41166000	-11.55881000
54.79999692	0.00000000	-14.91757000	-12.72146000
54.99999691	0.00000000	-14.17938000	-14.62844000
55.19999689	0.00000000	-16.87377000	-16.85531000
55.39999688	0.00000000	-22.17643000	-18.01796000
55.59999687	0.00000000	-27.94660000	-17.69808000
55.79999686	0.00000000	-32.60334000	-16.89837000
55.99999685	0.00000000	-35.30389000	-15.32357000
56.19999683	0.00000000	-35.30389000	-13.09055000
56.39999682	0.00000000	-32.64640000	-11.64493000
56.59999681	0.00000000	-28.41412000	-12.02018000
56.79999680	0.00000000	-23.75738000	-14.29626000
56.99999679	0.00000000	-19.52510000	-17.32283000
57.19999677	0.00000000	-16.91683000	-20.06029000
57.39999676	0.00000000	-17.20595000	-21.96727000
57.59999675	0.00000000	-19.84498000	-22.66240000
57.79999674	0.00000000	-22.92692000	-21.08760000
57.99999673	0.00000000	-26.45792000	-17.27362000
58.19999672	0.00000000	-29.52756000	-12.62918000
58.39999670	0.00000000	-31.44069000	-8.02780400
58.59999669	0.00000000	-31.80364000	-4.59522600
58.79999668	0.00000000	-29.94586000	-3.84473400
58.99999667	0.00000000	-27.34375000	-5.80093500
59.19999666	0.00000000	-25.33834000	-10.44537000
59.39999664	0.00000000	-23.75738000	-16.94759000
59.59999663	0.00000000	-22.55167000	-23.08686000
59.79999662	0.00000000	-21.89345000	-27.35605000
59.99999661	0.00000000	-22.23179000	-28.84473000
60.19999660	0.00000000	-24.12647000	-26.89468000
60.39999658	0.00000000	-25.57825000	-21.50590000
60.59999657	0.00000000	-26.45792000	-14.21014000
60.79999656	0.00000000	-26.78395000	-6.86515700
60.99999655	0.00000000	-26.45792000	-1.10728300
61.19999654	0.00000000	-25.71358000	1.53789400
61.39999653	0.00000000	-25.33834000	0.00615157
61.59999651	0.00000000	-25.29527000	-5.38262700
61.79999650	0.00000000	-25.33834000	-13.04749000
61.99999649	0.00000000	-25.71358000	-21.13066000
62.19999648	0.00000000	-26.45792000	-27.31299000
62.39999647	0.00000000	-26.87623000	-30.46875000
62.59999645	0.00000000	-27.29453000	-30.46875000
62.79999644	0.00000000	-27.98966000	-27.31299000
62.99999643	0.00000000	-27.94660000	-21.13066000
63.19999642	0.00000000	-26.83317000	-13.09670000
63.39999641	0.00000000	-25.29527000	-5.80093500
63.59999639	0.00000000	-23.75738000	-1.10728300
63.79999638	0.00000000	-22.64394000	0.42445860
63.99999637	0.00000000	-22.60088000	-1.52559000
64.19999636	0.00000000	-23.38214000	-6.86515700
64.39999635	0.00000000	-24.55093000	-13.79183000
64.59999634	0.00000000	-26.45792000	-20.39247000
64.79999632	0.00000000	-27.94660000	-25.82431000
64.99999631	0.00000000	-28.41412000	-28.89395000
65.19999630	0.00000000	-28.41412000	-28.93701000
65.39999629	0.00000000	-27.98966000	-26.24262000
65.59999628	0.00000000	-26.83317000	-21.63509000
65.79999626	0.00000000	-25.38755000	-16.25246000
65.99999625	0.00000000	-24.60015000	-11.60187000
66.19999624	0.00000000	-24.96309000	-8.44611200
66.39999623	0.00000000	-25.71358000	-6.86515700
66.59999622	0.00000000	-26.91929000	-6.82209600
66.79999620	0.00000000	-28.36491000	-7.98474400
66.99999619	0.00000000	-29.15231000	-9.93479300
67.19999618	0.00000000	-28.78937000	-12.67224000
67.39999617	0.00000000	-27.98966000	-15.78494000
67.59999616	0.00000000	-26.40871000	-18.89764000
67.79999615	0.00000000	-24.13263000	-21.64124000
67.99999613	0.00000000	-22.22564000	-23.59129000
68.19999612	0.00000000	-21.06299000	-24.75394000
68.39999611	0.00000000	-21.10605000	-24.71087000
68.59999610	0.00000000	-22.68701000	-23.12992000
68.79999609	0.00000000	-25.76279000	-20.01722000
68.99999607	0.00000000	-29.61983000	-15.78494000
69.19999606	0.00000000	-33.06471000	-11.51575000
69.39999605	0.00000000	-35.39001000	-7.98474400
69.59999604	0.00000000	-35.72219000	-5.33341500
69.79999603	0.00000000	-33.80905000	-4.59522600
69.99999601	0.00000000	-29.90280000	-6.48991100
70.19999600	0.00000000	-24.92003000	-9.98400600
70.39999599	0.00000000	-19.90034000	-14.67766000
70.59999598	0.00000000	-16.40625000	-20.06029000
70.79999597	0.00000000	-14.87451000	-24.66781000
70.99999596	0.00000000	-15.71112000	-27.35605000
71.19999594	0.00000000	-19.52510000	-27.35605000
71.39999593	0.00000000	-24.92003000	-24.71087000
71.59999592	0.00000000	-30.37032000	-20.43553000
71.79999591	0.00000000	-35.39001000	-15.41585000
71.99999590	0.00000000	-38.46580000	-10.44537000
72.19999588	0.00000000	-38.84104000	-7.33267600
72.39999587	0.00000000	-36.50959000	-6.48991100
72.59999586	0.00000000	-31.53297000	-7.28346400
72.79999585	0.00000000	-25.76279000	-9.98400600
72.99999584	0.00000000	-20.68774000	-13.74262000
73.19999582	0.00000000	-16.78149000	-16.85531000
73.39999581	0.00000000	-14.87451000	-18.81152000
73.59999580	0.00000000	-15.29281000	-19.59892000
73.79999579	0.00000000	-18.36245000	-18.85458000
73.99999578	0.00000000	-23.33907000	-17.40895000
74.19999577	0.00000000	-28.32185000	-16.20325000
74.39999575	0.00000000	-32.27116000	-15.45891000
74.59999574	0.00000000	-34.55955000	-15.08981000
74.79999573	0.00000000	-34.97170000	-15.83415000
74.99999572	0.00000000	-33.06471000	-16.89837000
75.19999571	0.00000000	-30.03814000	-17.32283000
75.39999569	0.00000000	-26.91929000	-17.32283000
75.59999568	0.00000000	-24.18184000	-16.85531000
75.79999567	0.00000000	-22.26870000	-15.27436000
75.99999566	0.00000000	-21.48130000	-12.67224000
76.19999565	0.00000000	-22.22564000	-10.35310000
76.39999563	0.00000000	-23.71432000	-9.23351300
76.59999562	0.00000000	-25.25221000	-9.23966500
76.79999561	0.00000000	-26.40871000	-11.22662000
76.99999560	0.00000000	-26.83317000	-14.67150000
77.19999559	0.00000000	-26.87623000	-18.90379000
77.39999558	0.00000000	-26.87623000	-22.75467000
77.59999556	0.00000000	-26.87623000	-25.08612000
77.79999555	0.00000000	-26.91929000	-25.82431000
77.99999554	0.00000000	-27.29453000	-24.20029000
78.19999553	0.00000000	-28.08194000	-20.01722000
78.39999552	0.00000000	-28.78937000	-14.62844000
78.59999550	0.00000000	-29.20152000	-9.60875900
78.79999549	0.00000000	-28.74015000	-5.75172200
78.99999548	0.00000000	-27.62057000	-4.21998000
79.19999547	0.00000000	-25.67052000	-5.33341500
79.39999546	0.00000000	-23.75738000	-8.40305000
79.59999544	0.00000000	-22.22564000	-12.67224000
79.79999543	0.00000000	-21.48130000	-17.32283000
79.99999542	0.00000000	-22.22564000	-21.59203000
80.19999541	0.00000000	-23.75738000	-24.66166000
80.39999540	0.00000000	-25.76279000	-25.82431000
80.59999539	0.00000000	-28.41412000	-24.66166000
80.79999537	0.00000000	-30.73326000	-21.64124000
80.99999536	0.00000000	-31.90207000	-17.78420000
81.19999535	0.00000000	-32.27116000	-14.29626000
81.39999534	0.00000000	-31.06545000	-11.51575000
81.59999533	0.00000000	-28.45718000	-9.60875900
81.79999531	0.00000000	-25.76279000	-8.77829600
81.99999530	0.00000000	-23.80659000	-9.19045200
82.19999529	0.00000000	-22.60088000	-10.31004000
82.39999528	0.00000000	-22.26870000	-12.30315000
82.59999527	0.00000000	-23.01919000	-14.62844000
82.79999525	0.00000000	-24.92003000	-17.36589000
82.99999524	0.00000000	-26.83317000	-20.06029000
83.19999523	0.00000000	-28.41412000	-22.01649000
83.39999522	0.00000000	-29.57062000	-23.17298000
83.59999521	0.00000000	-29.94586000	-23.17298000
83.79999520	0.00000000	-29.61983000	-22.01649000
83.99999518	0.00000000	-28.83243000	-20.01722000
84.19999517	0.00000000	-28.03888000	-16.90453000
84.39999516	0.00000000	-26.91929000	-13.09670000
84.59999515	0.00000000	-26.18110000	-9.98400600
84.79999514	0.00000000	-26.50098000	-8.02780400
84.99999512	0.00000000	-26.83317000	-7.28346400
85.19999511	0.00000000	-26.87623000	-8.48917200
85.39999510	0.00000000	-26.83317000	-11.55881000
85.59999509	0.00000000	-26.50098000	-15.83415000
85.79999508	0.00000000	-26.08883000	-20.43553000
85.99999506	0.00000000	-26.12574000	-24.29257000
86.19999505	0.00000000	-26.08883000	-26.19955000
86.39999504	0.00000000	-26.54404000	-25.82431000
86.59999503	0.00000000	-27.29453000	-23.12992000
86.79999502	0.00000000	-28.45718000	-18.90379000
86.99999501	0.00000000	-29.57062000	-14.25320000
87.19999499	0.00000000	-29.94586000	-10.02707000
87.39999498	0.00000000	-29.57062000	-7.33267600
87.59999497	0.00000000	-28.45718000	-6.95743000
87.79999496	0.00000000	-27.29453000	-8.86441900
87.99999495	0.00000000	-26.45792000	-12.72146000
88.19999493	0.00000000	-25.29527000	-17.32283000
88.39999492	0.00000000	-24.18184000	-21.59203000
88.59999491	0.00000000	-23.84965000	-24.66166000
88.79999490	0.00000000	-24.60015000	-25.78125000
88.99999489	0.00000000	-26.50098000	-24.20029000
89.19999487	0.00000000	-28.36491000	-20.01722000
89.39999486	0.00000000	-29.52756000	-14.67766000
89.59999485	0.00000000	-29.61983000	-10.02707000
89.79999484	0.00000000	-29.25074000	-6.95743000
89.99999483	0.00000000	-29.20152000	-6.17002900
90.19999482	0.00000000	-28.36491000	-8.11392700
90.39999480	0.00000000	-26.91929000	-11.93405000
90.59999479	0.00000000	-25.80585000	-16.94759000
90.79999478	0.00000000	-25.76279000	-21.54897000
90.99999477	0.00000000	-26.45792000	-24.61860000
91.19999476	0.00000000	-26.83317000	-25.35679000
91.39999474	0.00000000	-26.87623000	-23.08686000
91.59999473	0.00000000	-26.87623000	-18.90379000
91.79999472	0.00000000	-26.87623000	-14.21014000
91.99999471	0.00000000	-26.87623000	-9.65182000
92.19999470	0.00000000	-26.87623000	-6.59448800
92.39999468	0.00000000	-26.87623000	-6.58218500
92.59999467	0.00000000	-26.91929000	-8.86441900
92.79999466	0.00000000	-27.34375000	-13.13976000
92.99999465	0.00000000	-28.45718000	-18.43627000
93.19999464	0.00000000	-29.57062000	-22.66855000
93.39999463	0.00000000	-29.99508000	-24.61860000
93.59999461	0.00000000	-29.99508000	-24.24335000
93.79999460	0.00000000	-29.57062000	-21.54897000
93.99999459	0.00000000	-28.36491000	-17.36589000
94.19999458	0.00000000	-26.45792000	-13.13976000
94.39999457	0.00000000	-24.18184000	-10.02707000
94.59999455	0.00000000	-22.64394000	-8.48917200
94.79999454	0.00000000	-22.22564000	-8.90747900
94.99999453	0.00000000	-22.60088000	-11.60187000
95.19999452	0.00000000	-23.84965000	-15.74188000
95.39999451	0.00000000	-26.18110000	-19.59892000
95.59999449	0.00000000	-29.61983000	-21.96727000
95.79999448	0.00000000	-32.68946000	-23.12992000
95.99999447	0.00000000	-34.60261000	-22.66855000
96.19999446	0.00000000	-35.01476000	-20.01722000
96.39999445	0.00000000	-33.48917000	-16.25246000
96.59999444	0.00000000	-31.15157000	-13.18282000
96.79999442	0.00000000	-27.98966000	-11.55881000
96.99999441	0.00000000	-24.18184000	-11.18356000
97.19999440	0.00000000	-21.10605000	-11.93405000
97.39999439	0.00000000	-19.52510000	-13.87795000
97.59999438	0.00000000	-19.56816000	-16.16018000
97.79999436	0.00000000	-21.52436000	-18.47933000
97.99999435	0.00000000	-25.33834000	-19.97416000
98.19999434	0.00000000	-29.57062000	-20.06029000
98.39999433	0.00000000	-33.11393000	-19.32210000
98.59999432	0.00000000	-35.81446000	-18.52854000
98.79999430	0.00000000	-36.92790000	-17.36589000
98.99999429	0.00000000	-35.81446000	-16.25246000
99.19999428	0.00000000	-33.11393000	-15.82800000
99.39999427	0.00000000	-29.61983000	-15.78494000
99.59999426	0.00000000	-25.76279000	-15.74188000
99.79999425	0.00000000	-22.68701000	-15.36663000
99.99999423	0.00000000	-21.10605000	-14.62844000
100.19999422	0.00000000	-21.06299000	-14.25320000
100.39999421	0.00000000	-22.22564000	-14.21014000
100.59999420	0.00000000	-24.18184000	-14.25320000
100.79999419	0.00000000	-26.91929000	-14.67150000
100.99999417	0.00000000	-29.94586000	-15.83415000
101.19999416	0.00000000	-32.31422000	-17.36589000
101.39999415	0.00000000	-33.48917000	-18.90379000
101.59999414	0.00000000	-33.90133000	-20.06029000
101.79999413	0.00000000	-33.11393000	-20.39247000
101.99999411	0.00000000	-31.57603000	-19.64198000
102.19999410	0.00000000	-29.61983000	-17.69808000
102.39999409	0.00000000	-27.29453000	-15.40969000
102.59999408	0.00000000	-25.38755000	-13.04749000
102.79999407	0.00000000	-24.18184000	-11.18356000
102.99999406	0.00000000	-23.80659000	-10.40231000
103.19999404	0.00000000	-24.18184000	-11.18356000
103.39999403	0.00000000	-25.38755000	-13.09055000
103.59999402	0.00000000	-27.29453000	-15.83415000
103.79999401	0.00000000	-29.57062000	-18.89764000
103.99999400	0.00000000	-31.10851000	-21.59203000
104.19999398	0.00000000	-31.57603000	-23.08686000
104.39999397	0.00000000	-31.57603000	-22.71161000
104.59999396	0.00000000	-31.15157000	-20.43553000
104.79999395	0.00000000	-29.99508000	-17.41511000
104.99999394	0.00000000	-28.50024000	-14.67150000
105.19999392	0.00000000	-27.29453000	-12.72146000
105.39999391	0.00000000	-26.50098000	-11.55881000
105.59999390	0.00000000	-25.76279000	-11.55881000
105.79999389	0.00000000	-25.80585000	-12.72146000
105.99999388	0.00000000	-26.91929000	-14.62844000
106.19999387	0.00000000	-28.41412000	-16.94759000
106.39999385	0.00000000	-29.57062000	-18.85458000
106.59999384	0.00000000	-29.99508000	-20.01722000
106.79999383	0.00000000	-29.99508000	-20.01722000
106.99999382	0.00000000	-29.57062000	-18.85458000
107.19999381	0.00000000	-28.41412000	-16.94759000
107.39999379	0.00000000	-26.91929000	-14.62844000
107.59999378	0.00000000	-25.76279000	-12.76452000
107.79999377	0.00000000	-25.38755000	-11.97711000
107.99999376	0.00000000	-25.76279000	-12.72146000
108.19999375	0.00000000	-26.87623000	-14.21014000
108.39999374	0.00000000	-28.03888000	-15.78494000
108.59999372	0.00000000	-28.87549000	-17.32283000
108.79999371	0.00000000	-29.99508000	-18.43627000
108.99999370	0.00000000	-30.73326000	-18.47933000
109.19999369	0.00000000	-30.37032000	-17.74114000
109.39999368	0.00000000	-29.61983000	-16.94759000
109.59999366	0.00000000	-28.41412000	-15.74188000
109.79999365	0.00000000	-26.91929000	-14.25320000
109.99999364	0.00000000	-25.80585000	-13.13976000
110.19999363	0.00000000	-25.76279000	-13.13976000
110.39999362	0.00000000	-26.50098000	-14.25320000
110.59999360	0.00000000	-27.29453000	-15.74188000
110.79999359	0.00000000	-28.45718000	-16.94759000
110.99999358	0.00000000	-29.57062000	-17.74114000
111.19999357	0.00000000	-29.99508000	-18.57160000
111.39999356	0.00000000	-30.03814000	-19.27903000
111.59999355	0.00000000	-30.03814000	-19.64198000
111.79999353	0.00000000	-29.99508000	-18.90379000
111.99999352	0.00000000	-29.61983000	-17.78420000
112.19999351	0.00000000	-28.87549000	-16.99065000
112.39999350	0.00000000	-28.45718000	-16.20325000
112.59999349	0.00000000	-28.03888000	-15.82800000
112.79999347	0.00000000	-27.34375000	-15.78494000
112.99999346	0.00000000	-27.34375000	-15.78494000
113.19999345	0.00000000	-28.03888000	-15.78494000
113.39999344	0.00000000	-28.41412000	-15.82800000
113.59999343	0.00000000	-28.45718000	-16.20325000
113.79999341	0.00000000	-28.50024000	-16.94759000
113.99999340	0.00000000	-28.87549000	-17.36589000
114.19999339	0.00000000	-29.57062000	-17.78420000
114.39999338	0.00000000	-29.57062000	-18.52854000
114.59999337	0.00000000	-28.87549000	-18.90379000
114.79999336	0.00000000	-28.50024000	-18.94685000
114.99999334	0.00000000	-28.45718000	-18.94685000
115.19999333	0.00000000	-28.45718000	-18.90379000
115.39999332	0.00000000	-28.45718000	-18.52854000
115.59999331	0.00000000	-28.45718000	-17.74114000
115.79999330	0.00000000	-28.45718000	-16.99065000
115.99999328	0.00000000	-28.45718000	-16.20325000
116.19999327	0.00000000	-28.50024000	-15.78494000
116.39999326	0.00000000	-28.87549000	-15.36663000
116.59999325	0.00000000	-29.61983000	-14.67150000
116.79999324	0.00000000	-29.99508000	-14.72072000
116.99999322	0.00000000	-29.99508000	-15.78494000
117.19999321	0.00000000	-29.61983000	-16.94759000
117.39999320	0.00000000	-28.83243000	-17.74114000
117.59999319	0.00000000	-28.08194000	-18.52854000
117.79999318	0.00000000	-27.29453000	-18.90379000
117.99999317	0.00000000	-26.91929000	-18.94685000
118.19999315	0.00000000	-26.91929000	-18.90379000
118.39999314	0.00000000	-27.34375000	-18.47933000
118.59999313	0.00000000	-28.45718000	-17.36589000
118.79999312	0.00000000	-29.61983000	-16.20325000
118.99999311	0.00000000	-30.41338000	-15.40969000
119.19999309	0.00000000	-31.20078000	-14.62844000
119.39999308	0.00000000	-31.52682000	-14.25320000
119.59999307	0.00000000	-31.20078000	-14.25320000
119.79999306	0.00000000	-30.37032000	-14.62844000
119.99999305	0.00000000	-29.24459000	-15.40969000
120.19999303	0.00000000	-27.66978000	-16.16018000
120.39999302	0.00000000	-26.54404000	-16.94759000
120.59999301	0.00000000	-25.71358000	-17.32283000
120.79999300	0.00000000	-25.38755000	-17.36589000
120.99999299	0.00000000	-25.76279000	-17.36589000
121.19999298	0.00000000	-26.87623000	-17.36589000
121.39999296	0.00000000	-28.08194000	-17.36589000
121.59999295	0.00000000	-29.25074000	-17.32283000
121.79999294	0.00000000	-30.78248000	-16.94759000
121.99999293	0.00000000	-31.52682000	-16.20325000
122.19999292	0.00000000	-31.57603000	-15.82800000
122.39999290	0.00000000	-31.20078000	-15.78494000
122.59999289	0.00000000	-30.37032000	-15.74188000
122.79999288	0.00000000	-29.24459000	-15.40969000
122.99999287	0.00000000	-27.71284000	-15.04675000
123.19999286	0.00000000	-26.96850000	-15.40969000
123.39999284	0.00000000	-26.87623000	-15.78494000
123.59999283	0.00000000	-26.87623000	-16.20325000
123.79999282	0.00000000	-26.91929000	-16.94759000
123.99999281	0.00000000	-27.29453000	-17.32283000
124.19999280	0.00000000	-28.08194000	-17.36589000
124.39999279	0.00000000	-28.87549000	-17.36589000
124.59999277	0.00000000	-29.99508000	-17.36589000
124.79999276	0.00000000	-30.73326000	-17.36589000
124.99999275	0.00000000	-30.45644000	-17.32283000
125.19999274	0.00000000	-30.45644000	-16.94759000
125.39999273	0.00000000	-30.78248000	-16.20325000
125.59999271	0.00000000	-30.37032000	-15.82800000
125.79999270	0.00000000	-29.61983000	-15.78494000
125.99999269	0.00000000	-28.45718000	-15.78494000
126.19999268	0.00000000	-27.34375000	-15.78494000
126.39999267	0.00000000	-26.91929000	-15.82800000
126.59999265	0.00000000	-26.91929000	-16.20325000
126.79999264	0.00000000	-27.29453000	-16.94759000
126.99999263	0.00000000	-28.08194000	-17.32283000
127.19999262	0.00000000	-28.87549000	-17.40895000
127.39999261	0.00000000	-30.03814000	-17.74114000
127.59999260	0.00000000	-31.15157000	-18.11024000
127.79999258	0.00000000	-31.57603000	-17.74114000
127.99999257	0.00000000	-31.57603000	-17.40895000
128.19999256	0.00000000	-31.15157000	-17.32283000
128.39999255	0.00000000	-30.03814000	-16.94759000
128.59999254	0.00000000	-28.87549000	-16.20325000
128.79999252	0.00000000	-28.08194000	-15.87721000
128.99999251	0.00000000	-27.34375000	-16.20325000
129.19999250	0.00000000	-27.34375000	-16.94759000
129.39999249	0.00000000	-28.08194000	-17.32283000
129.59999248	0.00000000	-28.83243000	-17.36589000
129.79999246	0.00000000	-29.66289000	-17.36589000
129.99999245	0.00000000	-30.41338000	-17.36589000
130.19999244	0.00000000	-31.20078000	-17.36589000
130.39999243	0.00000000	-31.52682000	-17.36589000
130.59999242	0.00000000	-31.20078000	-17.32283000
130.79999241	0.00000000	-30.41338000	-16.99065000
130.99999239	0.00000000	-29.66289000	-16.62155000
131.19999238	0.00000000	-28.87549000	-16.99065000
131.39999237	0.00000000	-28.50024000	-17.32283000
131.59999236	0.00000000	-28.45718000	-17.40895000
131.79999235	0.00000000	-28.50024000	-17.78420000
131.99999233	0.00000000	-28.87549000	-18.52854000
132.19999232	0.00000000	-29.61983000	-18.90379000
132.39999231	0.00000000	-29.99508000	-18.90379000
132.59999230	0.00000000	-30.03814000	-18.52854000
132.79999229	0.00000000	-30.03814000	-17.74114000
132.99999227	0.00000000	-30.03814000	-16.99065000
133.19999226	0.00000000	-30.03814000	-16.20325000
133.39999225	0.00000000	-30.03814000	-15.82800000
133.59999224	0.00000000	-30.03814000	-15.78494000
133.79999223	0.00000000	-30.03814000	-15.78494000
133.99999222	0.00000000	-30.03814000	-15.82800000
134.19999220	0.00000000	-30.03814000	-16.20325000
134.39999219	0.00000000	-30.03814000	-16.99065000
134.59999218	0.00000000	-29.99508000	-17.74114000
134.79999217	0.00000000	-29.61983000	-18.52854000
134.99999216	0.00000000	-28.87549000	-18.90379000
135.19999214	0.00000000	-28.50024000	-18.90379000
135.39999213	0.00000000	-28.45718000	-18.52854000
135.59999212	0.00000000	-28.50024000	-17.74114000
135.79999211	0.00000000	-28.87549000	-16.99065000
135.99999210	0.00000000	-29.61983000	-16.20325000
136.19999208	0.00000000	-30.03814000	-15.82800000
136.39999207	0.00000000	-30.45644000	-15.78494000
136.59999206	0.00000000	-31.15157000	-15.78494000
136.79999205	0.00000000	-31.15157000	-15.82800000
136.99999204	0.00000000	-30.41338000	-16.20325000
137.19999203	0.00000000	-29.66289000	-16.94759000
137.39999201	0.00000000	-28.87549000	-17.36589000
137.59999200	0.00000000	-28.45718000	-17.74114000
137.79999199	0.00000000	-28.12500000	-18.15330000
137.99999198	0.00000000	-28.13730000	-18.15945000
138.19999197	0.00000000	-29.24459000	-18.52854000
138.39999195	0.00000000	-29.94586000	-18.47933000
138.59999194	0.00000000	-30.08120000	-17.74114000
138.79999193	0.00000000	-30.45644000	-16.99065000
138.99999192	0.00000000	-31.20078000	-16.20325000
139.19999191	0.00000000	-31.52682000	-15.82800000
139.39999189	0.00000000	-31.20078000	-15.78494000
139.59999188	0.00000000	-30.41338000	-15.78494000
139.79999187	0.00000000	-29.66289000	-15.78494000
139.99999186	0.00000000	-28.87549000	-15.82800000
140.19999185	0.00000000	-28.50024000	-16.25246000
140.39999184	0.00000000	-28.50024000	-17.36589000
140.59999182	0.00000000	-28.87549000	-18.47933000
140.79999181	0.00000000	-29.61983000	-18.90379000
140.99999180	0.00000000	-29.99508000	-18.94685000
141.19999179	0.00000000	-30.03814000	-18.90379000
141.39999178	0.00000000	-30.03814000	-18.52854000
141.59999176	0.00000000	-30.03814000	-17.74114000
141.79999175	0.00000000	-30.03814000	-16.99065000
141.99999174	0.00000000	-30.03814000	-16.20325000
142.19999173	0.00000000	-30.03814000	-15.82800000
142.39999172	0.00000000	-30.03814000	-15.78494000
142.59999170	0.00000000	-30.03814000	-15.82800000
142.79999169	0.00000000	-30.03814000	-16.20325000
142.99999168	0.00000000	-30.03814000	-16.99065000
143.19999167	0.00000000	-30.08120000	-17.74114000
143.39999166	0.00000000	-30.41338000	-18.52854000
143.59999165	0.00000000	-30.78248000	-18.90379000
143.79999163	0.00000000	-30.41338000	-18.90379000
143.99999162	0.00000000	-30.08120000	-18.52854000
144.19999161	0.00000000	-30.03814000	-17.78420000
144.39999160	0.00000000	-29.99508000	-17.36589000
144.59999159	0.00000000	-29.66289000	-16.94759000
144.79999157	0.00000000	-29.29380000	-16.20325000
144.99999156	0.00000000	-29.66289000	-15.87721000
145.19999155	0.00000000	-29.99508000	-16.20325000
145.39999154	0.00000000	-30.08120000	-16.94759000
145.59999153	0.00000000	-30.45644000	-17.36589000
145.79999151	0.00000000	-31.20078000	-17.78420000
145.99999150	0.00000000	-31.57603000	-18.52854000
146.19999149	0.00000000	-31.57603000	-18.90379000
146.39999148	0.00000000	-31.20078000	-18.94685000
146.59999147	0.00000000	-30.45644000	-18.94685000
146.79999146	0.00000000	-30.08120000	-18.90379000
146.99999144	0.00000000	-30.03814000	-18.52854000
147.19999143	0.00000000	-30.03814000	-17.78420000
147.39999142	0.00000000	-30.03814000	-17.40895000
147.59999141	0.00000000	-30.03814000	-17.32283000
147.79999140	0.00000000	-30.03814000	-16.99065000
147.99999138	0.00000000	-30.08120000	-16.62155000
148.19999137	0.00000000	-30.45644000	-16.99065000
148.39999136	0.00000000	-31.20078000	-17.32283000
148.59999135	0.00000000	-31.57603000	-17.40895000
148.79999134	0.00000000	-31.57603000	-17.78420000
148.99999132	0.00000000	-31.20078000	-18.52854000
149.19999131	0.00000000	-30.45644000	-18.85458000
149.39999130	0.00000000	-30.08120000	-18.57160000
149.59999129	0.00000000	-30.03814000	-18.15945000
149.79999128	0.00000000	-30.03814000	-18.15330000
149.99999127	0.00000000	-30.03814000	-17.74114000
150.19999125	0.00000000	-30.03814000	-17.36589000
150.39999124	0.00000000	-30.03814000	-16.99065000
150.59999123	0.00000000	-30.08120000	-16.62155000
150.79999122	0.00000000	-30.45644000	-16.99065000
150.99999121	0.00000000	-31.20078000	-17.32283000
151.19999119	0.00000000	-31.57603000	-17.36589000
151.39999118	0.00000000	-31.61909000	-17.36589000
151.59999117	0.00000000	-31.57603000	-17.36589000
151.79999116	0.00000000	-31.20078000	-17.36589000
151.99999115	0.00000000	-30.45644000	-17.36589000
152.19999113	0.00000000	-30.08120000	-17.36589000
152.39999112	0.00000000	-30.03814000	-17.36589000
152.59999111	0.00000000	-29.99508000	-17.36589000
152.79999110	0.00000000	-29.66289000	-17.36589000
152.99999109	0.00000000	-29.29380000	-17.36589000
153.19999108	0.00000000	-29.66289000	-17.32283000
153.39999106	0.00000000	-30.03814000	-16.94759000
153.59999105	0.00000000	-30.41338000	-16.25246000
153.79999104	0.00000000	-30.82554000	-16.25246000
153.99999103	0.00000000	-30.83169000	-16.94759000
154.19999102	0.00000000	-31.24384000	-17.32283000
154.39999100	0.00000000	-31.57603000	-17.36589000
154.59999099	0.00000000	-31.57603000	-17.36589000
154.79999098	0.00000000	-31.20078000	-17.36589000
154.99999097	0.00000000	-30.45644000	-17.36589000
155.19999096	0.00000000	-30.08120000	-17.36589000
155.39999094	0.00000000	-30.03814000	-17.36589000
155.59999093	0.00000000	-30.03814000	-17.36589000
155.79999092	0.00000000	-30.03814000	-17.36589000
155.99999091	0.00000000	-30.03814000	-17.36589000
156.19999090	0.00000000	-30.08120000	-17.36589000
156.39999089	0.00000000	-30.45644000	-17.36589000
156.59999087	0.00000000	-31.20078000	-17.32283000
156.79999086	0.00000000	-31.57603000	-16.99065000
156.99999085	0.00000000	-31.61909000	-16.57849000
157.19999084	0.00000000	-31.61909000	-16.61540000
157.39999083	0.00000000	-31.61909000	-16.57849000
157.59999081	0.00000000	-31.61909000	-17.03371000
157.79999080	0.00000000	-31.57603000	-17.74114000
157.99999079	0.00000000	-31.20078000	-18.47933000
158.19999078	0.00000000	-30.45644000	-18.52854000
158.39999077	0.00000000	-30.08120000	-18.20251000
158.59999075	0.00000000	-30.03814000	-18.57160000
158.79999074	0.00000000	-30.03814000	-18.85458000
158.99999073	0.00000000	-30.08120000	-18.52854000
159.19999072	0.00000000	-30.45644000	-17.78420000
159.39999071	0.00000000	-31.20078000	-17.40895000
159.59999070	0.00000000	-31.57603000	-17.36589000
159.79999068	0.00000000	-31.61909000	-17.36589000
159.99999067	0.00000000	-31.61909000	-17.36589000
160.19999066	0.00000000	-31.61909000	-17.40895000
160.39999065	0.00000000	-31.61909000	-17.78420000
160.59999064	0.00000000	-31.61909000	-18.52854000
160.79999062	0.00000000	-31.61909000	-18.90379000
160.99999061	0.00000000	-31.61909000	-18.94685000
161.19999060	0.00000000	-31.61909000	-18.94685000
161.39999059	0.00000000	-31.57603000	-18.94685000
161.59999058	0.00000000	-31.24384000	-18.94685000
161.79999056	0.00000000	-30.83169000	-18.90379000
161.99999055	0.00000000	-30.82554000	-18.52854000
162.19999054	0.00000000	-30.41338000	-17.78420000
162.39999053	0.00000000	-30.08120000	-17.40895000
162.59999052	0.00000000	-30.08120000	-17.36589000
162.79999051	0.00000000	-30.45644000	-17.36589000
162.99999049	0.00000000	-31.20078000	-17.36589000
163.19999048	0.00000000	-31.57603000	-17.36589000
163.39999047	0.00000000	-31.61909000	-17.36589000
163.59999046	0.00000000	-31.61909000	-17.40895000
163.79999045	0.00000000	-31.61909000	-17.78420000
163.99999043	0.00000000	-31.61909000	-18.52854000
164.19999042	0.00000000	-31.57603000	-18.90379000
164.39999041	0.00000000	-31.20078000	-18.94685000
164.59999040	0.00000000	-30.45644000	-18.94685000
164.79999039	0.00000000	-30.08120000	-18.94685000
164.99999037	0.00000000	-30.03814000	-18.94685000
165.19999036	0.00000000	-30.03814000	-18.90379000
165.39999035	0.00000000	-30.08120000	-18.52854000
165.59999034	0.00000000	-30.45644000	-17.78420000
165.79999033	0.00000000	-31.20078000	-17.40895000
165.99999032	0.00000000	-31.57603000	-17.36589000
166.19999030	0.00000000	-31.61909000	-17.36589000
166.39999029	0.00000000	-31.61909000	-17.36589000
166.59999028	0.00000000	-31.61909000	-17.36589000
166.79999027	0.00000000	-31.61909000	-17.36589000
166.99999026	0.00000000	-31.61909000	-17.36589000
167.19999024	0.00000000	-31.61909000	-17.40895000
167.39999023	0.00000000	-31.57603000	-17.74114000
167.59999022	0.00000000	-31.20078000	-18.11024000
167.79999021	0.00000000	-30.45644000	-17.74114000
167.99999020	0.00000000	-30.13041000	-17.40895000
168.19999018	0.00000000	-30.45644000	-17.36589000
168.39999017	0.00000000	-31.20078000	-17.36589000
168.59999016	0.00000000	-31.57603000	-17.36589000
168.79999015	0.00000000	-31.61909000	-17.36589000
168.99999014	0.00000000	-31.61909000	-17.36589000
169.19999013	0.00000000	-31.61909000	-17.36589000
169.39999011	0.00000000	-31.61909000	-17.36589000
169.59999010	0.00000000	-31.57603000	-17.36589000
169.79999009	0.00000000	-31.24384000	-17.36589000
169.99999008	0.00000000	-30.87475000	-17.36589000
170.19999007	0.00000000	-31.20078000	-17.36589000
170.39999005	0.00000000	-31.20078000	-17.36589000
170.59999004	0.00000000	-30.83169000	-17.36589000
170.79999003	0.00000000	-30.86860000	-17.36589000
170.99999002	0.00000000	-30.83169000	-17.36589000
171.19999001	0.00000000	-31.24384000	-17.36589000
171.39998999	0.00000000	-31.57603000	-17.40895000
171.59998998	0.00000000	-31.61909000	-17.78420000
171.79998997	0.00000000	-31.61909000	-18.47933000
171.99998996	0.00000000	-31.61909000	-18.52854000
172.19998995	0.00000000	-31.61909000	-18.15945000
172.39998994	0.00000000	-31.61909000	-18.15330000
172.59998992	0.00000000	-31.61909000	-17.78420000
172.79998991	0.00000000	-31.61909000	-17.78420000
172.99998990	0.00000000	-31.61909000	-18.11024000
173.19998989	0.00000000	-31.61909000	-17.78420000
173.39998988	0.00000000	-31.61909000	-17.83341000
173.59998986	0.00000000	-31.61909000	-18.52854000
173.79998985	0.00000000	-31.61909000	-18.90379000
173.99998984	0.00000000	-31.61909000	-18.94685000
174.19998983	0.00000000	-31.61909000	-18.94685000
174.39998982	0.00000000	-31.61909000	-18.94685000
174.59998980	0.00000000	-31.61909000	-18.94685000
174.79998979	0.00000000	-31.61909000	-18.94685000
174.99998978	0.00000000	-31.61909000	-18.94685000
175.19998977	0.00000000	-31.61909000	-18.94685000
175.39998976	0.00000000	-31.61909000	-18.94685000
175.59998975	0.00000000	-31.61909000	-18.94685000
175.79998973	0.00000000	-31.61909000	-18.94685000
175.99998972	0.00000000	-31.61909000	-18.94685000
176.19998971	0.00000000	-31.61909000	-18.90379000
176.39998970	0.00000000	-31.61909000	-18.57160000
176.59998969	0.00000000	-31.66215000	-18.20251000
176.79998967	0.00000000	-31.99434000	-18.57160000
176.99998966	0.00000000	-32.36343000	-18.90379000
177.19998965	0.00000000	-31.99434000	-18.94685000
177.39998964	0.00000000	-31.66215000	-18.94685000
177.59998963	0.00000000	-31.66215000	-18.94685000
177.79998961	0.00000000	-31.99434000	-18.94685000
177.99998960	0.00000000	-32.36343000	-18.94685000
178.19998959	0.00000000	-31.99434000	-18.94685000
178.39998958	0.00000000	-31.66215000	-18.90379000
178.59998957	0.00000000	-31.61909000	-18.52854000
178.79998956	0.00000000	-31.61909000	-17.78420000
178.99998954	0.00000000	-31.61909000	-17.40895000
179.19998953	0.00000000	-31.61909000	-17.36589000
179.39998952	0.00000000	-31.61909000	-17.40895000
179.59998951	0.00000000	-31.61909000	-17.78420000
179.79998950	0.00000000	-31.61909000	-18.52854000
179.99998948	0.00000000	-31.61909000	-18.90379000
180.19998947	0.00000000	-31.61909000	-18.94685000
180.39998946	0.00000000	-31.61909000	-18.94685000
180.59998945	0.00000000	-31.61909000	-18.90379000
180.79998944	0.00000000	-31.61909000	-18.52854000
180.99998942	0.00000000	-31.61909000	-17.78420000
181.19998941	0.00000000	-31.61909000	-17.40895000
181.39998940	0.00000000	-31.61909000	-17.36589000
181.59998939	0.00000000	-31.61909000	-17.36589000
181.79998938	0.00000000	-31.61909000	-17.36589000
181.99998937	0.00000000	-31.61909000	-17.36589000
182.19998935	0.00000000	-31.61909000	-17.36589000
182.39998934	0.00000000	-31.61909000	-17.40895000
182.59998933	0.00000000	-31.61909000	-17.74114000
182.79998932	0.00000000	-31.61909000	-18.11024000
182.99998931	0.00000000	-31.61909000	-17.78420000
183.19998929	0.00000000	-31.61909000	-17.83341000
183.39998928	0.00000000	-31.61909000	-18.47933000
183.59998927	0.00000000	-31.61909000	-18.47933000
183.79998926	0.00000000	-31.66215000	-17.78420000
183.99998925	0.00000000	-32.03740000	-17.40895000
184.19998923	0.00000000	-32.73252000	-17.36589000
184.39998922	0.00000000	-32.73252000	-17.36589000
184.59998921	0.00000000	-32.08661000	-17.36589000
184.79998920	0.00000000	-32.03740000	-17.36589000
184.99998919	0.00000000	-32.36343000	-17.36589000
185.19998918	0.00000000	-31.99434000	-17.36589000
185.39998916	0.00000000	-31.66215000	-17.40895000
185.59998915	0.00000000	-31.61909000	-17.78420000
185.79998914	0.00000000	-31.61909000	-18.52854000
185.99998913	0.00000000	-31.61909000	-18.90379000
186.19998912	0.00000000	-31.61909000	-18.94685000
186.39998910	0.00000000	-31.61909000	-18.94685000
186.59998909	0.00000000	-31.66215000	-18.94685000
186.79998908	0.00000000	-32.03740000	-18.94685000
186.99998907	0.00000000	-32.73252000	-18.90379000
187.19998906	0.00000000	-32.78174000	-18.52854000
187.39998904	0.00000000	-32.45571000	-17.78420000
187.59998903	0.00000000	-32.82480000	-17.40895000
187.79998902	0.00000000	-33.10777000	-17.36589000
187.99998901	0.00000000	-32.78174000	-17.40895000
188.19998900	0.00000000	-32.08661000	-17.78420000
188.39998899	0.00000000	-32.03740000	-18.52854000
188.59998897	0.00000000	-32.36343000	-18.90379000
188.79998896	0.00000000	-31.99434000	-18.94685000
188.99998895	0.00000000	-31.66215000	-18.94685000
189.19998894	0.00000000	-31.66215000	-18.94685000
189.39998893	0.00000000	-32.03740000	-18.94685000
189.59998891	0.00000000	-32.73252000	-18.94685000
189.79998890	0.00000000	-32.78174000	-18.94685000
189.99998889	0.00000000	-32.45571000	-18.94685000
190.19998888	0.00000000	-32.82480000	-18.94685000
190.39998887	0.00000000	-33.15699000	-18.94685000
190.59998885	0.00000000	-33.20005000	-18.94685000
190.79998884	0.00000000	-33.20005000	-18.94685000
190.99998883	0.00000000	-33.20005000	-18.94685000
191.19998882	0.00000000	-33.20005000	-18.90379000
191.39998881	0.00000000	-33.15699000	-18.57160000
191.59998880	0.00000000	-32.82480000	-18.20251000
191.79998878	0.00000000	-32.45571000	-18.57160000
191.99998877	0.00000000	-32.82480000	-18.90379000
192.19998876	0.00000000	-33.15699000	-18.94685000
192.39998875	0.00000000	-33.20005000	-18.94685000
192.59998874	0.00000000	-33.20005000	-18.94685000
192.79998872	0.00000000	-33.20005000	-18.94685000
192.99998871	0.00000000	-33.20005000	-18.94685000
193.19998870	0.00000000	-33.20005000	-18.94685000
193.39998869	0.00000000	-33.20005000	-18.94685000
193.59998868	0.00000000	-33.20005000	-18.94685000
193.79998866	0.00000000	-33.20005000	-18.94685000
193.99998865	0.00000000	-33.15699000	-18.90379000
194.19998864	0.00000000	-32.82480000	-18.57160000
194.39998863	0.00000000	-32.45571000	-18.20251000
194.59998862	0.00000000	-32.82480000	-18.57160000
194.79998861	0.00000000	-33.15699000	-18.90379000
194.99998859	0.00000000	-33.20005000	-18.94685000
195.19998858	0.00000000	-33.20005000	-18.94685000
195.39998857	0.00000000	-33.20005000	-18.94685000
195.59998856	0.00000000	-33.20005000	-18.94685000
195.79998855	0.00000000	-33.20005000	-18.94685000
195.99998853	0.00000000	-33.20005000	-18.94685000
