Time	Channel A	Channel B	Channel C
(us)	(V)	(mV)	(mV)

-4.59999956	0.00000000	-14.60384000	-9.47342500
-4.39999957	0.00000000	-14.97293000	-9.47342500
-4.19999958	0.00000000	-14.60384000	-9.47342500
-3.99999959	0.00000000	-14.27165000	-9.47342500
-3.79999960	0.00000000	-14.22859000	-9.47342500
-3.59999962	0.00000000	-14.18553000	-9.47342500
-3.39999963	0.00000000	-13.85334000	-9.47342500
-3.19999964	0.00000000	-13.48425000	-9.47342500
-2.99999965	0.00000000	-13.85334000	-9.47342500
-2.79999966	0.00000000	-14.18553000	-9.47342500
-2.59999968	0.00000000	-14.22859000	-9.47342500
-2.39999969	0.00000000	-14.22859000	-9.47342500
-2.19999970	0.00000000	-14.22859000	-9.47342500
-1.99999971	0.00000000	-14.22859000	-9.47342500
-1.79999972	0.00000000	-14.22859000	-9.47342500
-1.59999973	0.00000000	-14.22859000	-9.47342500
-1.39999975	0.00000000	-14.22859000	-9.47342500
-1.19999976	0.00000000	-14.22859000	-9.47342500
-0.99999977	0.00000000	-14.22859000	-9.47342500
-0.79999978	0.00000000	-14.22859000	-9.47342500
-0.59999979	0.00000000	-14.22859000	-9.47342500
-0.39999981	0.00000000	-14.22859000	-9.47342500
-0.19999982	0.31803640	-14.22859000	-9.47342500
0.00000017	0.79601380	-14.22859000	-9.47342500
0.20000016	0.95533960	-14.22859000	-9.47342500
0.40000015	0.95533960	-14.22859000	-9.47342500
0.60000013	0.79601380	-14.22859000	-9.47342500
0.80000012	0.15871060	-14.22859000	-9.47342500
1.00000011	-0.79601380	-14.22859000	-9.47342500
1.20000010	-1.75196900	-14.22859000	-9.47342500
1.40000009	-2.54859700	-14.22859000	-9.47342500
1.60000008	-2.86724900	-14.22859000	-9.47342500
1.80000006	-2.22994600	-14.22859000	-9.47342500
2.00000005	-0.95533960	-14.22859000	-9.47342500
2.20000004	1.11466500	-14.22859000	-9.47342500
2.40000003	3.02657500	-14.18553000	-9.47342500
2.60000002	4.77854300	-13.85334000	-9.51648500
2.80000000	5.25652100	-13.48425000	-9.84867000
2.99999999	4.45989200	-13.85334000	-10.21161000
3.19999998	2.22994600	-14.18553000	-9.84867000
3.39999997	-0.79601380	-14.22859000	-9.51648500
3.59999996	-4.30056600	-14.22859000	-9.47342500
3.79999994	-7.00848900	-14.22859000	-9.47342500
3.99999993	-7.96444400	-14.22859000	-9.43036400
4.19999992	-7.00848900	-14.22859000	-9.05511800
4.39999991	-4.30056600	-14.22859000	-8.31077700
4.59999990	-0.15871060	-14.22859000	-7.98474400
4.79999989	4.30056600	-14.22859000	-8.31077700
4.99999987	7.80511800	-14.22859000	-9.05511800
5.19999986	9.39837600	-14.22859000	-9.47342500
5.39999985	8.76107300	-14.22859000	-9.84867000
5.59999984	5.73449800	-14.27165000	-10.25467000
5.79999983	1.27399100	-14.60384000	-10.21776000
5.99999981	-3.50393700	-14.97293000	-10.25467000
6.19999980	-7.32714100	-14.60384000	-9.79945900
6.39999979	-9.39837600	-14.27165000	-9.09817800
6.59999978	-8.92039900	-14.22859000	-8.31077700
6.79999977	-6.37180100	-14.22859000	-7.93553100
6.99999975	-2.38927200	-14.22859000	-7.93553100
7.19999974	1.91129400	-14.22859000	-8.31077700
7.39999973	5.57517200	-14.22859000	-9.05511800
7.59999972	7.48646600	-14.22859000	-9.43036400
7.79999971	7.48646600	-14.22859000	-9.47342500
7.99999970	5.57517200	-14.22859000	-9.51648500
8.19999968	2.70792300	-14.22859000	-9.84867000
8.39999967	-0.63668800	-14.22859000	-10.21161000
8.59999966	-3.34522600	-14.22859000	-9.84867000
8.79999965	-4.93786900	-14.22859000	-9.51648500
8.99999964	-5.09719500	-14.22859000	-9.47342500
9.19999962	-3.98191400	-14.22859000	-9.47342500
9.39999961	-2.22994600	-14.22859000	-9.47342500
9.59999960	-0.15871060	-14.22859000	-9.47342500
9.79999959	1.43331700	-14.22859000	-9.47342500
9.99999958	2.38927200	-14.22859000	-9.47342500
10.19999956	2.54859700	-14.22859000	-9.47342500
10.39999955	2.07062000	-14.22859000	-9.47342500
10.59999954	1.27399100	-14.22859000	-9.47342500
10.79999953	0.31803640	-14.22859000	-9.47342500
10.99999952	-0.31803640	-14.22859000	-9.47342500
11.19999951	-0.79601380	-14.18553000	-9.43036400
11.39999949	-0.95533960	-13.85334000	-9.09817800
11.59999948	-0.95533960	-13.48425000	-8.72908400
11.79999947	-0.63668800	-13.85334000	-9.09817800
11.99999946	-0.31803640	-14.18553000	-9.43036400
12.19999945	-0.15871060	-14.27165000	-9.47342500
12.39999943	-0.15871060	-14.60384000	-9.47342500
12.59999942	0.00000000	-14.97293000	-9.47342500
12.79999941	0.00000000	-14.60384000	-9.47342500
12.99999940	0.00000000	-14.27165000	-9.47342500
13.19999939	0.00000000	-14.22859000	-9.47342500
13.39999937	0.00000000	-14.22859000	-9.47342500
13.59999936	0.00000000	-14.22859000	-9.47342500
13.79999935	0.00000000	-14.22859000	-9.47342500
13.99999934	0.00000000	-14.22859000	-9.47342500
14.19999933	-0.15871060	-14.22859000	-9.47342500
14.39999932	-0.15871060	-14.27165000	-9.47342500
14.59999930	-0.15871060	-14.60384000	-9.47342500
14.79999929	0.00000000	-14.97293000	-9.47342500
14.99999928	0.00000000	-14.60384000	-9.47342500
15.19999927	0.00000000	-14.27165000	-9.47342500
15.39999926	0.00000000	-14.22859000	-9.47342500
15.59999924	0.00000000	-14.22859000	-9.47342500
15.79999923	0.00000000	-14.27165000	-9.47342500
15.99999922	0.00000000	-14.60384000	-9.47342500
16.19999921	0.00000000	-14.97293000	-9.47342500
16.39999920	0.00000000	-14.60384000	-9.47342500
16.59999919	0.00000000	-14.27165000	-9.47342500
16.79999917	-0.15871060	-14.18553000	-9.47342500
16.99999916	0.00000000	-13.81028000	-9.47342500
17.19999915	0.00000000	-13.11516000	-9.47342500
17.39999914	0.00000000	-13.06594000	-9.47342500
17.59999913	0.00000000	-13.39198000	-9.47342500
17.79999911	0.00000000	-13.06594000	-9.47342500
17.99999910	0.00000000	-13.15822000	-9.47342500
18.19999909	0.00000000	-14.27165000	-9.47342500
18.39999908	0.00000000	-15.80955000	-9.47342500
18.59999907	0.00000000	-17.34744000	-9.47342500
18.79999905	0.00000000	-18.55315000	-9.47342500
18.99999904	0.00000000	-19.25443000	-9.47342500
19.19999903	0.00000000	-19.20522000	-9.47342500
19.39999902	0.00000000	-17.25517000	-9.47342500
19.59999901	0.00000000	-14.18553000	-9.47342500
19.79999900	0.00000000	-10.64838000	-9.47342500
19.99999898	0.00000000	-6.79133800	-9.47342500
20.19999897	0.00000000	-3.75861200	-9.47342500
20.39999896	0.00000000	-2.64517700	-9.47342500
20.59999895	0.00000000	-4.26919300	-9.47342500
20.79999894	0.00000000	-8.92593500	-9.47342500
20.99999892	0.00000000	-15.90182000	-9.43036400
21.19999891	0.00000000	-23.62205000	-9.09817800
21.39999890	0.00000000	-30.55487000	-8.72908400
21.59999889	0.00000000	-34.75024000	-9.09817800
21.79999888	0.00000000	-34.70103000	-9.43036400
21.99999886	0.00000000	-29.95817000	-9.47342500
22.19999885	0.00000000	-20.60777000	-9.43036400
22.39999884	0.00000000	-7.90477300	-9.09817800
22.59999883	0.00000000	4.79207600	-8.77829600
22.79999882	0.00000000	14.05635000	-9.47342500
22.99999881	0.00000000	17.87033000	-10.16855000
23.19999879	0.00000000	14.66535000	-9.79945900
23.39999878	0.00000000	4.15231300	-9.09817800
23.59999877	0.00000000	-12.08784000	-8.31077700
23.79999876	0.00000000	-30.55487000	-7.93553100
23.99999875	0.00000000	-46.37672000	-7.89247000
24.19999873	0.00000000	-55.64099000	-7.93553100
24.39999872	0.00000000	-56.33612000	-8.35998900
24.59999871	0.00000000	-47.31176000	-9.51648500
24.79999870	0.00000000	-29.58292000	-11.04823000
24.99999869	0.00000000	-7.20964500	-12.62918000
25.19999867	0.00000000	14.01329000	-14.11786000
25.39999866	0.00000000	29.49680000	-14.85605000
25.59999865	0.00000000	35.59916000	-14.07480000
25.79999864	0.00000000	30.53026000	-12.16781000
25.99999863	0.00000000	14.62229000	-9.38115100
26.19999862	0.00000000	-8.83366100	-5.89320800
26.39999860	0.00000000	-33.90748000	-2.04232300
26.59999859	0.00000000	-54.01698000	0.97810030
26.79999858	0.00000000	-65.26820000	2.09153500
26.99999857	0.00000000	-65.22514000	0.51673230
27.19999856	0.00000000	-53.64173000	-3.75861200
27.39999854	0.00000000	-33.21235000	-9.98400600
27.59999853	0.00000000	-8.88287400	-17.32283000
27.79999852	0.00000000	13.54577000	-24.20029000
27.99999851	0.00000000	29.41068000	-28.42643000
28.19999850	0.00000000	35.22392000	-28.80167000
28.39999848	0.00000000	29.87205000	-25.22145000
28.59999847	0.00000000	15.21900000	-17.42126000
28.79999846	0.00000000	-5.25344500	-6.26845500
28.99999845	0.00000000	-26.88238000	5.29650500
29.19999844	0.00000000	-44.70349000	14.54232000
29.39999843	0.00000000	-55.17347000	19.55585000
29.59999841	0.00000000	-56.37918000	18.68233000
29.79999840	0.00000000	-48.33292000	11.66339000
29.99999839	0.00000000	-33.72293000	-1.06422200
30.19999838	0.00000000	-16.27707000	-16.48622000
30.39999837	0.00000000	0.33833660	-30.75172000
30.59999835	0.00000000	12.79527000	-41.24631000
30.79999834	0.00000000	18.62082000	-45.39247000
30.99999833	0.00000000	17.53814000	-42.27362000
31.19999832	0.00000000	9.82406400	-31.40379000
31.39999831	0.00000000	-2.13459600	-15.23130000
31.59999829	0.00000000	-15.71727000	2.51599400
31.79999828	0.00000000	-28.46333000	17.98105000
31.99999827	0.00000000	-37.40157000	27.65133000
32.19999826	0.00000000	-40.93873000	29.97047000
32.39999825	0.00000000	-39.02559000	24.11417000
32.59999824	0.00000000	-32.04970000	11.01132000
32.79999822	0.00000000	-21.66585000	-6.31766700
32.99999821	0.00000000	-10.45768000	-23.73892000
33.19999820	0.00000000	-1.19955700	-37.72145000
33.39999819	0.00000000	4.28764700	-46.22293000
33.59999818	0.00000000	5.12426100	-47.33637000
33.79999816	0.00000000	2.05462600	-40.37278000
33.99999815	0.00000000	-4.18307100	-26.89468000
34.19999814	0.00000000	-12.60458000	-9.94094400
34.39999813	0.00000000	-20.69390000	6.27460600
34.59999812	0.00000000	-26.14419000	18.31324000
34.79999810	0.00000000	-28.46333000	24.11417000
34.99999809	0.00000000	-26.92544000	22.58243000
35.19999808	0.00000000	-21.99803000	14.12401000
35.39999807	0.00000000	-15.85261000	1.02116100
35.59999806	0.00000000	-10.03937000	-13.65650000
35.79999805	0.00000000	-5.80708600	-26.75935000
35.99999803	0.00000000	-4.26919300	-35.26082000
36.19999802	0.00000000	-5.80708600	-37.21087000
36.39999801	0.00000000	-9.99630800	-32.60949000
36.59999800	0.00000000	-15.34203000	-22.66855000
36.79999799	0.00000000	-19.99877000	-10.35925000
36.99999797	0.00000000	-23.06841000	0.84276570
37.19999796	0.00000000	-23.85581000	8.92593500
37.39999795	0.00000000	-21.95497000	11.57726000
37.59999794	0.00000000	-18.50394000	7.81250000
37.79999793	0.00000000	-14.18553000	-0.55364170
37.99999791	0.00000000	-9.62106200	-10.54380000
38.19999790	0.00000000	-6.13927100	-19.37131000
38.39999789	0.00000000	-4.97047200	-24.76009000
38.59999788	0.00000000	-5.76402500	-25.13533000
38.79999787	0.00000000	-8.87672100	-20.57702000
38.99999786	0.00000000	-13.81028000	-12.49385000
39.19999784	0.00000000	-18.41781000	-3.33415300
39.39999783	0.00000000	-21.62278000	4.32455700
39.59999782	0.00000000	-23.57899000	7.72022600
39.79999781	0.00000000	-24.32333000	5.85629900
39.99999780	0.00000000	-23.11762000	-0.68897630
40.19999778	0.00000000	-20.04183000	-9.84867000
40.39999777	0.00000000	-15.76649000	-19.08834000
40.59999776	0.00000000	-11.15896000	-25.59670000
40.79999775	0.00000000	-7.25270600	-27.91584000
40.99999774	0.00000000	-4.97047200	-25.17839000
41.19999772	0.00000000	-4.50910400	-17.92569000
41.39999771	0.00000000	-6.08390700	-8.31077700
41.59999770	0.00000000	-8.79060000	0.88582670
41.79999769	0.00000000	-12.69070000	7.43725300
41.99999768	0.00000000	-16.92298000	9.34424200
42.19999767	0.00000000	-20.41708000	6.32381900
42.39999765	0.00000000	-22.74237000	-0.55364170
42.59999764	0.00000000	-23.11762000	-9.00590400
42.79999763	0.00000000	-21.62278000	-16.76919000
42.99999762	0.00000000	-18.97145000	-22.52707000
43.19999761	0.00000000	-16.22785000	-24.85236000
43.39999759	0.00000000	-13.89641000	-22.99459000
43.59999758	0.00000000	-11.95251000	-18.39321000
43.79999757	0.00000000	-11.10974000	-12.21087000
43.99999756	0.00000000	-10.73450000	-5.70866100
44.19999755	0.00000000	-10.74680000	-1.06422200
44.39999753	0.00000000	-11.85408000	0.93503930
44.59999752	0.00000000	-12.55536000	0.55979330
44.79999751	0.00000000	-12.64764000	-2.08538400
44.99999750	0.00000000	-12.64764000	-5.93626900
45.19999749	0.00000000	-12.69070000	-9.79945900
45.39999748	0.00000000	-13.11516000	-13.28125000
45.59999746	0.00000000	-14.32087000	-15.18824000
45.79999745	0.00000000	-16.27707000	-15.27436000
45.99999744	0.00000000	-19.01451000	-14.11786000
46.19999743	0.00000000	-22.04109000	-12.21087000
46.39999742	0.00000000	-24.32333000	-9.84867000
46.59999740	0.00000000	-24.60630000	-7.51722400
46.79999739	0.00000000	-22.27485000	-5.24729300
46.99999738	0.00000000	-17.25517000	-4.12770700
47.19999737	0.00000000	-11.10974000	-4.82283400
47.39999736	0.00000000	-5.25344500	-6.36072800
47.59999734	0.00000000	-0.68897630	-8.31077700
47.79999733	0.00000000	1.21186000	-10.62992000
47.99999732	0.00000000	-0.78124990	-12.58612000
48.19999731	0.00000000	-6.18233200	-14.11786000
48.39999730	0.00000000	-14.32087000	-14.81299000
48.59999729	0.00000000	-23.11762000	-13.65650000
48.79999727	0.00000000	-30.09350000	-11.04823000
48.99999726	0.00000000	-33.53838000	-8.31077700
49.19999725	0.00000000	-32.74483000	-5.93626900
49.39999724	0.00000000	-27.30684000	-3.61712600
49.59999723	0.00000000	-18.50394000	-2.17150600
49.79999721	0.00000000	-8.83366100	-2.54675200
49.99999720	0.00000000	-0.73203740	-4.87204700
50.19999719	0.00000000	4.28764700	-8.31077700
50.39999718	0.00000000	4.61368100	-12.16166000
50.59999717	0.00000000	0.00615157	-15.23130000
50.79999715	0.00000000	-8.41535400	-16.81225000
50.99999714	0.00000000	-18.04257000	-16.81225000
51.19999713	0.00000000	-26.14419000	-15.23130000
51.39999712	0.00000000	-31.16388000	-12.16166000
51.59999711	0.00000000	-31.53912000	-8.26771600
51.79999710	0.00000000	-27.34990000	-4.45374000
51.99999708	0.00000000	-20.08489000	-1.39025600
52.19999707	0.00000000	-11.95251000	-0.63976370
52.39999706	0.00000000	-5.01353300	-2.08538400
52.59999705	0.00000000	-0.41215550	-4.82283400
52.79999704	0.00000000	-0.07997046	-8.31077700
52.99999702	0.00000000	-4.22613100	-12.16166000
53.19999701	0.00000000	-11.10974000	-15.18824000
53.39999700	0.00000000	-18.41781000	-16.39395000
53.59999699	0.00000000	-24.23105000	-15.64960000
53.79999698	0.00000000	-27.30069000	-13.74262000
53.99999696	0.00000000	-26.88238000	-11.00517000
54.19999695	0.00000000	-22.65010000	-7.98474400
54.39999694	0.00000000	-15.80955000	-5.70866100
54.59999693	0.00000000	-8.92593500	-5.24729300
54.79999692	0.00000000	-4.26919300	-5.98548200
54.99999691	0.00000000	-2.68823800	-7.14812900
55.19999689	0.00000000	-4.22613100	-9.05511800
55.39999688	0.00000000	-8.45841400	-10.53765000
55.59999687	0.00000000	-14.22859000	-10.95595000
55.79999686	0.00000000	-19.95571000	-10.58686000
55.99999685	0.00000000	-23.81275000	-9.38115100
56.19999683	0.00000000	-24.64936000	-7.51722400
56.39999682	0.00000000	-23.11762000	-5.66560000
56.59999681	0.00000000	-19.62352000	-5.33341500
56.79999680	0.00000000	-14.64690000	-6.82209600
56.99999679	0.00000000	-10.03937000	-9.51648500
57.19999677	0.00000000	-6.92052100	-12.58612000
57.39999676	0.00000000	-5.76402500	-15.27436000
57.59999675	0.00000000	-6.92052100	-16.76919000
57.79999674	0.00000000	-9.95324800	-16.35089000
57.99999673	0.00000000	-13.81028000	-13.61343000
58.19999672	0.00000000	-17.25517000	-9.00590400
58.39999670	0.00000000	-19.62352000	-3.66633800
58.59999669	0.00000000	-20.37401000	0.51673230
58.79999668	0.00000000	-19.66658000	2.09153500
58.99999667	0.00000000	-17.72268000	0.93503930
59.19999666	0.00000000	-15.43430000	-2.55290300
59.39999664	0.00000000	-13.11516000	-8.02780400
59.59999663	0.00000000	-11.62032000	-14.49311000
59.79999662	0.00000000	-11.53420000	-20.24483000
59.99999661	0.00000000	-12.27239000	-22.90231000
60.19999660	0.00000000	-13.06594000	-22.20103000
60.39999658	0.00000000	-14.22859000	-18.30093000
60.59999657	0.00000000	-15.34203000	-12.11860000
60.79999656	0.00000000	-15.76649000	-4.77977300
60.99999655	0.00000000	-15.76649000	2.09153500
61.19999654	0.00000000	-15.39124000	6.27460600
61.39999653	0.00000000	-14.60384000	6.32381900
61.59999651	0.00000000	-13.89641000	2.46678100
61.79999650	0.00000000	-13.48425000	-4.08464600
61.99999649	0.00000000	-13.89641000	-12.16781000
62.19999648	0.00000000	-14.60384000	-19.46358000
62.39999647	0.00000000	-15.43430000	-24.15723000
62.59999645	0.00000000	-16.14173000	-25.68897000
62.79999644	0.00000000	-16.55389000	-23.68971000
62.99999643	0.00000000	-16.14173000	-17.93184000
63.19999642	0.00000000	-15.39124000	-9.89173200
63.39999641	0.00000000	-14.22859000	-2.17765700
63.59999639	0.00000000	-13.06594000	3.62942900
63.79999638	0.00000000	-12.31545000	6.32381900
63.99999637	0.00000000	-11.90330000	5.20423200
64.19999636	0.00000000	-12.31545000	0.97810030
64.39999635	0.00000000	-13.06594000	-5.20423200
64.59999634	0.00000000	-14.27165000	-12.11860000
64.79999632	0.00000000	-15.76649000	-17.92569000
64.99999631	0.00000000	-16.92298000	-21.46284000
65.19999630	0.00000000	-17.29823000	-22.61934000
65.39999629	0.00000000	-16.92298000	-21.08760000
65.59999628	0.00000000	-15.76649000	-17.27362000
65.79999626	0.00000000	-14.27165000	-12.62918000
65.99999625	0.00000000	-13.15822000	-7.93553100
66.19999624	0.00000000	-13.11516000	-3.66633800
66.39999623	0.00000000	-13.85334000	-0.59670270
66.59999622	0.00000000	-14.60384000	0.60285430
66.79999620	0.00000000	-15.43430000	-0.13533460
66.99999619	0.00000000	-16.18479000	-2.04232300
67.19999618	0.00000000	-16.92298000	-4.77977300
67.39999617	0.00000000	-16.83686000	-7.89247000
67.59999616	0.00000000	-15.34203000	-11.04823000
67.79999615	0.00000000	-13.06594000	-14.16092000
67.99999613	0.00000000	-11.10974000	-16.85531000
68.19999612	0.00000000	-9.57800100	-18.39321000
68.39999611	0.00000000	-8.87672100	-18.43627000
68.59999610	0.00000000	-10.03937000	-17.23056000
68.79999609	0.00000000	-12.73991000	-14.85605000
68.99999607	0.00000000	-16.22785000	-11.00517000
69.19999606	0.00000000	-20.04183000	-6.77903500
69.39999605	0.00000000	-22.74237000	-3.24803100
69.59999604	0.00000000	-23.53592000	-0.51058070
69.79999603	0.00000000	-22.74237000	0.97810030
69.99999601	0.00000000	-19.95571000	0.55979330
70.19999600	0.00000000	-15.34203000	-2.17765700
70.39999599	0.00000000	-9.95324800	-6.77903500
70.59999598	0.00000000	-5.33956700	-12.16166000
70.79999597	0.00000000	-2.64517700	-16.81225000
70.99999596	0.00000000	-2.64517700	-19.88189000
71.19999594	0.00000000	-5.33956700	-20.66929000
71.39999593	0.00000000	-9.99630800	-18.76845000
71.59999592	0.00000000	-15.80955000	-15.32357000
71.79999591	0.00000000	-21.57972000	-11.00517000
71.99999590	0.00000000	-25.81201000	-6.40378900
72.19999588	0.00000000	-27.39296000	-2.54675200
72.39999587	0.00000000	-26.23031000	-0.63976370
72.59999586	0.00000000	-22.74237000	-0.97194880
72.79999585	0.00000000	-17.34744000	-3.24803100
72.99999584	0.00000000	-11.57726000	-6.31151500
73.19999582	0.00000000	-6.92052100	-9.42421200
73.39999581	0.00000000	-4.22613100	-12.11860000
73.59999580	0.00000000	-4.18307100	-13.65650000
73.79999579	0.00000000	-6.45915300	-13.69956000
73.99999578	0.00000000	-9.99630800	-12.58612000
74.19999577	0.00000000	-14.64690000	-11.04823000
74.39999575	0.00000000	-19.58046000	-9.55954600
74.59999574	0.00000000	-22.69316000	-8.77829600
74.79999573	0.00000000	-23.48671000	-9.14124000
74.99999572	0.00000000	-22.41018000	-9.89173200
75.19999571	0.00000000	-19.67889000	-11.04823000
75.39999569	0.00000000	-16.64001000	-12.11860000
75.59999568	0.00000000	-13.44119000	-12.07554000
75.79999567	0.00000000	-10.82677000	-10.53765000
75.99999566	0.00000000	-9.25196800	-7.84940900
76.19999565	0.00000000	-9.62106200	-4.82283400
76.39999563	0.00000000	-11.06668000	-2.54675200
76.59999562	0.00000000	-12.64764000	-2.17150600
76.79999561	0.00000000	-14.18553000	-3.70939900
76.99999560	0.00000000	-15.34203000	-6.82209600
77.19999559	0.00000000	-15.76649000	-11.04823000
77.39999558	0.00000000	-15.76649000	-15.27436000
77.59999556	0.00000000	-15.43430000	-18.35015000
77.79999555	0.00000000	-15.06521000	-19.50664000
77.99999554	0.00000000	-15.43430000	-18.35015000
78.19999553	0.00000000	-15.80955000	-15.23130000
78.39999552	0.00000000	-16.22785000	-10.58686000
78.59999550	0.00000000	-16.92298000	-5.19808000
78.79999549	0.00000000	-16.92298000	-0.59670270
78.99999548	0.00000000	-16.14173000	2.09153500
79.19999547	0.00000000	-14.97293000	2.14074800
79.39999546	0.00000000	-13.02288000	-0.17839570
79.59999544	0.00000000	-11.15896000	-4.04158400
79.79999543	0.00000000	-9.99630800	-9.05511800
79.99999542	0.00000000	-9.99630800	-13.69956000
80.19999541	0.00000000	-11.15896000	-17.18750000
80.39999540	0.00000000	-13.06594000	-19.13140000
80.59999539	0.00000000	-15.43430000	-18.76845000
80.79999537	0.00000000	-17.72268000	-16.85531000
80.99999536	0.00000000	-19.62352000	-13.69956000
81.19999535	0.00000000	-19.99877000	-9.51648500
81.39999534	0.00000000	-18.87918000	-5.66560000
81.59999533	0.00000000	-16.92298000	-3.29109200
81.79999531	0.00000000	-14.22859000	-2.08538400
81.99999530	0.00000000	-11.57726000	-2.08538400
82.19999529	0.00000000	-9.99630800	-3.19881900
82.39999528	0.00000000	-9.57800100	-4.77977300
82.59999527	0.00000000	-9.99630800	-6.77903500
82.79999525	0.00000000	-11.53420000	-9.47342500
82.99999524	0.00000000	-13.81028000	-12.16781000
83.19999523	0.00000000	-15.76649000	-14.16092000
83.39999522	0.00000000	-17.34744000	-15.69882000
83.59999521	0.00000000	-18.41781000	-16.43701000
83.79999520	0.00000000	-18.08563000	-15.64960000
83.99999518	0.00000000	-16.60310000	-13.74262000
84.19999517	0.00000000	-15.47736000	-11.00517000
84.39999516	0.00000000	-14.64690000	-7.89247000
84.59999515	0.00000000	-14.27165000	-4.77977300
84.79999514	0.00000000	-14.22859000	-2.08538400
84.99999512	0.00000000	-14.22859000	-0.59670270
85.19999511	0.00000000	-14.22859000	-1.01501000
85.39999510	0.00000000	-14.22859000	-3.70939900
85.59999509	0.00000000	-14.18553000	-7.93553100
85.79999508	0.00000000	-13.85334000	-12.53691000
85.99999506	0.00000000	-13.48425000	-16.43701000
86.19999505	0.00000000	-13.85334000	-18.76845000
86.39999504	0.00000000	-14.22859000	-19.50664000
86.59999503	0.00000000	-14.69611000	-17.88263000
86.79999502	0.00000000	-15.80955000	-13.74262000
86.99999501	0.00000000	-16.92298000	-8.72908400
87.19999499	0.00000000	-17.34744000	-4.45374000
87.39999498	0.00000000	-17.34744000	-0.97194880
87.59999497	0.00000000	-16.92298000	0.51673230
87.79999496	0.00000000	-15.76649000	-0.64591530
87.99999495	0.00000000	-14.22859000	-4.08464600
88.19999493	0.00000000	-12.69070000	-9.09817800
88.39999492	0.00000000	-11.57726000	-14.07480000
88.59999491	0.00000000	-11.53420000	-17.93184000
88.79999490	0.00000000	-12.27239000	-19.46358000
88.99999489	0.00000000	-13.06594000	-18.35015000
89.19999487	0.00000000	-14.27165000	-15.23130000
89.39999486	0.00000000	-15.76649000	-10.58686000
89.59999485	0.00000000	-16.92298000	-5.24729300
89.79999484	0.00000000	-17.29823000	-1.06422200
89.99999483	0.00000000	-16.92298000	0.51673230
90.19999482	0.00000000	-15.80955000	-0.59670270
90.39999480	0.00000000	-14.69611000	-3.70939900
90.59999479	0.00000000	-14.22859000	-8.35998900
90.79999478	0.00000000	-13.81028000	-13.69956000
90.99999477	0.00000000	-13.11516000	-17.88263000
91.19999476	0.00000000	-13.11516000	-19.46358000
91.39999474	0.00000000	-13.81028000	-18.30093000
91.59999473	0.00000000	-14.18553000	-14.85605000
91.79999472	0.00000000	-14.22859000	-9.84867000
91.99999471	0.00000000	-14.22859000	-4.87204700
92.19999470	0.00000000	-14.22859000	-1.02116100
92.39999468	0.00000000	-14.27165000	0.51673230
92.59999467	0.00000000	-14.64690000	-0.64591530
92.79999466	0.00000000	-15.39124000	-4.08464600
92.99999465	0.00000000	-15.80955000	-9.09817800
93.19999464	0.00000000	-16.27707000	-14.03174000
93.39999463	0.00000000	-17.34744000	-17.50738000
93.59999461	0.00000000	-18.08563000	-18.30093000
93.79999460	0.00000000	-17.67347000	-16.76919000
93.99999459	0.00000000	-16.55389000	-13.28125000
94.19999458	0.00000000	-14.56078000	-8.35998900
94.39999457	0.00000000	-12.31545000	-4.17076700
94.59999455	0.00000000	-10.37155000	-2.17150600
94.79999454	0.00000000	-9.57800100	-2.12844500
94.99999453	0.00000000	-9.57800100	-3.70939900
95.19999452	0.00000000	-10.41462000	-6.77903500
95.39999451	0.00000000	-12.73991000	-10.62992000
95.59999449	0.00000000	-15.80955000	-14.07480000
95.79999448	0.00000000	-18.87918000	-16.35089000
95.99999447	0.00000000	-21.20448000	-16.35089000
96.19999446	0.00000000	-21.95497000	-14.11786000
96.39999445	0.00000000	-21.20448000	-11.04823000
96.59999444	0.00000000	-18.87918000	-7.93553100
96.79999442	0.00000000	-15.76649000	-5.24729300
96.99999441	0.00000000	-12.27239000	-3.75246000
97.19999440	0.00000000	-8.79060000	-4.08464600
97.39999439	0.00000000	-6.50221400	-5.98548200
97.59999438	0.00000000	-5.71481200	-8.26771600
97.79999436	0.00000000	-6.92052100	-10.62992000
97.99999435	0.00000000	-9.99630800	-12.49385000
98.19999434	0.00000000	-14.22859000	-13.32431000
98.39999433	0.00000000	-18.46087000	-12.96137000
98.59999432	0.00000000	-21.62278000	-12.21087000
98.79999430	0.00000000	-23.48671000	-11.00517000
98.99999429	0.00000000	-23.52362000	-9.51648500
99.19999428	0.00000000	-21.21063000	-8.35998900
99.39999427	0.00000000	-18.17790000	-7.93553100
99.59999426	0.00000000	-14.60384000	-7.89247000
99.79999425	0.00000000	-11.15896000	-7.89247000
99.99999423	0.00000000	-8.45841400	-7.89247000
100.19999422	0.00000000	-7.29576700	-7.84940900
100.39999421	0.00000000	-7.99704600	-7.51722400
100.59999420	0.00000000	-9.57800100	-7.14812900
100.79999419	0.00000000	-11.90330000	-7.56028500
100.99999417	0.00000000	-15.01599000	-8.31077700
101.19999416	0.00000000	-17.72268000	-9.55954600
101.39999415	0.00000000	-20.08489000	-11.42347000
101.59999414	0.00000000	-21.57972000	-13.32431000
101.79999413	0.00000000	-21.57972000	-14.07480000
101.99999411	0.00000000	-20.04183000	-13.69956000
102.19999410	0.00000000	-17.39050000	-12.11860000
102.39999409	0.00000000	-14.64690000	-9.47342500
102.59999408	0.00000000	-12.31545000	-6.77903500
102.79999407	0.00000000	-10.37155000	-4.82283400
102.99999406	0.00000000	-9.62106200	-3.66633800
103.19999404	0.00000000	-9.95324800	-3.70939900
103.39999403	0.00000000	-11.15896000	-5.24729300
103.59999402	0.00000000	-13.06594000	-7.93553100
103.79999401	0.00000000	-15.39124000	-11.00517000
103.99999400	0.00000000	-17.29823000	-13.69956000
104.19999398	0.00000000	-18.50394000	-15.27436000
104.39999397	0.00000000	-18.87918000	-15.64960000
104.59999396	0.00000000	-18.50394000	-14.85605000
104.79999395	0.00000000	-17.34744000	-12.53691000
104.99999394	0.00000000	-15.80955000	-9.51648500
105.19999392	0.00000000	-14.27165000	-6.77903500
105.39999391	0.00000000	-13.06594000	-4.87204700
105.59999390	0.00000000	-12.31545000	-4.08464600
105.79999389	0.00000000	-11.95251000	-4.87204700
105.99999388	0.00000000	-12.73991000	-6.77903500
106.19999387	0.00000000	-14.18553000	-9.42421200
106.39999385	0.00000000	-15.39124000	-11.74951000
106.59999384	0.00000000	-16.18479000	-12.91215000
106.79999383	0.00000000	-16.92298000	-13.32431000
106.99999382	0.00000000	-16.87992000	-12.53691000
107.19999381	0.00000000	-15.76649000	-11.00517000
107.39999379	0.00000000	-14.22859000	-9.05511800
107.59999378	0.00000000	-12.73991000	-6.82209600
107.79999377	0.00000000	-11.99557000	-5.70866100
107.99999376	0.00000000	-12.69070000	-6.40378900
108.19999375	0.00000000	-13.81028000	-7.89247000
108.39999374	0.00000000	-14.64690000	-9.47342500
108.59999372	0.00000000	-15.80955000	-11.00517000
108.79999371	0.00000000	-16.92298000	-12.16166000
108.99999370	0.00000000	-17.29823000	-12.53691000
109.19999369	0.00000000	-16.97219000	-12.16166000
109.39999368	0.00000000	-16.18479000	-11.00517000
109.59999366	0.00000000	-15.39124000	-9.47342500
109.79999365	0.00000000	-14.18553000	-7.89247000
109.99999364	0.00000000	-12.73991000	-6.40378900
110.19999363	0.00000000	-11.95251000	-5.66560000
110.39999362	0.00000000	-12.31545000	-6.40378900
110.59999360	0.00000000	-13.02288000	-7.84940900
110.79999359	0.00000000	-13.85334000	-9.09817800
110.99999358	0.00000000	-14.60384000	-10.26698000
111.19999357	0.00000000	-15.43430000	-11.79257000
111.39999356	0.00000000	-16.14173000	-12.53691000
111.59999355	0.00000000	-16.55389000	-12.58612000
111.79999353	0.00000000	-16.14173000	-12.16166000
111.99999352	0.00000000	-15.43430000	-11.04823000
112.19999351	0.00000000	-14.64690000	-9.89173200
112.39999350	0.00000000	-14.27165000	-9.09817800
112.59999349	0.00000000	-14.22859000	-8.31077700
112.79999347	0.00000000	-14.22859000	-7.93553100
112.99999346	0.00000000	-14.22859000	-7.89247000
113.19999345	0.00000000	-14.22859000	-7.93553100
113.39999344	0.00000000	-14.22859000	-8.31077700
113.59999343	0.00000000	-14.22859000	-9.05511800
113.79999341	0.00000000	-14.27165000	-9.43036400
113.99999340	0.00000000	-14.64690000	-9.51648500
114.19999339	0.00000000	-15.34203000	-9.89173200
114.39999338	0.00000000	-15.39124000	-10.62992000
114.59999337	0.00000000	-15.02214000	-11.00517000
114.79999336	0.00000000	-15.01599000	-11.04823000
114.99999334	0.00000000	-14.60384000	-11.04823000
115.19999333	0.00000000	-14.27165000	-11.00517000
115.39999332	0.00000000	-14.22859000	-10.62992000
115.59999331	0.00000000	-14.22859000	-9.89173200
115.79999330	0.00000000	-14.22859000	-9.47342500
115.99999328	0.00000000	-14.22859000	-9.05511800
116.19999327	0.00000000	-14.27165000	-8.26771600
116.39999326	0.00000000	-14.64690000	-7.51722400
116.59999325	0.00000000	-15.39124000	-6.77903500
116.79999324	0.00000000	-15.71727000	-6.77903500
116.99999322	0.00000000	-15.39124000	-7.51722400
117.19999321	0.00000000	-14.64690000	-8.31077700
117.39999320	0.00000000	-14.22859000	-9.47342500
117.59999319	0.00000000	-13.81028000	-10.62992000
117.79999318	0.00000000	-13.06594000	-11.42347000
117.99999317	0.00000000	-12.69070000	-12.16166000
118.19999315	0.00000000	-12.69070000	-12.16166000
118.39999314	0.00000000	-13.06594000	-11.42347000
118.59999313	0.00000000	-13.85334000	-10.62992000
118.79999312	0.00000000	-14.64690000	-9.47342500
118.99999311	0.00000000	-15.80955000	-8.35998900
119.19999309	0.00000000	-16.92298000	-7.89247000
119.39999308	0.00000000	-17.34744000	-7.51722400
119.59999307	0.00000000	-17.34744000	-7.14812900
119.79999306	0.00000000	-16.92298000	-7.56028500
119.99999305	0.00000000	-15.76649000	-8.26771600
120.19999303	0.00000000	-14.27165000	-9.05511800
120.39999302	0.00000000	-13.06594000	-9.47342500
120.59999301	0.00000000	-12.27239000	-9.89173200
120.79999300	0.00000000	-11.53420000	-10.62992000
120.99999299	0.00000000	-11.57726000	-11.00517000
121.19999298	0.00000000	-12.69070000	-11.04823000
121.39999296	0.00000000	-14.22859000	-11.04823000
121.59999295	0.00000000	-15.71727000	-11.00517000
121.79999294	0.00000000	-16.55389000	-10.62992000
121.99999293	0.00000000	-16.60310000	-9.89173200
122.19999292	0.00000000	-16.97219000	-9.47342500
122.39999290	0.00000000	-16.92298000	-9.05511800
122.59999289	0.00000000	-16.18479000	-8.31077700
122.79999288	0.00000000	-15.39124000	-7.93553100
122.99999287	0.00000000	-14.22859000	-7.89247000
123.19999286	0.00000000	-13.11516000	-7.93553100
123.39999284	0.00000000	-12.69070000	-8.31077700
123.59999283	0.00000000	-12.64764000	-9.05511800
123.79999282	0.00000000	-12.69070000	-9.47342500
123.99999281	0.00000000	-13.06594000	-9.84867000
124.19999280	0.00000000	-13.85334000	-10.25467000
124.39999279	0.00000000	-14.60384000	-10.26698000
124.59999277	0.00000000	-15.43430000	-10.62992000
124.79999276	0.00000000	-16.18479000	-10.58686000
124.99999275	0.00000000	-16.97219000	-9.89173200
125.19999274	0.00000000	-17.34744000	-9.51648500
125.39999273	0.00000000	-17.34744000	-9.47342500
125.59999271	0.00000000	-16.92298000	-9.43036400
125.79999270	0.00000000	-15.80955000	-9.05511800
125.99999269	0.00000000	-14.64690000	-8.35998900
126.19999268	0.00000000	-13.85334000	-8.31077700
126.39999267	0.00000000	-13.06594000	-8.67987200
126.59999265	0.00000000	-12.69070000	-8.68602300
126.79999264	0.00000000	-12.69070000	-9.09817800
126.99999263	0.00000000	-13.11516000	-9.43036400
127.19999262	0.00000000	-14.22859000	-9.51648500
127.39999261	0.00000000	-15.39124000	-9.89173200
127.59999260	0.00000000	-16.22785000	-10.58686000
127.79999258	0.00000000	-17.34744000	-10.58686000
127.99999257	0.00000000	-18.04257000	-9.89173200
128.19999256	0.00000000	-17.34744000	-9.47342500
128.39999255	0.00000000	-16.22785000	-9.05511800
128.59999254	0.00000000	-15.39124000	-8.31077700
128.79999252	0.00000000	-14.22859000	-7.98474400
128.99999251	0.00000000	-13.11516000	-8.31077700
129.19999250	0.00000000	-12.69070000	-9.05511800
129.39999249	0.00000000	-12.69070000	-9.43036400
129.59999248	0.00000000	-13.11516000	-9.51648500
129.79999246	0.00000000	-14.22859000	-9.84867000
129.99999245	0.00000000	-15.34203000	-10.21161000
130.19999244	0.00000000	-15.80955000	-9.84867000
130.39999243	0.00000000	-16.18479000	-9.51648500
130.59999242	0.00000000	-16.50467000	-9.43036400
130.79999241	0.00000000	-15.80955000	-9.09817800
130.99999239	0.00000000	-15.06521000	-8.68602300
131.19999238	0.00000000	-14.97293000	-8.72293300
131.39999237	0.00000000	-14.22859000	-8.68602300
131.59999236	0.00000000	-13.53346000	-9.09817800
131.79999235	0.00000000	-13.85334000	-9.47342500
131.99999233	0.00000000	-14.22859000	-9.89173200
132.19999232	0.00000000	-14.64690000	-10.62992000
132.39999231	0.00000000	-15.39124000	-10.95595000
132.59999230	0.00000000	-15.76649000	-10.62992000
132.79999229	0.00000000	-15.80955000	-9.84867000
132.99999227	0.00000000	-15.80955000	-9.09817800
133.19999226	0.00000000	-15.80955000	-8.31077700
133.39999225	0.00000000	-15.76649000	-7.93553100
133.59999224	0.00000000	-15.43430000	-7.89247000
133.79999223	0.00000000	-15.06521000	-7.93553100
133.99999222	0.00000000	-15.43430000	-8.31077700
134.19999220	0.00000000	-15.76649000	-9.05511800
134.39999219	0.00000000	-15.76649000	-9.47342500
134.59999218	0.00000000	-15.39124000	-9.89173200
134.79999217	0.00000000	-14.64690000	-10.62992000
134.99999216	0.00000000	-14.27165000	-11.00517000
135.19999214	0.00000000	-14.22859000	-11.04823000
135.39999213	0.00000000	-14.22859000	-11.00517000
135.59999212	0.00000000	-14.27165000	-10.62992000
135.79999211	0.00000000	-14.64690000	-9.84867000
135.99999210	0.00000000	-15.39124000	-9.09817800
136.19999208	0.00000000	-15.76649000	-8.31077700
136.39999207	0.00000000	-15.80955000	-7.93553100
136.59999206	0.00000000	-15.80955000	-7.93553100
136.79999205	0.00000000	-15.80955000	-8.31077700
136.99999204	0.00000000	-15.76649000	-9.05511800
137.19999203	0.00000000	-15.39124000	-9.43036400
137.39999201	0.00000000	-14.60384000	-9.51648500
137.59999200	0.00000000	-13.89641000	-9.89173200
137.79999199	0.00000000	-13.48425000	-10.62992000
137.99999198	0.00000000	-13.85334000	-11.00517000
138.19999197	0.00000000	-14.18553000	-11.04823000
138.39999195	0.00000000	-14.27165000	-11.00517000
138.59999194	0.00000000	-14.64690000	-10.62992000
138.79999193	0.00000000	-15.39124000	-9.84867000
138.99999192	0.00000000	-15.76649000	-9.09817800
139.19999191	0.00000000	-15.80955000	-8.31077700
139.39999189	0.00000000	-15.76649000	-7.93553100
139.59999188	0.00000000	-15.43430000	-7.89247000
139.79999187	0.00000000	-14.97908000	-7.93553100
139.99999186	0.00000000	-14.64075000	-8.31077700
140.19999185	0.00000000	-13.85950000	-9.09817800
140.39999184	0.00000000	-13.89641000	-9.84867000
140.59999182	0.00000000	-14.18553000	-10.58686000
140.79999181	0.00000000	-14.22859000	-10.62992000
140.99999180	0.00000000	-14.27165000	-10.31004000
141.19999179	0.00000000	-14.64690000	-10.62992000
141.39999178	0.00000000	-15.39124000	-10.58686000
141.59999176	0.00000000	-15.76649000	-9.84867000
141.79999175	0.00000000	-15.76649000	-9.09817800
141.99999174	0.00000000	-15.39124000	-8.31077700
142.19999173	0.00000000	-14.64690000	-7.93553100
142.39999172	0.00000000	-14.32087000	-7.89247000
142.59999170	0.00000000	-14.60384000	-7.93553100
142.79999169	0.00000000	-14.97293000	-8.31077700
142.99999168	0.00000000	-14.60384000	-9.05511800
143.19999167	0.00000000	-14.32087000	-9.47342500
143.39999166	0.00000000	-14.64690000	-9.89173200
143.59999165	0.00000000	-15.39124000	-10.62992000
143.79999163	0.00000000	-15.76649000	-11.00517000
143.99999162	0.00000000	-15.76649000	-11.00517000
144.19999161	0.00000000	-15.39124000	-10.62992000
144.39999160	0.00000000	-14.64690000	-9.89173200
144.59999159	0.00000000	-14.27165000	-9.47342500
144.79999157	0.00000000	-14.22859000	-9.05511800
144.99999156	0.00000000	-14.22859000	-8.31077700
145.19999155	0.00000000	-14.27165000	-7.98474400
145.39999154	0.00000000	-14.64690000	-8.31077700
145.59999153	0.00000000	-15.39124000	-9.09817800
145.79999151	0.00000000	-15.76649000	-9.84867000
145.99999150	0.00000000	-15.80955000	-10.62992000
146.19999149	0.00000000	-15.80955000	-11.00517000
146.39999148	0.00000000	-15.76649000	-11.04823000
146.59999147	0.00000000	-15.39124000	-11.04823000
146.79999146	0.00000000	-14.64690000	-11.00517000
146.99999144	0.00000000	-14.27165000	-10.62992000
147.19999143	0.00000000	-14.22859000	-9.84867000
147.39999142	0.00000000	-14.22859000	-9.09817800
147.59999141	0.00000000	-14.22859000	-8.31077700
147.79999140	0.00000000	-14.27165000	-7.98474400
147.99999138	0.00000000	-14.64690000	-8.31077700
148.19999137	0.00000000	-15.39124000	-9.05511800
148.39999136	0.00000000	-15.76649000	-9.43036400
148.59999135	0.00000000	-15.80955000	-9.51648500
148.79999134	0.00000000	-15.80955000	-9.89173200
148.99999132	0.00000000	-15.76649000	-10.62992000
149.19999131	0.00000000	-15.39124000	-11.00517000
149.39999130	0.00000000	-14.64690000	-11.00517000
149.59999129	0.00000000	-14.27165000	-10.62992000
149.79999128	0.00000000	-14.22859000	-9.89173200
149.99999127	0.00000000	-14.22859000	-9.51648500
150.19999125	0.00000000	-14.22859000	-9.43036400
150.39999124	0.00000000	-14.22859000	-9.05511800
150.59999123	0.00000000	-14.27165000	-8.35998900
150.79999122	0.00000000	-14.64690000	-8.35998900
150.99999121	0.00000000	-15.39124000	-9.05511800
151.19999119	0.00000000	-15.76649000	-9.43036400
151.39999118	0.00000000	-15.80955000	-9.47342500
151.59999117	0.00000000	-15.80955000	-9.47342500
151.79999116	0.00000000	-15.76649000	-9.47342500
151.99999115	0.00000000	-15.39124000	-9.47342500
152.19999113	0.00000000	-14.64690000	-9.47342500
152.39999112	0.00000000	-14.27165000	-9.47342500
152.59999111	0.00000000	-14.22859000	-9.47342500
152.79999110	0.00000000	-14.22859000	-9.47342500
152.99999109	0.00000000	-14.22859000	-9.47342500
153.19999108	0.00000000	-14.27165000	-9.47342500
153.39999106	0.00000000	-14.64690000	-9.47342500
153.59999105	0.00000000	-15.39124000	-9.47342500
153.79999104	0.00000000	-15.76649000	-9.47342500
153.99999103	0.00000000	-15.85261000	-9.47342500
154.19999102	0.00000000	-16.18479000	-9.47342500
154.39999100	0.00000000	-16.55389000	-9.47342500
154.59999099	0.00000000	-16.18479000	-9.47342500
154.79999098	0.00000000	-15.85261000	-9.47342500
154.99999097	0.00000000	-15.76649000	-9.51648500
155.19999096	0.00000000	-15.39124000	-9.84867000
155.39999094	0.00000000	-14.64690000	-10.21161000
155.59999093	0.00000000	-14.27165000	-9.84867000
155.79999092	0.00000000	-14.22859000	-9.51648500
155.99999091	0.00000000	-14.22859000	-9.47342500
156.19999090	0.00000000	-14.27165000	-9.47342500
156.39999089	0.00000000	-14.64690000	-9.47342500
156.59999087	0.00000000	-15.39124000	-9.47342500
156.79999086	0.00000000	-15.76649000	-9.43036400
156.99999085	0.00000000	-15.80955000	-9.05511800
157.19999084	0.00000000	-15.80955000	-8.35998900
157.39999083	0.00000000	-15.80955000	-8.35998900
157.59999081	0.00000000	-15.76649000	-9.05511800
157.79999080	0.00000000	-15.39124000	-9.43036400
157.99999079	0.00000000	-14.64690000	-9.47342500
158.19999078	0.00000000	-14.27165000	-9.51648500
158.39999077	0.00000000	-14.22859000	-9.89173200
158.59999075	0.00000000	-14.22859000	-10.58686000
158.79999074	0.00000000	-14.22859000	-10.58686000
158.99999073	0.00000000	-14.22859000	-9.84867000
159.19999072	0.00000000	-14.22859000	-9.09817800
159.39999071	0.00000000	-14.27165000	-8.35998900
159.59999070	0.00000000	-14.64690000	-8.31077700
159.79999068	0.00000000	-15.39124000	-8.67987200
159.99999067	0.00000000	-15.76649000	-8.68602300
160.19999066	0.00000000	-15.76649000	-9.05511800
160.39999065	0.00000000	-15.43430000	-9.05511800
160.59999064	0.00000000	-15.06521000	-8.72908400
160.79999062	0.00000000	-15.39124000	-9.09817800
160.99999061	0.00000000	-15.34203000	-9.43036400
161.19999060	0.00000000	-14.69611000	-9.47342500
161.39999059	0.00000000	-14.64690000	-9.47342500
161.59999058	0.00000000	-14.97293000	-9.47342500
161.79999056	0.00000000	-14.60384000	-9.47342500
161.99999055	0.00000000	-14.27165000	-9.47342500
162.19999054	0.00000000	-14.22859000	-9.47342500
162.39999053	0.00000000	-14.22859000	-9.47342500
162.59999052	0.00000000	-14.27165000	-9.47342500
162.79999051	0.00000000	-14.60384000	-9.47342500
162.99999049	0.00000000	-15.01599000	-9.47342500
163.19999048	0.00000000	-15.02214000	-9.47342500
163.39999047	0.00000000	-15.43430000	-9.47342500
163.59999046	0.00000000	-15.76649000	-9.47342500
163.79999045	0.00000000	-15.80955000	-9.47342500
163.99999043	0.00000000	-15.80955000	-9.47342500
164.19999042	0.00000000	-15.76649000	-9.47342500
164.39999041	0.00000000	-15.39124000	-9.47342500
164.59999040	0.00000000	-14.64690000	-9.51648500
164.79999039	0.00000000	-14.32087000	-9.89173200
164.99999037	0.00000000	-14.60384000	-10.58686000
165.19999036	0.00000000	-14.97293000	-10.58686000
165.39999035	0.00000000	-14.60384000	-9.89173200
165.59999034	0.00000000	-14.32087000	-9.51648500
165.79999033	0.00000000	-14.64690000	-9.47342500
165.99999032	0.00000000	-15.39124000	-9.43036400
166.19999030	0.00000000	-15.76649000	-9.09817800
166.39999029	0.00000000	-15.76649000	-8.72908400
166.59999028	0.00000000	-15.43430000	-9.09817800
166.79999027	0.00000000	-15.06521000	-9.43036400
166.99999026	0.00000000	-15.39124000	-9.47342500
167.19999024	0.00000000	-15.34203000	-9.47342500
167.39999023	0.00000000	-14.64690000	-9.47342500
167.59999022	0.00000000	-14.27165000	-9.51648500
167.79999021	0.00000000	-14.22859000	-9.84867000
167.99999020	0.00000000	-14.22859000	-10.21161000
168.19999018	0.00000000	-14.22859000	-9.89173200
168.39999017	0.00000000	-14.22859000	-9.89173200
168.59999016	0.00000000	-14.27165000	-10.21161000
168.79999015	0.00000000	-14.64690000	-9.84867000
168.99999014	0.00000000	-15.39124000	-9.51648500
169.19999013	0.00000000	-15.71727000	-9.47342500
169.39999011	0.00000000	-15.43430000	-9.47342500
169.59999010	0.00000000	-15.06521000	-9.47342500
169.79999009	0.00000000	-15.43430000	-9.47342500
169.99999008	0.00000000	-15.76649000	-9.47342500
170.19999007	0.00000000	-15.80955000	-9.47342500
170.39999005	0.00000000	-15.76649000	-9.47342500
170.59999004	0.00000000	-15.39124000	-9.47342500
170.79999003	0.00000000	-14.64690000	-9.47342500
170.99999002	0.00000000	-14.32087000	-9.47342500
171.19999001	0.00000000	-14.60384000	-9.47342500
171.39998999	0.00000000	-14.97293000	-9.47342500
171.59998998	0.00000000	-14.64690000	-9.47342500
171.79998997	0.00000000	-14.64690000	-9.47342500
171.99998996	0.00000000	-15.01599000	-9.47342500
172.19998995	0.00000000	-15.02214000	-9.47342500
172.39998994	0.00000000	-15.43430000	-9.47342500
172.59998992	0.00000000	-15.76649000	-9.47342500
172.79998991	0.00000000	-15.80955000	-9.47342500
172.99998990	0.00000000	-15.76649000	-9.47342500
173.19998989	0.00000000	-15.43430000	-9.47342500
173.39998988	0.00000000	-15.02214000	-9.47342500
173.59998986	0.00000000	-15.01599000	-9.47342500
173.79998985	0.00000000	-14.60384000	-9.47342500
173.99998984	0.00000000	-14.27165000	-9.47342500
174.19998983	0.00000000	-14.22859000	-9.47342500
174.39998982	0.00000000	-14.22859000	-9.47342500
174.59998980	0.00000000	-14.22859000	-9.47342500
174.79998979	0.00000000	-14.27165000	-9.47342500
174.99998978	0.00000000	-14.64690000	-9.47342500
175.19998977	0.00000000	-15.39124000	-9.47342500
175.39998976	0.00000000	-15.76649000	-9.47342500
175.59998975	0.00000000	-15.80955000	-9.47342500
175.79998973	0.00000000	-15.76649000	-9.47342500
175.99998972	0.00000000	-15.39124000	-9.47342500
176.19998971	0.00000000	-14.64690000	-9.47342500
176.39998970	0.00000000	-14.32087000	-9.47342500
176.59998969	0.00000000	-14.60384000	-9.47342500
176.79998967	0.00000000	-14.97293000	-9.47342500
176.99998966	0.00000000	-14.64690000	-9.47342500
177.19998965	0.00000000	-14.69611000	-9.47342500
177.39998964	0.00000000	-15.39124000	-9.47342500
177.59998963	0.00000000	-15.71727000	-9.47342500
177.79998961	0.00000000	-15.39124000	-9.47342500
177.99998960	0.00000000	-14.69611000	-9.47342500
178.19998959	0.00000000	-14.69611000	-9.47342500
178.39998958	0.00000000	-15.39124000	-9.47342500
178.59998957	0.00000000	-15.71727000	-9.47342500
178.79998956	0.00000000	-15.43430000	-9.47342500
178.99998954	0.00000000	-15.02214000	-9.47342500
179.19998953	0.00000000	-15.01599000	-9.47342500
179.39998952	0.00000000	-14.64690000	-9.47342500
179.59998951	0.00000000	-14.64690000	-9.47342500
179.79998950	0.00000000	-14.97293000	-9.47342500
179.99998948	0.00000000	-14.60384000	-9.47342500
180.19998947	0.00000000	-14.27165000	-9.47342500
180.39998946	0.00000000	-14.27165000	-9.47342500
180.59998945	0.00000000	-14.64690000	-9.47342500
180.79998944	0.00000000	-15.39124000	-9.47342500
180.99998942	0.00000000	-15.71727000	-9.43036400
181.19998941	0.00000000	-15.43430000	-9.09817800
181.39998940	0.00000000	-15.06521000	-8.72908400
181.59998939	0.00000000	-15.43430000	-9.09817800
181.79998938	0.00000000	-15.71727000	-9.43036400
181.99998937	0.00000000	-15.39124000	-9.47342500
182.19998935	0.00000000	-14.64690000	-9.47342500
182.39998934	0.00000000	-14.27165000	-9.47342500
182.59998933	0.00000000	-14.22859000	-9.47342500
182.79998932	0.00000000	-14.22859000	-9.47342500
182.99998931	0.00000000	-14.22859000	-9.47342500
183.19998929	0.00000000	-14.22859000	-9.47342500
183.39998928	0.00000000	-14.27165000	-9.47342500
183.59998927	0.00000000	-14.64690000	-9.51648500
183.79998926	0.00000000	-15.39124000	-9.84867000
183.99998925	0.00000000	-15.76649000	-10.21161000
184.19998923	0.00000000	-15.80955000	-9.79945900
184.39998922	0.00000000	-15.80955000	-9.14124000
184.59998921	0.00000000	-15.80955000	-8.72908400
184.79998920	0.00000000	-15.80955000	-9.09817800
184.99998919	0.00000000	-15.80955000	-9.38115100
185.19998918	0.00000000	-15.80955000	-9.09817800
185.39998916	0.00000000	-15.76649000	-8.72908400
185.59998915	0.00000000	-15.39124000	-9.09817800
185.79998914	0.00000000	-14.64690000	-9.47342500
185.99998913	0.00000000	-14.27165000	-9.84867000
186.19998912	0.00000000	-14.22859000	-10.21161000
186.39998910	0.00000000	-14.27165000	-9.84867000
186.59998909	0.00000000	-14.60384000	-9.51648500
186.79998908	0.00000000	-15.01599000	-9.47342500
186.99998907	0.00000000	-14.97908000	-9.47342500
187.19998906	0.00000000	-15.05905000	-9.47342500
187.39998904	0.00000000	-15.02214000	-9.47342500
187.59998903	0.00000000	-15.39124000	-9.43036400
187.79998902	0.00000000	-15.39124000	-9.09817800
187.99998901	0.00000000	-15.06521000	-8.72908400
188.19998900	0.00000000	-15.39124000	-9.09817800
188.39998899	0.00000000	-15.34203000	-9.43036400
188.59998897	0.00000000	-14.64690000	-9.47342500
188.79998896	0.00000000	-14.27165000	-9.47342500
188.99998895	0.00000000	-14.22859000	-9.51648500
189.19998894	0.00000000	-14.22859000	-9.84867000
189.39998893	0.00000000	-14.27165000	-10.21161000
189.59998891	0.00000000	-14.64690000	-9.84867000
189.79998890	0.00000000	-15.39124000	-9.51648500
189.99998889	0.00000000	-15.76649000	-9.47342500
190.19998888	0.00000000	-15.80955000	-9.47342500
190.39998887	0.00000000	-15.80955000	-9.47342500
190.59998885	0.00000000	-15.80955000	-9.47342500
190.79998884	0.00000000	-15.80955000	-9.47342500
190.99998883	0.00000000	-15.80955000	-9.47342500
191.19998882	0.00000000	-15.76649000	-9.47342500
191.39998881	0.00000000	-15.39124000	-9.47342500
191.59998880	0.00000000	-14.64690000	-9.47342500
191.79998878	0.00000000	-14.27165000	-9.47342500
191.99998877	0.00000000	-14.22859000	-9.47342500
192.19998876	0.00000000	-14.22859000	-9.47342500
192.39998875	0.00000000	-14.27165000	-9.47342500
192.59998874	0.00000000	-14.64690000	-9.47342500
192.79998872	0.00000000	-15.39124000	-9.47342500
192.99998871	0.00000000	-15.76649000	-9.47342500
193.19998870	0.00000000	-15.80955000	-9.47342500
193.39998869	0.00000000	-15.80955000	-9.47342500
193.59998868	0.00000000	-15.80955000	-9.47342500
193.79998866	0.00000000	-15.80955000	-9.47342500
193.99998865	0.00000000	-15.80955000	-9.47342500
194.19998864	0.00000000	-15.76649000	-9.47342500
194.39998863	0.00000000	-15.39124000	-9.47342500
194.59998862	0.00000000	-14.64690000	-9.47342500
194.79998861	0.00000000	-14.27165000	-9.47342500
194.99998859	0.00000000	-14.27165000	-9.47342500
195.19998858	0.00000000	-14.64690000	-9.47342500
195.39998857	0.00000000	-15.39124000	-9.47342500
195.59998856	0.00000000	-15.76649000	-9.47342500
195.79998855	0.00000000	-15.80955000	-9.47342500
195.99998853	0.00000000	-15.80955000	-9.47342500
