Time	Channel A	Channel B	Channel C
(us)	(V)	(mV)	(mV)

-4.49999956	0.00000000	-13.85334000	-9.09817800
-4.29999957	0.00000000	-13.48425000	-8.72908400
-4.09999958	0.00000000	-13.85334000	-9.09817800
-3.89999959	0.00000000	-14.18553000	-9.43036400
-3.69999960	0.00000000	-14.22859000	-9.47342500
-3.49999962	0.00000000	-14.22859000	-9.47342500
-3.29999963	0.00000000	-14.22859000	-9.47342500
-3.09999964	0.00000000	-14.22859000	-9.47342500
-2.89999965	0.00000000	-14.22859000	-9.47342500
-2.69999966	0.00000000	-14.22859000	-9.47342500
-2.49999968	0.00000000	-14.22859000	-9.47342500
-2.29999969	0.00000000	-14.22859000	-9.47342500
-2.09999970	0.00000000	-14.22859000	-9.47342500
-1.89999971	0.00000000	-14.22859000	-9.47342500
-1.69999972	0.00000000	-14.22859000	-9.47342500
-1.49999973	0.00000000	-14.22859000	-9.47342500
-1.29999975	0.00000000	-14.22859000	-9.47342500
-1.09999976	0.00000000	-14.22859000	-9.43036400
-0.89999977	0.00000000	-14.22859000	-9.09817800
-0.69999978	0.00000000	-14.22859000	-8.72908400
-0.49999979	0.00000000	-14.18553000	-9.09817800
-0.29999981	0.31803640	-13.85334000	-9.43036400
-0.09999982	0.63668800	-13.44119000	-9.47342500
0.10000017	0.95533960	-13.47810000	-9.47342500
0.30000016	0.95533960	-13.44119000	-9.47342500
0.50000015	0.79601380	-13.85334000	-9.47342500
0.70000013	0.15871060	-14.18553000	-9.47342500
0.90000012	-0.63668800	-14.22859000	-9.47342500
1.10000011	-1.75196900	-14.22859000	-9.47342500
1.30000010	-2.54859700	-14.18553000	-9.47342500
1.50000009	-2.86724900	-13.81028000	-9.47342500
1.70000008	-2.22994600	-13.11516000	-9.43036400
1.90000006	-0.95533960	-13.11516000	-9.05511800
2.10000005	0.95533960	-13.81028000	-8.35998900
2.30000004	3.02657500	-14.18553000	-8.35998900
2.50000003	4.77854300	-14.22859000	-9.05511800
2.70000002	5.41584600	-14.22859000	-9.43036400
2.90000000	4.61921700	-14.22859000	-9.47342500
3.09999999	2.38927200	-14.22859000	-9.47342500
3.29999998	-0.79601380	-14.22859000	-9.47342500
3.49999997	-4.14124000	-14.22859000	-9.47342500
3.69999996	-6.84916400	-14.18553000	-9.43036400
3.89999994	-7.96444400	-13.85334000	-9.05511800
4.09999993	-7.16781500	-13.44119000	-8.31077700
4.29999992	-4.30056600	-13.43504000	-7.93553100
4.49999991	-0.15871060	-13.02288000	-7.89247000
4.69999990	4.14124000	-12.73991000	-7.89247000
4.89999989	7.64579200	-13.06594000	-7.93553100
5.09999987	9.39837600	-13.81028000	-8.31077700
5.29999986	8.76107300	-14.18553000	-9.05511800
5.49999985	5.89382400	-14.22859000	-9.43036400
5.69999984	1.59264300	-14.18553000	-9.47342500
5.89999983	-3.34522600	-13.85334000	-9.47342500
6.09999981	-7.16781500	-13.48425000	-9.47342500
6.29999980	-9.39837600	-13.81028000	-9.47342500
6.49999979	-9.07972400	-13.76107000	-9.43036400
6.69999978	-6.53112700	-13.11516000	-9.09817800
6.89999977	-2.54859700	-13.06594000	-8.72908400
7.09999975	1.75196900	-13.39198000	-9.09817800
7.29999974	5.41584600	-13.06594000	-9.43036400
7.49999973	7.48646600	-13.11516000	-9.47342500
7.69999972	7.48646600	-13.81028000	-9.47342500
7.89999971	5.73449800	-14.18553000	-9.47342500
8.09999970	2.86724900	-14.22859000	-9.47342500
8.29999968	-0.63668800	-14.22859000	-9.47342500
8.49999967	-3.34522600	-14.22859000	-9.47342500
8.69999966	-4.93786900	-14.22859000	-9.47342500
8.89999965	-5.09719500	-14.22859000	-9.47342500
9.09999964	-4.14124000	-14.22859000	-9.47342500
9.29999962	-2.22994600	-14.22859000	-9.47342500
9.49999961	-0.31803640	-14.22859000	-9.47342500
9.69999960	1.43331700	-14.22859000	-9.47342500
9.89999959	2.22994600	-14.22859000	-9.47342500
10.09999958	2.54859700	-14.22859000	-9.43036400
10.29999956	2.07062000	-14.22859000	-9.09817800
10.49999955	1.27399100	-14.22859000	-8.72908400
10.69999954	0.31803640	-14.22859000	-9.09817800
10.89999953	-0.31803640	-14.22859000	-9.43036400
11.09999952	-0.79601380	-14.22859000	-9.47342500
11.29999951	-0.95533960	-14.22859000	-9.47342500
11.49999949	-0.95533960	-14.22859000	-9.47342500
11.69999948	-0.63668800	-14.22859000	-9.47342500
11.89999947	-0.31803640	-14.18553000	-9.47342500
12.09999946	-0.15871060	-13.85334000	-9.47342500
12.29999945	-0.15871060	-13.48425000	-9.47342500
12.49999943	0.00000000	-13.81028000	-9.47342500
12.69999942	0.00000000	-13.81028000	-9.47342500
12.89999941	0.00000000	-13.44119000	-9.43036400
13.09999940	0.00000000	-13.47810000	-9.09817800
13.29999939	0.00000000	-13.44119000	-8.72908400
13.49999937	0.00000000	-13.85334000	-9.09817800
13.69999936	0.00000000	-14.18553000	-9.43036400
13.89999935	-0.15871060	-14.18553000	-9.47342500
14.09999934	-0.15871060	-13.85334000	-9.47342500
14.29999933	-0.15871060	-13.48425000	-9.47342500
14.49999932	0.00000000	-13.85334000	-9.47342500
14.69999930	0.00000000	-14.13632000	-9.47342500
14.89999929	0.00000000	-13.85334000	-9.47342500
15.09999928	0.00000000	-13.44119000	-9.43036400
15.29999927	0.00000000	-13.47810000	-9.09817800
15.49999926	0.00000000	-13.44119000	-8.72908400
15.69999924	0.00000000	-13.85334000	-9.09817800
15.89999923	0.00000000	-14.18553000	-9.43036400
16.09999922	0.00000000	-14.22859000	-9.47342500
16.29999921	0.00000000	-14.22859000	-9.47342500
16.49999920	-0.15871060	-14.18553000	-9.47342500
16.69999919	-0.15871060	-13.81028000	-9.47342500
16.89999917	0.00000000	-13.06594000	-9.47342500
17.09999916	0.00000000	-12.64764000	-9.43036400
17.29999915	0.00000000	-12.27239000	-9.09817800
17.49999914	0.00000000	-11.90330000	-8.72908400
17.69999913	0.00000000	-12.31545000	-9.09817800
17.89999911	0.00000000	-13.02288000	-9.43036400
18.09999910	0.00000000	-13.89641000	-9.47342500
18.29999909	0.00000000	-15.06521000	-9.47342500
18.49999908	0.00000000	-16.97219000	-9.47342500
18.69999907	0.00000000	-18.46087000	-9.47342500
18.89999905	0.00000000	-18.87918000	-9.47342500
19.09999904	0.00000000	-18.46087000	-9.47342500
19.29999903	0.00000000	-16.87992000	-9.47342500
19.49999902	0.00000000	-14.13632000	-9.47342500
19.69999901	0.00000000	-10.64838000	-9.47342500
19.89999900	0.00000000	-6.79133800	-9.47342500
20.09999898	0.00000000	-3.71555100	-9.47342500
20.29999897	0.00000000	-2.26993100	-9.47342500
20.49999896	0.00000000	-3.48179100	-9.47342500
20.69999895	0.00000000	-8.17544300	-9.47342500
20.89999894	0.00000000	-15.06521000	-9.47342500
21.09999892	0.00000000	-22.82849000	-9.47342500
21.29999891	0.00000000	-29.39837000	-9.47342500
21.49999890	0.00000000	-33.63066000	-9.47342500
21.69999889	0.00000000	-34.23966000	-9.47342500
21.89999888	0.00000000	-29.53986000	-9.47342500
22.09999886	0.00000000	-19.86343000	-9.47342500
22.29999885	0.00000000	-7.52952700	-9.47342500
22.49999884	0.00000000	4.84128900	-9.47342500
22.69999883	0.00000000	14.09941000	-9.47342500
22.89999882	0.00000000	18.28863000	-9.43036400
23.09999881	0.00000000	15.82185000	-9.05511800
23.29999879	0.00000000	5.68405400	-8.31077700
23.49999878	0.00000000	-10.50689000	-7.93553100
23.69999877	0.00000000	-29.02313000	-7.84940900
23.89999876	0.00000000	-45.21407000	-7.51722400
24.09999875	0.00000000	-55.21653000	-7.19734200
24.29999873	0.00000000	-56.29306000	-7.98474400
24.49999872	0.00000000	-47.35482000	-9.47342500
24.69999871	0.00000000	-29.95817000	-11.04823000
24.89999870	0.00000000	-7.94783400	-12.58612000
25.09999869	0.00000000	13.68110000	-13.74262000
25.29999867	0.00000000	29.82899000	-14.11786000
25.49999866	0.00000000	36.38656000	-13.69956000
25.69999865	0.00000000	31.32382000	-12.11860000
25.89999864	-0.15871060	15.87106000	-9.38115100
26.09999863	0.00000000	-6.96973400	-5.89320800
26.29999862	0.00000000	-32.00049000	-2.04232300
26.49999860	0.00000000	-53.21727000	0.97810030
26.69999859	0.00000000	-65.18208000	2.13459600
26.89999858	0.00000000	-65.22514000	0.88582670
27.09999857	0.00000000	-53.68479000	-3.01427100
27.29999856	0.00000000	-33.58760000	-9.60875900
27.49999854	0.00000000	-9.57800100	-17.27977000
27.69999853	0.00000000	13.59498000	-24.24335000
27.89999852	0.00000000	30.53026000	-28.80167000
28.09999851	0.00000000	36.76181000	-29.53986000
28.29999850	0.00000000	31.41609000	-25.59670000
28.49999848	0.00000000	16.38164000	-17.50738000
28.69999847	0.00000000	-4.83513700	-6.64370100
28.89999846	0.00000000	-26.83932000	4.55831700
29.09999845	0.00000000	-44.70349000	14.21629000
29.29999844	0.00000000	-55.17347000	19.88804000
29.49999843	0.00000000	-56.37918000	19.42667000
29.69999841	0.00000000	-48.33292000	12.08169000
29.89999840	0.00000000	-33.67372000	-0.63976370
30.09999839	0.00000000	-15.90182000	-15.69882000
30.29999838	0.00000000	1.12573800	-30.05044000
30.49999837	0.00000000	13.54577000	-40.79109000
30.69999835	0.00000000	19.45128000	-45.38631000
30.89999834	0.00000000	18.33169000	-41.86147000
31.09999833	0.00000000	11.02977000	-31.07775000
31.29999832	0.00000000	-0.59670270	-15.23130000
31.49999831	0.00000000	-14.13632000	2.14074800
31.69999829	0.00000000	-26.88238000	17.24286000
31.89999828	0.00000000	-35.82062000	27.27608000
32.09999827	0.00000000	-39.40084000	29.97047000
32.29999826	0.00000000	-37.86294000	24.53248000
32.49999825	0.00000000	-31.62524000	12.17397000
32.69999824	0.00000000	-21.66585000	-4.82898600
32.89999822	0.00000000	-10.83292000	-22.61934000
33.09999821	0.00000000	-1.89468500	-37.63533000
33.29999820	0.00000000	4.33070900	-46.54896000
33.49999819	0.00000000	6.19463500	-46.97342000
33.69999818	0.00000000	3.16806100	-40.08366000
33.89999816	0.00000000	-3.71555100	-27.26993000
34.09999815	0.00000000	-12.18012000	-11.05438000
34.29999814	0.00000000	-19.95571000	5.16117100
34.49999813	0.00000000	-25.71973000	17.93799000
34.69999812	0.00000000	-28.04503000	24.48942000
34.89999810	0.00000000	-26.18725000	23.73892000
35.09999809	0.00000000	-21.62278000	15.66191000
35.29999808	0.00000000	-15.80955000	2.55905500
35.49999807	0.00000000	-10.03937000	-12.49385000
35.69999806	0.00000000	-5.80708600	-26.34104000
35.89999805	0.00000000	-4.22613100	-35.21776000
36.09999803	0.00000000	-5.38877900	-37.26009000
36.29999802	0.00000000	-8.83366100	-32.98474000
36.49999801	0.00000000	-13.85334000	-23.36368000
36.69999800	0.00000000	-18.79306000	-10.35925000
36.89999799	0.00000000	-22.27485000	1.53789400
37.09999797	0.00000000	-23.06841000	9.34424200
37.29999796	0.00000000	-21.57972000	12.03863000
37.49999795	0.00000000	-18.41781000	8.96899500
37.69999794	0.00000000	-13.81028000	0.93503930
37.89999793	0.00000000	-8.83366100	-9.38730200
38.09999791	0.00000000	-5.38877900	-19.00221000
38.29999790	0.00000000	-4.18307100	-25.09227000
38.49999789	0.00000000	-5.33956700	-25.87352000
38.69999788	0.00000000	-8.41535400	-20.95226000
38.89999787	0.00000000	-12.69070000	-12.53691000
39.09999786	0.00000000	-17.29823000	-3.33415300
39.29999784	0.00000000	-21.20448000	4.32455700
39.49999783	0.00000000	-23.53592000	7.72022600
39.69999782	0.00000000	-24.27411000	5.85629900
39.89999781	0.00000000	-22.74237000	-0.68897630
40.09999780	0.00000000	-19.30364000	-9.89173200
40.29999778	0.00000000	-15.39124000	-19.46358000
40.49999777	0.00000000	-11.06668000	-26.34104000
40.69999776	0.00000000	-6.87746000	-28.29109000
40.89999775	0.00000000	-4.18307100	-25.22145000
41.09999774	0.00000000	-3.75861200	-17.92569000
41.29999772	0.00000000	-5.29650500	-8.31077700
41.49999771	0.00000000	-8.37229300	0.88582670
41.69999770	0.00000000	-12.27239000	7.43725300
41.89999769	0.00000000	-16.14173000	9.38730200
42.09999768	0.00000000	-19.62352000	6.74212600
42.29999767	0.00000000	-21.57972000	0.55979330
42.49999765	0.00000000	-21.99803000	-7.89247000
42.69999764	0.00000000	-21.20448000	-16.30167000
42.89999763	0.00000000	-18.87918000	-22.10876000
43.09999762	0.00000000	-15.85261000	-24.10802000
43.29999761	0.00000000	-13.11516000	-22.61934000
43.49999759	0.00000000	-11.15896000	-18.35015000
43.69999758	0.00000000	-9.95324800	-12.21087000
43.89999757	0.00000000	-9.57800100	-5.70866100
44.09999756	0.00000000	-9.90403500	-1.06422200
44.29999755	0.00000000	-10.69144000	0.93503930
44.49999753	0.00000000	-11.44193000	0.60285430
44.69999752	0.00000000	-12.18012000	-1.71013800
44.89999751	0.00000000	-12.18012000	-5.15501900
45.09999750	0.00000000	-11.53420000	-9.05511800
45.29999749	0.00000000	-11.62032000	-12.49385000
45.49999748	0.00000000	-13.15822000	-14.81299000
45.69999746	0.00000000	-15.85261000	-15.23130000
45.89999745	0.00000000	-18.92839000	-14.11786000
46.09999744	0.00000000	-21.62278000	-12.16781000
46.29999743	0.00000000	-23.16068000	-9.47342500
46.49999742	0.00000000	-23.11762000	-6.77903500
46.69999740	0.00000000	-21.11220000	-4.87204700
46.89999739	0.00000000	-16.83686000	-4.08464600
47.09999738	0.00000000	-11.06668000	-4.82283400
47.29999737	0.00000000	-5.25344500	-6.36072800
47.49999736	0.00000000	-0.68897630	-8.31077700
47.69999734	0.00000000	1.21186000	-10.67298000
47.89999733	0.00000000	-0.73203740	-12.95522000
48.09999732	0.00000000	-5.76402500	-14.85605000
48.29999731	0.00000000	-13.15822000	-15.18824000
48.49999730	0.00000000	-21.62278000	-13.74262000
48.69999729	0.00000000	-28.88779000	-11.38041000
48.89999727	0.00000000	-32.74483000	-8.67987200
49.09999726	0.00000000	-31.95743000	-5.57332700
49.29999725	0.00000000	-26.93159000	-3.29109200
49.49999724	0.00000000	-18.41781000	-2.12844500
49.69999723	0.00000000	-8.45841400	-2.54675200
49.89999721	0.00000000	0.00615157	-4.87204700
50.09999720	0.00000000	4.66289300	-8.31077700
50.29999719	0.00000000	4.70595500	-12.16166000
50.49999718	0.00000000	0.42445860	-15.27436000
50.69999717	0.00000000	-7.29576700	-17.18750000
50.89999715	0.00000000	-16.87992000	-17.55044000
51.09999714	0.00000000	-25.34449000	-15.60654000
51.29999713	0.00000000	-30.37647000	-12.16166000
51.49999712	0.00000000	-31.16388000	-7.89247000
51.69999711	0.00000000	-27.30069000	-3.70939900
51.89999710	0.00000000	-20.04183000	-1.01501000
52.09999708	0.00000000	-11.57726000	-0.55364170
52.29999707	0.00000000	-4.26919300	-1.71013800
52.49999706	0.00000000	-0.03690945	-4.08464600
52.69999705	0.00000000	0.00615157	-7.89247000
52.89999704	0.00000000	-3.85088600	-11.74951000
53.09999702	0.00000000	-10.32234000	-14.45005000
53.29999701	0.00000000	-17.66732000	-16.01870000
53.49999700	0.00000000	-23.40059000	-15.60654000
53.69999699	0.00000000	-26.50713000	-13.74262000
53.89999698	0.00000000	-25.71973000	-11.00517000
54.09999696	0.00000000	-21.53666000	-7.98474400
54.29999695	0.00000000	-15.39124000	-5.66560000
54.49999694	0.00000000	-8.83366100	-4.91510800
54.69999693	0.00000000	-3.89394600	-5.61638700
54.89999692	0.00000000	-1.90083600	-7.51722400
55.09999691	0.00000000	-3.47564000	-9.38115100
55.29999689	0.00000000	-7.67101300	-10.58686000
55.49999688	0.00000000	-13.81028000	-10.95595000
55.69999687	0.00000000	-19.53125000	-10.53765000
55.89999686	0.00000000	-23.06841000	-9.00590400
56.09999685	0.00000000	-24.23105000	-6.77903500
56.29999683	0.00000000	-22.65010000	-5.29035400
56.49999682	0.00000000	-18.50394000	-5.29035400
56.69999681	0.00000000	-13.48425000	-6.77903500
56.89999680	0.00000000	-9.24581600	-9.14124000
57.09999679	0.00000000	-6.13927100	-11.84178000
57.29999677	0.00000000	-5.38877900	-14.90526000
57.49999676	0.00000000	-6.83439900	-16.71998000
57.69999675	0.00000000	-9.57800100	-16.35089000
57.89999674	0.00000000	-13.02288000	-13.61343000
58.09999673	0.00000000	-16.50467000	-9.00590400
58.29999672	0.00000000	-18.79306000	-3.66633800
58.49999670	0.00000000	-19.62352000	0.55979330
58.69999669	0.00000000	-18.83612000	2.46678100
58.89999668	0.00000000	-16.97219000	1.67322800
59.09999667	0.00000000	-14.64690000	-2.17765700
59.29999666	0.00000000	-12.73991000	-7.93553100
59.49999664	0.00000000	-11.53420000	-14.11786000
59.69999663	0.00000000	-11.15896000	-19.50664000
59.89999662	0.00000000	-11.53420000	-22.57628000
60.09999661	0.00000000	-12.64764000	-22.53322000
60.29999660	0.00000000	-13.76107000	-19.04527000
60.49999658	0.00000000	-14.22859000	-12.49385000
60.69999657	0.00000000	-14.60384000	-4.82898600
60.89999656	0.00000000	-14.97293000	2.09153500
61.09999655	0.00000000	-14.56078000	6.27460600
61.29999654	0.00000000	-13.85334000	6.32381900
61.49999653	0.00000000	-13.06594000	2.51599400
61.69999651	0.00000000	-12.73991000	-3.70939900
61.89999650	0.00000000	-13.06594000	-11.42347000
62.09999649	0.00000000	-13.85334000	-19.08834000
62.29999648	0.00000000	-14.60384000	-24.10802000
62.49999647	0.00000000	-15.39124000	-25.68897000
62.69999645	0.00000000	-15.76649000	-23.68971000
62.89999644	0.00000000	-15.76649000	-17.93184000
63.09999643	0.00000000	-15.34203000	-9.89173200
63.29999642	0.00000000	-14.18553000	-2.17765700
63.49999641	0.00000000	-12.69070000	3.62942900
63.69999639	0.00000000	-11.57726000	6.32381900
63.89999638	0.00000000	-11.53420000	5.20423200
64.09999637	0.00000000	-12.27239000	1.02116100
64.29999636	0.00000000	-13.06594000	-4.77977300
64.49999635	0.00000000	-14.22859000	-11.00517000
64.69999634	0.00000000	-15.34203000	-16.76919000
64.89999632	0.00000000	-15.76649000	-20.66314000
65.09999631	0.00000000	-15.76649000	-21.83194000
65.29999630	0.00000000	-15.39124000	-20.71235000
65.49999629	0.00000000	-14.60384000	-17.18750000
65.69999628	0.00000000	-13.85334000	-12.21087000
65.89999626	0.00000000	-13.06594000	-6.82209600
66.09999625	0.00000000	-12.73991000	-2.59596400
66.29999624	0.00000000	-13.06594000	-0.55364170
66.49999623	0.00000000	-13.85334000	-0.09227362
66.69999622	0.00000000	-14.64690000	-0.51058070
66.89999620	0.00000000	-15.80955000	-2.08538400
67.09999619	0.00000000	-16.87992000	-4.77977300
67.29999618	0.00000000	-16.83686000	-7.89247000
67.49999617	0.00000000	-15.34203000	-11.04823000
67.69999616	0.00000000	-13.02288000	-14.16092000
67.89999615	0.00000000	-10.69144000	-16.85531000
68.09999613	0.00000000	-8.41535400	-18.39321000
68.29999612	0.00000000	-7.34498000	-18.43627000
68.49999611	0.00000000	-8.50147600	-17.23056000
68.69999610	0.00000000	-11.53420000	-14.85605000
68.89999609	0.00000000	-15.39124000	-11.00517000
69.09999607	0.00000000	-18.87918000	-6.77903500
69.29999606	0.00000000	-21.62278000	-3.24803100
69.49999605	0.00000000	-23.11762000	-0.51058070
69.69999604	0.00000000	-22.69316000	0.97810030
69.89999603	0.00000000	-19.95571000	0.55979330
70.09999601	0.00000000	-15.34203000	-2.12844500
70.29999600	0.00000000	-9.95324800	-6.40378900
70.49999599	0.00000000	-5.33956700	-11.42347000
70.69999598	0.00000000	-2.64517700	-16.43701000
70.89999597	0.00000000	-2.64517700	-19.88189000
71.09999596	0.00000000	-5.33956700	-21.04454000
71.29999594	0.00000000	-9.99630800	-19.50664000
71.49999593	0.00000000	-15.76649000	-15.69882000
71.69999592	0.00000000	-21.16142000	-11.04823000
71.89999591	0.00000000	-24.69857000	-6.40378900
72.09999590	0.00000000	-26.23031000	-2.54675200
72.29999588	0.00000000	-25.39370000	-0.59670270
72.49999587	0.00000000	-21.53666000	-0.59670270
72.69999586	0.00000000	-15.80955000	-2.50369100
72.89999585	0.00000000	-10.03937000	-5.93626900
73.09999584	0.00000000	-5.71481200	-9.38115100
73.29999582	0.00000000	-3.38951800	-12.11860000
73.49999581	0.00000000	-2.97736200	-13.65650000
73.69999580	0.00000000	-4.97047200	-13.69956000
73.89999579	0.00000000	-8.79060000	-12.58612000
74.09999578	0.00000000	-13.81028000	-11.09744000
74.29999577	0.00000000	-18.41781000	-9.93479300
74.49999575	0.00000000	-21.53666000	-9.51648500
74.69999574	0.00000000	-22.74237000	-9.51648500
74.89999573	0.00000000	-21.95497000	-9.93479300
75.09999572	0.00000000	-19.66658000	-11.00517000
75.29999571	0.00000000	-16.18479000	-11.70029000
75.49999569	0.00000000	-12.78297000	-10.96211000
75.69999568	0.00000000	-10.41462000	-9.42421200
75.89999567	0.00000000	-9.57800100	-7.47416300
76.09999566	0.00000000	-9.57800100	-5.15501900
76.29999565	0.00000000	-10.37155000	-3.29109200
76.49999563	0.00000000	-12.27239000	-2.54675200
76.69999562	0.00000000	-14.09326000	-3.75246000
76.89999561	0.00000000	-14.97293000	-6.82209600
77.09999560	0.00000000	-14.97908000	-11.04823000
77.29999559	0.00000000	-15.01599000	-15.27436000
77.49999558	0.00000000	-14.60384000	-18.39321000
77.69999556	0.00000000	-14.27165000	-19.88189000
77.89999555	0.00000000	-14.27165000	-19.08834000
78.09999554	0.00000000	-14.64690000	-15.60654000
78.29999553	0.00000000	-15.39124000	-10.62992000
78.49999552	0.00000000	-15.76649000	-5.24729300
78.69999550	0.00000000	-15.76649000	-1.02116100
78.89999549	0.00000000	-15.34203000	0.97810030
79.09999548	0.00000000	-14.13632000	1.02116100
79.29999547	0.00000000	-12.27239000	-0.59670270
79.49999546	0.00000000	-10.37155000	-4.08464600
79.69999544	0.00000000	-9.57800100	-9.05511800
79.89999543	0.00000000	-9.57800100	-13.65650000
80.09999542	0.00000000	-10.37155000	-16.81225000
80.29999541	0.00000000	-12.36466000	-18.39321000
80.49999540	0.00000000	-14.97908000	-18.35015000
80.69999539	0.00000000	-17.71038000	-16.43701000
80.89999537	0.00000000	-19.21137000	-13.00443000
81.09999536	0.00000000	-19.66658000	-9.51648500
81.29999535	0.00000000	-18.83612000	-6.36072800
81.49999534	0.00000000	-16.92298000	-3.66633800
81.69999533	0.00000000	-14.22859000	-2.08538400
81.89999531	0.00000000	-11.53420000	-1.71013800
82.09999530	0.00000000	-9.62106200	-2.46063000
82.29999529	0.00000000	-8.83366100	-4.40452700
82.49999528	0.00000000	-9.57800100	-6.72982200
82.69999527	0.00000000	-11.10974000	-9.47342500
82.89999525	0.00000000	-13.06594000	-12.21087000
83.09999524	0.00000000	-15.34203000	-14.53617000
83.29999523	0.00000000	-16.87992000	-16.43701000
83.49999522	0.00000000	-17.29823000	-16.81225000
83.69999521	0.00000000	-16.97219000	-15.69882000
83.89999520	0.00000000	-16.18479000	-13.74262000
84.09999518	0.00000000	-15.39124000	-10.96211000
84.29999517	0.00000000	-14.22859000	-7.51722400
84.49999516	0.00000000	-13.11516000	-4.03543200
84.69999515	0.00000000	-12.73991000	-1.71013800
84.89999514	0.00000000	-13.06594000	-0.55364170
85.09999512	0.00000000	-13.76107000	-1.01501000
85.29999511	0.00000000	-13.76107000	-3.70939900
85.49999510	0.00000000	-13.06594000	-7.89247000
85.69999509	0.00000000	-12.69070000	-12.16166000
85.89999508	0.00000000	-12.64764000	-15.69882000
86.09999506	0.00000000	-12.69070000	-18.39321000
86.29999505	0.00000000	-13.11516000	-19.46358000
86.49999504	0.00000000	-14.27165000	-17.93184000
86.69999503	0.00000000	-15.76649000	-14.11786000
86.89999502	0.00000000	-16.87992000	-9.47342500
87.09999501	0.00000000	-16.92298000	-4.82898600
87.29999499	0.00000000	-16.22785000	-1.02116100
87.49999498	0.00000000	-15.80955000	0.51673230
87.69999497	0.00000000	-15.34203000	-0.59670270
87.89999496	0.00000000	-14.18553000	-3.70939900
88.09999495	0.00000000	-12.69070000	-8.31077700
88.29999493	0.00000000	-11.53420000	-13.28125000
88.49999492	0.00000000	-11.15896000	-16.76919000
88.69999491	0.00000000	-11.53420000	-18.35015000
88.89999490	0.00000000	-12.69070000	-17.92569000
89.09999489	0.00000000	-14.18553000	-15.18824000
89.29999487	0.00000000	-15.39124000	-10.58686000
89.49999486	0.00000000	-16.18479000	-5.24729300
89.69999485	0.00000000	-16.92298000	-1.02116100
89.89999484	0.00000000	-16.87992000	0.88582670
90.09999483	0.00000000	-15.80955000	0.14148620
90.29999482	0.00000000	-14.64690000	-3.29109200
90.49999480	0.00000000	-13.85334000	-7.93553100
90.69999479	0.00000000	-13.06594000	-12.96137000
90.89999478	0.00000000	-12.69070000	-17.50738000
91.09999477	0.00000000	-12.69070000	-19.37131000
91.29999476	0.00000000	-13.06594000	-17.93184000
91.49999474	0.00000000	-13.76107000	-14.11786000
91.69999473	0.00000000	-13.76107000	-9.47342500
91.89999472	0.00000000	-13.06594000	-4.82898600
92.09999471	0.00000000	-12.73991000	-1.02116100
92.29999470	0.00000000	-13.06594000	0.46751960
92.49999468	0.00000000	-13.81028000	-1.02116100
92.69999467	0.00000000	-14.22859000	-4.82898600
92.89999466	0.00000000	-14.69611000	-9.47342500
93.09999465	0.00000000	-15.80955000	-14.07480000
93.29999464	0.00000000	-16.92298000	-17.50738000
93.49999463	0.00000000	-17.29823000	-18.25787000
93.69999461	0.00000000	-16.92298000	-16.39395000
93.89999460	0.00000000	-15.76649000	-12.58612000
94.09999459	0.00000000	-14.18553000	-8.35998900
94.29999458	0.00000000	-12.22933000	-4.82283400
94.49999457	0.00000000	-9.95324800	-2.17765700
94.69999455	0.00000000	-8.45841400	-1.43331700
94.89999454	0.00000000	-8.41535400	-3.33415300
95.09999453	0.00000000	-9.57800100	-6.72982200
95.29999452	0.00000000	-11.53420000	-10.58686000
95.49999451	0.00000000	-14.27165000	-13.69956000
95.69999449	0.00000000	-17.34744000	-15.60654000
95.89999448	0.00000000	-20.04183000	-15.97564000
96.09999447	0.00000000	-21.57972000	-14.07480000
96.29999446	0.00000000	-21.53666000	-11.04823000
96.49999445	0.00000000	-19.58046000	-7.93553100
96.69999444	0.00000000	-15.76649000	-5.29035400
96.89999442	0.00000000	-11.53420000	-4.12770700
97.09999441	0.00000000	-8.04010800	-4.82283400
97.29999440	0.00000000	-5.71481200	-6.36072800
97.49999439	0.00000000	-5.33956700	-8.31077700
97.69999438	0.00000000	-6.87746000	-10.58686000
97.89999436	0.00000000	-9.95324800	-12.11860000
98.09999435	0.00000000	-13.81028000	-12.58612000
98.29999434	0.00000000	-17.34744000	-12.58612000
98.49999433	0.00000000	-20.41708000	-12.16166000
98.69999432	0.00000000	-22.31791000	-11.00517000
98.89999430	0.00000000	-21.95497000	-9.51648500
99.09999429	0.00000000	-20.08489000	-8.35998900
99.29999428	0.00000000	-17.29823000	-7.93553100
99.49999427	0.00000000	-13.81028000	-7.89247000
99.69999426	0.00000000	-9.99630800	-7.89247000
99.89999425	0.00000000	-7.29576700	-7.84940900
100.09999423	0.00000000	-6.45915300	-7.47416300
100.29999422	0.00000000	-6.83439900	-6.72982200
100.49999421	0.00000000	-8.41535400	-6.40378900
100.69999420	0.00000000	-11.10974000	-6.77903500
100.89999419	0.00000000	-14.22859000	-7.93553100
101.09999417	0.00000000	-17.29823000	-9.47342500
101.29999416	0.00000000	-19.62352000	-11.04823000
101.49999415	0.00000000	-20.41708000	-12.58612000
101.69999414	0.00000000	-20.08489000	-13.69956000
101.89999413	0.00000000	-18.87918000	-13.65650000
102.09999411	0.00000000	-16.92298000	-12.11860000
102.29999410	0.00000000	-14.22859000	-9.47342500
102.49999409	0.00000000	-11.57726000	-6.77903500
102.69999408	0.00000000	-9.99630800	-4.77977300
102.89999407	0.00000000	-9.57800100	-3.29109200
103.09999406	0.00000000	-9.95324800	-2.92199800
103.29999404	0.00000000	-11.10974000	-4.49680100
103.49999403	0.00000000	-12.69070000	-7.14812900
103.69999402	0.00000000	-14.60384000	-10.62992000
103.89999401	0.00000000	-16.55389000	-13.65650000
104.09999400	0.00000000	-17.72268000	-15.27436000
104.29999398	0.00000000	-18.50394000	-15.64960000
104.49999397	0.00000000	-18.41781000	-14.85605000
104.69999396	0.00000000	-16.97219000	-12.53691000
104.89999395	0.00000000	-15.02214000	-9.47342500
105.09999394	0.00000000	-13.47810000	-6.40378900
105.29999392	0.00000000	-11.90330000	-4.12770700
105.49999391	0.00000000	-11.20202000	-3.70939900
105.69999390	0.00000000	-11.53420000	-4.82283400
105.89999389	0.00000000	-12.64764000	-6.77903500
106.09999388	0.00000000	-13.81028000	-9.47342500
106.29999387	0.00000000	-14.60384000	-12.11860000
106.49999385	0.00000000	-15.39124000	-13.65650000
106.69999384	0.00000000	-15.76649000	-13.69956000
106.89999383	0.00000000	-15.76649000	-12.58612000
107.09999382	0.00000000	-15.34203000	-11.00517000
107.29999381	0.00000000	-14.22859000	-9.09817800
107.49999379	0.00000000	-13.11516000	-7.19734200
107.69999378	0.00000000	-12.69070000	-6.44685000
107.89999377	0.00000000	-12.69070000	-6.72982200
108.09999376	0.00000000	-13.11516000	-7.56028500
108.29999375	0.00000000	-14.22859000	-8.72908400
108.49999374	0.00000000	-15.34203000	-10.62992000
108.69999372	0.00000000	-15.80955000	-12.11860000
108.89999371	0.00000000	-16.18479000	-12.53691000
109.09999370	0.00000000	-16.50467000	-12.16166000
109.29999369	0.00000000	-15.71727000	-11.00517000
109.49999368	0.00000000	-14.27165000	-9.47342500
109.69999366	0.00000000	-13.11516000	-7.89247000
109.89999365	0.00000000	-12.64764000	-6.40378900
110.09999364	0.00000000	-12.27239000	-5.61638700
110.29999363	0.00000000	-11.90330000	-5.98548200
110.49999362	0.00000000	-12.31545000	-6.77903500
110.69999360	0.00000000	-13.06594000	-8.31077700
110.89999359	0.00000000	-14.22859000	-10.21161000
111.09999358	0.00000000	-15.34203000	-11.38041000
111.29999357	0.00000000	-15.76649000	-12.21087000
111.49999356	0.00000000	-15.80955000	-12.53691000
111.69999355	0.00000000	-15.76649000	-12.16166000
111.89999353	0.00000000	-15.34203000	-11.00517000
112.09999352	0.00000000	-14.27165000	-9.51648500
112.29999351	0.00000000	-13.48425000	-8.31077700
112.49999350	0.00000000	-13.43504000	-7.51722400
112.69999349	0.00000000	-13.02288000	-6.77903500
112.89999347	0.00000000	-12.69070000	-6.77903500
113.09999346	0.00000000	-12.64764000	-7.47416300
113.29999345	0.00000000	-12.69070000	-7.89247000
113.49999344	0.00000000	-13.06594000	-8.31077700
113.69999343	0.00000000	-13.81028000	-9.05511800
113.89999341	0.00000000	-14.18553000	-9.47342500
114.09999340	0.00000000	-14.22859000	-9.89173200
114.29999339	0.00000000	-14.22859000	-10.62992000
114.49999338	0.00000000	-14.22859000	-11.00517000
114.69999337	0.00000000	-14.22859000	-11.04823000
114.89999336	0.00000000	-14.22859000	-11.04823000
115.09999334	0.00000000	-14.22859000	-11.04823000
115.29999333	0.00000000	-14.18553000	-11.00517000
115.49999332	0.00000000	-13.85334000	-10.62992000
115.69999331	0.00000000	-13.48425000	-9.84867000
115.89999330	0.00000000	-13.85334000	-9.09817800
116.09999328	0.00000000	-14.18553000	-8.31077700
116.29999327	0.00000000	-14.22859000	-7.93553100
116.49999326	0.00000000	-14.27165000	-7.89247000
116.69999325	0.00000000	-14.60384000	-7.89247000
116.89999324	0.00000000	-14.97293000	-7.93553100
117.09999322	0.00000000	-14.60384000	-8.35998900
117.29999321	0.00000000	-14.22859000	-9.47342500
117.49999320	0.00000000	-13.81028000	-10.58686000
117.69999319	0.00000000	-13.06594000	-11.04823000
117.89999318	0.00000000	-12.69070000	-11.42347000
118.09999317	0.00000000	-12.69070000	-11.79257000
118.29999315	0.00000000	-13.06594000	-11.38041000
118.49999314	0.00000000	-13.85334000	-10.62992000
118.69999313	0.00000000	-14.60384000	-9.47342500
118.89999312	0.00000000	-15.43430000	-8.31077700
119.09999311	0.00000000	-16.18479000	-7.56028500
119.29999309	0.00000000	-16.92298000	-7.10506800
119.49999308	0.00000000	-16.92298000	-7.14197800
119.69999307	0.00000000	-16.18479000	-7.14812900
119.89999306	0.00000000	-15.39124000	-7.93553100
120.09999305	0.00000000	-14.18553000	-9.00590400
120.29999303	0.00000000	-12.69070000	-9.43036400
120.49999302	0.00000000	-11.57726000	-9.47342500
120.69999301	0.00000000	-11.48499000	-9.47342500
120.89999300	0.00000000	-11.85408000	-9.51648500
121.09999299	0.00000000	-11.95251000	-9.84867000
121.29999298	0.00000000	-13.15822000	-10.21161000
121.49999296	0.00000000	-15.34203000	-9.84867000
121.69999295	0.00000000	-16.87992000	-9.51648500
121.89999294	0.00000000	-17.34744000	-9.47342500
122.09999293	0.00000000	-17.34744000	-9.43036400
122.29999292	0.00000000	-16.97219000	-9.05511800
122.49999290	0.00000000	-16.18479000	-8.31077700
122.69999289	0.00000000	-15.39124000	-7.93553100
122.89999288	0.00000000	-14.22859000	-7.93553100
123.09999287	0.00000000	-13.06594000	-8.26771600
123.29999286	0.00000000	-12.31545000	-8.67987200
123.49999284	0.00000000	-11.90330000	-8.68602300
123.69999283	0.00000000	-12.27239000	-9.14124000
123.89999282	0.00000000	-12.64764000	-9.84867000
124.09999281	0.00000000	-13.11516000	-10.62992000
124.29999280	0.00000000	-14.22859000	-10.95595000
124.49999279	0.00000000	-15.34203000	-10.62992000
124.69999277	0.00000000	-15.76649000	-9.89173200
124.89999276	0.00000000	-15.80955000	-9.51648500
125.09999275	0.00000000	-15.80955000	-9.43036400
125.29999274	0.00000000	-15.80955000	-9.05511800
125.49999273	0.00000000	-15.76649000	-8.31077700
125.69999271	0.00000000	-15.34203000	-7.93553100
125.89999270	0.00000000	-14.22859000	-7.89247000
126.09999269	0.00000000	-13.11516000	-7.93553100
126.29999268	0.00000000	-12.69070000	-8.31077700
126.49999267	0.00000000	-12.64764000	-9.05511800
126.69999265	0.00000000	-12.64764000	-9.47342500
126.89999264	0.00000000	-12.69070000	-9.84867000
127.09999263	0.00000000	-13.11516000	-10.25467000
127.29999262	0.00000000	-14.22859000	-10.26698000
127.49999261	0.00000000	-15.34203000	-10.62992000
127.69999260	0.00000000	-15.76649000	-10.58686000
127.89999258	0.00000000	-15.80955000	-9.89173200
128.09999257	0.00000000	-15.76649000	-9.47342500
128.29999256	0.00000000	-15.39124000	-9.09817800
128.49999255	0.00000000	-14.60384000	-8.68602300
128.69999254	0.00000000	-13.85334000	-8.72293300
128.89999252	0.00000000	-13.06594000	-8.68602300
129.09999251	0.00000000	-12.69070000	-9.09817800
129.29999250	0.00000000	-12.69070000	-9.43036400
129.49999249	0.00000000	-13.11516000	-9.47342500
129.69999248	0.00000000	-14.22859000	-9.47342500
129.89999246	0.00000000	-15.34203000	-9.47342500
130.09999245	0.00000000	-15.80955000	-9.47342500
130.29999244	0.00000000	-16.18479000	-9.47342500
130.49999243	0.00000000	-16.50467000	-9.47342500
130.69999242	0.00000000	-15.76649000	-9.47342500
130.89999241	0.00000000	-14.64690000	-9.47342500
131.09999239	0.00000000	-13.85334000	-9.47342500
131.29999238	0.00000000	-13.06594000	-9.47342500
131.49999237	0.00000000	-12.69070000	-9.47342500
131.69999236	0.00000000	-12.69070000	-9.51648500
131.89999235	0.00000000	-13.06594000	-9.89173200
132.09999233	0.00000000	-13.85334000	-10.62992000
132.29999232	0.00000000	-14.56078000	-10.95595000
132.49999231	0.00000000	-15.01599000	-10.62992000
132.69999230	0.00000000	-14.97908000	-9.89173200
132.89999229	0.00000000	-15.01599000	-9.47342500
133.09999227	0.00000000	-14.60384000	-9.05511800
133.29999226	0.00000000	-14.27165000	-8.31077700
133.49999225	0.00000000	-14.22859000	-7.93553100
133.69999224	0.00000000	-14.22859000	-7.89247000
133.89999223	0.00000000	-14.22859000	-7.93553100
134.09999222	0.00000000	-14.22859000	-8.31077700
134.29999220	0.00000000	-14.22859000	-9.09817800
134.49999219	0.00000000	-14.22859000	-9.84867000
134.69999218	0.00000000	-14.22859000	-10.62992000
134.89999217	0.00000000	-14.18553000	-11.00517000
135.09999216	0.00000000	-13.85334000	-11.09129000
135.29999214	0.00000000	-13.48425000	-11.38041000
135.49999213	0.00000000	-13.85334000	-11.32505000
135.69999212	0.00000000	-14.18553000	-9.89173200
135.89999211	0.00000000	-14.27165000	-8.77829600
136.09999210	0.00000000	-14.64690000	-8.67987200
136.29999208	0.00000000	-15.39124000	-8.26771600
136.49999207	0.00000000	-15.76649000	-7.93553100
136.69999206	0.00000000	-15.76649000	-7.93553100
136.89999205	0.00000000	-15.39124000	-8.31077700
137.09999204	0.00000000	-14.64690000	-9.09817800
137.29999203	0.00000000	-14.22859000	-9.84867000
137.49999201	0.00000000	-13.81028000	-10.62992000
137.69999200	0.00000000	-13.06594000	-11.00517000
137.89999199	0.00000000	-12.73991000	-11.04823000
138.09999198	0.00000000	-13.06594000	-11.00517000
138.29999197	0.00000000	-13.85334000	-10.62992000
138.49999195	0.00000000	-14.60384000	-9.89173200
138.69999194	0.00000000	-15.39124000	-9.47342500
138.89999193	0.00000000	-15.76649000	-9.05511800
139.09999192	0.00000000	-15.80955000	-8.31077700
139.29999191	0.00000000	-15.76649000	-7.93553100
139.49999189	0.00000000	-15.39124000	-7.89247000
139.69999188	0.00000000	-14.64690000	-7.93553100
139.89999187	0.00000000	-14.22859000	-8.31077700
140.09999186	0.00000000	-13.81028000	-9.05511800
140.29999185	0.00000000	-13.11516000	-9.47342500
140.49999184	0.00000000	-13.11516000	-9.89173200
140.69999182	0.00000000	-13.81028000	-10.62992000
140.89999181	0.00000000	-14.18553000	-11.00517000
141.09999180	0.00000000	-14.27165000	-11.00517000
141.29999179	0.00000000	-14.60384000	-10.62992000
141.49999178	0.00000000	-14.97293000	-9.84867000
141.69999176	0.00000000	-14.64690000	-9.09817800
141.89999175	0.00000000	-14.64690000	-8.31077700
142.09999174	0.00000000	-14.97293000	-7.93553100
142.29999173	0.00000000	-14.60384000	-7.89247000
142.49999172	0.00000000	-14.27165000	-7.93553100
142.69999170	0.00000000	-14.22859000	-8.31077700
142.89999169	0.00000000	-14.22859000	-9.09817800
143.09999168	0.00000000	-14.22859000	-9.84867000
143.29999167	0.00000000	-14.27165000	-10.62992000
143.49999166	0.00000000	-14.60384000	-11.00517000
143.69999165	0.00000000	-14.97293000	-11.04823000
143.89999163	0.00000000	-14.60384000	-11.00517000
144.09999162	0.00000000	-14.27165000	-10.62992000
144.29999161	0.00000000	-14.22859000	-9.84867000
144.49999160	0.00000000	-14.22859000	-9.09817800
144.69999159	0.00000000	-14.18553000	-8.31077700
144.89999157	0.00000000	-13.85334000	-7.93553100
145.09999156	0.00000000	-13.48425000	-7.93553100
145.29999155	0.00000000	-13.85334000	-8.31077700
145.49999154	0.00000000	-14.22859000	-9.05511800
145.69999153	0.00000000	-14.64690000	-9.47342500
145.89999151	0.00000000	-15.34203000	-9.89173200
146.09999150	0.00000000	-15.34203000	-10.62992000
146.29999149	0.00000000	-14.64690000	-11.00517000
146.49999148	0.00000000	-14.27165000	-11.00517000
146.69999147	0.00000000	-14.22859000	-10.62992000
146.89999146	0.00000000	-14.22859000	-9.89173200
147.09999144	0.00000000	-14.22859000	-9.47342500
147.29999143	0.00000000	-14.22859000	-9.05511800
147.49999142	0.00000000	-14.22859000	-8.31077700
147.69999141	0.00000000	-14.22859000	-7.93553100
147.89999140	0.00000000	-14.22859000	-7.93553100
148.09999138	0.00000000	-14.27165000	-8.31077700
148.29999137	0.00000000	-14.64690000	-9.05511800
148.49999136	0.00000000	-15.34203000	-9.43036400
148.69999135	0.00000000	-15.34203000	-9.51648500
148.89999134	0.00000000	-14.64690000	-9.89173200
149.09999132	0.00000000	-14.27165000	-10.58686000
149.29999131	0.00000000	-14.22859000	-10.58686000
149.49999130	0.00000000	-14.18553000	-9.84867000
149.69999129	0.00000000	-13.85334000	-9.14124000
149.89999128	0.00000000	-13.48425000	-8.68602300
150.09999127	0.00000000	-13.89641000	-8.72293300
150.29999125	0.00000000	-14.56078000	-8.68602300
150.49999124	0.00000000	-14.97293000	-9.05511800
150.69999123	0.00000000	-14.60384000	-9.00590400
150.89999122	0.00000000	-14.32087000	-8.35998900
151.09999121	0.00000000	-14.60384000	-8.35998900
151.29999119	0.00000000	-15.01599000	-9.05511800
151.49999118	0.00000000	-14.97908000	-9.43036400
151.69999117	0.00000000	-15.01599000	-9.47342500
151.89999116	0.00000000	-14.60384000	-9.47342500
152.09999115	0.00000000	-14.27165000	-9.47342500
152.29999113	0.00000000	-14.22859000	-9.47342500
152.49999112	0.00000000	-14.22859000	-9.47342500
152.69999111	0.00000000	-14.18553000	-9.47342500
152.89999110	0.00000000	-13.85334000	-9.47342500
153.09999109	0.00000000	-13.44119000	-9.47342500
153.29999108	0.00000000	-13.47810000	-9.47342500
153.49999106	0.00000000	-13.48425000	-9.47342500
153.69999105	0.00000000	-14.27165000	-9.43036400
153.89999104	0.00000000	-15.34203000	-9.09817800
154.09999103	0.00000000	-15.76649000	-8.72908400
154.29999102	0.00000000	-15.80955000	-9.09817800
154.49999100	0.00000000	-15.80955000	-9.43036400
154.69999099	0.00000000	-15.76649000	-9.47342500
154.89999098	0.00000000	-15.39124000	-9.47342500
155.09999097	0.00000000	-14.64690000	-9.51648500
155.29999096	0.00000000	-14.22859000	-9.84867000
155.49999094	0.00000000	-13.81028000	-10.21161000
155.69999093	0.00000000	-13.11516000	-9.84867000
155.89999092	0.00000000	-13.11516000	-9.51648500
156.09999091	0.00000000	-13.81028000	-9.47342500
156.29999090	0.00000000	-14.22859000	-9.43036400
156.49999089	0.00000000	-14.64690000	-9.05511800
156.69999087	0.00000000	-15.39124000	-8.31077700
156.89999086	0.00000000	-15.76649000	-7.93553100
157.09999085	0.00000000	-15.80955000	-7.93553100
157.29999084	0.00000000	-15.76649000	-8.31077700
157.49999083	0.00000000	-15.39124000	-9.05511800
157.69999081	0.00000000	-14.64690000	-9.47342500
157.89999080	0.00000000	-14.27165000	-9.84867000
158.09999079	0.00000000	-14.22859000	-10.21161000
158.29999078	0.00000000	-14.22859000	-9.89173200
158.49999077	0.00000000	-14.22859000	-9.89173200
158.69999075	0.00000000	-14.22859000	-10.21161000
158.89999074	0.00000000	-14.22859000	-9.84867000
159.09999073	0.00000000	-14.22859000	-9.51648500
159.29999072	0.00000000	-14.22859000	-9.43036400
159.49999071	0.00000000	-14.22859000	-9.05511800
159.69999070	0.00000000	-14.27165000	-8.31077700
159.89999068	0.00000000	-14.64690000	-7.93553100
160.09999067	0.00000000	-15.34203000	-7.93553100
160.29999066	0.00000000	-15.39124000	-8.31077700
160.49999065	0.00000000	-15.02214000	-9.05511800
160.69999064	0.00000000	-15.01599000	-9.43036400
160.89999062	0.00000000	-14.60384000	-9.47342500
161.09999061	0.00000000	-14.27165000	-9.47342500
161.29999060	0.00000000	-14.22859000	-9.47342500
161.49999059	0.00000000	-14.22859000	-9.47342500
161.69999058	0.00000000	-14.22859000	-9.47342500
161.89999056	0.00000000	-14.22859000	-9.47342500
162.09999055	0.00000000	-14.22859000	-9.47342500
162.29999054	0.00000000	-14.22859000	-9.43036400
162.49999053	0.00000000	-14.22859000	-9.09817800
162.69999052	0.00000000	-14.22859000	-8.72908400
162.89999051	0.00000000	-14.27165000	-9.05511800
163.09999049	0.00000000	-14.64690000	-9.05511800
163.29999048	0.00000000	-15.39124000	-8.72908400
163.49999047	0.00000000	-15.76649000	-9.09817800
163.69999046	0.00000000	-15.80955000	-9.43036400
163.89999045	0.00000000	-15.76649000	-9.47342500
164.09999043	0.00000000	-15.39124000	-9.47342500
164.29999042	0.00000000	-14.64690000	-9.47342500
164.49999041	0.00000000	-14.22859000	-9.47342500
164.69999040	0.00000000	-13.85334000	-9.47342500
164.89999039	0.00000000	-13.48425000	-9.47342500
165.09999037	0.00000000	-13.85334000	-9.47342500
165.29999036	0.00000000	-14.22859000	-9.47342500
165.49999035	0.00000000	-14.60384000	-9.47342500
165.69999034	0.00000000	-14.97293000	-9.47342500
165.89999033	0.00000000	-14.64690000	-9.47342500
166.09999032	0.00000000	-14.69611000	-9.47342500
166.29999030	0.00000000	-15.39124000	-9.47342500
166.49999029	0.00000000	-15.71727000	-9.47342500
166.69999028	0.00000000	-15.39124000	-9.47342500
166.89999027	0.00000000	-14.64690000	-9.47342500
167.09999026	0.00000000	-14.27165000	-9.47342500
167.29999024	0.00000000	-14.22859000	-9.47342500
167.49999023	0.00000000	-14.22859000	-9.47342500
167.69999022	0.00000000	-14.22859000	-9.47342500
167.89999021	0.00000000	-14.22859000	-9.47342500
168.09999020	0.00000000	-14.22859000	-9.47342500
168.29999018	0.00000000	-14.22859000	-9.47342500
168.49999017	0.00000000	-14.22859000	-9.47342500
168.69999016	0.00000000	-14.22859000	-9.47342500
168.89999015	0.00000000	-14.22859000	-9.47342500
169.09999014	0.00000000	-14.22859000	-9.47342500
169.29999013	0.00000000	-14.22859000	-9.47342500
169.49999011	0.00000000	-14.22859000	-9.47342500
169.69999010	0.00000000	-14.22859000	-9.47342500
169.89999009	0.00000000	-14.22859000	-9.47342500
170.09999008	0.00000000	-14.22859000	-9.47342500
170.29999007	0.00000000	-14.22859000	-9.47342500
170.49999005	0.00000000	-14.22859000	-9.47342500
170.69999004	0.00000000	-14.22859000	-9.47342500
170.89999003	0.00000000	-14.18553000	-9.47342500
171.09999002	0.00000000	-13.85334000	-9.47342500
171.29999001	0.00000000	-13.48425000	-9.47342500
171.49998999	0.00000000	-13.85334000	-9.47342500
171.69998998	0.00000000	-14.18553000	-9.47342500
171.89998997	0.00000000	-14.22859000	-9.47342500
172.09998996	0.00000000	-14.22859000	-9.47342500
172.29998995	0.00000000	-14.22859000	-9.47342500
172.49998994	0.00000000	-14.22859000	-9.47342500
172.69998992	0.00000000	-14.22859000	-9.47342500
172.89998991	0.00000000	-14.22859000	-9.47342500
173.09998990	0.00000000	-14.22859000	-9.47342500
173.29998989	0.00000000	-14.22859000	-9.47342500
173.49998988	0.00000000	-14.22859000	-9.47342500
173.69998986	0.00000000	-14.22859000	-9.47342500
173.89998985	0.00000000	-14.22859000	-9.47342500
174.09998984	0.00000000	-14.22859000	-9.47342500
174.29998983	0.00000000	-14.22859000	-9.47342500
174.49998982	0.00000000	-14.22859000	-9.47342500
174.69998980	0.00000000	-14.22859000	-9.47342500
174.89998979	0.00000000	-14.22859000	-9.47342500
175.09998978	0.00000000	-14.22859000	-9.47342500
175.29998977	0.00000000	-14.22859000	-9.47342500
175.49998976	0.00000000	-14.22859000	-9.47342500
175.69998975	0.00000000	-14.22859000	-9.47342500
175.89998973	0.00000000	-14.22859000	-9.47342500
176.09998972	0.00000000	-14.22859000	-9.47342500
176.29998971	0.00000000	-14.22859000	-9.47342500
176.49998970	0.00000000	-14.22859000	-9.47342500
176.69998969	0.00000000	-14.22859000	-9.47342500
176.89998967	0.00000000	-14.22859000	-9.47342500
177.09998966	0.00000000	-14.22859000	-9.47342500
177.29998965	0.00000000	-14.22859000	-9.47342500
177.49998964	0.00000000	-14.22859000	-9.47342500
177.69998963	0.00000000	-14.22859000	-9.47342500
177.89998961	0.00000000	-14.27165000	-9.47342500
178.09998960	0.00000000	-14.60384000	-9.47342500
178.29998959	0.00000000	-14.97293000	-9.47342500
178.49998958	0.00000000	-14.60384000	-9.47342500
178.69998957	0.00000000	-14.32087000	-9.47342500
178.89998956	0.00000000	-14.60384000	-9.47342500
179.09998954	0.00000000	-14.97293000	-9.47342500
179.29998953	0.00000000	-14.60384000	-9.47342500
179.49998952	0.00000000	-14.27165000	-9.47342500
179.69998951	0.00000000	-14.22859000	-9.47342500
179.89998950	0.00000000	-14.22859000	-9.47342500
180.09998948	0.00000000	-14.22859000	-9.47342500
180.29998947	0.00000000	-14.22859000	-9.47342500
180.49998946	0.00000000	-14.27165000	-9.47342500
180.69998945	0.00000000	-14.60384000	-9.47342500
180.89998944	0.00000000	-15.01599000	-9.47342500
181.09998942	0.00000000	-14.97908000	-9.47342500
181.29998941	0.00000000	-15.01599000	-9.47342500
181.49998940	0.00000000	-14.60384000	-9.47342500
181.69998939	0.00000000	-14.27165000	-9.47342500
181.89998938	0.00000000	-14.22859000	-9.47342500
182.09998937	0.00000000	-14.22859000	-9.47342500
182.29998935	0.00000000	-14.22859000	-9.47342500
182.49998934	0.00000000	-14.22859000	-9.47342500
182.69998933	0.00000000	-14.22859000	-9.47342500
182.89998932	0.00000000	-14.22859000	-9.47342500
183.09998931	0.00000000	-14.22859000	-9.47342500
183.29998929	0.00000000	-14.22859000	-9.47342500
183.49998928	0.00000000	-14.27165000	-9.47342500
183.69998927	0.00000000	-14.64690000	-9.47342500
183.89998926	0.00000000	-15.34203000	-9.47342500
184.09998925	0.00000000	-15.34203000	-9.47342500
184.29998923	0.00000000	-14.64690000	-9.43036400
184.49998922	0.00000000	-14.27165000	-9.09817800
184.69998921	0.00000000	-14.22859000	-8.72908400
184.89998920	0.00000000	-14.22859000	-9.09817800
185.09998919	0.00000000	-14.22859000	-9.43036400
185.29998918	0.00000000	-14.22859000	-9.47342500
185.49998916	0.00000000	-14.22859000	-9.47342500
185.69998915	0.00000000	-14.22859000	-9.47342500
185.89998914	0.00000000	-14.22859000	-9.51648500
186.09998913	0.00000000	-14.22859000	-9.84867000
186.29998912	0.00000000	-14.22859000	-10.21161000
186.49998910	0.00000000	-14.22859000	-9.84867000
186.69998909	0.00000000	-14.27165000	-9.51648500
186.89998908	0.00000000	-14.60384000	-9.47342500
187.09998907	0.00000000	-14.97293000	-9.47342500
187.29998906	0.00000000	-14.60384000	-9.43036400
187.49998904	0.00000000	-14.27165000	-9.09817800
187.69998903	0.00000000	-14.22859000	-8.72908400
187.89998902	0.00000000	-14.22859000	-9.09817800
188.09998901	0.00000000	-14.22859000	-9.43036400
188.29998900	0.00000000	-14.22859000	-9.47342500
188.49998899	0.00000000	-14.22859000	-9.47342500
188.69998897	0.00000000	-14.22859000	-9.51648500
188.89998896	0.00000000	-14.22859000	-9.89173200
189.09998895	0.00000000	-14.22859000	-10.58686000
189.29998894	0.00000000	-14.22859000	-10.58686000
189.49998893	0.00000000	-14.22859000	-9.89173200
189.69998891	0.00000000	-14.22859000	-9.51648500
189.89998890	0.00000000	-14.22859000	-9.47342500
190.09998889	0.00000000	-14.22859000	-9.47342500
190.29998888	0.00000000	-14.22859000	-9.47342500
190.49998887	0.00000000	-14.22859000	-9.47342500
190.69998885	0.00000000	-14.22859000	-9.47342500
190.89998884	0.00000000	-14.22859000	-9.47342500
191.09998883	0.00000000	-14.22859000	-9.47342500
191.29998882	0.00000000	-14.22859000	-9.47342500
191.49998881	0.00000000	-14.18553000	-9.47342500
191.69998880	0.00000000	-13.85334000	-9.47342500
191.89998878	0.00000000	-13.53346000	-9.47342500
192.09998877	0.00000000	-14.22859000	-9.51648500
192.29998876	0.00000000	-14.92372000	-9.84867000
192.49998875	0.00000000	-14.64690000	-10.21161000
192.69998874	0.00000000	-14.64690000	-9.84867000
192.89998872	0.00000000	-14.97293000	-9.51648500
193.09998871	0.00000000	-14.60384000	-9.51648500
193.29998870	0.00000000	-14.32087000	-9.84867000
193.49998869	0.00000000	-14.64690000	-10.16855000
193.69998868	0.00000000	-15.34203000	-9.47342500
193.89998866	0.00000000	-15.34203000	-8.77829600
194.09998865	0.00000000	-14.64690000	-9.09817800
194.29998864	0.00000000	-14.27165000	-9.43036400
194.49998863	0.00000000	-14.22859000	-9.47342500
194.69998862	0.00000000	-14.22859000	-9.47342500
194.89998861	0.00000000	-14.22859000	-9.47342500
195.09998859	0.00000000	-14.22859000	-9.47342500
195.29998858	0.00000000	-14.22859000	-9.47342500
195.49998857	0.00000000	-14.22859000	-9.47342500
195.69998856	0.00000000	-14.27165000	-9.47342500
195.89998855	0.00000000	-14.60384000	-9.47342500
196.09998853	0.00000000	-14.97293000	-9.47342500
