Time	Channel A	Channel B	Channel C
(us)	(V)	(mV)	(mV)

-4.49999956	0.00000000	-15.34203000	-9.47342500
-4.29999957	0.00000000	-15.34203000	-9.47342500
-4.09999958	0.00000000	-14.69611000	-9.47342500
-3.89999959	0.00000000	-14.69611000	-9.47342500
-3.69999960	0.00000000	-15.34203000	-9.47342500
-3.49999962	0.00000000	-15.39124000	-9.47342500
-3.29999963	0.00000000	-15.06521000	-9.47342500
-3.09999964	0.00000000	-15.43430000	-9.47342500
-2.89999965	0.00000000	-15.71727000	-9.47342500
-2.69999966	0.00000000	-15.39124000	-9.47342500
-2.49999968	0.00000000	-14.64690000	-9.47342500
-2.29999969	0.00000000	-14.32087000	-9.47342500
-2.09999970	0.00000000	-14.64690000	-9.47342500
-1.89999971	0.00000000	-15.34203000	-9.47342500
-1.69999972	0.00000000	-15.39124000	-9.47342500
-1.49999973	0.00000000	-15.06521000	-9.47342500
-1.29999975	0.00000000	-15.39124000	-9.47342500
-1.09999976	0.00000000	-15.39124000	-9.47342500
-0.89999977	0.00000000	-15.06521000	-9.47342500
-0.69999978	0.00000000	-15.43430000	-9.47342500
-0.49999979	0.00000000	-15.76649000	-9.47342500
-0.29999981	0.31803640	-15.80955000	-9.47342500
-0.09999982	0.63668800	-15.80955000	-9.47342500
0.10000017	0.95533960	-15.80955000	-9.47342500
0.30000016	1.11466500	-15.80955000	-9.47342500
0.50000015	0.79601380	-15.80955000	-9.47342500
0.70000013	0.31803640	-15.80955000	-9.47342500
0.90000012	-0.47736220	-15.76649000	-9.47342500
1.10000011	-1.43331700	-15.39124000	-9.47342500
1.30000010	-2.38927200	-14.64690000	-9.47342500
1.50000009	-2.70792300	-14.32087000	-9.47342500
1.70000008	-2.54859700	-14.60384000	-9.47342500
1.90000006	-1.43331700	-15.01599000	-9.47342500
2.10000005	0.47736220	-15.02214000	-9.47342500
2.30000004	2.54859700	-15.43430000	-9.47342500
2.50000003	4.30056600	-15.76649000	-9.47342500
2.70000002	5.41584600	-15.80955000	-9.47342500
2.90000000	4.93786900	-15.80955000	-9.47342500
3.09999999	3.02657500	-15.80955000	-9.51648500
3.29999998	0.15871060	-15.80955000	-9.84867000
3.49999997	-3.34522600	-15.80955000	-10.21161000
3.69999996	-6.21247500	-15.80955000	-9.84867000
3.89999994	-7.80511800	-15.76649000	-9.47342500
4.09999993	-7.48646600	-15.39124000	-9.09817800
4.29999992	-5.25652100	-14.64690000	-8.68602300
4.49999991	-1.43331700	-14.32087000	-8.72293300
4.69999990	3.02657500	-14.60384000	-8.68602300
4.89999989	6.84916400	-15.01599000	-9.09817800
5.09999987	9.23905000	-15.02214000	-9.43036400
5.29999986	9.07972400	-15.43430000	-9.51648500
5.49999985	6.84916400	-15.76649000	-9.84867000
5.69999984	2.70792300	-15.80955000	-10.21161000
5.89999983	-2.07062000	-15.80955000	-9.84867000
6.09999981	-6.37180100	-15.80955000	-9.51648500
6.29999980	-8.92039900	-15.76649000	-9.43036400
6.49999979	-9.39837600	-15.43430000	-9.09817800
6.69999978	-7.32714100	-15.02214000	-8.68602300
6.89999977	-3.66326300	-15.05905000	-8.72293300
7.09999975	0.79601380	-14.97908000	-8.68602300
7.29999974	4.61921700	-15.05905000	-9.09817800
7.49999973	7.16781500	-15.02214000	-9.43036400
7.69999972	7.64579200	-15.43430000	-9.47342500
7.89999971	6.37180100	-15.76649000	-9.47342500
8.09999970	3.66326300	-15.80955000	-9.47342500
8.29999968	0.31803640	-15.76649000	-9.47342500
8.49999967	-2.70792300	-15.43430000	-9.47342500
8.69999966	-4.61921700	-15.02214000	-9.47342500
8.89999965	-5.25652100	-15.01599000	-9.47342500
9.09999964	-4.45989200	-14.64690000	-9.47342500
9.29999962	-2.86724900	-14.64690000	-9.47342500
9.49999961	-0.79601380	-14.97293000	-9.43036400
9.69999960	0.95533960	-14.64690000	-9.09817800
9.89999959	2.22994600	-14.64690000	-8.72908400
10.09999958	2.54859700	-15.01599000	-9.09817800
10.29999956	2.22994600	-15.02214000	-9.43036400
10.49999955	1.43331700	-15.39124000	-9.47342500
10.69999954	0.63668800	-15.34203000	-9.47342500
10.89999953	-0.15871060	-14.69611000	-9.47342500
11.09999952	-0.79601380	-14.69611000	-9.47342500
11.29999951	-0.95533960	-15.39124000	-9.47342500
11.49999949	-0.95533960	-15.76649000	-9.47342500
11.69999948	-0.79601380	-15.80955000	-9.47342500
11.89999947	-0.47736220	-15.80955000	-9.47342500
12.09999946	-0.15871060	-15.76649000	-9.47342500
12.29999945	-0.15871060	-15.39124000	-9.47342500
12.49999943	-0.15871060	-14.69611000	-9.47342500
12.69999942	0.00000000	-14.69611000	-9.47342500
12.89999941	0.00000000	-15.39124000	-9.47342500
13.09999940	0.00000000	-15.71727000	-9.47342500
13.29999939	0.00000000	-15.43430000	-9.47342500
13.49999937	0.00000000	-15.02214000	-9.47342500
13.69999936	0.00000000	-15.05905000	-9.47342500
13.89999935	0.00000000	-15.02214000	-9.47342500
14.09999934	-0.15871060	-15.43430000	-9.47342500
14.29999933	-0.15871060	-15.76649000	-9.47342500
14.49999932	-0.15871060	-15.80955000	-9.47342500
14.69999930	0.00000000	-15.80955000	-9.47342500
14.89999929	0.00000000	-15.76649000	-9.47342500
15.09999928	0.00000000	-15.43430000	-9.47342500
15.29999927	0.00000000	-15.06521000	-9.47342500
15.49999926	0.00000000	-15.43430000	-9.47342500
15.69999924	0.00000000	-15.76649000	-9.47342500
15.89999923	0.00000000	-15.80955000	-9.47342500
16.09999922	0.00000000	-15.80955000	-9.47342500
16.29999921	0.00000000	-15.76649000	-9.47342500
16.49999920	-0.15871060	-15.43430000	-9.47342500
16.69999919	0.00000000	-15.02214000	-9.47342500
16.89999917	0.00000000	-15.01599000	-9.47342500
17.09999916	0.00000000	-14.56078000	-9.47342500
17.29999915	0.00000000	-13.85334000	-9.47342500
17.49999914	0.00000000	-13.11516000	-9.47342500
17.69999913	0.00000000	-13.11516000	-9.47342500
17.89999911	0.00000000	-13.85334000	-9.47342500
18.09999910	0.00000000	-14.64690000	-9.47342500
18.29999909	0.00000000	-15.85261000	-9.47342500
18.49999908	0.00000000	-17.39050000	-9.47342500
18.69999907	0.00000000	-18.92839000	-9.47342500
18.89999905	0.00000000	-20.04183000	-9.47342500
19.09999904	0.00000000	-20.04183000	-9.47342500
19.29999903	0.00000000	-18.83612000	-9.47342500
19.49999902	0.00000000	-16.46161000	-9.47342500
19.69999901	0.00000000	-12.60458000	-9.47342500
19.89999900	0.00000000	-8.41535400	-9.47342500
20.09999898	0.00000000	-5.29650500	-9.47342500
20.29999897	0.00000000	-3.80782500	-9.47342500
20.49999896	0.00000000	-4.64443900	-9.47342500
20.69999895	0.00000000	-8.55068800	-9.47342500
20.89999894	0.00000000	-14.73917000	-9.47342500
21.09999892	0.00000000	-22.13336000	-9.47342500
21.29999891	0.00000000	-29.44143000	-9.47342500
21.49999890	0.00000000	-34.79330000	-9.47342500
21.69999889	0.00000000	-36.23893000	-9.47342500
21.89999888	0.00000000	-32.74483000	-9.47342500
22.09999886	0.00000000	-24.52018000	-9.47342500
22.29999885	0.00000000	-12.92446000	-9.47342500
22.49999884	0.00000000	0.18454720	-9.47342500
22.69999883	0.00000000	10.89444000	-9.47342500
22.89999882	0.00000000	16.33243000	-9.47342500
23.09999881	0.00000000	15.08366000	-9.47342500
23.29999879	0.00000000	6.88976300	-9.43036400
23.49999878	0.00000000	-7.48031400	-9.05511800
23.69999877	0.00000000	-25.25221000	-8.26771600
23.89999876	0.00000000	-42.56274000	-7.56028500
24.09999875	0.00000000	-54.84129000	-7.19734200
24.29999873	0.00000000	-58.24926000	-7.98474400
24.49999872	0.00000000	-51.67938000	-9.47342500
24.69999871	0.00000000	-36.19587000	-11.04823000
24.89999870	0.00000000	-15.29897000	-12.58612000
25.09999869	0.00000000	6.74827700	-13.79183000
25.29999867	0.00000000	25.17839000	-14.53617000
25.49999866	0.00000000	34.76255000	-14.85605000
25.69999865	-0.15871060	32.43725000	-13.65650000
25.89999864	0.00000000	18.94070000	-10.96211000
26.09999863	0.00000000	-2.68823800	-7.47416300
26.29999862	0.00000000	-27.39296000	-3.57406500
26.49999860	0.00000000	-49.45251000	-0.13533460
26.69999859	0.00000000	-64.11170000	2.09153500
26.89999858	0.00000000	-67.92569000	1.63016700
27.09999857	0.00000000	-59.45497000	-2.17765700
27.29999856	0.00000000	-40.93873000	-8.02780400
27.49999854	0.00000000	-17.01525000	-15.04675000
27.69999853	0.00000000	6.93897600	-22.71161000
27.89999852	0.00000000	25.12918000	-28.38337000
28.09999851	0.00000000	34.06742000	-29.91511000
28.29999850	0.00000000	32.11122000	-26.84547000
28.49999848	0.00000000	19.45128000	-19.83883000
28.69999847	0.00000000	-0.22760820	-10.07628000
28.89999846	0.00000000	-21.91191000	1.48868100
29.09999845	0.00000000	-41.63386000	12.21703000
29.29999844	0.00000000	-54.75516000	18.73154000
29.49999843	0.00000000	-58.33538000	19.51279000
29.69999841	0.00000000	-52.61442000	13.98868000
29.89999840	0.00000000	-39.49311000	2.79281500
30.09999839	0.00000000	-22.13336000	-12.25394000
30.29999838	0.00000000	-4.69365100	-27.26993000
30.49999837	0.00000000	9.27042300	-38.92716000
30.69999835	0.00000000	17.45202000	-45.01722000
30.89999834	0.00000000	18.28863000	-43.84842000
31.09999833	0.00000000	12.51845000	-34.93479000
31.29999832	0.00000000	1.67938000	-20.66314000
31.49999831	0.00000000	-12.22933000	-3.62327700
31.69999829	0.00000000	-25.76895000	12.59227000
31.89999828	0.00000000	-36.23893000	24.53248000
32.09999827	0.00000000	-41.67692000	29.54601000
32.29999826	0.00000000	-40.93873000	26.07037000
32.49999825	0.00000000	-34.83636000	15.28666000
32.69999824	0.00000000	-25.15994000	-0.59670270
32.89999822	0.00000000	-14.36393000	-18.35015000
33.09999821	0.00000000	-4.64443900	-34.19045000
33.29999820	0.00000000	1.91929100	-44.64198000
33.49999819	0.00000000	4.28764700	-47.76082000
33.69999818	0.00000000	2.00541300	-43.11023000
33.89999816	0.00000000	-3.75861200	-31.53912000
34.09999815	0.00000000	-11.48499000	-15.69882000
34.29999814	0.00000000	-19.58046000	0.93503930
34.49999813	0.00000000	-25.76895000	15.19439000
34.69999812	0.00000000	-28.88164000	23.69586000
34.89999810	0.00000000	-28.50640000	24.48942000
35.09999809	0.00000000	-24.64936000	17.98105000
35.29999808	0.00000000	-18.55315000	5.62253900
35.49999807	0.00000000	-12.03863000	-9.38730200
35.69999806	0.00000000	-7.38804100	-23.68971000
35.89999805	0.00000000	-5.38877900	-34.09818000
36.09999803	0.00000000	-5.80708600	-38.37352000
36.29999802	0.00000000	-8.87672100	-35.67913000
36.49999801	0.00000000	-13.85334000	-26.89468000
36.69999800	0.00000000	-18.83612000	-14.58538000
36.89999799	0.00000000	-22.74237000	-2.26377900
37.09999797	0.00000000	-24.60630000	7.35113100
37.29999796	0.00000000	-23.85581000	11.62032000
37.49999795	0.00000000	-20.41708000	9.76254800
37.69999794	0.00000000	-15.80955000	3.25418300
37.89999793	0.00000000	-11.15896000	-6.40378900
38.09999791	0.00000000	-7.34498000	-16.67692000
38.29999790	0.00000000	-5.76402500	-24.29257000
38.49999789	0.00000000	-6.50221400	-26.24877000
38.69999788	0.00000000	-8.83366100	-22.48400000
38.89999787	0.00000000	-12.78297000	-14.85605000
39.09999786	0.00000000	-17.67347000	-5.61638700
39.29999784	0.00000000	-21.94267000	2.38065900
39.49999783	0.00000000	-23.91117000	7.01894700
39.69999782	0.00000000	-24.40945000	6.60679100
39.89999781	0.00000000	-23.53592000	1.63016700
40.09999780	0.00000000	-21.20448000	-6.82209600
40.29999778	0.00000000	-17.34744000	-16.39395000
40.49999777	0.00000000	-13.11516000	-24.06496000
40.69999776	0.00000000	-9.57800100	-27.92200000
40.89999775	0.00000000	-6.87746000	-26.71629000
41.09999774	0.00000000	-5.71481200	-20.62008000
41.29999772	0.00000000	-6.50221400	-11.42347000
41.49999771	0.00000000	-8.79060000	-2.17765700
41.69999770	0.00000000	-12.31545000	5.11811000
41.89999769	0.00000000	-16.18479000	8.59375000
42.09999768	0.00000000	-20.08489000	7.06815900
42.29999767	0.00000000	-23.11762000	1.72244100
42.49999765	0.00000000	-24.27411000	-6.36072800
42.69999764	0.00000000	-23.20374000	-14.81299000
42.89999763	0.00000000	-20.88459000	-21.37057000
43.09999762	0.00000000	-18.17790000	-24.85236000
43.29999761	0.00000000	-15.06521000	-24.10802000
43.49999759	0.00000000	-12.78297000	-19.93110000
43.69999758	0.00000000	-11.53420000	-13.79183000
43.89999757	0.00000000	-11.15896000	-7.24040300
44.09999756	0.00000000	-11.48499000	-2.22071800
44.29999755	0.00000000	-12.22933000	0.51673230
44.49999753	0.00000000	-12.60458000	0.55979330
44.69999752	0.00000000	-12.64764000	-1.71013800
44.89999751	0.00000000	-12.64764000	-5.15501900
45.09999750	0.00000000	-12.69070000	-9.05511800
45.29999749	0.00000000	-13.11516000	-12.53691000
45.49999748	0.00000000	-14.32087000	-15.23130000
45.69999746	0.00000000	-16.27707000	-16.39395000
45.89999745	0.00000000	-19.01451000	-15.64960000
46.09999744	0.00000000	-22.04109000	-13.74262000
46.29999743	0.00000000	-24.32333000	-11.04823000
46.49999742	0.00000000	-24.69857000	-8.35383800
46.69999740	0.00000000	-23.11762000	-6.40378900
46.89999739	0.00000000	-19.58046000	-5.19808000
47.09999738	0.00000000	-14.13632000	-4.87204700
47.29999737	0.00000000	-7.99704600	-5.61638700
47.49999736	0.00000000	-2.64517700	-7.56643700
47.69999734	0.00000000	0.00615157	-9.84867000
47.89999733	0.00000000	-1.15649600	-12.21087000
48.09999732	0.00000000	-5.80708600	-14.11786000
48.29999731	0.00000000	-13.15822000	-15.23130000
48.49999730	0.00000000	-21.62278000	-14.81299000
48.69999729	0.00000000	-28.93085000	-12.53691000
48.89999727	0.00000000	-33.21235000	-9.47342500
49.09999726	0.00000000	-33.58760000	-6.36072800
49.29999725	0.00000000	-30.04429000	-3.66633800
49.49999724	0.00000000	-22.69316000	-2.17150600
49.69999723	0.00000000	-13.11516000	-2.54675200
49.89999721	0.00000000	-4.22613100	-4.82283400
50.09999720	0.00000000	1.91929100	-7.93553100
50.29999719	0.00000000	3.82012800	-11.42347000
50.49999718	0.00000000	0.38139760	-14.90526000
50.69999717	0.00000000	-6.92052100	-17.18750000
50.89999715	0.00000000	-16.18479000	-17.97490000
51.09999714	0.00000000	-25.39370000	-16.76919000
51.29999713	0.00000000	-31.48991000	-13.69956000
51.49999712	0.00000000	-32.74483000	-9.47342500
51.69999711	0.00000000	-29.30610000	-5.24729300
51.89999710	0.00000000	-22.78543000	-2.12844500
52.09999708	0.00000000	-14.69611000	-0.59670270
52.29999707	0.00000000	-7.38804100	-0.97194880
52.49999706	0.00000000	-2.73745100	-3.33415300
52.69999705	0.00000000	-1.57480300	-7.14812900
52.89999704	0.00000000	-4.26919300	-11.74336000
53.09999702	0.00000000	-10.03937000	-15.18824000
53.29999701	0.00000000	-17.29823000	-16.76919000
53.49999700	0.00000000	-23.81275000	-16.43701000
53.69999699	0.00000000	-27.30069000	-14.53617000
53.89999698	0.00000000	-27.34990000	-12.21087000
54.09999696	0.00000000	-24.23105000	-9.47342500
54.29999695	0.00000000	-18.50394000	-6.82209600
54.49999694	0.00000000	-11.99557000	-5.33341500
54.69999693	0.00000000	-6.96973400	-5.66560000
54.89999692	0.00000000	-4.26919300	-7.51722400
55.09999691	0.00000000	-4.69365100	-9.42421200
55.29999689	0.00000000	-8.50147600	-11.00517000
55.49999688	0.00000000	-14.18553000	-12.11860000
55.69999687	0.00000000	-19.62352000	-12.07554000
55.89999686	0.00000000	-23.48671000	-10.58686000
56.09999685	0.00000000	-25.43676000	-8.31077700
56.29999683	0.00000000	-24.60630000	-6.44685000
56.49999682	0.00000000	-21.20448000	-5.66560000
56.69999681	0.00000000	-16.22785000	-6.48991100
56.89999680	0.00000000	-11.62032000	-8.77214500
57.09999679	0.00000000	-8.45841400	-12.21087000
57.29999677	0.00000000	-6.92052100	-15.23130000
57.49999676	0.00000000	-7.34498000	-16.81225000
57.69999675	0.00000000	-10.03937000	-16.76919000
57.89999674	0.00000000	-14.18553000	-14.81299000
58.09999673	0.00000000	-18.04257000	-10.91289000
58.29999672	0.00000000	-20.37401000	-5.98548200
58.49999670	0.00000000	-21.24754000	-1.34719500
58.69999669	0.00000000	-20.83538000	1.31028500
58.89999668	0.00000000	-19.66658000	1.67322800
59.09999667	0.00000000	-17.34744000	-1.06422200
59.29999666	0.00000000	-14.73917000	-6.44685000
59.49999664	0.00000000	-13.15822000	-12.96137000
59.69999663	0.00000000	-12.73991000	-19.13140000
59.89999662	0.00000000	-13.06594000	-22.95152000
60.09999661	0.00000000	-13.85334000	-23.68971000
60.29999660	0.00000000	-14.64690000	-20.57702000
60.49999658	0.00000000	-15.76649000	-14.07480000
60.69999657	0.00000000	-16.50467000	-6.40378900
60.89999656	0.00000000	-16.18479000	0.55979330
61.09999655	0.00000000	-15.80955000	5.16117100
61.29999654	0.00000000	-15.39124000	6.32381900
61.49999653	0.00000000	-14.64690000	3.62942900
61.69999651	0.00000000	-14.27165000	-2.17765700
61.89999650	0.00000000	-14.27165000	-9.89173200
62.09999649	0.00000000	-14.64690000	-17.93184000
62.29999648	0.00000000	-15.43430000	-23.73892000
62.49999647	0.00000000	-16.22785000	-26.06422000
62.69999645	0.00000000	-17.34744000	-24.89542000
62.89999644	0.00000000	-18.04257000	-19.88189000
63.09999643	0.00000000	-17.34744000	-12.58612000
63.29999642	0.00000000	-16.18479000	-4.87204700
63.49999641	0.00000000	-15.01599000	1.67322800
63.69999639	0.00000000	-13.48425000	5.16117100
63.89999638	0.00000000	-12.73991000	5.20423200
64.09999637	0.00000000	-12.69070000	2.14074800
64.29999636	0.00000000	-13.11516000	-3.29109200
64.49999635	0.00000000	-14.27165000	-9.84867000
64.69999634	0.00000000	-15.76649000	-16.39395000
64.89999632	0.00000000	-16.97219000	-21.03838000
65.09999631	0.00000000	-17.72268000	-23.03765000
65.29999630	0.00000000	-18.08563000	-22.61934000
65.49999629	0.00000000	-17.29823000	-19.55585000
65.69999628	0.00000000	-15.85261000	-14.58538000
65.89999626	0.00000000	-14.69611000	-9.56569900
66.09999625	0.00000000	-14.32087000	-5.24729300
66.29999624	0.00000000	-14.64690000	-2.12844500
66.49999623	0.00000000	-15.43430000	-0.55364170
66.69999622	0.00000000	-16.22785000	-0.55364170
66.89999620	0.00000000	-17.39050000	-2.08538400
67.09999619	0.00000000	-18.46087000	-4.77977300
67.29999618	0.00000000	-18.41781000	-7.89247000
67.49999617	0.00000000	-16.92298000	-11.04823000
67.69999616	0.00000000	-14.64690000	-14.16092000
67.89999615	0.00000000	-12.69070000	-16.90453000
68.09999613	0.00000000	-11.10974000	-18.81152000
68.29999612	0.00000000	-10.03937000	-19.59892000
68.49999611	0.00000000	-10.45768000	-18.81152000
68.69999610	0.00000000	-12.78297000	-16.85531000
68.89999609	0.00000000	-16.22785000	-13.69956000
69.09999607	0.00000000	-20.08489000	-9.47342500
69.29999606	0.00000000	-23.16068000	-5.19808000
69.49999605	0.00000000	-24.69857000	-1.71013800
69.69999604	0.00000000	-24.32333000	0.55979330
69.89999603	0.00000000	-21.99803000	0.55979330
70.09999601	0.00000000	-18.46087000	-1.75935000
70.29999600	0.00000000	-13.81028000	-5.61638700
70.49999599	0.00000000	-8.83366100	-10.67298000
70.69999598	0.00000000	-5.38877900	-15.64960000
70.89999597	0.00000000	-4.22613100	-19.50664000
71.09999596	0.00000000	-5.76402500	-21.04454000
71.29999594	0.00000000	-9.66412400	-19.97416000
71.49999593	0.00000000	-15.06521000	-17.23056000
71.69999592	0.00000000	-21.20448000	-13.32431000
71.89999591	0.00000000	-25.81201000	-8.35998900
72.09999590	0.00000000	-27.86048000	-4.12770700
72.29999588	0.00000000	-27.81127000	-1.75319900
72.49999587	0.00000000	-25.43676000	-1.01501000
72.69999586	0.00000000	-20.41708000	-2.54675200
72.89999585	0.00000000	-14.32087000	-5.93626900
73.09999584	0.00000000	-8.87672100	-9.38115100
73.29999582	0.00000000	-5.43184000	-12.11860000
73.49999581	0.00000000	-4.60137700	-13.69956000
73.69999580	0.00000000	-6.50221400	-14.11786000
73.89999579	0.00000000	-9.95324800	-13.74262000
74.09999578	0.00000000	-14.27165000	-12.58612000
74.29999577	0.00000000	-18.87918000	-11.09744000
74.49999575	0.00000000	-22.74237000	-9.98400600
74.69999574	0.00000000	-24.64936000	-9.93479300
74.89999573	0.00000000	-24.32333000	-10.67298000
75.09999572	0.00000000	-22.04109000	-11.42347000
75.29999571	0.00000000	-18.97145000	-12.16166000
75.49999569	0.00000000	-15.85261000	-12.11860000
75.69999568	0.00000000	-13.11516000	-10.96211000
75.89999567	0.00000000	-11.20202000	-9.05511800
76.09999566	0.00000000	-10.41462000	-6.72982200
76.29999565	0.00000000	-11.15896000	-4.82283400
76.49999563	0.00000000	-12.64764000	-3.70939900
76.69999562	0.00000000	-14.22859000	-4.17076700
76.89999561	0.00000000	-15.76649000	-6.82209600
77.09999560	0.00000000	-16.92298000	-10.67298000
77.29999559	0.00000000	-17.29823000	-14.53617000
77.49999558	0.00000000	-16.97219000	-18.01796000
77.69999556	0.00000000	-16.27707000	-19.88189000
77.89999555	0.00000000	-16.27707000	-19.55585000
78.09999554	0.00000000	-17.01525000	-17.18750000
78.29999553	0.00000000	-17.76575000	-13.32431000
78.49999552	0.00000000	-18.50394000	-8.31077700
78.69999550	0.00000000	-18.50394000	-3.70939900
78.89999549	0.00000000	-17.76575000	-0.59670270
79.09999548	0.00000000	-16.92298000	0.51673230
79.29999547	0.00000000	-15.34203000	-1.02116100
79.49999546	0.00000000	-13.11516000	-4.82898600
79.69999544	0.00000000	-11.57726000	-9.47342500
79.89999543	0.00000000	-11.20202000	-14.16708000
80.09999542	0.00000000	-11.99557000	-18.35015000
80.29999541	0.00000000	-14.27165000	-20.66929000
80.49999540	0.00000000	-16.97219000	-20.34941000
80.69999539	0.00000000	-19.30364000	-18.47933000
80.89999537	0.00000000	-21.24754000	-15.69882000
81.09999536	0.00000000	-21.99803000	-12.21087000
81.29999535	0.00000000	-21.62278000	-8.35998900
81.49999534	0.00000000	-20.04183000	-5.29035400
81.69999533	0.00000000	-17.34744000	-3.66633800
81.89999531	0.00000000	-14.32087000	-3.24803100
82.09999530	0.00000000	-11.99557000	-3.66633800
82.29999529	0.00000000	-11.20202000	-5.24729300
82.49999528	0.00000000	-11.57726000	-7.93553100
82.69999527	0.00000000	-13.11516000	-11.04823000
82.89999525	0.00000000	-15.39124000	-14.11786000
83.09999524	0.00000000	-17.34744000	-16.48622000
83.29999523	0.00000000	-18.92839000	-17.69808000
83.49999522	0.00000000	-20.04183000	-18.47933000
83.69999521	0.00000000	-20.04183000	-18.39321000
83.89999520	0.00000000	-18.92839000	-16.85531000
84.09999518	0.00000000	-17.43356000	-14.11786000
84.29999517	0.00000000	-16.27707000	-10.62992000
84.49999516	0.00000000	-15.85261000	-6.77903500
84.69999515	0.00000000	-15.80955000	-3.70939900
84.89999514	0.00000000	-15.80955000	-2.12844500
85.09999512	0.00000000	-15.80955000	-2.17150600
85.29999511	0.00000000	-15.80955000	-4.12770700
85.49999510	0.00000000	-15.80955000	-7.93553100
85.69999509	0.00000000	-15.76649000	-12.16166000
85.89999508	0.00000000	-15.43430000	-15.74188000
86.09999506	0.00000000	-15.06521000	-18.81152000
86.29999505	0.00000000	-15.47736000	-20.66929000
86.49999504	0.00000000	-16.22785000	-19.88189000
86.69999503	0.00000000	-17.43356000	-16.85531000
86.89999502	0.00000000	-18.92839000	-12.58612000
87.09999501	0.00000000	-20.04183000	-7.93553100
87.29999499	0.00000000	-20.04183000	-3.70939900
87.49999498	0.00000000	-18.92839000	-1.06422200
87.69999497	0.00000000	-17.43356000	-1.06422200
87.89999496	0.00000000	-16.22785000	-3.75246000
88.09999495	0.00000000	-15.43430000	-8.35998900
88.29999493	0.00000000	-14.64690000	-13.69956000
88.49999492	0.00000000	-14.27165000	-17.93184000
88.69999491	0.00000000	-14.27165000	-19.88189000
88.89999490	0.00000000	-14.69611000	-19.50664000
89.09999489	0.00000000	-15.85261000	-16.81225000
89.29999487	0.00000000	-17.34744000	-12.58612000
89.49999486	0.00000000	-18.50394000	-7.93553100
89.69999485	0.00000000	-18.87918000	-3.70939900
89.89999484	0.00000000	-18.55315000	-1.06422200
90.09999483	0.00000000	-17.76575000	-1.06422200
90.29999482	0.00000000	-17.01525000	-3.75246000
90.49999480	0.00000000	-16.22785000	-8.31077700
90.69999479	0.00000000	-15.85261000	-13.37352000
90.89999478	0.00000000	-15.80955000	-17.56274000
91.09999477	0.00000000	-15.80955000	-20.24483000
91.29999476	0.00000000	-15.80955000	-19.83883000
91.49999474	0.00000000	-15.80955000	-16.81225000
91.69999473	0.00000000	-15.80955000	-12.16166000
91.89999472	0.00000000	-15.80955000	-6.82209600
92.09999471	0.00000000	-15.80955000	-2.59596400
92.29999470	0.00000000	-15.80955000	-0.63976370
92.49999468	0.00000000	-15.85261000	-1.06422200
92.69999467	0.00000000	-16.27707000	-4.12770700
92.89999466	0.00000000	-17.43356000	-9.09817800
93.09999465	0.00000000	-18.92839000	-14.07480000
93.29999464	0.00000000	-20.08489000	-17.93184000
93.49999463	0.00000000	-20.46014000	-19.50664000
93.69999461	0.00000000	-20.08489000	-18.71924000
93.89999460	0.00000000	-18.92839000	-16.01870000
94.09999459	0.00000000	-17.34744000	-11.42347000
94.29999458	0.00000000	-15.39124000	-6.90821800
94.49999457	0.00000000	-13.11516000	-4.17076700
94.69999455	0.00000000	-11.57726000	-3.75246000
94.89999454	0.00000000	-11.20202000	-5.29035400
95.09999453	0.00000000	-11.99557000	-8.35998900
95.29999452	0.00000000	-14.32087000	-12.21087000
95.49999451	0.00000000	-17.39050000	-15.64960000
95.69999449	0.00000000	-20.50935000	-17.97490000
95.89999448	0.00000000	-23.20374000	-18.39321000
96.09999447	0.00000000	-24.74163000	-17.23056000
96.29999446	0.00000000	-24.69857000	-14.90526000
96.49999445	0.00000000	-22.78543000	-11.42347000
96.69999444	0.00000000	-19.30364000	-8.07086500
96.89999442	0.00000000	-15.47736000	-6.12696800
97.09999441	0.00000000	-11.95251000	-6.44685000
97.29999440	0.00000000	-9.62106200	-7.93553100
97.49999439	0.00000000	-8.45841400	-9.89173200
97.69999438	0.00000000	-8.92593500	-12.16781000
97.89999436	0.00000000	-11.62032000	-13.74262000
98.09999435	0.00000000	-15.80955000	-14.53617000
98.29999434	0.00000000	-20.08489000	-14.94833000
98.49999433	0.00000000	-23.57899000	-14.49311000
98.69999432	0.00000000	-25.90428000	-13.41658000
98.89999430	0.00000000	-26.27953000	-11.88484000
99.09999429	0.00000000	-24.74163000	-11.09129000
99.29999428	0.00000000	-21.66585000	-10.62992000
99.49999427	0.00000000	-17.80881000	-9.89173200
99.69999426	0.00000000	-14.32087000	-9.51648500
99.89999425	0.00000000	-11.57726000	-9.47342500
100.09999423	0.00000000	-10.03937000	-9.43036400
100.29999422	0.00000000	-10.03937000	-9.09817800
100.49999421	0.00000000	-11.57726000	-8.72908400
100.69999420	0.00000000	-14.27165000	-9.14124000
100.89999419	0.00000000	-17.34744000	-9.89173200
101.09999417	0.00000000	-20.08489000	-11.09744000
101.29999416	0.00000000	-22.04109000	-12.62918000
101.49999415	0.00000000	-23.20374000	-14.16092000
101.69999414	0.00000000	-23.16068000	-15.27436000
101.89999413	0.00000000	-21.66585000	-15.27436000
102.09999411	0.00000000	-19.38976000	-14.11786000
102.29999410	0.00000000	-17.39050000	-12.16781000
102.49999409	0.00000000	-15.43430000	-9.47342500
102.69999408	0.00000000	-13.53346000	-6.77903500
102.89999407	0.00000000	-12.73991000	-4.87204700
103.09999406	0.00000000	-12.73991000	-4.12770700
103.29999404	0.00000000	-13.53346000	-5.29035400
103.49999403	0.00000000	-15.43430000	-7.93553100
103.69999402	0.00000000	-17.34744000	-11.04823000
103.89999401	0.00000000	-18.97145000	-14.11786000
104.09999400	0.00000000	-20.50935000	-16.43701000
104.29999398	0.00000000	-21.62278000	-17.23056000
104.49999397	0.00000000	-21.62278000	-16.81225000
104.69999396	0.00000000	-20.50935000	-14.85605000
104.89999395	0.00000000	-18.97145000	-11.46653000
105.09999394	0.00000000	-17.39050000	-8.40305000
105.29999392	0.00000000	-15.85261000	-6.44685000
105.49999391	0.00000000	-14.69611000	-5.66560000
105.69999390	0.00000000	-14.32087000	-6.40378900
105.89999389	0.00000000	-14.69611000	-7.93553100
106.09999388	0.00000000	-15.85261000	-9.89173200
106.29999387	0.00000000	-17.39050000	-12.21087000
106.49999385	0.00000000	-18.87918000	-14.11786000
106.69999384	0.00000000	-19.66658000	-15.27436000
106.89999383	0.00000000	-19.30364000	-15.23130000
107.09999382	0.00000000	-18.55315000	-13.74262000
107.29999381	0.00000000	-17.39050000	-11.46653000
107.49999379	0.00000000	-16.27707000	-9.55954600
107.69999378	0.00000000	-15.85261000	-8.35998900
107.89999377	0.00000000	-15.85261000	-7.98474400
108.09999376	0.00000000	-16.27707000	-8.40305000
108.29999375	0.00000000	-17.39050000	-9.93479300
108.49999374	0.00000000	-18.55315000	-12.21087000
108.69999372	0.00000000	-19.34670000	-14.11786000
108.89999371	0.00000000	-20.08489000	-15.27436000
109.09999370	0.00000000	-20.08489000	-15.27436000
109.29999369	0.00000000	-19.34670000	-14.16092000
109.49999368	0.00000000	-18.55315000	-12.62918000
109.69999366	0.00000000	-17.39050000	-11.04823000
109.89999365	0.00000000	-16.27707000	-9.51648500
110.09999364	0.00000000	-15.85261000	-8.40305000
110.29999363	0.00000000	-15.85261000	-8.40305000
110.49999362	0.00000000	-16.27707000	-9.51648500
110.69999360	0.00000000	-17.39050000	-11.04823000
110.89999359	0.00000000	-18.55315000	-12.58612000
111.09999358	0.00000000	-19.34670000	-13.79183000
111.29999357	0.00000000	-20.08489000	-14.53617000
111.49999356	0.00000000	-20.08489000	-14.94833000
111.69999355	0.00000000	-19.38976000	-14.53617000
111.89999353	0.00000000	-18.97145000	-13.79183000
112.09999352	0.00000000	-18.55315000	-12.58612000
112.29999351	0.00000000	-17.80881000	-11.14050000
112.49999350	0.00000000	-17.43356000	-10.31004000
112.69999349	0.00000000	-17.39050000	-10.25467000
112.89999347	0.00000000	-17.43356000	-9.89173200
113.09999346	0.00000000	-17.76575000	-9.93479300
113.29999345	0.00000000	-18.17790000	-10.62992000
113.49999344	0.00000000	-18.18405000	-11.04823000
113.69999343	0.00000000	-18.55315000	-11.46653000
113.89999341	0.00000000	-18.55315000	-12.21087000
114.09999340	0.00000000	-18.22711000	-12.58612000
114.29999339	0.00000000	-18.59621000	-12.67224000
114.49999338	0.00000000	-18.92839000	-13.00443000
114.69999337	0.00000000	-18.97145000	-13.37352000
114.89999336	0.00000000	-18.92839000	-13.00443000
115.09999334	0.00000000	-18.55315000	-12.67224000
115.29999333	0.00000000	-17.80881000	-12.62918000
115.49999332	0.00000000	-17.43356000	-12.58612000
115.69999331	0.00000000	-17.39050000	-12.16166000
115.89999330	0.00000000	-17.39050000	-11.04823000
116.09999328	0.00000000	-17.39050000	-9.93479300
116.29999327	0.00000000	-17.43356000	-9.51648500
116.49999326	0.00000000	-17.80881000	-9.47342500
116.69999325	0.00000000	-18.55315000	-9.51648500
116.89999324	0.00000000	-18.92839000	-9.89173200
117.09999322	0.00000000	-18.92839000	-10.67298000
117.29999321	0.00000000	-18.55315000	-11.42347000
117.49999320	0.00000000	-17.76575000	-12.25394000
117.69999319	0.00000000	-17.01525000	-13.00443000
117.89999318	0.00000000	-16.22785000	-13.79183000
118.09999317	0.00000000	-15.90182000	-14.11786000
118.29999315	0.00000000	-16.22785000	-13.74262000
118.49999314	0.00000000	-17.01525000	-12.62918000
118.69999313	0.00000000	-17.80881000	-11.46653000
118.89999312	0.00000000	-18.97145000	-10.62992000
119.09999311	0.00000000	-20.08489000	-9.51648500
119.29999309	0.00000000	-20.50935000	-8.77829600
119.49999308	0.00000000	-20.50935000	-9.09817800
119.69999307	0.00000000	-20.08489000	-9.47342500
119.89999306	0.00000000	-18.92839000	-9.89173200
120.09999305	0.00000000	-17.43356000	-10.67298000
120.29999303	0.00000000	-16.22785000	-11.42347000
120.49999302	0.00000000	-15.43430000	-12.21087000
120.69999301	0.00000000	-14.69611000	-12.58612000
120.89999300	0.00000000	-14.73917000	-12.62918000
121.09999299	0.00000000	-15.85261000	-12.62918000
121.29999298	0.00000000	-17.34744000	-12.62918000
121.49999296	0.00000000	-18.55315000	-12.58612000
121.69999295	0.00000000	-19.34670000	-12.21087000
121.89999294	0.00000000	-20.13410000	-11.46653000
122.09999293	0.00000000	-20.50935000	-11.09129000
122.29999292	0.00000000	-20.50935000	-11.04823000
122.49999290	0.00000000	-20.08489000	-11.04823000
122.69999289	0.00000000	-18.97145000	-11.04823000
122.89999288	0.00000000	-17.80881000	-11.04823000
123.09999287	0.00000000	-17.01525000	-11.04823000
123.29999286	0.00000000	-16.22785000	-11.04823000
123.49999284	0.00000000	-15.85261000	-11.09129000
123.69999283	0.00000000	-15.85261000	-11.46653000
123.89999282	0.00000000	-16.22785000	-12.21087000
124.09999281	0.00000000	-17.01525000	-12.58612000
124.29999280	0.00000000	-17.76575000	-12.62918000
124.49999279	0.00000000	-18.59621000	-12.62918000
124.69999277	0.00000000	-19.34670000	-12.62918000
124.89999276	0.00000000	-20.13410000	-12.62918000
125.09999275	0.00000000	-20.50935000	-12.62918000
125.29999274	0.00000000	-20.55241000	-12.58612000
125.49999273	0.00000000	-20.50935000	-12.21087000
125.69999271	0.00000000	-20.08489000	-11.46653000
125.89999270	0.00000000	-18.92839000	-11.09129000
126.09999269	0.00000000	-17.43356000	-11.04823000
126.29999268	0.00000000	-16.27707000	-11.09129000
126.49999267	0.00000000	-15.85261000	-11.46653000
126.69999265	0.00000000	-15.85261000	-12.21087000
126.89999264	0.00000000	-16.27707000	-12.62918000
127.09999263	0.00000000	-17.43356000	-13.00443000
127.29999262	0.00000000	-18.92839000	-13.37352000
127.49999261	0.00000000	-20.08489000	-13.00443000
127.69999260	0.00000000	-20.50935000	-12.67224000
127.89999258	0.00000000	-20.55241000	-12.62918000
128.09999257	0.00000000	-20.55241000	-12.62918000
128.29999256	0.00000000	-20.46014000	-12.58612000
128.49999255	0.00000000	-19.71580000	-12.21087000
128.69999254	0.00000000	-18.18405000	-11.46653000
128.89999252	0.00000000	-17.10753000	-11.14050000
129.09999251	0.00000000	-16.64616000	-11.46653000
129.29999250	0.00000000	-17.01525000	-12.21087000
129.49999249	0.00000000	-17.39050000	-12.58612000
129.69999248	0.00000000	-17.85802000	-12.62918000
129.89999246	0.00000000	-18.97145000	-12.62918000
130.09999245	0.00000000	-20.08489000	-12.62918000
130.29999244	0.00000000	-20.50935000	-12.62918000
130.49999243	0.00000000	-20.50935000	-12.58612000
130.69999242	0.00000000	-20.13410000	-12.21087000
130.89999241	0.00000000	-19.34670000	-11.46653000
131.09999239	0.00000000	-18.55315000	-11.09129000
131.29999238	0.00000000	-17.43356000	-11.09129000
131.49999237	0.00000000	-16.69537000	-11.46653000
131.69999236	0.00000000	-17.05832000	-12.21087000
131.89999235	0.00000000	-17.76575000	-12.58612000
132.09999233	0.00000000	-18.55315000	-12.67224000
132.29999232	0.00000000	-18.92839000	-13.00443000
132.49999231	0.00000000	-19.01451000	-13.37352000
132.69999230	0.00000000	-19.34670000	-12.96137000
132.89999229	0.00000000	-19.71580000	-12.25394000
133.09999227	0.00000000	-19.34670000	-11.46653000
133.29999226	0.00000000	-19.01451000	-11.09129000
133.49999225	0.00000000	-18.97145000	-11.04823000
133.69999224	0.00000000	-18.97145000	-11.04823000
133.89999223	0.00000000	-18.97145000	-11.04823000
134.09999222	0.00000000	-18.97145000	-11.09129000
134.29999220	0.00000000	-18.97145000	-11.46653000
134.49999219	0.00000000	-18.92839000	-12.25394000
134.69999218	0.00000000	-18.55315000	-13.00443000
134.89999217	0.00000000	-17.85802000	-13.79183000
135.09999216	0.00000000	-17.85802000	-14.16708000
135.29999214	0.00000000	-18.50394000	-14.16708000
135.49999213	0.00000000	-18.55315000	-13.74262000
135.69999212	0.00000000	-18.22711000	-12.62918000
135.89999211	0.00000000	-18.59621000	-11.51575000
136.09999210	0.00000000	-18.97145000	-11.04823000
136.29999208	0.00000000	-19.38976000	-10.67298000
136.49999207	0.00000000	-20.13410000	-10.31004000
136.69999206	0.00000000	-20.46014000	-10.67298000
136.89999205	0.00000000	-20.13410000	-11.00517000
137.09999204	0.00000000	-19.38976000	-11.09129000
137.29999203	0.00000000	-18.97145000	-11.46653000
137.49999201	0.00000000	-18.55315000	-12.25394000
137.69999200	0.00000000	-17.80881000	-13.00443000
137.89999199	0.00000000	-17.43356000	-13.74262000
138.09999198	0.00000000	-17.43356000	-13.74262000
138.29999197	0.00000000	-17.80881000	-13.04749000
138.49999195	0.00000000	-18.59621000	-12.67224000
138.69999194	0.00000000	-19.34670000	-12.58612000
138.89999193	0.00000000	-20.13410000	-12.21087000
139.09999192	0.00000000	-20.46014000	-11.46653000
139.29999191	0.00000000	-20.13410000	-11.09129000
139.49999189	0.00000000	-19.38976000	-11.04823000
139.69999188	0.00000000	-19.01451000	-11.04823000
139.89999187	0.00000000	-18.92839000	-11.09129000
140.09999186	0.00000000	-18.55315000	-11.46653000
140.29999185	0.00000000	-17.85802000	-12.25394000
140.49999184	0.00000000	-17.85802000	-13.00443000
140.69999182	0.00000000	-18.55315000	-13.79183000
140.89999181	0.00000000	-18.97145000	-14.16708000
141.09999180	0.00000000	-19.38976000	-14.16708000
141.29999179	0.00000000	-20.08489000	-13.79183000
141.49999178	0.00000000	-20.13410000	-13.04749000
141.69999176	0.00000000	-19.76501000	-12.62918000
141.89999175	0.00000000	-19.75886000	-12.16166000
142.09999174	0.00000000	-19.34670000	-11.09744000
142.29999173	0.00000000	-19.01451000	-10.35310000
142.49999172	0.00000000	-18.97145000	-10.72219000
142.69999170	0.00000000	-18.97145000	-11.42347000
142.89999169	0.00000000	-19.01451000	-12.25394000
143.09999168	0.00000000	-19.34670000	-13.00443000
143.29999167	0.00000000	-19.75886000	-13.79183000
143.49999166	0.00000000	-19.76501000	-14.16708000
143.69999165	0.00000000	-20.17716000	-14.21014000
143.89999163	0.00000000	-20.46014000	-14.21014000
144.09999162	0.00000000	-20.13410000	-14.16708000
144.29999161	0.00000000	-19.38976000	-13.74262000
144.49999160	0.00000000	-19.01451000	-12.62918000
144.69999159	0.00000000	-18.97145000	-11.51575000
144.89999157	0.00000000	-18.97145000	-11.09129000
145.09999156	0.00000000	-18.97145000	-11.04823000
145.29999155	0.00000000	-19.01451000	-11.09129000
145.49999154	0.00000000	-19.38976000	-11.46653000
145.69999153	0.00000000	-20.13410000	-12.21087000
145.89999151	0.00000000	-20.50935000	-12.62918000
146.09999150	0.00000000	-20.55241000	-13.04749000
146.29999149	0.00000000	-20.50935000	-13.74262000
146.49999148	0.00000000	-20.13410000	-13.74262000
146.69999147	0.00000000	-19.38976000	-13.04749000
146.89999146	0.00000000	-19.01451000	-12.67224000
147.09999144	0.00000000	-18.97145000	-12.58612000
147.29999143	0.00000000	-18.97145000	-12.21087000
147.49999142	0.00000000	-18.97145000	-11.46653000
147.69999141	0.00000000	-19.01451000	-11.09129000
147.89999140	0.00000000	-19.38976000	-11.04823000
148.09999138	0.00000000	-20.13410000	-11.04823000
148.29999137	0.00000000	-20.50935000	-11.09129000
148.49999136	0.00000000	-20.50935000	-11.46653000
148.69999135	0.00000000	-20.17716000	-12.21087000
148.89999134	0.00000000	-19.76501000	-12.58612000
149.09999132	0.00000000	-19.75886000	-12.62918000
149.29999131	0.00000000	-19.34670000	-12.62918000
149.49999130	0.00000000	-19.01451000	-12.62918000
149.69999129	0.00000000	-18.97145000	-12.62918000
149.89999128	0.00000000	-18.97145000	-12.58612000
150.09999127	0.00000000	-18.97145000	-12.21087000
150.29999125	0.00000000	-18.97145000	-11.46653000
150.49999124	0.00000000	-18.97145000	-11.09129000
150.69999123	0.00000000	-19.01451000	-11.04823000
150.89999122	0.00000000	-19.38976000	-11.04823000
151.09999121	0.00000000	-20.13410000	-11.09129000
151.29999119	0.00000000	-20.50935000	-11.46653000
151.49999118	0.00000000	-20.55241000	-12.21087000
151.69999117	0.00000000	-20.55241000	-12.58612000
151.89999116	0.00000000	-20.50935000	-12.62918000
152.09999115	0.00000000	-20.13410000	-12.62918000
152.29999113	0.00000000	-19.38976000	-12.62918000
152.49999112	0.00000000	-19.01451000	-12.62918000
152.69999111	0.00000000	-18.97145000	-12.62918000
152.89999110	0.00000000	-18.97145000	-12.62918000
153.09999109	0.00000000	-18.97145000	-12.62918000
153.29999108	0.00000000	-19.01451000	-12.62918000
153.49999106	0.00000000	-19.38976000	-12.62918000
153.69999105	0.00000000	-20.13410000	-12.62918000
153.89999104	0.00000000	-20.50935000	-12.62918000
154.09999103	0.00000000	-20.55241000	-12.62918000
154.29999102	0.00000000	-20.55241000	-12.62918000
154.49999100	0.00000000	-20.55241000	-12.62918000
154.69999099	0.00000000	-20.50935000	-12.62918000
154.89999098	0.00000000	-20.13410000	-12.62918000
155.09999097	0.00000000	-19.38976000	-12.62918000
155.29999096	0.00000000	-19.01451000	-12.62918000
155.49999094	0.00000000	-18.97145000	-12.62918000
155.69999093	0.00000000	-18.97145000	-12.62918000
155.89999092	0.00000000	-18.97145000	-12.62918000
156.09999091	0.00000000	-19.01451000	-12.62918000
156.29999090	0.00000000	-19.38976000	-12.62918000
156.49999089	0.00000000	-20.13410000	-12.62918000
156.69999087	0.00000000	-20.55241000	-12.62918000
156.89999086	0.00000000	-20.92766000	-12.62918000
157.09999085	0.00000000	-21.29675000	-12.62918000
157.29999084	0.00000000	-20.92766000	-12.62918000
157.49999083	0.00000000	-20.59547000	-12.67224000
157.69999081	0.00000000	-20.55241000	-13.04749000
157.89999080	0.00000000	-20.50935000	-13.79183000
158.09999079	0.00000000	-20.13410000	-14.16708000
158.29999078	0.00000000	-19.38976000	-14.21014000
158.49999077	0.00000000	-19.01451000	-14.21014000
158.69999075	0.00000000	-18.97145000	-14.21014000
158.89999074	0.00000000	-19.01451000	-14.16708000
159.09999073	0.00000000	-19.38976000	-13.79183000
159.29999072	0.00000000	-20.13410000	-13.04749000
159.49999071	0.00000000	-20.50935000	-12.67224000
159.69999070	0.00000000	-20.55241000	-12.62918000
159.89999068	0.00000000	-20.55241000	-12.58612000
160.09999067	0.00000000	-20.55241000	-12.25394000
160.29999066	0.00000000	-20.55241000	-11.88484000
160.49999065	0.00000000	-20.55241000	-12.25394000
160.69999064	0.00000000	-20.55241000	-12.58612000
160.89999062	0.00000000	-20.50935000	-12.62918000
161.09999061	0.00000000	-20.17716000	-12.62918000
161.29999060	0.00000000	-19.80807000	-12.62918000
161.49999059	0.00000000	-20.13410000	-12.62918000
161.69999058	0.00000000	-20.08489000	-12.62918000
161.89999056	0.00000000	-19.38976000	-12.62918000
162.09999055	0.00000000	-19.01451000	-12.62918000
162.29999054	0.00000000	-19.01451000	-12.58612000
162.49999053	0.00000000	-19.38976000	-12.21087000
162.69999052	0.00000000	-20.13410000	-11.51575000
162.89999051	0.00000000	-20.50935000	-11.46653000
163.09999049	0.00000000	-20.55241000	-11.83563000
163.29999048	0.00000000	-20.55241000	-11.84178000
163.49999047	0.00000000	-20.55241000	-12.25394000
163.69999046	0.00000000	-20.55241000	-12.58612000
163.89999045	0.00000000	-20.55241000	-12.62918000
164.09999043	0.00000000	-20.55241000	-12.62918000
164.29999042	0.00000000	-20.55241000	-12.62918000
164.49999041	0.00000000	-20.50935000	-12.62918000
164.69999040	0.00000000	-20.13410000	-12.62918000
164.89999039	0.00000000	-19.38976000	-12.62918000
165.09999037	0.00000000	-19.01451000	-12.62918000
165.29999036	0.00000000	-19.01451000	-12.62918000
165.49999035	0.00000000	-19.38976000	-12.62918000
165.69999034	0.00000000	-20.13410000	-12.62918000
165.89999033	0.00000000	-20.50935000	-12.62918000
166.09999032	0.00000000	-20.55241000	-12.62918000
166.29999030	0.00000000	-20.55241000	-12.62918000
166.49999029	0.00000000	-20.55241000	-12.62918000
166.69999028	0.00000000	-20.55241000	-12.62918000
166.89999027	0.00000000	-20.55241000	-12.62918000
167.09999026	0.00000000	-20.55241000	-12.62918000
167.29999024	0.00000000	-20.50935000	-12.62918000
167.49999023	0.00000000	-20.17716000	-12.62918000
167.69999022	0.00000000	-19.80807000	-12.62918000
167.89999021	0.00000000	-20.17716000	-12.62918000
168.09999020	0.00000000	-20.46014000	-12.62918000
168.29999018	0.00000000	-20.17716000	-12.62918000
168.49999017	0.00000000	-19.80807000	-12.62918000
168.69999016	0.00000000	-20.17716000	-12.67224000
168.89999015	0.00000000	-20.50935000	-13.00443000
169.09999014	0.00000000	-20.59547000	-13.37352000
169.29999013	0.00000000	-20.92766000	-13.00443000
169.49999011	0.00000000	-21.29675000	-12.67224000
169.69999010	0.00000000	-20.92766000	-12.62918000
169.89999009	0.00000000	-20.59547000	-12.62918000
170.09999008	0.00000000	-20.55241000	-12.62918000
170.29999007	0.00000000	-20.55241000	-12.62918000
170.49999005	0.00000000	-20.55241000	-12.62918000
170.69999004	0.00000000	-20.55241000	-12.67224000
170.89999003	0.00000000	-20.55241000	-13.04749000
171.09999002	0.00000000	-20.55241000	-13.79183000
171.29999001	0.00000000	-20.55241000	-14.11786000
171.49998999	0.00000000	-20.55241000	-13.79183000
171.69998998	0.00000000	-20.55241000	-13.04749000
171.89998997	0.00000000	-20.55241000	-12.72146000
172.09998996	0.00000000	-20.55241000	-13.00443000
172.29998995	0.00000000	-20.55241000	-13.37352000
172.49998994	0.00000000	-20.55241000	-13.00443000
172.69998992	0.00000000	-20.55241000	-12.67224000
172.89998991	0.00000000	-20.55241000	-12.62918000
173.09998990	0.00000000	-20.55241000	-12.62918000
173.29998989	0.00000000	-20.55241000	-12.67224000
173.49998988	0.00000000	-20.55241000	-13.00443000
173.69998986	0.00000000	-20.55241000	-13.37352000
173.89998985	0.00000000	-20.55241000	-13.00443000
174.09998984	0.00000000	-20.55241000	-12.72146000
174.29998983	0.00000000	-20.55241000	-13.04749000
174.49998982	0.00000000	-20.55241000	-13.74262000
174.69998980	0.00000000	-20.55241000	-13.79183000
174.89998979	0.00000000	-20.59547000	-13.42274000
175.09998978	0.00000000	-20.92766000	-13.41658000
175.29998977	0.00000000	-21.33981000	-13.00443000
175.49998976	0.00000000	-21.30290000	-12.67224000
175.69998975	0.00000000	-21.33981000	-12.62918000
175.89998973	0.00000000	-20.92766000	-12.62918000
176.09998972	0.00000000	-20.59547000	-12.62918000
176.29998971	0.00000000	-20.55241000	-12.62918000
176.49998970	0.00000000	-20.59547000	-12.62918000
176.69998969	0.00000000	-20.92766000	-12.67224000
176.89998967	0.00000000	-21.29675000	-13.04749000
177.09998966	0.00000000	-20.92766000	-13.74262000
177.29998965	0.00000000	-20.59547000	-13.79183000
177.49998964	0.00000000	-20.55241000	-13.42274000
177.69998963	0.00000000	-20.55241000	-13.41658000
177.89998961	0.00000000	-20.59547000	-13.00443000
178.09998960	0.00000000	-20.97072000	-12.67224000
178.29998959	0.00000000	-21.66585000	-12.62918000
178.49998958	0.00000000	-21.66585000	-12.62918000
178.69998957	0.00000000	-20.97072000	-12.62918000
178.89998956	0.00000000	-20.59547000	-12.62918000
179.09998954	0.00000000	-20.55241000	-12.62918000
179.29998953	0.00000000	-20.55241000	-12.62918000
179.49998952	0.00000000	-20.55241000	-12.67224000
179.69998951	0.00000000	-20.59547000	-13.04749000
179.89998950	0.00000000	-20.92766000	-13.74262000
180.09998948	0.00000000	-21.29675000	-13.74262000
180.29998947	0.00000000	-20.92766000	-13.04749000
180.49998946	0.00000000	-20.59547000	-12.67224000
180.69998945	0.00000000	-20.55241000	-12.62918000
180.89998944	0.00000000	-20.59547000	-12.62918000
181.09998942	0.00000000	-20.97072000	-12.62918000
181.29998941	0.00000000	-21.66585000	-12.62918000
181.49998940	0.00000000	-21.66585000	-12.62918000
181.69998939	0.00000000	-20.97072000	-12.62918000
181.89998938	0.00000000	-20.59547000	-12.62918000
182.09998937	0.00000000	-20.55241000	-12.62918000
182.29998935	0.00000000	-20.55241000	-12.67224000
182.49998934	0.00000000	-20.55241000	-13.00443000
182.69998933	0.00000000	-20.55241000	-13.41658000
182.89998932	0.00000000	-20.55241000	-13.42274000
183.09998931	0.00000000	-20.55241000	-13.79183000
183.29998929	0.00000000	-20.55241000	-13.79183000
183.49998928	0.00000000	-20.55241000	-13.42274000
183.69998927	0.00000000	-20.59547000	-13.41658000
183.89998926	0.00000000	-20.92766000	-13.00443000
184.09998925	0.00000000	-21.29675000	-12.67224000
184.29998923	0.00000000	-20.97072000	-12.62918000
184.49998922	0.00000000	-21.01993000	-12.62918000
184.69998921	0.00000000	-21.66585000	-12.62918000
184.89998920	0.00000000	-21.66585000	-12.62918000
185.09998919	0.00000000	-20.97072000	-12.62918000
185.29998918	0.00000000	-20.64468000	-12.62918000
185.49998916	0.00000000	-20.92766000	-12.67224000
185.69998915	0.00000000	-21.29675000	-13.04749000
185.89998914	0.00000000	-20.97072000	-13.79183000
186.09998913	0.00000000	-21.01993000	-14.16708000
186.29998912	0.00000000	-21.66585000	-14.21014000
186.49998910	0.00000000	-21.71506000	-14.16708000
186.69998909	0.00000000	-21.38902000	-13.83489000
186.89998908	0.00000000	-21.75812000	-13.42274000
187.09998907	0.00000000	-22.09030000	-13.41658000
187.29998906	0.00000000	-22.13336000	-13.00443000
187.49998904	0.00000000	-22.13336000	-12.67224000
187.69998903	0.00000000	-22.13336000	-12.62918000
187.89998902	0.00000000	-22.13336000	-12.62918000
188.09998901	0.00000000	-22.13336000	-12.67224000
188.29998900	0.00000000	-22.13336000	-13.04749000
188.49998899	0.00000000	-22.13336000	-13.79183000
188.69998897	0.00000000	-22.13336000	-14.16708000
188.89998896	0.00000000	-22.13336000	-14.21014000
189.09998895	0.00000000	-22.13336000	-14.21014000
189.29998894	0.00000000	-22.13336000	-14.21014000
189.49998893	0.00000000	-22.13336000	-14.21014000
189.69998891	0.00000000	-22.13336000	-14.21014000
189.89998890	0.00000000	-22.13336000	-14.21014000
190.09998889	0.00000000	-22.13336000	-14.21014000
190.29998888	0.00000000	-22.13336000	-14.21014000
190.49998887	0.00000000	-22.13336000	-14.16708000
190.69998885	0.00000000	-22.13336000	-13.79183000
190.89998884	0.00000000	-22.13336000	-13.09670000
191.09998883	0.00000000	-22.13336000	-13.04749000
191.29998882	0.00000000	-22.13336000	-13.41658000
191.49998881	0.00000000	-22.13336000	-13.42274000
191.69998880	0.00000000	-22.09030000	-13.83489000
191.89998878	0.00000000	-21.75812000	-14.16708000
192.09998877	0.00000000	-21.38902000	-14.21014000
192.29998876	0.00000000	-21.75812000	-14.21014000
192.49998875	0.00000000	-22.09030000	-14.21014000
192.69998874	0.00000000	-22.13336000	-14.21014000
192.89998872	0.00000000	-22.13336000	-14.21014000
193.09998871	0.00000000	-22.13336000	-14.21014000
193.29998870	0.00000000	-22.13336000	-14.16708000
193.49998869	0.00000000	-22.13336000	-13.79183000
193.69998868	0.00000000	-22.13336000	-13.04749000
193.89998866	0.00000000	-22.13336000	-12.67224000
194.09998865	0.00000000	-22.09030000	-12.62918000
194.29998864	0.00000000	-21.71506000	-12.62918000
194.49998863	0.00000000	-21.01993000	-12.62918000
194.69998862	0.00000000	-21.01993000	-12.62918000
194.89998861	0.00000000	-21.71506000	-12.62918000
195.09998859	0.00000000	-22.09030000	-12.67224000
195.29998858	0.00000000	-22.13336000	-13.04749000
195.49998857	0.00000000	-22.13336000	-13.79183000
195.69998856	0.00000000	-22.13336000	-14.16708000
195.89998855	0.00000000	-22.13336000	-14.16708000
196.09998853	0.00000000	-22.13336000	-13.83489000
