Time	Channel A	Channel B	Channel C
(us)	(V)	(mV)	(mV)

-4.49999956	0.00000000	-12.64764000	-9.05511800
-4.29999957	0.00000000	-12.64764000	-9.05511800
-4.09999958	0.00000000	-12.64764000	-8.68602300
-3.89999959	0.00000000	-12.64764000	-8.72293300
-3.69999960	0.00000000	-12.64764000	-8.68602300
-3.49999962	0.00000000	-12.64764000	-9.05511800
-3.29999963	0.00000000	-12.64764000	-9.05511800
-3.09999964	0.00000000	-12.64764000	-8.72908400
-2.89999965	0.00000000	-12.64764000	-9.09817800
-2.69999966	0.00000000	-12.64764000	-9.43036400
-2.49999968	0.00000000	-12.64764000	-9.47342500
-2.29999969	0.00000000	-12.64764000	-9.43036400
-2.09999970	0.00000000	-12.64764000	-9.09817800
-1.89999971	0.00000000	-12.64764000	-8.72908400
-1.69999972	0.00000000	-12.64764000	-9.09817800
-1.49999973	0.00000000	-12.64764000	-9.43036400
-1.29999975	0.00000000	-12.64764000	-9.47342500
-1.09999976	0.00000000	-12.60458000	-9.43036400
-0.89999977	0.00000000	-12.27239000	-9.09817800
-0.69999978	0.00000000	-11.90330000	-8.68602300
-0.49999979	0.00000000	-12.27239000	-8.67987200
-0.29999981	0.15871060	-12.60458000	-8.31077700
-0.09999982	0.63668800	-12.64764000	-8.31077700
0.10000017	0.95533960	-12.64764000	-8.67987200
0.30000016	1.11466500	-12.64764000	-8.68602300
0.50000015	0.95533960	-12.64764000	-9.09817800
0.70000013	0.47736220	-12.64764000	-9.43036400
0.90000012	-0.31803640	-12.64764000	-9.47342500
1.10000011	-1.27399100	-12.64764000	-9.43036400
1.30000010	-2.22994600	-12.69070000	-9.09817800
1.50000009	-2.70792300	-13.02288000	-8.68602300
1.70000008	-2.54859700	-13.39198000	-8.67987200
1.90000006	-1.43331700	-13.02288000	-8.26771600
2.10000005	0.15871060	-12.69070000	-7.93553100
2.30000004	2.38927200	-12.64764000	-7.93553100
2.50000003	4.30056600	-12.64764000	-8.31077700
2.70000002	5.25652100	-12.64764000	-9.05511800
2.90000000	4.93786900	-12.64764000	-9.43036400
3.09999999	3.34522600	-12.64764000	-9.47342500
3.29999998	0.31803640	-12.64764000	-9.47342500
3.49999997	-3.02657500	-12.64764000	-9.47342500
3.69999996	-6.05315000	-12.64764000	-9.43036400
3.89999994	-7.80511800	-12.64764000	-9.05511800
4.09999993	-7.64579200	-12.64764000	-8.31077700
4.29999992	-5.57517200	-12.69070000	-7.93553100
4.49999991	-1.75196900	-13.02288000	-7.89247000
4.69999990	2.70792300	-13.39198000	-7.93553100
4.89999989	6.69045300	-13.02288000	-8.31077700
5.09999987	9.07972400	-12.69070000	-9.05511800
5.29999986	9.23905000	-12.64764000	-9.43036400
5.49999985	7.00848900	-12.64764000	-9.47342500
5.69999984	3.02657500	-12.64764000	-9.47342500
5.89999983	-1.59264300	-12.64764000	-9.47342500
6.09999981	-6.05315000	-12.64764000	-9.43036400
6.29999980	-8.92039900	-12.64764000	-9.05511800
6.49999979	-9.39837600	-12.64764000	-8.31077700
6.69999978	-7.64579200	-12.64764000	-7.93553100
6.89999977	-4.14124000	-12.60458000	-7.89247000
7.09999975	0.31803640	-12.27239000	-7.89247000
7.29999974	4.30056600	-11.90330000	-7.93553100
7.49999973	7.00848900	-12.27239000	-8.26771600
7.69999972	7.64579200	-12.60458000	-8.67987200
7.89999971	6.53112700	-12.69070000	-8.68602300
8.09999970	3.82258900	-13.02288000	-9.09817800
8.29999968	0.63668800	-13.39198000	-9.43036400
8.49999967	-2.54859700	-13.02288000	-9.43036400
8.69999966	-4.45989200	-12.69070000	-9.09817800
8.89999965	-5.25652100	-12.64764000	-8.72908400
9.09999964	-4.61921700	-12.64764000	-9.05511800
9.29999962	-3.02657500	-12.64764000	-9.00590400
9.49999961	-0.95533960	-12.64764000	-8.31077700
9.69999960	0.79601380	-12.64764000	-7.98474400
9.89999959	2.07062000	-12.64764000	-8.31077700
10.09999958	2.54859700	-12.69070000	-9.05511800
10.29999956	2.22994600	-13.02288000	-9.38115100
10.49999955	1.59264300	-13.39198000	-9.09817800
10.69999954	0.63668800	-13.02288000	-8.68602300
10.89999953	-0.15871060	-12.69070000	-8.72293300
11.09999952	-0.63668800	-12.64764000	-8.68602300
11.29999951	-0.95533960	-12.64764000	-9.09817800
11.49999949	-0.95533960	-12.64764000	-9.43036400
11.69999948	-0.79601380	-12.64764000	-9.47342500
11.89999947	-0.47736220	-12.64764000	-9.47342500
12.09999946	-0.15871060	-12.64764000	-9.43036400
12.29999945	-0.15871060	-12.64764000	-9.09817800
12.49999943	-0.15871060	-12.64764000	-8.72908400
12.69999942	0.00000000	-12.64764000	-9.09817800
12.89999941	0.00000000	-12.64764000	-9.43036400
13.09999940	0.00000000	-12.64764000	-9.43036400
13.29999939	0.00000000	-12.64764000	-9.09817800
13.49999937	0.00000000	-12.64764000	-8.72908400
13.69999936	0.00000000	-12.64764000	-9.09817800
13.89999935	0.00000000	-12.64764000	-9.43036400
14.09999934	-0.15871060	-12.64764000	-9.47342500
14.29999933	-0.15871060	-12.64764000	-9.47342500
14.49999932	-0.15871060	-12.64764000	-9.47342500
14.69999930	-0.15871060	-12.64764000	-9.47342500
14.89999929	0.00000000	-12.64764000	-9.47342500
15.09999928	0.00000000	-12.64764000	-9.43036400
15.29999927	0.00000000	-12.64764000	-9.09817800
15.49999926	0.00000000	-12.64764000	-8.68602300
15.69999924	0.00000000	-12.64764000	-8.72293300
15.89999923	0.00000000	-12.69070000	-8.64296200
16.09999922	0.00000000	-13.06594000	-8.72293300
16.29999921	0.00000000	-13.76107000	-8.68602300
16.49999920	-0.15871060	-13.76107000	-9.09817800
16.69999919	0.00000000	-13.02288000	-9.43036400
16.89999917	0.00000000	-12.27239000	-9.47342500
17.09999916	0.00000000	-11.48499000	-9.47342500
17.29999915	0.00000000	-11.10974000	-9.47342500
17.49999914	0.00000000	-11.06668000	-9.47342500
17.69999913	0.00000000	-11.10974000	-9.47342500
17.89999911	0.00000000	-11.53420000	-9.47342500
18.09999910	0.00000000	-12.69070000	-9.43036400
18.29999909	0.00000000	-14.22859000	-9.09817800
18.49999908	0.00000000	-15.80955000	-8.72908400
18.69999907	0.00000000	-17.34744000	-9.09817800
18.89999905	-0.15871060	-18.46087000	-9.43036400
19.09999904	0.00000000	-18.41781000	-9.47342500
19.29999903	0.00000000	-16.87992000	-9.47342500
19.49999902	0.00000000	-14.13632000	-9.47342500
19.69999901	0.00000000	-10.64838000	-9.43036400
19.89999900	0.00000000	-6.74212600	-9.05511800
20.09999898	0.00000000	-3.34030500	-8.35998900
20.29999897	0.00000000	-1.39640700	-8.35998900
20.49999896	0.00000000	-1.89468500	-9.05511800
20.69999895	0.00000000	-5.01968500	-9.38115100
20.89999894	0.00000000	-11.24508000	-9.05511800
21.09999892	0.00000000	-18.92839000	-8.35998900
21.29999891	0.00000000	-26.32259000	-8.35998900
21.49999890	0.00000000	-32.04970000	-9.05511800
21.69999889	0.00000000	-34.23351000	-9.43036400
21.89999888	0.00000000	-31.12082000	-9.47342500
22.09999886	0.00000000	-22.98228000	-9.47342500
22.29999885	0.00000000	-11.71875000	-9.47342500
22.49999884	0.00000000	1.02731300	-9.47342500
22.69999883	0.00000000	12.19242000	-9.47342500
22.89999882	0.00000000	18.66388000	-9.43036400
23.09999881	0.00000000	18.56545000	-9.05511800
23.29999879	0.00000000	10.38386000	-8.31077700
23.49999878	0.00000000	-4.26919300	-7.89247000
23.69999877	0.00000000	-22.09030000	-7.47416300
23.89999876	0.00000000	-39.44390000	-6.72982200
24.09999875	0.00000000	-52.10384000	-6.40378900
24.29999873	0.00000000	-56.29306000	-6.77903500
24.49999872	0.00000000	-50.43061000	-7.93553100
24.69999871	0.00000000	-35.35310000	-9.47342500
24.89999870	0.00000000	-14.09326000	-11.04823000
25.09999869	0.00000000	8.28617100	-12.58612000
25.29999867	0.00000000	26.80241000	-13.69956000
25.49999866	0.00000000	36.76181000	-13.69956000
25.69999865	-0.15871060	35.22392000	-12.49385000
25.89999864	0.00000000	22.47785000	-10.16855000
26.09999863	0.00000000	1.58710600	-6.64370100
26.29999862	0.00000000	-23.11762000	-2.82972400
26.49999860	0.00000000	-45.86614000	0.64591530
26.69999859	0.00000000	-60.94365000	2.50984200
26.89999858	0.00000000	-65.22514000	2.09153500
27.09999857	0.00000000	-57.87401000	-1.06422200
27.29999856	0.00000000	-40.51427000	-6.82209600
27.49999854	0.00000000	-17.30438000	-13.83489000
27.69999853	0.00000000	6.66215500	-20.81078000
27.89999852	0.00000000	26.33489000	-26.89468000
28.09999851	0.00000000	36.71875000	-29.49680000
28.29999850	0.00000000	35.27313000	-27.17766000
28.49999848	0.00000000	22.98843000	-20.57702000
28.69999847	0.00000000	3.72170300	-10.49459000
28.89999846	0.00000000	-17.99951000	1.11343500
29.09999845	0.00000000	-37.72761000	11.84793000
29.29999844	0.00000000	-51.63632000	19.13755000
29.49999843	0.00000000	-56.29306000	20.26329000
29.69999841	0.00000000	-51.03346000	15.23745000
29.89999840	0.00000000	-38.33046000	4.69365100
30.09999839	0.00000000	-21.67200000	-9.94094400
30.29999838	0.00000000	-4.22613100	-25.35679000
30.49999837	0.00000000	10.47613000	-37.72145000
30.69999835	0.00000000	19.40822000	-44.64198000
30.89999834	0.00000000	21.03223000	-44.18061000
31.09999833	0.00000000	15.63730000	-35.67913000
31.29999832	0.00000000	4.84128900	-21.03838000
31.49999831	0.00000000	-9.06742000	-3.62327700
31.69999829	0.00000000	-22.60704000	12.96752000
31.89999828	0.00000000	-33.07701000	25.31988000
32.09999827	0.00000000	-38.56422000	30.34572000
32.29999826	0.00000000	-38.23819000	27.27608000
32.49999825	0.00000000	-33.21235000	16.81841000
32.69999824	0.00000000	-24.28026000	0.97810030
32.89999822	0.00000000	-13.11516000	-16.76919000
33.09999821	0.00000000	-2.68823800	-32.65871000
33.29999820	0.00000000	4.66289300	-43.48548000
33.49999819	0.00000000	7.40034400	-47.34252000
33.69999818	0.00000000	5.16732200	-43.06717000
33.89999816	0.00000000	-0.59670270	-31.53912000
34.09999815	0.00000000	-8.32308000	-15.69882000
34.29999814	0.00000000	-16.46161000	0.93503930
34.49999813	0.00000000	-23.02534000	15.23745000
34.69999812	0.00000000	-26.88238000	24.11417000
34.89999810	0.00000000	-26.88238000	25.65207000
35.09999809	0.00000000	-23.11762000	19.51279000
35.29999808	0.00000000	-17.34744000	7.25270600
35.49999807	0.00000000	-11.15896000	-7.43110200
35.69999806	0.00000000	-5.76402500	-21.37057000
35.89999805	0.00000000	-2.68823800	-32.19119000
36.09999803	0.00000000	-2.68823800	-37.16781000
36.29999802	0.00000000	-5.71481200	-35.26082000
36.49999801	0.00000000	-10.73450000	-26.84547000
36.69999800	0.00000000	-16.04946000	-14.58538000
36.89999799	0.00000000	-20.31865000	-2.26377900
37.09999797	0.00000000	-21.86270000	7.39419200
37.29999796	0.00000000	-21.16142000	12.03863000
37.49999795	0.00000000	-18.41781000	10.92520000
37.69999794	0.00000000	-14.22859000	4.74286400
37.89999793	0.00000000	-9.95324800	-5.20423200
38.09999791	0.00000000	-6.45915300	-15.84030000
38.29999790	0.00000000	-4.18307100	-23.17913000
38.49999789	0.00000000	-4.18307100	-25.55364000
38.69999788	0.00000000	-6.45915300	-23.22835000
38.89999787	0.00000000	-9.95324800	-16.30167000
39.09999786	0.00000000	-14.22859000	-6.77903500
39.29999784	0.00000000	-18.46087000	2.00541300
39.49999783	0.00000000	-21.53666000	7.39419200
39.69999782	0.00000000	-22.74237000	7.76943800
39.89999781	0.00000000	-21.95497000	3.16806100
40.09999780	0.00000000	-19.62352000	-5.29035400
40.29999778	0.00000000	-15.71727000	-15.23130000
40.49999777	0.00000000	-11.10974000	-23.64665000
40.69999776	0.00000000	-6.87746000	-27.87278000
40.89999775	0.00000000	-4.13385800	-26.71629000
41.09999774	0.00000000	-3.29724400	-20.57702000
41.29999772	0.00000000	-3.71555100	-11.00517000
41.49999771	0.00000000	-5.71481200	-1.06422200
41.69999770	0.00000000	-9.52879000	6.27460600
41.89999769	0.00000000	-13.76107000	9.43036400
42.09999768	0.00000000	-17.29823000	8.27386800
42.29999767	0.00000000	-20.04183000	3.25418300
42.49999765	0.00000000	-21.53666000	-4.77977300
42.69999764	0.00000000	-21.16142000	-13.23819000
42.89999763	0.00000000	-18.87918000	-19.83883000
43.09999762	0.00000000	-15.85261000	-23.68971000
43.29999761	0.00000000	-13.06594000	-23.68971000
43.49999759	0.00000000	-10.78371000	-19.88189000
43.69999758	0.00000000	-9.20890700	-13.79183000
43.89999757	0.00000000	-9.15354300	-7.24040300
44.09999756	0.00000000	-9.48572700	-2.22071800
44.29999755	0.00000000	-9.90403500	0.55979330
44.49999753	0.00000000	-10.64838000	0.97810030
44.69999752	0.00000000	-11.02362000	-0.55364170
44.89999751	0.00000000	-11.06668000	-3.66633800
45.09999750	0.00000000	-11.06668000	-7.84940900
45.29999749	0.00000000	-11.15896000	-11.70029000
45.49999748	0.00000000	-11.99557000	-14.03174000
45.69999746	0.00000000	-14.32087000	-14.85605000
45.89999745	0.00000000	-17.34744000	-14.11786000
46.09999744	0.00000000	-20.08489000	-12.58612000
46.29999743	0.00000000	-21.99803000	-10.58686000
46.49999742	0.00000000	-22.74237000	-7.93553100
46.69999740	0.00000000	-21.48745000	-5.61638700
46.89999739	0.00000000	-17.99951000	-4.45374000
47.09999738	0.00000000	-12.55536000	-4.04158400
47.29999737	0.00000000	-6.41609200	-4.87204700
47.49999736	0.00000000	-1.02116100	-6.77903500
47.69999734	0.00000000	2.05462600	-9.47342500
47.89999733	0.00000000	2.00541300	-12.11860000
48.09999732	0.00000000	-1.53174200	-13.69956000
48.29999731	0.00000000	-8.50147600	-14.11786000
48.49999730	0.00000000	-17.29823000	-13.69956000
48.69999729	0.00000000	-25.39370000	-12.11860000
48.89999727	0.00000000	-30.41954000	-9.42421200
49.09999726	0.00000000	-31.53912000	-6.36072800
49.29999725	0.00000000	-28.04503000	-3.66633800
49.49999724	0.00000000	-20.37401000	-2.12844500
49.69999723	0.00000000	-11.10974000	-2.12844500
49.89999721	0.00000000	-2.22687000	-3.70939900
50.09999720	0.00000000	4.28764700	-6.77903500
50.29999719	0.00000000	6.19463500	-10.62992000
50.49999718	0.00000000	3.16806100	-14.11786000
50.69999717	0.00000000	-3.80782500	-16.81225000
50.89999715	0.00000000	-13.02288000	-17.92569000
51.09999714	0.00000000	-22.27485000	-16.76919000
51.29999713	0.00000000	-28.79552000	-13.69956000
51.49999712	0.00000000	-31.11466000	-9.47342500
51.69999711	0.00000000	-28.42027000	-5.24729300
51.89999710	0.00000000	-21.57972000	-2.12844500
52.09999708	0.00000000	-13.11516000	-0.59670270
52.29999707	0.00000000	-5.38877900	-0.97194880
52.49999706	0.00000000	0.00615157	-3.29109200
52.69999705	0.00000000	1.54404500	-6.72982200
52.89999704	0.00000000	-1.10728300	-10.58686000
53.09999702	0.00000000	-6.87746000	-13.69956000
53.29999701	0.00000000	-14.18553000	-15.60654000
53.49999700	0.00000000	-21.06914000	-15.97564000
53.69999699	0.00000000	-25.30143000	-14.07480000
53.89999698	0.00000000	-25.71973000	-11.09744000
54.09999696	0.00000000	-22.65010000	-8.35383800
54.29999695	0.00000000	-16.92298000	-6.40378900
54.49999694	0.00000000	-10.37155000	-5.29035400
54.69999693	0.00000000	-5.01353300	-5.61638700
54.89999692	0.00000000	-1.90083600	-7.09891700
55.09999691	0.00000000	-2.31299200	-8.26771600
55.29999689	0.00000000	-5.71481200	-9.47342500
55.49999688	0.00000000	-11.10974000	-10.53765000
55.69999687	0.00000000	-16.83686000	-10.53765000
55.89999686	0.00000000	-21.11220000	-9.42421200
56.09999685	0.00000000	-23.06841000	-7.89247000
56.29999683	0.00000000	-22.65010000	-6.36072800
56.49999682	0.00000000	-19.58046000	-5.29035400
56.69999681	0.00000000	-14.64690000	-5.70866100
56.89999680	0.00000000	-9.99630800	-7.98474400
57.09999679	0.00000000	-6.50221400	-11.04823000
57.29999677	0.00000000	-4.60137700	-14.11786000
57.49999676	0.00000000	-5.33956700	-16.35089000
57.69999675	0.00000000	-7.99704600	-16.35089000
57.89999674	0.00000000	-11.44193000	-14.03174000
58.09999673	0.00000000	-14.92372000	-10.16855000
58.29999672	0.00000000	-17.25517000	-5.15501900
58.49999670	0.00000000	-18.46087000	-0.59670270
58.69999669	0.00000000	-18.41781000	2.14074800
58.89999668	0.00000000	-16.92298000	2.46678100
59.09999667	0.00000000	-14.60384000	0.14148620
59.29999666	0.00000000	-12.27239000	-4.87204700
59.49999664	0.00000000	-9.99630800	-11.00517000
59.69999663	0.00000000	-8.87672100	-16.81225000
59.89999662	0.00000000	-9.57800100	-20.99532000
60.09999661	0.00000000	-11.02362000	-22.10876000
60.29999660	0.00000000	-12.22933000	-19.42052000
60.49999658	0.00000000	-13.02288000	-13.69956000
60.69999657	0.00000000	-13.81028000	-6.73597400
60.89999656	0.00000000	-14.13632000	-0.17839570
61.09999655	0.00000000	-13.81028000	4.78592500
61.29999654	0.00000000	-13.06594000	6.32381900
61.49999653	0.00000000	-12.69070000	4.00467500
61.69999651	0.00000000	-12.64764000	-1.39025600
61.89999650	0.00000000	-12.64764000	-9.09817800
62.09999649	0.00000000	-12.69070000	-16.76919000
62.29999648	0.00000000	-13.11516000	-22.57628000
62.49999647	0.00000000	-14.22859000	-25.27067000
62.69999645	0.00000000	-15.29897000	-24.10802000
62.89999644	0.00000000	-15.29897000	-19.50664000
63.09999643	0.00000000	-14.22859000	-12.54306000
63.29999642	0.00000000	-13.06594000	-4.87204700
63.49999641	0.00000000	-12.22933000	1.71628900
63.69999639	0.00000000	-11.10974000	5.57947800
63.89999638	0.00000000	-10.37155000	6.36687900
64.09999637	0.00000000	-10.73450000	3.67249000
64.29999636	0.00000000	-11.48499000	-1.71013800
64.49999635	0.00000000	-12.64764000	-8.26771600
64.69999634	0.00000000	-13.81028000	-14.85605000
64.89999632	0.00000000	-14.60384000	-19.83883000
65.09999631	0.00000000	-15.34203000	-22.20103000
65.29999630	0.00000000	-15.29897000	-21.46284000
65.49999629	0.00000000	-14.22859000	-18.43627000
65.69999628	0.00000000	-13.06594000	-14.16708000
65.89999626	0.00000000	-12.27239000	-9.47342500
66.09999625	0.00000000	-11.48499000	-4.82898600
66.29999624	0.00000000	-11.20202000	-0.97194880
66.49999623	0.00000000	-11.90330000	0.97810030
66.69999622	0.00000000	-13.43504000	1.02116100
66.89999620	0.00000000	-14.56078000	-0.51058070
67.09999619	0.00000000	-15.34203000	-3.19881900
67.29999618	0.00000000	-15.29897000	-6.31151500
67.49999617	0.00000000	-14.18553000	-9.47342500
67.69999616	0.00000000	-12.60458000	-12.58612000
67.89999615	0.00000000	-10.64838000	-15.32357000
68.09999613	0.00000000	-8.41535400	-17.23056000
68.29999612	0.00000000	-7.29576700	-18.01796000
68.49999611	0.00000000	-8.04010800	-17.23056000
68.69999610	0.00000000	-9.95324800	-15.27436000
68.89999609	0.00000000	-12.73991000	-12.11860000
69.09999607	0.00000000	-16.18479000	-7.89247000
69.29999606	0.00000000	-19.66658000	-3.66633800
69.49999605	0.00000000	-21.90576000	-0.51058070
69.69999604	0.00000000	-22.27485000	1.43946800
69.89999603	0.00000000	-19.95571000	2.13459600
70.09999601	0.00000000	-15.71727000	0.51673230
70.29999600	0.00000000	-10.69144000	-3.66633800
70.49999599	0.00000000	-5.67175200	-9.05511800
70.69999598	0.00000000	-2.22687000	-14.07480000
70.89999597	0.00000000	-1.06422200	-17.97490000
71.09999596	0.00000000	-2.64517700	-19.88189000
71.29999594	0.00000000	-6.87746000	-19.50664000
71.49999593	0.00000000	-12.64764000	-16.81225000
71.69999592	0.00000000	-18.46087000	-12.58612000
71.89999591	0.00000000	-23.11762000	-7.93553100
72.09999590	0.00000000	-25.76895000	-3.66633800
72.29999588	0.00000000	-25.43676000	-0.64591530
72.49999587	0.00000000	-22.33022000	0.14148620
72.69999586	0.00000000	-17.71038000	-1.71013800
72.89999585	0.00000000	-11.86024000	-4.73671200
73.09999584	0.00000000	-6.55142700	-7.84940900
73.29999582	0.00000000	-2.97736200	-10.58686000
73.49999581	0.00000000	-1.85162400	-12.49385000
73.69999580	0.00000000	-2.97736200	-13.28125000
73.89999579	0.00000000	-6.45915300	-12.53691000
74.09999578	0.00000000	-11.06668000	-11.04823000
74.29999577	0.00000000	-15.71727000	-9.51648500
74.49999575	0.00000000	-19.58046000	-8.40305000
74.69999574	0.00000000	-21.48745000	-8.35998900
74.89999573	0.00000000	-21.20448000	-9.09817800
75.09999572	0.00000000	-19.25443000	-9.84867000
75.29999571	0.00000000	-16.55389000	-10.58686000
75.49999569	0.00000000	-13.06594000	-10.53765000
75.69999568	0.00000000	-10.03937000	-9.38115100
75.89999567	0.00000000	-8.45841400	-7.47416300
76.09999566	0.00000000	-8.37229300	-5.15501900
76.29999565	0.00000000	-9.15354300	-3.24803100
76.49999563	0.00000000	-10.32234000	-2.12844500
76.69999562	0.00000000	-12.22933000	-2.59596400
76.89999561	0.00000000	-13.71801000	-5.24729300
77.09999560	0.00000000	-14.18553000	-9.09817800
77.29999559	0.00000000	-14.18553000	-12.96137000
77.49999558	0.00000000	-13.85334000	-16.48622000
77.69999556	0.00000000	-13.48425000	-18.71924000
77.89999555	0.00000000	-13.85334000	-19.04527000
78.09999554	0.00000000	-14.22859000	-16.35089000
78.29999553	0.00000000	-14.64690000	-11.42347000
78.49999552	0.00000000	-15.39124000	-6.40378900
78.69999550	0.00000000	-15.71727000	-2.08538400
78.89999549	0.00000000	-15.34203000	0.97810030
79.09999548	0.00000000	-14.18553000	2.09153500
79.29999547	0.00000000	-12.60458000	0.55979330
79.49999546	0.00000000	-10.69144000	-3.24803100
79.69999544	0.00000000	-8.79060000	-7.84940900
79.89999543	0.00000000	-8.04010800	-12.16166000
80.09999542	0.00000000	-8.41535400	-15.64960000
80.29999541	0.00000000	-9.99630800	-17.97490000
80.49999540	0.00000000	-12.64764000	-18.35015000
80.69999539	0.00000000	-15.34203000	-16.81225000
80.89999537	0.00000000	-17.29823000	-13.74262000
81.09999536	0.00000000	-18.46087000	-9.89173200
81.29999535	0.00000000	-18.41781000	-6.40378900
81.49999534	0.00000000	-16.87992000	-3.61712600
81.69999533	0.00000000	-14.18553000	-1.71013800
81.89999531	0.00000000	-11.15896000	-0.92888770
82.09999530	0.00000000	-8.83366100	-1.66707700
82.29999529	0.00000000	-8.04010800	-3.19881900
82.49999528	0.00000000	-8.41535400	-5.19808000
82.69999527	0.00000000	-9.95324800	-7.93553100
82.89999525	0.00000000	-12.22933000	-11.00517000
83.09999524	0.00000000	-14.18553000	-13.74262000
83.29999523	0.00000000	-15.71727000	-15.64960000
83.49999522	0.00000000	-16.50467000	-16.48007000
83.69999521	0.00000000	-16.14173000	-16.06791000
83.89999520	0.00000000	-15.39124000	-14.85605000
84.09999518	0.00000000	-14.22859000	-12.11860000
84.29999517	0.00000000	-13.11516000	-8.31077700
84.49999516	0.00000000	-12.64764000	-4.82283400
84.69999515	0.00000000	-12.27239000	-2.08538400
84.89999514	0.00000000	-11.90330000	-0.55364170
85.09999512	0.00000000	-12.27239000	-0.55364170
85.29999511	0.00000000	-12.60458000	-2.12844500
85.49999510	0.00000000	-12.60458000	-5.24729300
85.69999509	0.00000000	-12.22933000	-9.51648500
85.89999508	0.00000000	-11.53420000	-14.07480000
86.09999506	0.00000000	-11.53420000	-17.55659000
86.29999505	0.00000000	-12.27239000	-18.71924000
86.49999504	0.00000000	-13.02288000	-17.97490000
86.69999503	0.00000000	-13.85334000	-15.23130000
86.89999502	0.00000000	-14.60384000	-11.00517000
87.09999501	0.00000000	-15.39124000	-6.35457700
87.29999499	0.00000000	-15.71727000	-2.12844500
87.49999498	0.00000000	-15.34203000	0.51673230
87.69999497	0.00000000	-14.22859000	0.51673230
87.89999496	0.00000000	-13.06594000	-2.12844500
88.09999495	0.00000000	-12.22933000	-6.35457700
88.29999493	0.00000000	-11.10974000	-11.00517000
88.49999492	0.00000000	-10.37155000	-15.23130000
88.69999491	0.00000000	-10.73450000	-17.88263000
88.89999490	0.00000000	-11.48499000	-17.92569000
89.09999489	0.00000000	-12.69070000	-15.60654000
89.29999487	0.00000000	-14.18553000	-11.74336000
89.49999486	0.00000000	-15.34203000	-6.72982200
89.69999485	0.00000000	-15.71727000	-2.17765700
89.89999484	0.00000000	-15.39124000	0.51673230
90.09999483	0.00000000	-14.60384000	0.51673230
90.29999482	0.00000000	-13.85334000	-2.12844500
90.49999480	0.00000000	-13.06594000	-6.40378900
90.69999479	0.00000000	-12.69070000	-11.38041000
90.89999478	0.00000000	-12.64764000	-15.97564000
91.09999477	0.00000000	-12.64764000	-18.30093000
91.29999476	0.00000000	-12.64764000	-18.30093000
91.49999474	0.00000000	-12.64764000	-15.97564000
91.69999473	0.00000000	-12.64764000	-11.33120000
91.89999472	0.00000000	-12.64764000	-6.02854300
92.09999471	0.00000000	-12.64764000	-1.39025600
92.29999470	0.00000000	-12.64764000	0.88582670
92.49999468	0.00000000	-12.64764000	0.55979330
92.69999467	0.00000000	-12.69070000	-2.17765700
92.89999466	0.00000000	-13.11516000	-6.77903500
93.09999465	0.00000000	-14.22859000	-12.11860000
93.29999464	0.00000000	-15.34203000	-16.35089000
93.49999463	0.00000000	-15.76649000	-18.25787000
93.69999461	0.00000000	-15.76649000	-17.50738000
93.89999460	0.00000000	-15.34203000	-14.11786000
94.09999459	0.00000000	-14.18553000	-9.89173200
94.29999458	0.00000000	-12.60458000	-6.02854300
94.49999457	0.00000000	-10.69144000	-2.92199800
94.69999455	0.00000000	-8.79060000	-1.80241100
94.89999454	0.00000000	-8.08316900	-2.54675200
95.09999453	0.00000000	-8.79060000	-5.29035400
95.29999452	0.00000000	-10.73450000	-9.43036400
95.49999451	0.00000000	-13.11516000	-13.23819000
95.69999449	0.00000000	-16.22785000	-15.23130000
95.89999448	0.00000000	-19.58046000	-15.64960000
96.09999447	0.00000000	-21.11220000	-14.81299000
96.29999446	0.00000000	-20.41708000	-12.11860000
96.49999445	0.00000000	-18.50394000	-8.35998900
96.69999444	0.00000000	-15.71727000	-5.29035400
96.89999442	0.00000000	-12.22933000	-3.70939900
97.09999441	0.00000000	-8.41535400	-3.66633800
97.29999440	0.00000000	-5.71481200	-4.82283400
97.49999439	0.00000000	-4.92125900	-6.72982200
97.69999438	0.00000000	-5.67175200	-9.05511800
97.89999436	0.00000000	-8.04010800	-10.96211000
98.09999435	0.00000000	-11.48499000	-12.11860000
98.29999434	0.00000000	-15.39124000	-12.16166000
98.49999433	0.00000000	-18.87918000	-11.42347000
98.69999432	0.00000000	-21.53666000	-10.62992000
98.89999430	0.00000000	-22.27485000	-9.47342500
99.09999429	0.00000000	-20.41708000	-8.35998900
99.29999428	0.00000000	-17.34744000	-7.93553100
99.49999427	0.00000000	-13.81028000	-7.89247000
99.69999426	0.00000000	-9.95324800	-7.84940900
99.89999425	0.00000000	-6.92052100	-7.47416300
100.09999423	0.00000000	-5.67175200	-6.72982200
100.29999422	0.00000000	-6.04084600	-6.35457700
100.49999421	0.00000000	-7.20964500	-6.35457700
100.69999420	0.00000000	-9.57800100	-6.77903500
100.89999419	0.00000000	-12.64764000	-7.93553100
101.09999417	0.00000000	-15.71727000	-9.47342500
101.29999416	0.00000000	-18.13484000	-11.04823000
101.49999415	0.00000000	-19.62967000	-12.58612000
101.69999414	0.00000000	-20.41092000	-13.69956000
101.89999413	0.00000000	-19.21137000	-13.69956000
102.09999411	0.00000000	-16.97219000	-12.53691000
102.29999410	0.00000000	-14.22859000	-10.58686000
102.49999409	0.00000000	-11.53420000	-7.89247000
102.69999408	0.00000000	-9.57800100	-5.19808000
102.89999407	0.00000000	-8.37229300	-3.24803100
103.09999406	0.00000000	-8.04010800	-2.12844500
103.29999404	0.00000000	-8.79060000	-2.54675200
103.49999403	0.00000000	-10.69144000	-4.82283400
103.69999402	0.00000000	-12.64764000	-7.89247000
103.89999401	0.00000000	-14.64690000	-11.00517000
104.09999400	0.00000000	-16.87992000	-13.69956000
104.29999398	0.00000000	-18.04257000	-15.23130000
104.49999397	0.00000000	-17.67347000	-15.18824000
104.69999396	0.00000000	-16.55389000	-13.28125000
104.89999395	0.00000000	-14.60384000	-9.89173200
105.09999394	0.00000000	-12.73991000	-6.82209600
105.29999392	0.00000000	-11.53420000	-4.82283400
105.49999391	0.00000000	-11.10974000	-3.70939900
105.69999390	0.00000000	-11.10974000	-4.08464600
105.89999389	0.00000000	-11.53420000	-5.98548200
106.09999388	0.00000000	-12.64764000	-8.26771600
106.29999387	0.00000000	-13.81028000	-10.62992000
106.49999385	0.00000000	-14.60384000	-12.49385000
106.69999384	0.00000000	-15.34203000	-13.28125000
106.89999383	0.00000000	-15.34203000	-12.53691000
107.09999382	0.00000000	-14.60384000	-11.04823000
107.29999381	0.00000000	-13.81028000	-9.47342500
107.49999379	0.00000000	-12.64764000	-7.89247000
107.69999378	0.00000000	-11.53420000	-6.40378900
107.89999377	0.00000000	-11.15896000	-5.66560000
108.09999376	0.00000000	-11.53420000	-6.40378900
108.29999375	0.00000000	-12.64764000	-7.89247000
108.49999374	0.00000000	-13.81028000	-9.47342500
108.69999372	0.00000000	-14.60384000	-11.00517000
108.89999371	0.00000000	-15.39124000	-12.11860000
109.09999370	0.00000000	-15.71727000	-12.11860000
109.29999369	0.00000000	-15.34203000	-11.00517000
109.49999368	0.00000000	-14.18553000	-9.47342500
109.69999366	0.00000000	-12.69070000	-7.89247000
109.89999365	0.00000000	-11.53420000	-6.40378900
110.09999364	0.00000000	-11.10974000	-5.61638700
110.29999363	0.00000000	-11.10974000	-5.98548200
110.49999362	0.00000000	-11.48499000	-6.72982200
110.69999360	0.00000000	-12.27239000	-7.93553100
110.89999359	0.00000000	-13.06594000	-9.42421200
111.09999358	0.00000000	-14.22859000	-10.62992000
111.29999357	0.00000000	-15.34203000	-11.42347000
111.49999356	0.00000000	-15.71727000	-12.16166000
111.69999355	0.00000000	-15.34203000	-12.11860000
111.89999353	0.00000000	-14.22859000	-11.04823000
112.09999352	0.00000000	-13.11516000	-9.89173200
112.29999351	0.00000000	-12.69070000	-9.09817800
112.49999350	0.00000000	-12.64764000	-8.31077700
112.69999349	0.00000000	-12.64764000	-7.93553100
112.89999347	0.00000000	-12.64764000	-7.89247000
113.09999346	0.00000000	-12.64764000	-7.89247000
113.29999345	0.00000000	-12.64764000	-7.89247000
113.49999344	0.00000000	-12.69070000	-7.93553100
113.69999343	0.00000000	-13.06594000	-8.31077700
113.89999341	0.00000000	-13.81028000	-9.05511800
114.09999340	0.00000000	-14.18553000	-9.43036400
114.29999339	0.00000000	-14.22859000	-9.51648500
114.49999338	0.00000000	-14.22859000	-9.89173200
114.69999337	0.00000000	-14.22859000	-10.62992000
114.89999336	0.00000000	-14.18553000	-11.00517000
115.09999334	0.00000000	-13.81028000	-11.00517000
115.29999333	0.00000000	-13.06594000	-10.62992000
115.49999332	0.00000000	-12.69070000	-9.89173200
115.69999331	0.00000000	-12.64764000	-9.47342500
115.89999330	0.00000000	-12.64764000	-9.05511800
116.09999328	0.00000000	-12.69070000	-8.26771600
116.29999327	0.00000000	-13.06594000	-7.56028500
116.49999326	0.00000000	-13.81028000	-7.14812900
116.69999325	0.00000000	-14.18553000	-7.51722400
116.89999324	0.00000000	-14.22859000	-7.89247000
117.09999322	0.00000000	-14.18553000	-8.31077700
117.29999321	0.00000000	-13.81028000	-9.09817800
117.49999320	0.00000000	-13.02288000	-9.84867000
117.69999319	0.00000000	-12.27239000	-10.62992000
117.89999318	0.00000000	-11.53420000	-11.00517000
118.09999317	0.00000000	-11.53420000	-11.00517000
118.29999315	0.00000000	-12.27239000	-10.62992000
118.49999314	0.00000000	-13.02288000	-9.84867000
118.69999313	0.00000000	-13.85334000	-9.09817800
118.89999312	0.00000000	-14.60384000	-8.26771600
119.09999311	0.00000000	-15.39124000	-7.51722400
119.29999309	0.00000000	-15.76649000	-6.72982200
119.49999308	0.00000000	-15.76649000	-6.40378900
119.69999307	0.00000000	-15.34203000	-6.72982200
119.89999306	0.00000000	-14.22859000	-7.51722400
120.09999305	0.00000000	-13.06594000	-8.26771600
120.29999303	0.00000000	-12.22933000	-9.05511800
120.49999302	0.00000000	-11.06668000	-9.47342500
120.69999301	0.00000000	-9.99630800	-9.89173200
120.89999300	0.00000000	-9.99630800	-10.62992000
121.09999299	0.00000000	-11.10974000	-10.95595000
121.29999298	0.00000000	-12.60458000	-10.62992000
121.49999296	0.00000000	-13.81028000	-9.89173200
121.69999295	0.00000000	-14.64690000	-9.51648500
121.89999294	0.00000000	-15.76649000	-9.43036400
122.09999293	0.00000000	-16.50467000	-9.05511800
122.29999292	0.00000000	-16.14173000	-8.31077700
122.49999290	0.00000000	-15.43430000	-7.93553100
122.69999289	0.00000000	-14.60384000	-7.89247000
122.89999288	0.00000000	-13.81028000	-7.89247000
123.09999287	0.00000000	-12.64764000	-7.89247000
123.29999286	0.00000000	-11.48499000	-7.89247000
123.49999284	0.00000000	-10.73450000	-7.93553100
123.69999283	0.00000000	-10.37155000	-8.35998900
123.89999282	0.00000000	-11.10974000	-9.42421200
124.09999281	0.00000000	-12.22933000	-10.16855000
124.29999280	0.00000000	-13.02288000	-9.84867000
124.49999279	0.00000000	-13.81028000	-9.51648500
124.69999277	0.00000000	-14.22859000	-9.47342500
124.89999276	0.00000000	-14.64690000	-9.47342500
125.09999275	0.00000000	-15.39124000	-9.43036400
125.29999274	0.00000000	-15.71727000	-9.05511800
125.49999273	0.00000000	-15.39124000	-8.31077700
125.69999271	0.00000000	-14.60384000	-7.93553100
125.89999270	0.00000000	-13.81028000	-7.89247000
126.09999269	0.00000000	-12.64764000	-7.89247000
126.29999268	0.00000000	-11.53420000	-7.93553100
126.49999267	0.00000000	-11.10974000	-8.31077700
126.69999265	0.00000000	-11.10974000	-9.05511800
126.89999264	0.00000000	-11.48499000	-9.43036400
127.09999263	0.00000000	-12.27239000	-9.47342500
127.29999262	0.00000000	-13.06594000	-9.47342500
127.49999261	0.00000000	-14.22859000	-9.47342500
127.69999260	0.00000000	-15.34203000	-9.47342500
127.89999258	0.00000000	-15.76649000	-9.47342500
128.09999257	0.00000000	-15.76649000	-9.43036400
128.29999256	0.00000000	-15.34203000	-9.05511800
128.49999255	0.00000000	-14.18553000	-8.31077700
128.69999254	0.00000000	-12.69070000	-7.93553100
128.89999252	0.00000000	-11.53420000	-7.93553100
129.09999251	0.00000000	-11.10974000	-8.31077700
129.29999250	0.00000000	-11.10974000	-9.05511800
129.49999249	0.00000000	-11.53420000	-9.43036400
129.69999248	0.00000000	-12.69070000	-9.47342500
129.89999246	0.00000000	-14.18553000	-9.47342500
130.09999245	0.00000000	-15.34203000	-9.47342500
130.29999244	0.00000000	-15.71727000	-9.47342500
130.49999243	0.00000000	-15.39124000	-9.43036400
130.69999242	0.00000000	-14.64690000	-9.05511800
130.89999241	0.00000000	-14.22859000	-8.31077700
131.09999239	0.00000000	-13.81028000	-7.98474400
131.29999238	0.00000000	-13.06594000	-8.31077700
131.49999237	0.00000000	-12.69070000	-9.05511800
131.69999236	0.00000000	-12.64764000	-9.43036400
131.89999235	0.00000000	-12.64764000	-9.51648500
132.09999233	0.00000000	-12.69070000	-9.89173200
132.29999232	0.00000000	-13.06594000	-10.58686000
132.49999231	0.00000000	-13.81028000	-10.58686000
132.69999230	0.00000000	-14.18553000	-9.89173200
132.89999229	0.00000000	-14.27165000	-9.47342500
133.09999227	0.00000000	-14.60384000	-9.05511800
133.29999226	0.00000000	-14.97293000	-8.26771600
133.49999225	0.00000000	-14.60384000	-7.51722400
133.69999224	0.00000000	-14.22859000	-6.77903500
133.89999223	0.00000000	-13.85334000	-6.77903500
134.09999222	0.00000000	-13.48425000	-7.51722400
134.29999220	0.00000000	-13.81028000	-8.26771600
134.49999219	0.00000000	-13.76107000	-9.09817800
134.69999218	0.00000000	-13.06594000	-9.84867000
134.89999217	0.00000000	-12.69070000	-10.62992000
135.09999216	0.00000000	-12.64764000	-10.95595000
135.29999214	0.00000000	-12.64764000	-10.62992000
135.49999213	0.00000000	-12.64764000	-9.89173200
135.69999212	0.00000000	-12.69070000	-9.47342500
135.89999211	0.00000000	-13.11516000	-9.05511800
136.09999210	0.00000000	-14.18553000	-8.31077700
136.29999208	0.00000000	-14.97293000	-7.93553100
136.49999207	0.00000000	-14.97908000	-7.89247000
136.69999206	0.00000000	-15.01599000	-7.89247000
136.89999205	0.00000000	-14.56078000	-7.89247000
137.09999204	0.00000000	-13.85334000	-7.93553100
137.29999203	0.00000000	-13.06594000	-8.31077700
137.49999201	0.00000000	-12.69070000	-9.09817800
137.69999200	0.00000000	-12.60458000	-9.79945900
137.89999199	0.00000000	-12.27239000	-10.25467000
138.09999198	0.00000000	-11.90330000	-10.26698000
138.29999197	0.00000000	-12.31545000	-10.62992000
138.49999195	0.00000000	-13.02288000	-10.58686000
138.69999194	0.00000000	-13.85334000	-9.84867000
138.89999193	0.00000000	-14.56078000	-9.09817800
139.09999192	0.00000000	-15.01599000	-8.31077700
139.29999191	0.00000000	-14.97908000	-7.93553100
139.49999189	0.00000000	-15.01599000	-7.89247000
139.69999188	0.00000000	-14.56078000	-7.89247000
139.89999187	0.00000000	-13.85334000	-7.93553100
140.09999186	0.00000000	-13.06594000	-8.31077700
140.29999185	0.00000000	-12.69070000	-9.05511800
140.49999184	0.00000000	-12.64764000	-9.47342500
140.69999182	0.00000000	-12.69070000	-9.89173200
140.89999181	0.00000000	-13.06594000	-10.62992000
141.09999180	0.00000000	-13.81028000	-10.95595000
141.29999179	0.00000000	-14.18553000	-10.62992000
141.49999178	0.00000000	-14.22859000	-9.84867000
141.69999176	0.00000000	-14.22859000	-9.09817800
141.89999175	0.00000000	-14.18553000	-8.26771600
142.09999174	0.00000000	-13.81028000	-7.56028500
142.29999173	0.00000000	-13.11516000	-7.14812900
142.49999172	0.00000000	-13.06594000	-7.51722400
142.69999170	0.00000000	-13.39198000	-7.89247000
142.89999169	0.00000000	-13.06594000	-8.31077700
143.09999168	0.00000000	-13.11516000	-9.09817800
143.29999167	0.00000000	-13.81028000	-9.84867000
143.49999166	0.00000000	-14.18553000	-10.58686000
143.69999165	0.00000000	-14.22859000	-10.62992000
143.89999163	0.00000000	-14.18553000	-10.26698000
144.09999162	0.00000000	-13.81028000	-10.25467000
144.29999161	0.00000000	-13.06594000	-9.79945900
144.49999160	0.00000000	-12.69070000	-9.09817800
144.69999159	0.00000000	-12.64764000	-8.31077700
144.89999157	0.00000000	-12.69070000	-7.93553100
145.09999156	0.00000000	-13.02288000	-7.89247000
145.29999155	0.00000000	-13.43504000	-7.93553100
145.49999154	0.00000000	-13.44119000	-8.31077700
145.69999153	0.00000000	-13.85334000	-9.09817800
145.89999151	0.00000000	-14.18553000	-9.84867000
146.09999150	0.00000000	-14.22859000	-10.62992000
146.29999149	0.00000000	-14.22859000	-11.00517000
146.49999148	0.00000000	-14.18553000	-11.00517000
146.69999147	0.00000000	-13.81028000	-10.62992000
146.89999146	0.00000000	-13.06594000	-9.89173200
147.09999144	0.00000000	-12.69070000	-9.47342500
147.29999143	0.00000000	-12.64764000	-9.05511800
147.49999142	0.00000000	-12.69070000	-8.31077700
147.69999141	0.00000000	-13.06594000	-7.93553100
147.89999140	0.00000000	-13.81028000	-7.89247000
148.09999138	0.00000000	-14.18553000	-7.93553100
148.29999137	0.00000000	-14.22859000	-8.31077700
148.49999136	0.00000000	-14.18553000	-9.05511800
148.69999135	0.00000000	-13.85334000	-9.43036400
148.89999134	0.00000000	-13.48425000	-9.47342500
149.09999132	0.00000000	-13.81028000	-9.47342500
149.29999131	0.00000000	-13.76107000	-9.47342500
149.49999130	0.00000000	-13.06594000	-9.47342500
149.69999129	0.00000000	-12.69070000	-9.47342500
149.89999128	0.00000000	-12.64764000	-9.43036400
150.09999127	0.00000000	-12.64764000	-9.05511800
150.29999125	0.00000000	-12.69070000	-8.31077700
150.49999124	0.00000000	-13.06594000	-7.93553100
150.69999123	0.00000000	-13.81028000	-7.89247000
150.89999122	0.00000000	-14.18553000	-7.89247000
151.09999121	0.00000000	-14.22859000	-7.93553100
151.29999119	0.00000000	-14.22859000	-8.31077700
151.49999118	0.00000000	-14.22859000	-9.05511800
151.69999117	0.00000000	-14.22859000	-9.43036400
151.89999116	0.00000000	-14.18553000	-9.47342500
152.09999115	0.00000000	-13.81028000	-9.47342500
152.29999113	0.00000000	-13.06594000	-9.47342500
152.49999112	0.00000000	-12.69070000	-9.43036400
152.69999111	0.00000000	-12.64764000	-9.05511800
152.89999110	0.00000000	-12.64764000	-8.35998900
153.09999109	0.00000000	-12.64764000	-8.31077700
153.29999108	0.00000000	-12.69070000	-8.63681000
153.49999106	0.00000000	-13.06594000	-8.26771600
153.69999105	0.00000000	-13.81028000	-7.93553100
153.89999104	0.00000000	-14.18553000	-7.89247000
154.09999103	0.00000000	-14.22859000	-7.93553100
154.29999102	0.00000000	-14.27165000	-8.31077700
154.49999100	0.00000000	-14.60384000	-9.05511800
154.69999099	0.00000000	-14.97293000	-9.43036400
154.89999098	0.00000000	-14.56078000	-9.47342500
155.09999097	0.00000000	-13.85334000	-9.47342500
155.29999096	0.00000000	-13.06594000	-9.47342500
155.49999094	0.00000000	-12.69070000	-9.47342500
155.69999093	0.00000000	-12.64764000	-9.47342500
155.89999092	0.00000000	-12.64764000	-9.47342500
156.09999091	0.00000000	-12.69070000	-9.43036400
156.29999090	0.00000000	-13.06594000	-9.05511800
156.49999089	0.00000000	-13.81028000	-8.31077700
156.69999087	0.00000000	-14.18553000	-7.93553100
156.89999086	0.00000000	-14.22859000	-7.89247000
157.09999085	0.00000000	-14.22859000	-7.89247000
157.29999084	0.00000000	-14.22859000	-7.93553100
157.49999083	0.00000000	-14.22859000	-8.31077700
157.69999081	0.00000000	-14.22859000	-9.05511800
157.89999080	0.00000000	-14.18553000	-9.43036400
158.09999079	0.00000000	-13.81028000	-9.47342500
158.29999078	0.00000000	-13.06594000	-9.47342500
158.49999077	0.00000000	-12.69070000	-9.47342500
158.69999075	0.00000000	-12.64764000	-9.47342500
158.89999074	0.00000000	-12.69070000	-9.47342500
159.09999073	0.00000000	-13.06594000	-9.43036400
159.29999072	0.00000000	-13.81028000	-9.05511800
159.49999071	0.00000000	-14.18553000	-8.31077700
159.69999070	0.00000000	-14.22859000	-7.93553100
159.89999068	0.00000000	-14.22859000	-7.89247000
160.09999067	0.00000000	-14.22859000	-7.89247000
160.29999066	0.00000000	-14.22859000	-7.93553100
160.49999065	0.00000000	-14.22859000	-8.31077700
160.69999064	0.00000000	-14.22859000	-9.05511800
160.89999062	0.00000000	-14.22859000	-9.43036400
161.09999061	0.00000000	-14.18553000	-9.47342500
161.29999060	0.00000000	-13.81028000	-9.47342500
161.49999059	0.00000000	-13.06594000	-9.47342500
161.69999058	0.00000000	-12.69070000	-9.47342500
161.89999056	0.00000000	-12.64764000	-9.47342500
162.09999055	0.00000000	-12.64764000	-9.47342500
162.29999054	0.00000000	-12.64764000	-9.47342500
162.49999053	0.00000000	-12.69070000	-9.43036400
162.69999052	0.00000000	-13.06594000	-9.05511800
162.89999051	0.00000000	-13.81028000	-8.31077700
163.09999049	0.00000000	-14.18553000	-7.98474400
163.29999048	0.00000000	-14.22859000	-8.31077700
163.49999047	0.00000000	-14.22859000	-9.05511800
163.69999046	0.00000000	-14.22859000	-9.43036400
163.89999045	0.00000000	-14.22859000	-9.47342500
164.09999043	0.00000000	-14.22859000	-9.47342500
164.29999042	0.00000000	-14.18553000	-9.47342500
164.49999041	0.00000000	-13.81028000	-9.47342500
164.69999040	0.00000000	-13.06594000	-9.47342500
164.89999039	0.00000000	-12.69070000	-9.47342500
165.09999037	0.00000000	-12.64764000	-9.43036400
165.29999036	0.00000000	-12.64764000	-9.09817800
165.49999035	0.00000000	-12.69070000	-8.72908400
165.69999034	0.00000000	-13.06594000	-9.09817800
165.89999033	0.00000000	-13.81028000	-9.43036400
166.09999032	0.00000000	-14.18553000	-9.43036400
166.29999030	0.00000000	-14.22859000	-9.09817800
166.49999029	0.00000000	-14.22859000	-8.72908400
166.69999028	0.00000000	-14.18553000	-9.09817800
166.89999027	0.00000000	-13.85334000	-9.43036400
167.09999026	0.00000000	-13.48425000	-9.47342500
167.29999024	0.00000000	-13.81028000	-9.47342500
167.49999023	0.00000000	-13.76107000	-9.47342500
167.69999022	0.00000000	-13.11516000	-9.47342500
167.89999021	0.00000000	-13.06594000	-9.47342500
168.09999020	0.00000000	-13.39198000	-9.47342500
168.29999018	0.00000000	-13.06594000	-9.51648500
168.49999017	0.00000000	-13.11516000	-9.84867000
168.69999016	0.00000000	-13.81028000	-10.21161000
168.89999015	0.00000000	-14.18553000	-9.84867000
169.09999014	0.00000000	-14.22859000	-9.51648500
169.29999013	0.00000000	-14.22859000	-9.47342500
169.49999011	0.00000000	-14.22859000	-9.47342500
169.69999010	0.00000000	-14.22859000	-9.47342500
169.89999009	0.00000000	-14.22859000	-9.47342500
170.09999008	0.00000000	-14.22859000	-9.47342500
170.29999007	0.00000000	-14.22859000	-9.47342500
170.49999005	0.00000000	-14.18553000	-9.47342500
170.69999004	0.00000000	-13.81028000	-9.47342500
170.89999003	0.00000000	-13.06594000	-9.47342500
171.09999002	0.00000000	-12.69070000	-9.47342500
171.29999001	0.00000000	-12.64764000	-9.47342500
171.49998999	0.00000000	-12.64764000	-9.47342500
171.69998998	0.00000000	-12.69070000	-9.47342500
171.89998997	0.00000000	-13.06594000	-9.47342500
172.09998996	0.00000000	-13.76107000	-9.47342500
172.29998995	0.00000000	-13.81028000	-9.47342500
172.49998994	0.00000000	-13.48425000	-9.47342500
172.69998992	0.00000000	-13.85334000	-9.47342500
172.89998991	0.00000000	-14.18553000	-9.47342500
173.09998990	0.00000000	-14.22859000	-9.47342500
173.29998989	0.00000000	-14.22859000	-9.47342500
173.49998988	0.00000000	-14.22859000	-9.47342500
173.69998986	0.00000000	-14.22859000	-9.47342500
173.89998985	0.00000000	-14.18553000	-9.47342500
174.09998984	0.00000000	-13.85334000	-9.47342500
174.29998983	0.00000000	-13.44119000	-9.47342500
174.49998982	0.00000000	-13.47810000	-9.47342500
174.69998980	0.00000000	-13.39813000	-9.47342500
174.89998979	0.00000000	-13.47810000	-9.47342500
175.09998978	0.00000000	-13.44119000	-9.47342500
175.29998977	0.00000000	-13.85334000	-9.47342500
175.49998976	0.00000000	-14.18553000	-9.47342500
175.69998975	0.00000000	-14.22859000	-9.47342500
175.89998973	0.00000000	-14.18553000	-9.47342500
176.09998972	0.00000000	-13.85334000	-9.47342500
176.29998971	0.00000000	-13.48425000	-9.47342500
176.49998970	0.00000000	-13.81028000	-9.47342500
176.69998969	0.00000000	-13.81028000	-9.47342500
176.89998967	0.00000000	-13.48425000	-9.47342500
177.09998966	0.00000000	-13.85334000	-9.47342500
177.29998965	0.00000000	-14.18553000	-9.47342500
177.49998964	0.00000000	-14.18553000	-9.47342500
177.69998963	0.00000000	-13.85334000	-9.47342500
177.89998961	0.00000000	-13.48425000	-9.47342500
178.09998960	0.00000000	-13.85334000	-9.47342500
178.29998959	0.00000000	-14.18553000	-9.47342500
178.49998958	0.00000000	-14.22859000	-9.47342500
178.69998957	0.00000000	-14.22859000	-9.47342500
178.89998956	0.00000000	-14.22859000	-9.47342500
179.09998954	0.00000000	-14.22859000	-9.47342500
179.29998953	0.00000000	-14.18553000	-9.47342500
179.49998952	0.00000000	-13.85334000	-9.47342500
179.69998951	0.00000000	-13.48425000	-9.47342500
179.89998950	0.00000000	-13.85334000	-9.47342500
180.09998948	0.00000000	-14.13632000	-9.47342500
180.29998947	0.00000000	-13.85334000	-9.47342500
180.49998946	0.00000000	-13.48425000	-9.47342500
180.69998945	0.00000000	-13.85334000	-9.47342500
180.89998944	0.00000000	-14.18553000	-9.47342500
181.09998942	0.00000000	-14.18553000	-9.43036400
181.29998941	0.00000000	-13.85334000	-9.09817800
181.49998940	0.00000000	-13.48425000	-8.72908400
181.69998939	0.00000000	-13.85334000	-9.09817800
181.89998938	0.00000000	-14.18553000	-9.43036400
182.09998937	0.00000000	-14.18553000	-9.47342500
182.29998935	0.00000000	-13.81028000	-9.47342500
182.49998934	0.00000000	-13.06594000	-9.47342500
182.69998933	0.00000000	-12.73991000	-9.47342500
182.89998932	0.00000000	-13.02288000	-9.47342500
183.09998931	0.00000000	-13.43504000	-9.47342500
183.29998929	0.00000000	-13.44119000	-9.47342500
183.49998928	0.00000000	-13.81028000	-9.47342500
183.69998927	0.00000000	-13.81028000	-9.47342500
183.89998926	0.00000000	-13.48425000	-9.47342500
184.09998925	0.00000000	-13.85334000	-9.43036400
184.29998923	0.00000000	-14.18553000	-9.05511800
184.49998922	0.00000000	-14.22859000	-8.31077700
184.69998921	0.00000000	-14.22859000	-7.93553100
184.89998920	0.00000000	-14.22859000	-7.89247000
185.09998919	0.00000000	-14.22859000	-7.93553100
185.29998918	0.00000000	-14.22859000	-8.31077700
185.49998916	0.00000000	-14.18553000	-9.05511800
185.69998915	0.00000000	-13.81028000	-9.43036400
185.89998914	0.00000000	-13.06594000	-9.47342500
186.09998913	0.00000000	-12.73991000	-9.47342500
186.29998912	0.00000000	-13.06594000	-9.47342500
186.49998910	0.00000000	-13.81028000	-9.47342500
186.69998909	0.00000000	-14.18553000	-9.47342500
186.89998908	0.00000000	-14.22859000	-9.43036400
187.09998907	0.00000000	-14.22859000	-9.05511800
187.29998906	0.00000000	-14.22859000	-8.31077700
187.49998904	0.00000000	-14.22859000	-7.93553100
187.69998903	0.00000000	-14.22859000	-7.89247000
187.89998902	0.00000000	-14.22859000	-7.89247000
188.09998901	0.00000000	-14.18553000	-7.93553100
188.29998900	0.00000000	-13.85334000	-8.31077700
188.49998899	0.00000000	-13.44119000	-9.05511800
188.69998897	0.00000000	-13.47810000	-9.43036400
188.89998896	0.00000000	-13.44119000	-9.47342500
189.09998895	0.00000000	-13.85334000	-9.47342500
189.29998894	0.00000000	-14.18553000	-9.47342500
189.49998893	0.00000000	-14.22859000	-9.47342500
189.69998891	0.00000000	-14.18553000	-9.47342500
189.89998890	0.00000000	-13.85334000	-9.47342500
190.09998889	0.00000000	-13.48425000	-9.47342500
190.29998888	0.00000000	-13.85334000	-9.43036400
190.49998887	0.00000000	-14.18553000	-9.09817800
190.69998885	0.00000000	-14.22859000	-8.72908400
190.89998884	0.00000000	-14.18553000	-9.09817800
191.09998883	0.00000000	-13.85334000	-9.43036400
191.29998882	0.00000000	-13.44119000	-9.47342500
191.49998881	0.00000000	-13.47810000	-9.47342500
191.69998880	0.00000000	-13.44119000	-9.47342500
191.89998878	0.00000000	-13.81028000	-9.47342500
192.09998877	0.00000000	-13.81028000	-9.47342500
192.29998876	0.00000000	-13.44119000	-9.47342500
192.49998875	0.00000000	-13.47810000	-9.47342500
192.69998874	0.00000000	-13.39813000	-9.47342500
192.89998872	0.00000000	-13.47810000	-9.47342500
193.09998871	0.00000000	-13.44119000	-9.47342500
193.29998870	0.00000000	-13.85334000	-9.47342500
193.49998869	0.00000000	-14.18553000	-9.43036400
193.69998868	0.00000000	-14.22859000	-9.09817800
193.89998866	0.00000000	-14.22859000	-8.72908400
194.09998865	0.00000000	-14.22859000	-9.05511800
194.29998864	0.00000000	-14.18553000	-9.05511800
194.49998863	0.00000000	-13.85334000	-8.72908400
194.69998862	0.00000000	-13.44119000	-9.09817800
194.89998861	0.00000000	-13.43504000	-9.43036400
195.09998859	0.00000000	-13.06594000	-9.47342500
195.29998858	0.00000000	-13.11516000	-9.47342500
195.49998857	0.00000000	-13.81028000	-9.47342500
195.69998856	0.00000000	-14.13632000	-9.47342500
195.89998855	0.00000000	-13.85334000	-9.47342500
196.09998853	0.00000000	-13.48425000	-9.47342500
