Time	Channel A	Channel B	Channel C
(us)	(V)	(mV)	(mV)

-4.49999956	0.00000000	29.99508000	9.43036400
-4.29999957	0.00000000	29.61983000	9.05511800
-4.09999958	0.00000000	28.87549000	8.31077700
-3.89999959	0.00000000	28.54946000	7.93553100
-3.69999960	0.00000000	28.83243000	7.89247000
-3.49999962	0.00000000	29.20152000	7.89247000
-3.29999963	0.00000000	28.87549000	7.93553100
-3.09999964	0.00000000	28.92470000	8.26771600
-2.89999965	0.00000000	29.57062000	8.63681000
-2.69999966	0.00000000	29.61983000	8.31077700
-2.49999968	0.00000000	29.29380000	8.35998900
-2.29999969	0.00000000	29.61983000	9.05511800
-2.09999970	0.00000000	29.61983000	9.38115100
-1.89999971	0.00000000	29.29380000	9.05511800
-1.69999972	0.00000000	29.61983000	8.35998900
-1.49999973	0.00000000	29.57062000	8.35998900
-1.29999975	0.00000000	28.87549000	9.05511800
-1.09999976	0.00000000	28.54946000	9.43036400
-0.89999977	0.00000000	28.87549000	9.47342500
-0.69999978	0.00000000	29.61983000	9.47342500
-0.49999979	0.00000000	29.99508000	9.47342500
-0.29999981	0.31803640	29.99508000	9.43036400
-0.09999982	0.63668800	29.66289000	9.09817800
0.10000017	0.95533960	29.25074000	8.68602300
0.30000016	1.11466500	29.28765000	8.67987200
0.50000015	0.79601380	29.20767000	8.26771600
0.70000013	0.31803640	29.28765000	7.93553100
0.90000012	-0.47736220	29.20767000	7.89247000
1.10000011	-1.59264300	29.28765000	7.93553100
1.30000010	-2.38927200	29.20767000	8.31077700
1.50000009	-2.70792300	29.28765000	9.05511800
1.70000008	-2.38927200	29.20767000	9.43036400
1.90000006	-1.27399100	29.28765000	9.47342500
2.10000005	0.63668800	29.25074000	9.47342500
2.30000004	2.70792300	29.61983000	9.43036400
2.50000003	4.61921700	29.57062000	9.05511800
2.70000002	5.25652100	28.92470000	8.31077700
2.90000000	4.77854300	28.87549000	7.93553100
3.09999999	2.86724900	29.20152000	7.89247000
3.29999998	-0.31803640	28.83243000	7.89247000
3.49999997	-3.66326300	28.54946000	7.93553100
3.69999996	-6.53112700	28.83243000	8.31077700
3.89999994	-7.96444400	29.24459000	9.05511800
4.09999993	-7.48646600	29.25074000	9.43036400
4.29999992	-4.93786900	29.66289000	9.47342500
4.49999991	-0.79601380	29.94586000	9.47342500
4.69999990	3.66326300	29.61983000	9.47342500
4.89999989	7.32714100	28.87549000	9.43036400
5.09999987	9.39837600	28.50024000	9.05511800
5.29999986	8.92039900	28.45718000	8.31077700
5.49999985	6.37180100	28.45718000	7.93553100
5.69999984	2.22994600	28.45718000	7.89247000
5.89999983	-2.54859700	28.45718000	7.89247000
6.09999981	-6.69045300	28.45718000	7.93553100
6.29999980	-9.23905000	28.50024000	8.31077700
6.49999979	-9.23905000	28.83243000	9.05511800
6.69999978	-7.00848900	29.24459000	9.43036400
6.89999977	-3.18590100	29.20767000	9.47342500
7.09999975	1.11466500	29.24459000	9.47342500
7.29999974	4.93786900	28.87549000	9.43036400
7.49999973	7.32714100	28.87549000	9.05511800
7.69999972	7.64579200	29.24459000	8.35998900
7.89999971	6.21247500	29.20767000	8.31077700
8.09999970	3.34522600	29.24459000	8.63681000
8.29999968	0.00000000	28.83243000	8.26771600
8.49999967	-3.02657500	28.50024000	7.93553100
8.69999966	-4.77854300	28.50024000	7.93553100
8.89999965	-5.25652100	28.83243000	8.31077700
9.09999964	-4.30056600	29.24459000	9.05511800
9.29999962	-2.54859700	29.20767000	9.38115100
9.49999961	-0.47736220	29.24459000	9.09817800
9.69999960	1.11466500	28.83243000	8.72908400
9.89999959	2.22994600	28.54946000	9.05511800
10.09999958	2.54859700	28.83243000	9.00590400
10.29999956	2.22994600	29.20152000	8.31077700
10.49999955	1.43331700	28.83243000	7.93553100
10.69999954	0.47736220	28.50024000	7.89247000
10.89999953	-0.31803640	28.45718000	7.89247000
11.09999952	-0.79601380	28.45718000	7.89247000
11.29999951	-0.95533960	28.45718000	7.89247000
11.49999949	-0.95533960	28.45718000	7.89247000
11.69999948	-0.79601380	28.45718000	7.89247000
11.89999947	-0.47736220	28.45718000	7.89247000
12.09999946	-0.15871060	28.45718000	7.89247000
12.29999945	-0.15871060	28.45718000	7.89247000
12.49999943	-0.15871060	28.50024000	7.93553100
12.69999942	0.00000000	28.83243000	8.26771600
12.89999941	0.00000000	29.20152000	8.63681000
13.09999940	0.00000000	28.83243000	8.26771600
13.29999939	0.00000000	28.50024000	7.93553100
13.49999937	0.00000000	28.45718000	7.89247000
13.69999936	0.00000000	28.45718000	7.89247000
13.89999935	0.00000000	28.45718000	7.89247000
14.09999934	-0.15871060	28.45718000	7.89247000
14.29999933	-0.15871060	28.45718000	7.89247000
14.49999932	-0.15871060	28.45718000	7.93553100
14.69999930	0.00000000	28.45718000	8.26771600
14.89999929	0.00000000	28.45718000	8.63681000
15.09999928	0.00000000	28.45718000	8.31077700
15.29999927	0.00000000	28.45718000	8.31077700
15.49999926	0.00000000	28.45718000	8.63681000
15.69999924	0.00000000	28.45718000	8.26771600
15.89999923	0.00000000	28.45718000	7.93553100
16.09999922	0.00000000	28.45718000	7.89247000
16.29999921	0.00000000	28.45718000	7.89247000
16.49999920	-0.15871060	28.45718000	7.89247000
16.69999919	0.00000000	28.50024000	7.89247000
16.89999917	0.00000000	28.92470000	7.93553100
17.09999916	0.00000000	29.99508000	8.26771600
17.29999915	0.00000000	30.78248000	8.67987200
17.49999914	0.00000000	30.78863000	8.64296200
17.69999913	0.00000000	30.82554000	8.67987200
17.89999911	0.00000000	30.37032000	8.26771600
18.09999910	0.00000000	29.61983000	7.93553100
18.29999909	0.00000000	28.41412000	7.89247000
18.49999908	0.00000000	26.87623000	7.89247000
18.69999907	0.00000000	25.29527000	7.93553100
18.89999905	-0.15871060	23.84965000	8.26771600
19.09999904	0.00000000	23.48056000	8.63681000
19.29999903	-0.15871060	25.05536000	8.26771600
19.49999902	0.00000000	27.71284000	7.93553100
19.69999901	0.00000000	31.29306000	7.89247000
19.89999900	0.00000000	35.11319000	7.89247000
20.09999898	0.00000000	38.60113000	7.89247000
20.29999897	0.00000000	40.42199000	7.89247000
20.49999896	0.00000000	39.62844000	7.89247000
20.69999895	0.00000000	35.72219000	7.89247000
20.89999894	0.00000000	29.52756000	7.89247000
21.09999892	0.00000000	22.13336000	7.89247000
21.29999891	0.00000000	14.82529000	7.89247000
21.49999890	0.00000000	9.52263600	7.89247000
21.69999889	0.00000000	8.40920300	7.89247000
21.89999888	0.00000000	12.26624000	7.89247000
22.09999886	0.00000000	20.07874000	7.89247000
22.29999885	0.00000000	30.96703000	7.89247000
22.49999884	0.00000000	43.34399000	7.89247000
22.69999883	0.00000000	54.04773000	7.84940900
22.89999882	0.00000000	60.14394000	7.56028500
23.09999881	0.00000000	58.93824000	7.57258800
23.29999879	0.00000000	50.38139000	8.67987200
23.49999878	0.00000000	36.04207000	9.38115100
23.69999877	0.00000000	18.23327000	9.47342500
23.89999876	0.00000000	1.33489200	9.47342500
24.09999875	0.00000000	-10.61762000	9.47342500
24.29999873	0.00000000	-13.97638000	9.43036400
24.49999872	0.00000000	-7.41264700	8.96284400
24.69999871	0.00000000	8.07701800	7.47416300
24.89999870	0.00000000	28.96776000	5.57332700
25.09999869	0.00000000	50.97810000	4.40452700
25.29999867	0.00000000	69.07603000	3.62327700
25.49999866	0.00000000	78.29724000	3.66633800
25.69999865	0.00000000	76.33489000	4.82283400
25.89999864	0.00000000	63.17052000	6.82209600
26.09999863	0.00000000	41.57849000	9.98400600
26.29999862	0.00000000	16.83071000	14.16708000
26.49999860	0.00000000	-5.54872000	17.97490000
26.69999859	0.00000000	-20.62008000	19.88189000
26.89999858	0.00000000	-24.44020000	19.46358000
27.09999857	0.00000000	-16.38779000	16.30167000
27.29999856	0.00000000	1.79626000	10.49459000
27.49999854	0.00000000	25.71973000	3.15575800
27.69999853	0.00000000	50.04921000	-4.18307100
27.89999852	0.00000000	68.98991000	-9.94094400
28.09999851	0.00000000	78.34030000	-12.54921000
28.29999850	0.00000000	76.80241000	-10.54995000
28.49999848	0.00000000	64.84375000	-3.58636800
28.69999847	0.00000000	45.16486000	6.86515700
28.89999846	0.00000000	22.77928000	18.85458000
29.09999845	0.00000000	2.63902500	30.00738000
29.29999844	0.00000000	-10.90059000	37.26009000
29.49999843	0.00000000	-15.26821000	38.37352000
29.69999841	0.00000000	-10.29158000	32.56643000
29.89999840	0.00000000	2.08538400	20.99532000
30.09999839	0.00000000	19.48204000	6.26845500
30.29999838	0.00000000	37.99828000	-8.83366100
30.49999837	0.00000000	53.11884000	-21.51206000
30.69999835	0.00000000	62.10014000	-28.38951000
30.89999834	0.00000000	63.68110000	-27.23302000
31.09999833	0.00000000	57.91092000	-18.35630000
31.29999832	0.00000000	46.37057000	-3.62942900
31.49999831	0.00000000	32.03740000	14.11786000
31.69999829	0.00000000	18.07948000	31.12082000
31.89999828	0.00000000	6.82824800	43.44242000
32.09999827	0.00000000	0.63976370	48.49901000
32.29999826	0.00000000	0.63976370	45.01722000
32.49999825	0.00000000	6.73597400	34.19045000
32.69999824	0.00000000	17.15059000	17.93184000
32.89999822	0.00000000	28.74631000	-0.55979330
33.09999821	0.00000000	39.62844000	-16.81841000
33.29999820	0.00000000	47.30561000	-27.65133000
33.49999819	0.00000000	50.09227000	-31.12697000
33.69999818	0.00000000	47.77313000	-26.11343000
33.89999816	0.00000000	41.25246000	-14.17323000
34.09999815	0.00000000	31.99434000	2.04232300
34.29999814	0.00000000	22.77928000	19.04527000
34.49999813	0.00000000	15.80339000	32.98474000
34.69999812	0.00000000	12.68455000	41.48622000
34.89999810	0.00000000	13.80413000	42.64886000
35.09999809	0.00000000	18.36245000	36.14665000
35.29999808	0.00000000	24.92003000	24.15723000
35.49999807	0.00000000	31.48376000	9.09817800
35.69999806	0.00000000	36.88484000	-5.90551100
35.89999805	0.00000000	39.57923000	-16.68922000
36.09999803	0.00000000	38.84104000	-20.95841000
36.29999802	0.00000000	35.39001000	-17.93799000
36.49999801	0.00000000	29.99508000	-8.78444900
36.69999800	0.00000000	24.26796000	3.15575800
36.89999799	0.00000000	20.03568000	15.14518000
37.09999797	0.00000000	18.45472000	24.76009000
37.29999796	0.00000000	19.56816000	29.36146000
37.49999795	0.00000000	22.68701000	27.87278000
37.69999794	0.00000000	27.29453000	20.95226000
37.89999793	0.00000000	32.32037000	10.67913000
38.09999791	0.00000000	36.18971000	0.36909450
38.29999790	0.00000000	38.46580000	-6.18848400
38.49999789	0.00000000	38.09055000	-7.85556000
38.69999788	0.00000000	35.02707000	-5.06889700
38.89999787	0.00000000	30.78248000	1.85777500
39.09999786	0.00000000	25.76279000	11.74951000
39.29999784	0.00000000	21.57357000	20.48474000
39.49999783	0.00000000	19.52510000	25.13533000
39.69999782	0.00000000	19.10679000	24.76009000
39.89999781	0.00000000	19.90034000	19.37131000
40.09999780	0.00000000	22.26870000	10.54380000
40.29999778	0.00000000	25.76279000	0.59670270
40.49999777	0.00000000	29.99508000	-7.43725300
40.69999776	0.00000000	33.85827000	-10.87598000
40.89999775	0.00000000	36.23277000	-9.01205700
41.09999774	0.00000000	37.39542000	-2.46678100
41.29999772	0.00000000	36.97712000	6.77903500
41.49999771	0.00000000	34.69488000	16.76919000
41.69999770	0.00000000	31.57603000	24.76009000
41.89999769	0.00000000	28.03888000	27.87278000
42.09999768	0.00000000	24.22490000	25.64591000
42.29999767	0.00000000	21.52436000	19.50664000
42.49999765	0.00000000	20.68774000	11.00517000
42.69999764	0.00000000	21.01993000	2.17765700
42.89999763	0.00000000	22.22564000	-4.74286400
43.09999762	0.00000000	24.18184000	-7.85556000
43.29999761	0.00000000	26.87623000	-6.74212600
43.49999759	0.00000000	29.52756000	-2.18380900
43.69999758	0.00000000	31.10851000	4.36146600
43.89999757	0.00000000	31.57603000	10.91289000
44.09999756	0.00000000	31.61909000	16.35089000
44.29999755	0.00000000	31.61909000	19.42052000
44.49999753	0.00000000	31.57603000	19.46358000
44.69999752	0.00000000	31.20078000	16.81225000
44.89999751	0.00000000	30.45644000	12.62918000
45.09999750	0.00000000	30.03814000	8.35998900
45.29999749	0.00000000	29.57062000	4.87204700
45.49999748	0.00000000	28.36491000	2.50369100
45.69999746	0.00000000	26.40871000	1.71013800
45.89999745	0.00000000	23.71432000	2.08538400
46.09999744	0.00000000	21.01993000	3.66633800
46.29999743	0.00000000	19.10679000	6.31151500
46.49999742	0.00000000	18.41166000	9.00590400
46.69999740	0.00000000	19.99262000	10.96211000
46.89999739	0.00000000	23.84965000	12.16166000
47.09999738	0.00000000	28.92470000	12.53691000
47.29999737	0.00000000	34.73794000	12.11860000
47.49999736	0.00000000	40.08981000	10.53765000
47.69999734	0.00000000	43.16560000	7.89247000
47.89999733	0.00000000	43.07332000	5.19808000
48.09999732	0.00000000	39.16092000	3.24803100
48.29999731	0.00000000	31.48376000	2.12844500
48.49999730	0.00000000	22.68701000	2.50369100
48.69999729	0.00000000	15.29281000	4.44758800
48.89999727	0.00000000	10.64222000	7.14812900
49.09999726	0.00000000	9.52263600	10.62992000
49.29999725	0.00000000	12.68455000	13.65650000
49.49999724	0.00000000	19.99262000	15.23130000
49.69999723	0.00000000	29.57677000	15.23130000
49.89999721	0.00000000	38.46580000	13.65650000
50.09999720	0.00000000	44.65428000	10.58686000
50.29999719	0.00000000	46.97957000	6.72982200
50.49999718	0.00000000	44.61122000	3.24803100
50.69999717	0.00000000	38.09055000	0.55364170
50.89999715	0.00000000	28.83243000	-0.55979330
51.09999714	0.00000000	19.66043000	0.59670270
51.29999713	0.00000000	13.05979000	3.66633800
51.49999712	0.00000000	10.72835000	7.89247000
51.69999711	0.00000000	12.64149000	12.11860000
51.89999710	0.00000000	18.41166000	15.23130000
52.09999708	0.00000000	26.45792000	16.76919000
52.29999707	0.00000000	34.18430000	16.39395000
52.49999706	0.00000000	39.95448000	14.07480000
52.69999705	0.00000000	42.23671000	10.58686000
52.89999704	0.00000000	39.95448000	6.35457700
53.09999702	0.00000000	34.27657000	2.59596400
53.29999701	0.00000000	27.29453000	1.01501000
53.49999700	0.00000000	20.78002000	1.71013800
53.69999699	0.00000000	16.17864000	3.61712600
53.89999698	0.00000000	15.42815000	6.31151500
54.09999696	0.00000000	18.41166000	9.00590400
54.29999695	0.00000000	23.80659000	10.91289000
54.49999694	0.00000000	29.95201000	11.70029000
54.69999693	0.00000000	35.34695000	10.91289000
54.89999692	0.00000000	38.42273000	9.05511800
55.09999691	0.00000000	38.42273000	6.77903500
55.29999689	0.00000000	35.34695000	5.29035400
55.49999688	0.00000000	29.99508000	5.24729300
55.69999687	0.00000000	24.26796000	6.40378900
55.89999686	0.00000000	19.99262000	8.31077700
56.09999685	0.00000000	18.03642000	10.62992000
56.29999683	0.00000000	18.41166000	12.49385000
56.49999682	0.00000000	21.14911000	13.23819000
56.69999681	0.00000000	25.71358000	12.03248000
56.89999680	0.00000000	30.69020000	9.00590400
57.09999679	0.00000000	34.18430000	5.15501900
57.29999677	0.00000000	35.76525000	1.71013800
57.49999676	0.00000000	35.39001000	-0.60285430
57.69999675	0.00000000	33.06471000	-0.93503930
57.89999674	0.00000000	29.61983000	1.02116100
58.09999673	0.00000000	25.80585000	5.29035400
58.29999672	0.00000000	23.10531000	11.00517000
58.49999670	0.00000000	22.26870000	16.39395000
58.69999669	0.00000000	22.64394000	19.83883000
58.89999668	0.00000000	24.18184000	20.57702000
59.09999667	0.00000000	26.45792000	17.83957000
59.29999666	0.00000000	28.41412000	12.11860000
59.49999664	0.00000000	29.94586000	5.20423200
59.69999663	0.00000000	30.73326000	-0.97810030
59.89999662	0.00000000	30.37032000	-5.24729300
60.09999661	0.00000000	29.61983000	-6.69291300
60.29999660	0.00000000	28.45718000	-4.36761800
60.49999658	0.00000000	27.34375000	1.75935000
60.69999657	0.00000000	26.91929000	9.42421200
60.89999656	0.00000000	26.91929000	16.76919000
61.09999655	0.00000000	27.29453000	22.15797000
61.29999654	0.00000000	28.08194000	24.06496000
61.49999653	0.00000000	28.78937000	22.10876000
61.69999651	0.00000000	29.20152000	16.35089000
61.89999650	0.00000000	28.78937000	8.26771600
62.09999649	0.00000000	28.03888000	0.22145670
62.29999648	0.00000000	26.83317000	-5.99163300
62.49999647	0.00000000	25.33834000	-8.64911400
62.69999645	0.00000000	24.22490000	-7.57258800
62.89999644	0.00000000	24.22490000	-2.88508800
63.09999643	0.00000000	25.33834000	3.99237200
63.29999642	0.00000000	26.87623000	11.74951000
63.49999641	0.00000000	28.45718000	18.30093000
63.69999639	0.00000000	29.99508000	22.57628000
63.89999638	0.00000000	31.15157000	23.68971000
64.09999637	0.00000000	31.48376000	20.99532000
64.29999636	0.00000000	30.73326000	15.27436000
64.49999635	0.00000000	28.83243000	8.35383800
64.69999634	0.00000000	26.91929000	2.12844500
64.89999632	0.00000000	25.33834000	-2.51599400
65.09999631	0.00000000	24.18184000	-4.82898600
65.29999630	0.00000000	23.84965000	-4.09079700
65.49999629	0.00000000	24.60015000	-1.07037400
65.69999628	0.00000000	26.50098000	3.20497000
65.89999626	0.00000000	28.36491000	7.84940900
66.09999625	0.00000000	29.57062000	12.11860000
66.29999624	0.00000000	29.94586000	15.23130000
66.49999623	0.00000000	29.57062000	16.85531000
66.69999622	0.00000000	28.41412000	17.23056000
66.89999620	0.00000000	26.87623000	16.43701000
67.09999619	0.00000000	25.33834000	14.11786000
67.29999618	0.00000000	24.26796000	11.04823000
67.49999617	0.00000000	24.64321000	7.89247000
67.69999616	0.00000000	26.54404000	4.73671200
67.89999615	0.00000000	28.87549000	1.66707700
68.09999613	0.00000000	31.57603000	-0.64591530
68.29999612	0.00000000	33.80905000	-1.43946800
68.49999611	0.00000000	34.14124000	-1.06422200
68.69999610	0.00000000	32.27116000	0.55364170
68.89999609	0.00000000	28.78937000	3.66633800
69.09999607	0.00000000	24.92003000	7.93553100
69.29999606	0.00000000	21.01993000	12.53691000
69.49999605	0.00000000	18.03642000	16.39395000
69.69999604	0.00000000	17.29208000	18.35015000
69.89999603	0.00000000	19.56816000	18.35015000
70.09999601	0.00000000	23.80659000	16.39395000
70.29999600	0.00000000	28.87549000	12.49385000
70.49999599	0.00000000	34.27657000	7.47416300
70.69999598	0.00000000	38.46580000	2.08538400
70.89999597	0.00000000	40.00369000	-2.09768700
71.09999596	0.00000000	38.46580000	-3.67249000
71.29999594	0.00000000	34.23351000	-2.55905500
71.49999593	0.00000000	28.41412000	0.51058070
71.69999592	0.00000000	22.22564000	4.77977300
71.89999591	0.00000000	16.83071000	9.38115100
72.09999590	0.00000000	13.75492000	13.23819000
72.29999588	0.00000000	13.75492000	15.18824000
72.49999587	0.00000000	16.83071000	15.23130000
72.69999586	0.00000000	22.22564000	13.69956000
72.89999585	0.00000000	28.41412000	11.00517000
73.09999584	0.00000000	34.23351000	7.93553100
73.29999582	0.00000000	38.46580000	5.29035400
73.49999581	0.00000000	40.00369000	4.08464600
73.69999580	0.00000000	38.50886000	4.45374000
73.89999579	0.00000000	34.65182000	5.53026500
74.09999578	0.00000000	29.61983000	7.05585600
74.29999577	0.00000000	24.22490000	7.80019600
74.49999575	0.00000000	19.99262000	7.80019600
74.69999574	0.00000000	18.03642000	7.09891700
74.89999573	0.00000000	18.36245000	5.90551100
75.09999572	0.00000000	20.64468000	5.14271600
75.29999571	0.00000000	23.71432000	3.99237200
75.49999569	0.00000000	26.87623000	3.75246000
75.69999568	0.00000000	29.94586000	5.29035400
75.89999567	0.00000000	32.22810000	8.35998900
76.09999566	0.00000000	32.68946000	12.16166000
76.29999565	0.00000000	31.95128000	15.18824000
76.49999563	0.00000000	30.78248000	16.34473000
76.69999562	0.00000000	28.83243000	15.18824000
76.89999561	0.00000000	26.96850000	12.11860000
77.09999560	0.00000000	25.80585000	7.84940900
77.29999559	0.00000000	25.76279000	3.20497000
77.49999558	0.00000000	26.45792000	-1.02116100
77.69999556	0.00000000	26.83317000	-3.67249000
77.89999555	0.00000000	26.83317000	-3.67249000
78.09999554	0.00000000	26.45792000	-0.97810030
78.29999553	0.00000000	25.71358000	3.66633800
78.49999552	0.00000000	25.33834000	9.47342500
78.69999550	0.00000000	25.33834000	15.18824000
78.89999549	0.00000000	25.76279000	19.08834000
79.09999548	0.00000000	26.91929000	20.25714000
79.29999547	0.00000000	28.45718000	19.08834000
79.49999546	0.00000000	30.03814000	15.23130000
79.69999544	0.00000000	31.52682000	9.89173200
79.89999543	0.00000000	32.27116000	4.82898600
80.09999542	0.00000000	31.48376000	0.55364170
80.29999541	0.00000000	29.57062000	-2.14074800
80.49999540	0.00000000	26.87623000	-2.55905500
80.69999539	0.00000000	24.18184000	-1.02116100
80.89999537	0.00000000	22.22564000	2.04232300
81.09999536	0.00000000	21.06299000	5.93626900
81.29999535	0.00000000	21.10605000	9.79945900
81.49999534	0.00000000	22.64394000	13.32431000
81.69999533	0.00000000	25.33834000	15.60654000
81.89999531	0.00000000	28.41412000	16.43701000
82.09999530	0.00000000	31.06545000	15.64960000
82.29999529	0.00000000	32.22810000	13.74262000
82.49999528	0.00000000	31.52682000	11.04823000
82.69999527	0.00000000	29.99508000	8.31077700
82.89999525	0.00000000	28.03888000	5.89320800
83.09999524	0.00000000	25.76279000	3.15575800
83.29999523	0.00000000	24.22490000	0.55364170
83.49999522	0.00000000	23.75738000	-0.60285430
83.69999521	0.00000000	23.75738000	0.09227362
83.89999520	0.00000000	24.18184000	1.66707700
84.09999518	0.00000000	25.33834000	4.08464600
84.29999517	0.00000000	26.83317000	7.93553100
84.49999516	0.00000000	27.98966000	12.11860000
84.69999515	0.00000000	28.36491000	15.23130000
84.89999514	0.00000000	28.08194000	16.81225000
85.09999512	0.00000000	27.66978000	16.76919000
85.29999511	0.00000000	27.70669000	14.81299000
85.49999510	0.00000000	27.66978000	10.95595000
85.69999509	0.00000000	28.08194000	6.35457700
85.89999508	0.00000000	28.41412000	2.08538400
86.09999506	0.00000000	28.45718000	-1.02116100
86.29999505	0.00000000	28.41412000	-2.55905500
86.49999504	0.00000000	27.98966000	-2.14074800
86.69999503	0.00000000	26.83317000	0.59670270
86.89999502	0.00000000	25.33834000	5.19808000
87.09999501	0.00000000	24.18184000	10.53765000
87.29999499	0.00000000	23.80659000	14.76993000
87.49999498	0.00000000	24.18184000	16.76919000
87.69999497	0.00000000	25.29527000	16.76919000
87.89999496	0.00000000	26.45792000	14.81299000
88.09999495	0.00000000	27.29453000	10.95595000
88.29999493	0.00000000	28.45718000	6.35457700
88.49999492	0.00000000	29.57062000	2.12844500
88.69999491	0.00000000	29.94586000	-0.55979330
88.89999490	0.00000000	29.57062000	-0.97810030
89.09999489	0.00000000	28.41412000	0.55364170
89.29999487	0.00000000	26.87623000	3.70939900
89.49999486	0.00000000	25.33834000	8.26771600
89.69999485	0.00000000	24.22490000	12.86294000
89.89999484	0.00000000	24.18184000	15.56348000
90.09999483	0.00000000	24.92003000	16.34473000
90.29999482	0.00000000	25.71358000	14.76993000
90.49999480	0.00000000	26.87623000	10.95595000
90.69999479	0.00000000	27.98966000	6.35457700
90.89999478	0.00000000	28.41412000	2.12844500
91.09999477	0.00000000	28.45718000	-0.55979330
91.29999476	0.00000000	28.41412000	-0.93503930
91.49999474	0.00000000	28.03888000	0.97194880
91.69999473	0.00000000	27.29453000	4.82898600
91.89999472	0.00000000	26.91929000	9.43036400
92.09999471	0.00000000	26.87623000	13.61343000
92.29999470	0.00000000	26.87623000	15.92642000
92.49999468	0.00000000	26.87623000	15.56348000
92.69999467	0.00000000	26.83317000	13.28125000
92.89999466	0.00000000	26.40871000	9.38115100
93.09999465	0.00000000	25.29527000	4.82898600
93.29999464	0.00000000	24.18184000	0.97194880
93.49999463	0.00000000	23.80659000	-0.88582670
93.69999461	0.00000000	24.18184000	-0.18454720
93.89999460	0.00000000	25.33834000	2.87278500
94.09999459	0.00000000	26.87623000	6.68676100
94.29999458	0.00000000	28.45718000	10.58686000
94.49999457	0.00000000	30.03814000	13.60728000
94.69999455	0.00000000	31.52682000	14.76993000
94.89999454	0.00000000	32.27116000	13.60728000
95.09999453	0.00000000	31.48376000	10.58686000
95.29999452	0.00000000	29.57062000	6.72982200
95.49999451	0.00000000	26.83317000	3.29109200
95.69999449	0.00000000	23.75738000	0.97194880
95.89999448	0.00000000	21.06299000	0.59670270
96.09999447	0.00000000	19.52510000	2.08538400
96.29999446	0.00000000	19.52510000	4.77977300
96.49999445	0.00000000	21.06299000	7.89247000
96.69999444	0.00000000	23.84965000	10.96211000
96.89999442	0.00000000	27.66978000	13.18898000
97.09999441	0.00000000	31.89591000	13.23819000
97.29999440	0.00000000	34.60876000	11.38041000
97.49999439	0.00000000	35.81446000	9.05511800
97.69999438	0.00000000	35.34695000	6.36072800
97.89999436	0.00000000	32.64640000	4.08464600
98.09999435	0.00000000	28.45718000	3.29109200
98.29999434	0.00000000	24.18184000	3.62327700
98.49999433	0.00000000	20.68774000	4.77977300
98.69999432	0.00000000	18.36245000	6.26845500
98.89999430	0.00000000	17.98720000	7.47416300
99.09999429	0.00000000	19.48204000	8.26771600
99.29999428	0.00000000	22.22564000	9.00590400
99.49999427	0.00000000	25.67052000	9.00590400
99.69999426	0.00000000	29.20152000	8.35998900
99.89999425	0.00000000	31.90822000	8.35998900
100.09999423	0.00000000	33.85827000	9.05511800
100.29999422	0.00000000	34.23351000	9.43036400
100.49999421	0.00000000	33.06471000	9.47342500
100.69999420	0.00000000	30.78248000	9.43036400
100.89999419	0.00000000	27.66978000	9.00590400
101.09999417	0.00000000	24.96309000	7.84940900
101.29999416	0.00000000	22.60088000	6.31151500
101.49999415	0.00000000	21.06299000	4.73671200
101.69999414	0.00000000	20.64468000	3.24803100
101.89999413	0.00000000	21.06299000	2.50369100
102.09999411	0.00000000	22.60088000	3.29109200
102.29999410	0.00000000	24.92003000	5.19808000
102.49999409	0.00000000	27.25147000	7.89247000
102.69999408	0.00000000	29.57062000	10.58686000
102.89999407	0.00000000	31.10851000	12.53691000
103.09999406	0.00000000	31.52682000	13.65650000
103.29999404	0.00000000	31.10851000	13.23819000
103.49999403	0.00000000	29.57062000	10.96211000
103.69999402	0.00000000	27.29453000	7.89247000
103.89999401	0.00000000	25.33834000	4.77977300
104.09999400	0.00000000	23.75738000	2.08538400
104.29999398	0.00000000	22.60088000	0.59670270
104.49999397	0.00000000	22.22564000	0.97194880
104.69999396	0.00000000	22.64394000	3.24803100
104.89999395	0.00000000	24.18184000	6.26845500
105.09999394	0.00000000	26.40871000	9.05511800
105.29999392	0.00000000	27.94660000	11.33735000
105.49999391	0.00000000	28.45718000	12.90600000
105.69999390	0.00000000	28.78937000	12.86909000
105.89999389	0.00000000	28.77707000	11.74951000
106.09999388	0.00000000	27.62672000	9.38115100
106.29999387	0.00000000	26.54404000	6.40378900
106.49999385	0.00000000	25.67052000	4.08464600
106.69999384	0.00000000	24.96309000	3.29109200
106.89999383	0.00000000	24.60015000	3.62327700
107.09999382	0.00000000	25.33834000	4.77977300
107.29999381	0.00000000	26.45792000	6.36072800
107.49999379	0.00000000	27.25147000	8.26771600
107.69999378	0.00000000	28.03888000	10.11934000
107.89999377	0.00000000	28.36491000	10.53765000
108.09999376	0.00000000	27.98966000	9.79945900
108.29999375	0.00000000	26.83317000	8.63681000
108.49999374	0.00000000	25.33834000	6.72982200
108.69999372	0.00000000	24.18184000	5.19808000
108.89999371	0.00000000	23.80659000	4.40452700
109.09999370	0.00000000	24.13263000	4.04158400
109.29999369	0.00000000	24.92003000	4.82283400
109.49999368	0.00000000	25.71358000	6.31151500
109.69999366	0.00000000	26.91929000	7.89247000
109.89999365	0.00000000	28.41412000	9.42421200
110.09999364	0.00000000	29.52756000	10.53765000
110.29999363	0.00000000	29.52756000	10.53765000
110.49999362	0.00000000	28.41412000	9.42421200
110.69999360	0.00000000	26.91929000	7.89247000
110.89999359	0.00000000	25.71358000	6.36072800
111.09999358	0.00000000	24.92003000	5.19808000
111.29999357	0.00000000	24.13263000	4.77977300
111.49999356	0.00000000	23.80659000	4.77977300
111.69999355	0.00000000	24.18184000	5.15501900
111.89999353	0.00000000	25.29527000	5.93626900
112.09999352	0.00000000	26.45792000	6.68676100
112.29999351	0.00000000	27.25147000	7.51722400
112.49999350	0.00000000	28.03888000	8.22465500
112.69999349	0.00000000	28.36491000	8.63681000
112.89999347	0.00000000	28.03888000	8.26771600
113.09999346	0.00000000	27.29453000	7.93553100
113.29999345	0.00000000	26.87623000	7.89247000
113.49999344	0.00000000	26.45792000	7.84940900
113.69999343	0.00000000	25.71358000	7.51722400
113.89999341	0.00000000	25.33834000	7.14812900
114.09999340	0.00000000	25.29527000	7.47416300
114.29999339	0.00000000	25.33834000	7.42495000
114.49999338	0.00000000	25.71358000	6.72982200
114.69999337	0.00000000	26.45792000	6.35457700
114.89999336	0.00000000	26.83317000	6.31151500
115.09999334	0.00000000	26.87623000	6.31151500
115.29999333	0.00000000	26.87623000	6.31151500
115.49999332	0.00000000	26.87623000	6.31151500
115.69999331	0.00000000	26.83317000	6.35457700
115.89999330	0.00000000	26.45792000	6.72982200
116.09999328	0.00000000	25.71358000	7.51722400
116.29999327	0.00000000	25.29527000	8.26771600
116.49999326	0.00000000	24.92003000	9.05511800
116.69999325	0.00000000	24.55093000	9.38115100
116.89999324	0.00000000	24.92003000	9.05511800
117.09999322	0.00000000	25.29527000	8.26771600
117.29999321	0.00000000	25.76279000	7.47416300
117.49999320	0.00000000	26.87623000	6.31151500
117.69999319	0.00000000	27.98966000	5.19808000
117.89999318	0.00000000	28.41412000	4.77977300
118.09999317	0.00000000	28.41412000	4.77977300
118.29999315	0.00000000	27.98966000	5.15501900
118.49999314	0.00000000	26.87623000	5.93626900
118.69999313	0.00000000	25.71358000	6.68676100
118.89999312	0.00000000	24.92003000	7.51722400
119.09999311	0.00000000	24.13263000	8.26771600
119.29999309	0.00000000	23.75738000	9.05511800
119.49999308	0.00000000	23.75738000	9.38115100
119.69999307	0.00000000	24.18184000	9.05511800
119.89999306	0.00000000	25.33834000	8.31077700
120.09999305	0.00000000	26.83317000	7.89247000
120.29999303	0.00000000	28.03888000	7.47416300
120.49999302	0.00000000	28.78937000	6.72982200
120.69999301	0.00000000	29.20152000	6.35457700
120.89999300	0.00000000	28.78937000	6.31151500
121.09999299	0.00000000	28.03888000	6.31151500
121.29999298	0.00000000	26.83317000	6.31151500
121.49999296	0.00000000	25.33834000	6.31151500
121.69999295	0.00000000	24.13263000	6.31151500
121.89999294	0.00000000	23.38214000	6.35457700
122.09999293	0.00000000	22.96998000	6.72982200
122.29999292	0.00000000	23.38214000	7.51722400
122.49999290	0.00000000	24.08957000	8.22465500
122.69999289	0.00000000	24.92003000	8.67987200
122.89999288	0.00000000	25.71358000	8.64296200
123.09999287	0.00000000	26.87623000	8.67987200
123.29999286	0.00000000	27.94660000	8.22465500
123.49999284	0.00000000	27.98966000	7.51722400
123.69999283	0.00000000	27.29453000	6.72982200
123.89999282	0.00000000	26.91929000	6.35457700
124.09999281	0.00000000	26.83317000	6.31151500
124.29999280	0.00000000	26.45792000	6.31151500
124.49999279	0.00000000	25.71358000	6.31151500
124.69999277	0.00000000	25.29527000	6.31151500
124.89999276	0.00000000	24.87697000	6.35457700
125.09999275	0.00000000	24.13263000	6.72982200
125.29999274	0.00000000	23.80659000	7.47416300
125.49999273	0.00000000	24.13263000	7.84940900
125.69999271	0.00000000	24.87697000	7.89247000
125.89999270	0.00000000	25.29527000	7.89247000
126.09999269	0.00000000	25.76279000	7.89247000
126.29999268	0.00000000	26.87623000	7.89247000
126.49999267	0.00000000	27.98966000	7.84940900
126.69999265	0.00000000	28.36491000	7.47416300
126.89999264	0.00000000	28.03888000	6.72982200
127.09999263	0.00000000	27.25147000	6.35457700
127.29999262	0.00000000	26.45792000	6.31151500
127.49999261	0.00000000	25.29527000	6.26845500
127.69999260	0.00000000	24.18184000	5.98548200
127.89999258	0.00000000	23.75738000	5.99163300
128.09999257	0.00000000	23.75738000	7.09891700
128.29999256	0.00000000	24.18184000	7.80019600
128.49999255	0.00000000	25.29527000	7.89247000
128.69999254	0.00000000	26.45792000	7.89247000
128.89999252	0.00000000	27.25147000	7.84940900
129.09999251	0.00000000	27.98966000	7.51722400
129.29999250	0.00000000	27.98966000	7.14812900
129.49999249	0.00000000	27.25147000	7.47416300
129.69999248	0.00000000	26.45792000	7.42495000
129.89999246	0.00000000	25.29527000	6.72982200
130.09999245	0.00000000	24.18184000	6.35457700
130.29999244	0.00000000	23.75738000	6.35457700
130.49999243	0.00000000	23.75738000	6.72982200
130.69999242	0.00000000	24.18184000	7.47416300
130.89999241	0.00000000	25.29527000	7.84940900
131.09999239	0.00000000	26.40871000	7.89247000
131.29999238	0.00000000	26.83317000	7.89247000
131.49999237	0.00000000	26.87623000	7.84940900
131.69999236	0.00000000	26.87623000	7.47416300
131.89999235	0.00000000	26.83317000	6.72982200
132.09999233	0.00000000	26.45792000	6.35457700
132.29999232	0.00000000	25.67052000	6.31151500
132.49999231	0.00000000	24.96309000	6.31151500
132.69999230	0.00000000	24.55093000	6.35457700
132.89999229	0.00000000	24.92003000	6.72982200
133.09999227	0.00000000	25.29527000	7.51722400
133.29999226	0.00000000	25.67052000	8.26771600
133.49999225	0.00000000	26.03961000	9.05511800
133.69999224	0.00000000	25.67052000	9.38115100
133.89999223	0.00000000	25.33834000	9.00590400
134.09999222	0.00000000	25.29527000	7.89247000
134.29999220	0.00000000	25.29527000	6.72982200
134.49999219	0.00000000	25.29527000	5.98548200
134.69999218	0.00000000	25.29527000	5.53026500
134.89999217	0.00000000	25.33834000	5.51796200
135.09999216	0.00000000	25.71358000	5.15501900
135.29999214	0.00000000	26.45792000	5.19808000
135.49999213	0.00000000	26.83317000	5.93626900
135.69999212	0.00000000	26.83317000	6.68676100
135.89999211	0.00000000	26.45792000	7.51722400
136.09999210	0.00000000	25.67052000	8.22465500
136.29999208	0.00000000	24.92003000	8.63681000
136.49999207	0.00000000	24.13263000	8.26771600
136.69999206	0.00000000	23.80659000	7.93553100
136.89999205	0.00000000	24.13263000	7.84940900
137.09999204	0.00000000	24.87697000	7.47416300
137.29999203	0.00000000	25.29527000	6.72982200
137.49999201	0.00000000	25.71358000	6.35457700
137.69999200	0.00000000	26.45792000	6.31151500
137.89999199	0.00000000	26.83317000	6.26845500
138.09999198	0.00000000	26.87623000	5.93626900
138.29999197	0.00000000	26.83317000	5.57332700
138.49999195	0.00000000	26.40871000	5.93626900
138.69999194	0.00000000	25.29527000	6.31151500
138.89999193	0.00000000	24.18184000	6.72982200
139.09999192	0.00000000	23.75738000	7.47416300
139.29999191	0.00000000	23.75738000	7.89247000
139.49999189	0.00000000	24.13263000	8.31077700
139.69999188	0.00000000	24.92003000	9.00590400
139.89999187	0.00000000	25.67052000	9.00590400
140.09999186	0.00000000	26.45792000	8.26771600
140.29999185	0.00000000	26.78395000	7.51722400
140.49999184	0.00000000	26.45792000	6.68676100
140.69999182	0.00000000	25.76279000	5.93626900
140.89999181	0.00000000	25.71358000	5.15501900
141.09999180	0.00000000	25.99040000	4.82898600
141.29999179	0.00000000	25.29527000	5.15501900
141.49999178	0.00000000	24.60015000	5.93626900
141.69999176	0.00000000	24.92003000	6.68676100
141.89999175	0.00000000	25.25221000	7.51722400
142.09999174	0.00000000	25.33834000	8.26771600
142.29999173	0.00000000	25.71358000	9.05511800
142.49999172	0.00000000	26.40871000	9.38115100
142.69999170	0.00000000	26.40871000	9.05511800
142.89999169	0.00000000	25.71358000	8.26771600
143.09999168	0.00000000	25.33834000	7.47416300
143.29999167	0.00000000	25.29527000	6.31151500
143.49999166	0.00000000	25.29527000	5.19808000
143.69999165	0.00000000	25.29527000	4.82898600
143.89999163	0.00000000	25.29527000	5.15501900
144.09999162	0.00000000	25.29527000	5.93626900
144.29999161	0.00000000	25.33834000	6.68676100
144.49999160	0.00000000	25.71358000	7.47416300
144.69999159	0.00000000	26.40871000	7.84940900
144.89999157	0.00000000	26.40871000	7.89247000
145.09999156	0.00000000	25.71358000	7.89247000
145.29999155	0.00000000	25.33834000	7.89247000
145.49999154	0.00000000	25.29527000	7.84940900
145.69999153	0.00000000	25.29527000	7.47416300
145.89999151	0.00000000	25.29527000	6.72982200
146.09999150	0.00000000	25.29527000	6.35457700
146.29999149	0.00000000	25.29527000	6.31151500
146.49999148	0.00000000	25.29527000	6.31151500
146.69999147	0.00000000	25.33834000	6.31151500
146.89999146	0.00000000	25.71358000	6.31151500
147.09999144	0.00000000	26.45792000	6.31151500
147.29999143	0.00000000	26.78395000	6.35457700
147.49999142	0.00000000	26.45792000	6.72982200
147.69999141	0.00000000	25.71358000	7.47416300
147.89999140	0.00000000	25.33834000	7.84940900
148.09999138	0.00000000	25.29527000	7.89247000
148.29999137	0.00000000	25.25221000	7.89247000
148.49999136	0.00000000	24.92003000	7.84940900
148.69999135	0.00000000	24.55093000	7.47416300
148.89999134	0.00000000	24.92003000	6.72982200
149.09999132	0.00000000	25.25221000	6.35457700
149.29999131	0.00000000	25.29527000	6.31151500
149.49999130	0.00000000	25.29527000	6.31151500
149.69999129	0.00000000	25.33834000	6.31151500
149.89999128	0.00000000	25.67052000	6.35457700
150.09999127	0.00000000	26.03961000	6.72982200
150.29999125	0.00000000	25.67052000	7.47416300
150.49999124	0.00000000	25.33834000	7.84940900
150.69999123	0.00000000	25.29527000	7.89247000
150.89999122	0.00000000	25.29527000	7.89247000
151.09999121	0.00000000	25.29527000	7.84940900
151.29999119	0.00000000	25.29527000	7.47416300
151.49999118	0.00000000	25.29527000	6.72982200
151.69999117	0.00000000	25.29527000	6.35457700
151.89999116	0.00000000	25.29527000	6.31151500
152.09999115	0.00000000	25.29527000	6.31151500
152.29999113	0.00000000	25.29527000	6.31151500
152.49999112	0.00000000	25.33834000	6.31151500
152.69999111	0.00000000	25.67052000	6.31151500
152.89999110	0.00000000	26.03961000	6.31151500
153.09999109	0.00000000	25.67052000	6.31151500
153.29999108	0.00000000	25.33834000	6.35457700
153.49999106	0.00000000	25.29527000	6.72982200
153.69999105	0.00000000	25.29527000	7.47416300
153.89999104	0.00000000	25.25221000	7.84940900
154.09999103	0.00000000	24.87697000	7.89247000
154.29999102	0.00000000	24.13263000	7.84940900
154.49999100	0.00000000	23.80659000	7.51722400
154.69999099	0.00000000	24.13263000	7.10506800
154.89999098	0.00000000	24.87697000	7.09891700
155.09999097	0.00000000	25.25221000	6.68676100
155.29999096	0.00000000	25.29527000	6.35457700
155.49999094	0.00000000	25.29527000	6.31151500
155.69999093	0.00000000	25.33834000	6.31151500
155.89999092	0.00000000	25.67052000	6.31151500
156.09999091	0.00000000	26.03961000	6.31151500
156.29999090	0.00000000	25.67052000	6.35457700
156.49999089	0.00000000	25.29527000	6.72982200
156.69999087	0.00000000	24.87697000	7.47416300
156.89999086	0.00000000	24.13263000	7.84940900
157.09999085	0.00000000	23.75738000	7.89247000
157.29999084	0.00000000	23.75738000	7.89247000
157.49999083	0.00000000	24.13263000	7.84940900
157.69999081	0.00000000	24.87697000	7.51722400
157.89999080	0.00000000	25.25221000	7.10506800
158.09999079	0.00000000	25.33834000	7.09891700
158.29999078	0.00000000	25.67052000	6.68676100
158.49999077	0.00000000	26.08268000	6.35457700
158.69999075	0.00000000	26.04577000	6.31151500
158.89999074	0.00000000	26.08268000	6.31151500
159.09999073	0.00000000	25.67052000	6.31151500
159.29999072	0.00000000	25.33834000	6.35457700
159.49999071	0.00000000	25.29527000	6.72982200
159.69999070	0.00000000	25.25221000	7.47416300
159.89999068	0.00000000	24.87697000	7.84940900
160.09999067	0.00000000	24.13263000	7.89247000
160.29999066	0.00000000	23.80659000	7.89247000
160.49999065	0.00000000	24.13263000	7.84940900
160.69999064	0.00000000	24.87697000	7.47416300
160.89999062	0.00000000	25.25221000	6.72982200
161.09999061	0.00000000	25.29527000	6.35457700
161.29999060	0.00000000	25.29527000	6.31151500
161.49999059	0.00000000	25.29527000	6.31151500
161.69999058	0.00000000	25.29527000	6.31151500
161.89999056	0.00000000	25.29527000	6.31151500
162.09999055	0.00000000	25.29527000	6.35457700
162.29999054	0.00000000	25.29527000	6.72982200
162.49999053	0.00000000	25.29527000	7.47416300
162.69999052	0.00000000	25.29527000	7.84940900
162.89999051	0.00000000	25.25221000	7.89247000
163.09999049	0.00000000	24.87697000	7.89247000
163.29999048	0.00000000	24.13263000	7.84940900
163.49999047	0.00000000	23.75738000	7.47416300
163.69999046	0.00000000	23.71432000	6.72982200
163.89999045	0.00000000	23.75738000	6.35457700
164.09999043	0.00000000	24.13263000	6.31151500
164.29999042	0.00000000	24.87697000	6.31151500
164.49999041	0.00000000	25.25221000	6.31151500
164.69999040	0.00000000	25.29527000	6.31151500
164.89999039	0.00000000	25.29527000	6.31151500
165.09999037	0.00000000	25.29527000	6.31151500
165.29999036	0.00000000	25.29527000	6.31151500
165.49999035	0.00000000	25.29527000	6.31151500
165.69999034	0.00000000	25.29527000	6.31151500
165.89999033	0.00000000	25.25221000	6.31151500
166.09999032	0.00000000	24.87697000	6.31151500
166.29999030	0.00000000	24.13263000	6.35457700
166.49999029	0.00000000	23.75738000	6.68676100
166.69999028	0.00000000	23.71432000	7.05585600
166.89999027	0.00000000	23.75738000	6.68676100
167.09999026	0.00000000	24.13263000	6.35457700
167.29999024	0.00000000	24.87697000	6.31151500
167.49999023	0.00000000	25.25221000	6.31151500
167.69999022	0.00000000	25.29527000	6.35457700
167.89999021	0.00000000	25.29527000	6.68676100
168.09999020	0.00000000	25.29527000	7.05585600
168.29999018	0.00000000	25.29527000	6.68676100
168.49999017	0.00000000	25.29527000	6.35457700
168.69999016	0.00000000	25.29527000	6.31151500
168.89999015	0.00000000	25.29527000	6.31151500
169.09999014	0.00000000	25.25221000	6.31151500
169.29999013	0.00000000	24.92003000	6.31151500
169.49999011	0.00000000	24.50787000	6.31151500
169.69999010	0.00000000	24.50172000	6.31151500
169.89999009	0.00000000	24.13263000	6.31151500
170.09999008	0.00000000	24.18184000	6.31151500
170.29999007	0.00000000	24.87697000	6.31151500
170.49999005	0.00000000	25.25221000	6.31151500
170.69999004	0.00000000	25.29527000	6.31151500
170.89999003	0.00000000	25.29527000	6.31151500
171.09999002	0.00000000	25.29527000	6.31151500
171.29999001	0.00000000	25.29527000	6.31151500
171.49998999	0.00000000	25.29527000	6.31151500
171.69998998	0.00000000	25.29527000	6.31151500
171.89998997	0.00000000	25.29527000	6.31151500
172.09998996	0.00000000	25.29527000	6.31151500
172.29998995	0.00000000	25.25221000	6.31151500
172.49998994	0.00000000	24.87697000	6.31151500
172.69998992	0.00000000	24.18184000	6.31151500
172.89998991	0.00000000	24.18184000	6.31151500
173.09998990	0.00000000	24.87697000	6.31151500
173.29998989	0.00000000	25.20300000	6.31151500
173.49998988	0.00000000	24.92003000	6.31151500
173.69998986	0.00000000	24.55093000	6.31151500
173.89998985	0.00000000	24.92003000	6.31151500
174.09998984	0.00000000	25.25221000	6.31151500
174.29998983	0.00000000	25.29527000	6.31151500
174.49998982	0.00000000	25.29527000	6.31151500
174.69998980	0.00000000	25.25221000	6.31151500
174.89998979	0.00000000	24.92003000	6.31151500
175.09998978	0.00000000	24.50787000	6.31151500
175.29998977	0.00000000	24.50172000	6.31151500
175.49998976	0.00000000	24.13263000	6.31151500
175.69998975	0.00000000	24.18184000	6.31151500
175.89998973	0.00000000	24.87697000	6.31151500
176.09998972	0.00000000	25.25221000	6.31151500
176.29998971	0.00000000	25.29527000	6.31151500
176.49998970	0.00000000	25.29527000	6.35457700
176.69998969	0.00000000	25.29527000	6.68676100
176.89998967	0.00000000	25.29527000	7.05585600
177.09998966	0.00000000	25.29527000	6.68676100
177.29998965	0.00000000	25.29527000	6.35457700
177.49998964	0.00000000	25.29527000	6.31151500
177.69998963	0.00000000	25.29527000	6.31151500
177.89998961	0.00000000	25.29527000	6.35457700
178.09998960	0.00000000	25.29527000	6.68676100
178.29998959	0.00000000	25.29527000	7.09891700
178.49998958	0.00000000	25.29527000	7.10506800
178.69998957	0.00000000	25.29527000	7.51722400
178.89998956	0.00000000	25.29527000	7.80019600
179.09998954	0.00000000	25.29527000	7.47416300
179.29998953	0.00000000	25.29527000	6.72982200
179.49998952	0.00000000	25.29527000	6.35457700
179.69998951	0.00000000	25.29527000	6.31151500
179.89998950	0.00000000	25.29527000	6.31151500
180.09998948	0.00000000	25.29527000	6.31151500
180.29998947	0.00000000	25.25221000	6.31151500
180.49998946	0.00000000	24.87697000	6.31151500
180.69998945	0.00000000	24.13263000	6.31151500
180.89998944	0.00000000	23.75738000	6.31151500
181.09998942	0.00000000	23.71432000	6.31151500
181.29998941	0.00000000	23.71432000	6.31151500
181.49998940	0.00000000	23.71432000	6.35457700
181.69998939	0.00000000	23.71432000	6.68676100
181.89998938	0.00000000	23.75738000	7.09891700
182.09998937	0.00000000	24.13263000	7.06200700
182.29998935	0.00000000	24.87697000	7.09891700
182.49998934	0.00000000	25.25221000	6.68676100
182.69998933	0.00000000	25.29527000	6.35457700
182.89998932	0.00000000	25.29527000	6.31151500
183.09998931	0.00000000	25.29527000	6.31151500
183.29998929	0.00000000	25.29527000	6.31151500
183.49998928	0.00000000	25.25221000	6.31151500
183.69998927	0.00000000	24.87697000	6.31151500
183.89998926	0.00000000	24.13263000	6.31151500
184.09998925	0.00000000	23.75738000	6.31151500
184.29998923	0.00000000	23.71432000	6.35457700
184.49998922	0.00000000	23.71432000	6.72982200
184.69998921	0.00000000	23.71432000	7.47416300
184.89998920	0.00000000	23.71432000	7.84940900
185.09998919	0.00000000	23.75738000	7.89247000
185.29998918	0.00000000	24.13263000	7.84940900
185.49998916	0.00000000	24.87697000	7.47416300
185.69998915	0.00000000	25.25221000	6.72982200
185.89998914	0.00000000	25.29527000	6.35457700
186.09998913	0.00000000	25.29527000	6.31151500
186.29998912	0.00000000	25.25221000	6.31151500
186.49998910	0.00000000	24.87697000	6.31151500
186.69998909	0.00000000	24.13263000	6.31151500
186.89998908	0.00000000	23.75738000	6.31151500
187.09998907	0.00000000	23.71432000	6.31151500
187.29998906	0.00000000	23.71432000	6.35457700
187.49998904	0.00000000	23.71432000	6.72982200
187.69998903	0.00000000	23.71432000	7.47416300
187.89998902	0.00000000	23.71432000	7.84940900
188.09998901	0.00000000	23.75738000	7.84940900
188.29998900	0.00000000	24.13263000	7.47416300
188.49998899	0.00000000	24.87697000	6.72982200
188.69998897	0.00000000	25.25221000	6.35457700
188.89998896	0.00000000	25.29527000	6.26845500
189.09998895	0.00000000	25.25221000	5.89320800
189.29998894	0.00000000	24.87697000	5.19808000
189.49998893	0.00000000	24.13263000	5.19808000
189.69998891	0.00000000	23.75738000	5.89320800
189.89998890	0.00000000	23.71432000	6.31151500
190.09998889	0.00000000	23.71432000	6.68676100
190.29998888	0.00000000	23.71432000	7.05585600
190.49998887	0.00000000	23.71432000	6.72982200
190.69998885	0.00000000	23.71432000	6.72982200
190.89998884	0.00000000	23.71432000	7.05585600
191.09998883	0.00000000	23.75738000	6.68676100
191.29998882	0.00000000	24.13263000	6.35457700
191.49998881	0.00000000	24.87697000	6.31151500
191.69998880	0.00000000	25.25221000	6.31151500
191.89998878	0.00000000	25.29527000	6.31151500
192.09998877	0.00000000	25.25221000	6.31151500
192.29998876	0.00000000	24.87697000	6.31151500
192.49998875	0.00000000	24.13263000	6.31151500
192.69998874	0.00000000	23.75738000	6.31151500
192.89998872	0.00000000	23.71432000	6.31151500
193.09998871	0.00000000	23.71432000	6.31151500
193.29998870	0.00000000	23.71432000	6.31151500
193.49998869	0.00000000	23.71432000	6.31151500
193.69998868	0.00000000	23.71432000	6.31151500
193.89998866	0.00000000	23.71432000	6.31151500
194.09998865	0.00000000	23.75738000	6.31151500
194.29998864	0.00000000	24.08957000	6.31151500
194.49998863	0.00000000	24.50172000	6.35457700
194.69998862	0.00000000	24.46481000	6.68676100
194.89998861	0.00000000	24.50172000	7.05585600
195.09998859	0.00000000	24.08957000	6.68676100
195.29998858	0.00000000	23.75738000	6.35457700
195.49998857	0.00000000	23.71432000	6.31151500
195.69998856	0.00000000	23.71432000	6.31151500
195.89998855	0.00000000	23.71432000	6.31151500
196.09998853	0.00000000	23.71432000	6.31151500
