Time	Channel A	Channel B	Channel C
(us)	(V)	(mV)	(mV)

-4.49999956	0.00000000	81.84669000	32.41265000
-4.29999957	0.00000000	81.47760000	32.78174000
-4.09999958	0.00000000	81.84669000	33.11393000
-3.89999959	0.00000000	82.12967000	33.15699000
-3.69999960	0.00000000	81.80363000	33.15699000
-3.49999962	0.00000000	81.05930000	33.15699000
-3.29999963	0.00000000	80.73326000	33.15699000
-3.09999964	0.00000000	81.05930000	33.15699000
-2.89999965	0.00000000	81.80363000	33.15699000
-2.69999966	0.00000000	82.12967000	33.15699000
-2.49999968	0.00000000	81.80363000	33.15699000
-2.29999969	0.00000000	81.10851000	33.15699000
-2.09999970	0.00000000	81.10851000	33.15699000
-1.89999971	0.00000000	81.75443000	33.15699000
-1.69999972	0.00000000	81.80363000	33.15699000
-1.49999973	0.00000000	81.47760000	33.15699000
-1.29999975	0.00000000	81.84669000	33.15699000
-1.09999976	0.00000000	82.17889000	33.15699000
-0.89999977	0.00000000	82.22194000	33.15699000
-0.69999978	0.00000000	82.17889000	33.15699000
-0.49999979	0.00000000	81.84669000	33.15699000
-0.29999981	0.31803640	81.43454000	33.11393000
-0.09999982	0.63668800	81.47145000	32.78174000
0.10000017	0.95533960	81.43454000	32.36959000
0.30000016	0.95533960	81.80363000	32.36343000
0.50000015	0.79601380	81.80363000	31.95128000
0.70000013	0.31803640	81.43454000	31.61909000
0.90000012	-0.47736220	81.42839000	31.57603000
1.10000011	-1.43331700	81.05930000	31.61909000
1.30000010	-2.22994600	81.05930000	31.99434000
1.50000009	-2.70792300	81.42839000	32.73868000
1.70000008	-2.54859700	81.43454000	33.11393000
1.90000006	-1.43331700	81.80363000	33.15699000
2.10000005	0.31803640	81.80363000	33.15699000
2.30000004	2.38927200	81.47760000	33.15699000
2.50000003	4.30056600	81.80363000	33.11393000
2.70000002	5.25652100	81.75443000	32.73868000
2.90000000	4.93786900	81.05930000	31.99434000
3.09999999	3.18590100	80.68405000	31.61909000
3.29999998	0.31803640	80.64099000	31.57603000
3.49999997	-3.18590100	80.64099000	31.61909000
3.69999996	-6.21247500	80.64099000	31.99434000
3.89999994	-7.80511800	80.68405000	32.73868000
4.09999993	-7.48646600	81.05930000	33.11393000
4.29999992	-5.41584600	81.80363000	33.15699000
4.49999991	-1.59264300	82.12967000	33.15699000
4.69999990	2.86724900	81.84669000	33.15699000
4.89999989	6.84916400	81.43454000	33.11393000
5.09999987	9.07972400	81.42839000	32.73868000
5.29999986	9.23905000	81.01624000	31.99434000
5.49999985	7.00848900	80.68405000	31.61909000
5.69999984	2.86724900	80.64099000	31.57603000
5.89999983	-1.91129400	80.64099000	31.61909000
6.09999981	-6.21247500	80.68405000	31.99434000
6.29999980	-8.92039900	81.05930000	32.73868000
6.49999979	-9.39837600	81.80363000	33.11393000
6.69999978	-7.48646600	82.17889000	33.15699000
6.89999977	-3.82258900	82.17889000	33.15699000
7.09999975	0.47736220	81.80363000	33.20005000
7.29999974	4.45989200	81.05930000	33.53223000
7.49999973	7.00848900	80.68405000	33.90133000
7.69999972	7.64579200	80.64099000	33.53223000
7.89999971	6.37180100	80.64099000	33.15699000
8.09999970	3.82258900	80.64099000	32.78174000
8.29999968	0.47736220	80.68405000	32.41265000
8.49999967	-2.54859700	81.05930000	32.78174000
8.69999966	-4.61921700	81.80363000	33.11393000
8.89999965	-5.09719500	82.12967000	33.15699000
9.09999964	-4.45989200	81.84669000	33.15699000
9.29999962	-2.86724900	81.43454000	33.15699000
9.49999961	-0.95533960	81.47145000	33.15699000
9.69999960	0.95533960	81.39148000	33.15699000
9.89999959	2.07062000	81.42839000	33.15699000
10.09999958	2.54859700	81.01624000	33.15699000
10.29999956	2.22994600	80.68405000	33.15699000
10.49999955	1.59264300	80.64099000	33.11393000
10.69999954	0.63668800	80.68405000	32.78174000
10.89999953	-0.15871060	81.05930000	32.41265000
11.09999952	-0.63668800	81.75443000	32.78174000
11.29999951	-0.95533960	81.75443000	33.06471000
11.49999949	-0.95533960	81.05930000	32.78174000
11.69999948	-0.79601380	80.68405000	32.36959000
11.89999947	-0.47736220	80.64099000	32.40649000
12.09999946	-0.15871060	80.64099000	32.36959000
12.29999945	-0.15871060	80.68405000	32.78174000
12.49999943	-0.15871060	81.01624000	33.11393000
12.69999942	0.00000000	81.38533000	33.11393000
12.89999941	0.00000000	81.01624000	32.73868000
13.09999940	0.00000000	80.68405000	31.99434000
13.29999939	0.00000000	80.64099000	31.61909000
13.49999937	0.00000000	80.64099000	31.57603000
13.69999936	0.00000000	80.64099000	31.57603000
13.89999935	0.00000000	80.64099000	31.57603000
14.09999934	-0.15871060	80.64099000	31.57603000
14.29999933	-0.15871060	80.64099000	31.61909000
14.49999932	-0.15871060	80.64099000	31.95128000
14.69999930	0.00000000	80.64099000	32.36343000
14.89999929	0.00000000	80.64099000	32.32653000
15.09999928	0.00000000	80.64099000	32.36343000
15.29999927	0.00000000	80.64099000	31.95128000
15.49999926	0.00000000	80.64099000	31.61909000
15.69999924	0.00000000	80.64099000	31.57603000
15.89999923	0.00000000	80.64099000	31.57603000
16.09999922	0.00000000	80.64099000	31.61909000
16.29999921	0.00000000	80.64099000	31.99434000
16.49999920	-0.15871060	80.64099000	32.68946000
16.69999919	-0.15871060	80.68405000	32.68946000
16.89999917	0.00000000	81.05930000	31.99434000
17.09999916	0.00000000	81.84669000	31.61909000
17.29999915	0.00000000	82.55412000	31.57603000
17.49999914	0.00000000	82.96629000	31.57603000
17.69999913	0.00000000	82.59719000	31.57603000
17.89999911	0.00000000	82.17889000	31.57603000
18.09999910	0.00000000	81.38533000	31.61909000
18.29999909	0.00000000	79.81052000	31.95128000
18.49999908	0.00000000	78.30954000	32.32037000
18.69999907	0.00000000	76.73474000	31.95128000
18.89999905	0.00000000	75.99039000	31.61909000
19.09999904	0.00000000	75.99039000	31.57603000
19.29999903	0.00000000	76.82701000	31.61909000
19.49999902	0.00000000	79.19537000	31.99434000
19.69999901	0.00000000	82.64025000	32.73868000
19.89999900	0.00000000	86.54650000	33.11393000
20.09999898	0.00000000	89.99139000	33.15699000
20.29999897	0.00000000	92.26746000	33.15699000
20.49999896	0.00000000	92.18134000	33.11393000
20.69999895	0.00000000	89.06249000	32.78174000
20.89999894	0.00000000	83.24926000	32.36959000
21.09999892	0.00000000	75.85506000	32.36343000
21.29999891	0.00000000	68.17175000	31.99434000
21.49999890	0.00000000	62.03247000	31.99434000
21.69999889	0.00000000	59.83636000	32.36343000
21.89999888	0.00000000	62.54306000	32.36959000
22.09999886	0.00000000	70.30634000	32.68946000
22.29999885	0.00000000	81.19463000	32.32037000
22.49999884	0.00000000	93.57775000	31.29921000
22.69999883	0.00000000	105.10580000	31.66830000
22.89999882	0.00000000	111.95870000	32.68946000
23.09999881	0.00000000	112.27850000	33.11393000
23.29999879	0.00000000	104.84130000	33.20005000
23.49999878	0.00000000	90.60039000	33.57529000
23.69999877	0.00000000	73.19759000	34.31963000
23.89999876	0.00000000	56.53912000	34.69488000
24.09999875	0.00000000	43.83612000	34.69488000
24.29999873	0.00000000	38.57652000	34.27042000
24.49999872	0.00000000	43.27633000	33.11393000
24.69999871	0.00000000	57.56028000	31.57603000
24.89999870	0.00000000	78.03272000	30.00123000
25.09999869	0.00000000	100.08610000	28.46333000
25.29999867	0.00000000	118.97760000	27.34990000
25.49999866	0.00000000	130.09960000	27.34990000
25.69999865	0.00000000	130.05040000	28.51255000
25.89999864	0.00000000	118.46700000	30.51181000
26.09999863	0.00000000	97.99458000	33.62450000
26.29999862	0.00000000	73.24680000	37.47539000
26.49999860	0.00000000	49.74163000	40.92027000
26.69999859	0.00000000	33.13238000	43.19635000
26.89999858	0.00000000	27.73130000	43.14714000
27.09999857	0.00000000	34.20891000	40.40969000
27.29999856	0.00000000	50.86122000	35.34079000
27.49999854	0.00000000	73.70817000	28.32800000
27.69999853	0.00000000	98.41289000	20.66314000
27.89999852	0.00000000	119.21140000	14.15477000
28.09999851	0.00000000	130.42570000	11.13435000
28.29999850	0.00000000	130.18580000	12.70915000
28.49999848	0.00000000	119.35280000	18.94070000
28.69999847	0.00000000	100.83050000	29.01698000
28.89999846	0.00000000	78.40797000	40.96333000
29.09999845	0.00000000	57.56028000	52.15920000
29.29999844	0.00000000	42.80881000	59.83021000
29.49999843	0.00000000	36.95251000	62.10630000
29.69999841	0.00000000	40.72342000	57.78789000
29.89999840	0.00000000	52.30684000	47.37327000
30.09999839	0.00000000	68.96530000	33.02165000
30.29999838	0.00000000	87.48154000	17.59350000
30.49999837	0.00000000	103.34650000	4.12155500
30.69999835	0.00000000	113.12130000	-3.54330700
30.89999834	0.00000000	115.90800000	-3.59251900
31.09999833	0.00000000	111.62650000	3.79552100
31.29999832	0.00000000	101.20570000	17.35974000
31.49999831	0.00000000	86.92175000	34.73794000
31.69999829	0.00000000	72.26254000	52.10999000
31.89999828	0.00000000	60.58685000	65.58808000
32.09999827	0.00000000	53.93085000	72.13951000
32.29999826	0.00000000	52.76820000	69.82037000
32.49999825	0.00000000	57.42495000	59.45497000
32.69999824	0.00000000	67.00910000	43.61467000
32.89999822	0.00000000	78.64173000	25.81816000
33.09999821	0.00000000	89.85605000	9.55339400
33.29999820	0.00000000	98.73891000	-2.05462600
33.49999819	0.00000000	102.60830000	-6.65600300
33.69999818	0.00000000	101.16260000	-3.17421200
33.89999816	0.00000000	95.34325000	7.97859100
34.09999815	0.00000000	86.49728000	23.77584000
34.29999814	0.00000000	76.87007000	40.45890000
34.49999813	0.00000000	69.14369000	55.13656000
34.69999812	0.00000000	64.86221000	64.75147000
34.89999810	0.00000000	64.86221000	66.70767000
35.09999809	0.00000000	69.05757000	60.98671000
35.29999808	0.00000000	75.89813000	49.42175000
35.49999807	0.00000000	82.83096000	34.73794000
35.69999806	0.00000000	87.89984000	20.09719000
35.89999805	0.00000000	90.64346000	8.90132800
36.09999803	0.00000000	90.64346000	3.83858300
36.29999802	0.00000000	87.94906000	5.37032500
36.49999801	0.00000000	83.29231000	13.04134000
36.69999800	0.00000000	77.57135000	24.93233000
36.89999799	0.00000000	72.59473000	37.25394000
37.09999797	0.00000000	70.26328000	47.33021000
37.29999796	0.00000000	70.63853000	53.05118000
37.49999795	0.00000000	73.75738000	52.71899000
37.69999794	0.00000000	79.06004000	46.59203000
37.89999793	0.00000000	84.45496000	37.05708000
38.09999791	0.00000000	88.31815000	26.69783000
38.29999790	0.00000000	90.31126000	19.02682000
38.49999789	0.00000000	89.89911000	15.91412000
38.69999788	0.00000000	87.61687000	17.87033000
38.89999787	0.00000000	83.71062000	24.74778000
39.09999786	0.00000000	79.10310000	34.27042000
39.29999784	0.00000000	74.82775000	43.06102000
39.49999783	0.00000000	71.75196000	48.44980000
39.69999782	0.00000000	70.59547000	48.82505000
39.89999781	0.00000000	71.70891000	44.21752000
40.09999780	0.00000000	74.36023000	35.75910000
40.29999778	0.00000000	77.52214000	25.81816000
40.49999777	0.00000000	81.05930000	17.35974000
40.69999776	0.00000000	84.91634000	12.80143000
40.89999775	0.00000000	87.99212000	13.55192000
41.09999774	0.00000000	89.57307000	19.67889000
41.29999772	0.00000000	89.57307000	28.88779000
41.49999771	0.00000000	87.99212000	38.92101000
41.69999770	0.00000000	84.91634000	47.33021000
41.89999769	0.00000000	81.05930000	51.55635000
42.09999768	0.00000000	77.57135000	50.44291000
42.29999767	0.00000000	74.82775000	44.72810000
42.49999765	0.00000000	73.24680000	36.26968000
42.69999764	0.00000000	72.87155000	27.39296000
42.89999763	0.00000000	73.66510000	20.09719000
43.09999762	0.00000000	75.94118000	16.19710000
43.29999761	0.00000000	78.64173000	16.56619000
43.49999759	0.00000000	80.97318000	20.33710000
43.69999758	0.00000000	82.91708000	26.51329000
43.89999757	0.00000000	83.71062000	33.06471000
44.09999756	0.00000000	83.80289000	38.87795000
44.29999755	0.00000000	83.80289000	42.72884000
44.49999753	0.00000000	83.80289000	43.52239000
44.69999752	0.00000000	83.80289000	41.65846000
44.89999751	0.00000000	83.75984000	37.80142000
45.09999750	0.00000000	83.33538000	33.24926000
45.29999749	0.00000000	82.17889000	29.34916000
45.49999748	0.00000000	80.64099000	26.97465000
45.69999746	0.00000000	78.96776000	25.77510000
45.89999745	0.00000000	76.64246000	25.81816000
46.09999744	0.00000000	73.57283000	27.34990000
46.29999743	0.00000000	71.33366000	30.00123000
46.49999742	0.00000000	70.54626000	32.69562000
46.69999740	0.00000000	71.80117000	34.68873000
46.89999739	0.00000000	75.28912000	36.26968000
47.09999738	0.00000000	80.73326000	37.34006000
47.29999737	0.00000000	86.87254000	36.92175000
47.49999736	0.00000000	92.26746000	34.68873000
47.69999734	0.00000000	95.34325000	31.99434000
47.89999733	0.00000000	95.29404000	29.66904000
48.09999732	0.00000000	91.80609000	27.67593000
48.29999731	0.00000000	85.20546000	26.55635000
48.49999730	0.00000000	77.10384000	26.19340000
48.69999729	0.00000000	69.00836000	27.39296000
48.89999727	0.00000000	63.28125000	30.08735000
49.09999726	0.00000000	61.70029000	33.53223000
49.29999725	0.00000000	64.40083000	36.96481000
49.49999724	0.00000000	70.63853000	38.87795000
49.69999723	0.00000000	79.52755000	38.92101000
49.89999721	0.00000000	89.10555000	37.38312000
50.09999720	0.00000000	96.41363000	34.64567000
50.29999719	0.00000000	99.48942000	31.15772000
50.49999718	0.00000000	97.57627000	27.30684000
50.69999717	0.00000000	91.06176000	24.28026000
50.89999715	0.00000000	82.22194000	23.07455000
51.09999714	0.00000000	73.33292000	23.86196000
51.29999713	0.00000000	66.40009000	26.23647000
51.49999712	0.00000000	63.32431000	30.46260000
51.69999711	0.00000000	64.81914000	35.38385000
51.89999710	0.00000000	70.21407000	38.87795000
52.09999708	0.00000000	77.89738000	40.45890000
52.29999707	0.00000000	85.99286000	40.08366000
52.49999706	0.00000000	92.08907000	37.80758000
52.69999705	0.00000000	94.45743000	34.68873000
52.89999704	0.00000000	92.55659000	31.15772000
53.09999702	0.00000000	87.57381000	27.34990000
53.29999701	0.00000000	80.64099000	24.74778000
53.49999700	0.00000000	73.75738000	24.69857000
53.69999699	0.00000000	69.14369000	26.93159000
53.89999698	0.00000000	67.93799000	30.00123000
54.09999696	0.00000000	70.26328000	33.06471000
54.29999695	0.00000000	75.24606000	35.38385000
54.49999694	0.00000000	81.75443000	36.13435000
54.69999693	0.00000000	87.48154000	35.43307000
54.89999692	0.00000000	90.60039000	33.48302000
55.09999691	0.00000000	90.64346000	31.25000000
55.29999689	0.00000000	87.94906000	29.29995000
55.49999688	0.00000000	83.29231000	28.59867000
55.69999687	0.00000000	77.57135000	29.34916000
55.89999686	0.00000000	72.59473000	31.66830000
56.09999685	0.00000000	70.26328000	34.64567000
56.29999683	0.00000000	70.59547000	36.96481000
56.49999682	0.00000000	73.28986000	37.71530000
56.69999681	0.00000000	77.52214000	36.92175000
56.89999680	0.00000000	82.17889000	34.18430000
57.09999679	0.00000000	86.36810000	30.00123000
57.29999677	0.00000000	88.68725000	25.81816000
57.49999676	0.00000000	88.31815000	23.12377000
57.69999675	0.00000000	86.07898000	22.74852000
57.89999674	0.00000000	82.59719000	24.69857000
58.09999673	0.00000000	79.15231000	28.97392000
58.29999672	0.00000000	76.40871000	34.69488000
58.49999670	0.00000000	74.87081000	40.12672000
58.69999669	0.00000000	74.82775000	43.89763000
58.89999668	0.00000000	75.99039000	45.04798000
59.09999667	0.00000000	77.89738000	42.31668000
59.29999666	0.00000000	80.22269000	36.96481000
59.49999664	0.00000000	82.08661000	30.00123000
59.69999663	0.00000000	82.91708000	23.12377000
59.89999662	0.00000000	82.55412000	18.47318000
60.09999661	0.00000000	81.80363000	16.94144000
60.29999660	0.00000000	80.64099000	18.89148000
60.49999658	0.00000000	79.52755000	24.28026000
60.69999657	0.00000000	79.10310000	31.62524000
60.89999656	0.00000000	79.10310000	39.29626000
61.09999655	0.00000000	79.47834000	45.42323000
61.29999654	0.00000000	80.22269000	47.70546000
61.49999653	0.00000000	80.59792000	45.84153000
61.69999651	0.00000000	80.64099000	40.45275000
61.89999650	0.00000000	80.59792000	33.11393000
62.09999649	0.00000000	80.17347000	25.39985000
62.29999648	0.00000000	79.01697000	18.84842000
62.49999647	0.00000000	77.52214000	15.40969000
62.69999645	0.00000000	76.40871000	15.77879000
62.89999644	0.00000000	76.36565000	20.01107000
63.09999643	0.00000000	77.14690000	26.93159000
63.29999642	0.00000000	78.31569000	34.64567000
63.49999641	0.00000000	80.26574000	41.61540000
63.69999639	0.00000000	82.12967000	46.21678000
63.89999638	0.00000000	83.33538000	47.37327000
64.09999637	0.00000000	83.71062000	44.72810000
64.29999636	0.00000000	83.29231000	39.38238000
64.49999635	0.00000000	81.75443000	33.15699000
64.69999634	0.00000000	79.47834000	26.93159000
64.89999632	0.00000000	77.57135000	21.58587000
65.09999631	0.00000000	76.36565000	18.84842000
65.29999630	0.00000000	75.99039000	19.17446000
65.49999629	0.00000000	76.40871000	21.45669000
65.69999628	0.00000000	77.94660000	25.35679000
65.89999626	0.00000000	80.17347000	30.00123000
66.09999625	0.00000000	81.71136000	34.64567000
66.29999624	0.00000000	82.12967000	38.54576000
66.49999623	0.00000000	81.75443000	40.87721000
66.69999622	0.00000000	80.59792000	41.70152000
66.89999620	0.00000000	79.06004000	40.92027000
67.09999619	0.00000000	77.52214000	39.00713000
67.29999618	0.00000000	76.40871000	36.26968000
67.49999617	0.00000000	76.45177000	33.11393000
67.69999616	0.00000000	77.98966000	29.62598000
67.89999615	0.00000000	80.64099000	26.14419000
68.09999613	0.00000000	83.33538000	23.81890000
68.29999612	0.00000000	85.24852000	22.61319000
68.49999611	0.00000000	85.99286000	22.65625000
68.69999610	0.00000000	84.78715000	24.23720000
68.89999609	0.00000000	81.71136000	27.34990000
69.09999607	0.00000000	77.47908000	31.61909000
69.29999606	0.00000000	73.28986000	36.22662000
69.49999605	0.00000000	70.59547000	40.12672000
69.69999604	0.00000000	70.17101000	42.40895000
69.89999603	0.00000000	71.75196000	42.82111000
70.09999601	0.00000000	75.24606000	40.87721000
70.29999600	0.00000000	80.26574000	37.38312000
70.49999599	0.00000000	85.29158000	32.68946000
70.69999598	0.00000000	89.53001000	27.34990000
70.89999597	0.00000000	91.80609000	23.12377000
71.09999596	0.00000000	91.01869000	21.16757000
71.29999594	0.00000000	87.52460000	21.49975000
71.49999593	0.00000000	81.75443000	23.86196000
71.69999592	0.00000000	75.24606000	27.72515000
71.89999591	0.00000000	70.17101000	32.68946000
72.09999590	0.00000000	67.05216000	36.92175000
72.29999588	0.00000000	66.31397000	39.29626000
72.49999587	0.00000000	68.68233000	40.08366000
72.69999586	0.00000000	73.62204000	38.92101000
72.89999585	0.00000000	79.80437000	36.26968000
73.09999584	0.00000000	85.24852000	33.20005000
73.29999582	0.00000000	89.53001000	30.51181000
73.49999581	0.00000000	91.80609000	28.93085000
73.69999580	0.00000000	91.01869000	28.51255000
73.89999579	0.00000000	87.61687000	28.88779000
74.09999578	0.00000000	82.59719000	30.04429000
74.29999577	0.00000000	77.57135000	31.48991000
74.49999575	0.00000000	73.28986000	32.22810000
74.69999574	0.00000000	70.59547000	31.48991000
74.89999573	0.00000000	70.17101000	30.00123000
75.09999572	0.00000000	71.70891000	28.46333000
75.29999571	0.00000000	74.78469000	27.34990000
75.49999569	0.00000000	78.64173000	27.39296000
75.69999568	0.00000000	82.08661000	28.93085000
75.89999567	0.00000000	84.45496000	31.62524000
76.09999566	0.00000000	85.24852000	34.73794000
76.29999565	0.00000000	84.87327000	37.75836000
76.49999563	0.00000000	83.33538000	39.65920000
76.69999562	0.00000000	81.10851000	39.24704000
76.89999561	0.00000000	79.52755000	36.92175000
77.09999560	0.00000000	78.68478000	32.64640000
77.29999559	0.00000000	77.94660000	27.30684000
77.49999558	0.00000000	77.94660000	22.69931000
77.69999556	0.00000000	78.64173000	19.96186000
77.89999555	0.00000000	78.96776000	19.63582000
78.09999554	0.00000000	78.64173000	21.91806000
78.29999553	0.00000000	77.85432000	26.55635000
78.49999552	0.00000000	77.14690000	31.95128000
78.69999550	0.00000000	76.73474000	37.38312000
78.89999549	0.00000000	77.14690000	41.61540000
79.09999548	0.00000000	77.94660000	43.52239000
79.29999547	0.00000000	79.52755000	42.77190000
79.49999546	0.00000000	81.80363000	39.29626000
79.69999544	0.00000000	83.71062000	34.31963000
79.89999543	0.00000000	84.83022000	28.88779000
80.09999542	0.00000000	84.45496000	24.28026000
80.29999541	0.00000000	82.55412000	21.54281000
80.49999540	0.00000000	80.22269000	21.12451000
80.69999539	0.00000000	77.47908000	22.61319000
80.89999537	0.00000000	74.82775000	25.35064000
81.09999536	0.00000000	73.24680000	28.83858000
81.29999535	0.00000000	72.91461000	32.73868000
81.49999534	0.00000000	74.08341000	36.17741000
81.69999533	0.00000000	77.10384000	38.54576000
81.89999531	0.00000000	80.17347000	39.29626000
82.09999530	0.00000000	82.55412000	38.63804000
82.29999529	0.00000000	84.45496000	37.06324000
82.49999528	0.00000000	84.78715000	35.47613000
82.69999527	0.00000000	83.33538000	33.06471000
82.89999525	0.00000000	81.05930000	30.04429000
83.09999524	0.00000000	79.10310000	27.30684000
83.29999523	0.00000000	77.52214000	25.35064000
83.49999522	0.00000000	76.36565000	24.19414000
83.69999521	0.00000000	75.99039000	24.19414000
83.89999520	0.00000000	76.36565000	25.39985000
84.09999518	0.00000000	77.52214000	27.72515000
84.29999517	0.00000000	79.01697000	31.25000000
84.49999516	0.00000000	80.17347000	35.06397000
84.69999515	0.00000000	80.59792000	38.58883000
84.89999514	0.00000000	80.59792000	40.82800000
85.09999512	0.00000000	80.22269000	41.24015000
85.29999511	0.00000000	79.47834000	39.29626000
85.49999510	0.00000000	79.15231000	35.85138000
85.69999509	0.00000000	79.47834000	31.57603000
85.89999508	0.00000000	80.22269000	27.30684000
86.09999506	0.00000000	80.59792000	23.81890000
86.29999505	0.00000000	80.59792000	21.54281000
86.49999504	0.00000000	80.17347000	21.59203000
86.69999503	0.00000000	79.06004000	24.23720000
86.89999502	0.00000000	77.89738000	28.46333000
87.09999501	0.00000000	77.10384000	33.11393000
87.29999499	0.00000000	76.31644000	37.38312000
87.49999498	0.00000000	75.99039000	40.40969000
87.69999497	0.00000000	76.40871000	41.19709000
87.89999496	0.00000000	77.89738000	39.29626000
88.09999495	0.00000000	79.80437000	35.80217000
88.29999493	0.00000000	81.01624000	31.15772000
88.49999492	0.00000000	82.17889000	26.23647000
88.69999491	0.00000000	82.87401000	23.16683000
88.89999490	0.00000000	82.12967000	22.69931000
89.09999489	0.00000000	80.64099000	24.23720000
89.29999487	0.00000000	79.06004000	27.34990000
89.49999486	0.00000000	77.52214000	31.57603000
89.69999485	0.00000000	76.36565000	35.80217000
89.89999484	0.00000000	75.99039000	38.87795000
90.09999483	0.00000000	76.36565000	39.99138000
90.29999482	0.00000000	77.52214000	38.45964000
90.49999480	0.00000000	79.01697000	34.64567000
90.69999479	0.00000000	80.17347000	30.04429000
90.89999478	0.00000000	80.59792000	25.81816000
91.09999477	0.00000000	80.64099000	23.12377000
91.29999476	0.00000000	80.59792000	22.74852000
91.49999474	0.00000000	80.22269000	24.65551000
91.69999473	0.00000000	79.47834000	28.51255000
91.89999472	0.00000000	79.15231000	33.11393000
92.09999471	0.00000000	79.43528000	37.34006000
92.29999470	0.00000000	79.80437000	39.99138000
92.49999468	0.00000000	79.39222000	39.99138000
92.69999467	0.00000000	78.68478000	37.34006000
92.89999466	0.00000000	77.89738000	33.11393000
93.09999465	0.00000000	77.47908000	28.51255000
93.29999464	0.00000000	77.06077000	24.65551000
93.49999463	0.00000000	76.31644000	22.74852000
93.69999461	0.00000000	75.99039000	23.12377000
93.89999460	0.00000000	76.36565000	25.81816000
94.09999459	0.00000000	77.57135000	30.00123000
94.29999458	0.00000000	79.47834000	34.22736000
94.49999457	0.00000000	81.80363000	37.29700000
94.69999455	0.00000000	83.71062000	38.45349000
94.89999454	0.00000000	84.83022000	37.34006000
95.09999453	0.00000000	84.41190000	34.64567000
95.29999452	0.00000000	82.12967000	31.15772000
95.49999451	0.00000000	79.06004000	27.34990000
95.69999449	0.00000000	75.94118000	24.69857000
95.89999448	0.00000000	73.24680000	24.28026000
96.09999447	0.00000000	71.70891000	25.77510000
96.29999446	0.00000000	71.66584000	28.46333000
96.49999445	0.00000000	72.87155000	31.57603000
96.69999444	0.00000000	75.24606000	34.64567000
96.89999442	0.00000000	79.10310000	36.87869000
97.09999441	0.00000000	83.29231000	36.96481000
97.29999440	0.00000000	86.41116000	35.48843000
97.49999439	0.00000000	87.94906000	33.90133000
97.69999438	0.00000000	87.57381000	31.53297000
97.89999436	0.00000000	85.24852000	28.93085000
98.09999435	0.00000000	81.80363000	27.39296000
98.29999434	0.00000000	77.89738000	27.34990000
98.49999433	0.00000000	74.40945000	28.46333000
98.69999432	0.00000000	71.70891000	30.00123000
98.89999430	0.00000000	70.54626000	31.53297000
99.09999429	0.00000000	71.33366000	32.68946000
99.29999428	0.00000000	73.62204000	33.06471000
99.49999427	0.00000000	77.10384000	32.78174000
99.69999426	0.00000000	80.59792000	32.41265000
99.89999425	0.00000000	83.71062000	32.78174000
100.09999423	0.00000000	86.03592000	33.11393000
100.29999422	0.00000000	86.78642000	33.20005000
100.49999421	0.00000000	86.03592000	33.53223000
100.69999420	0.00000000	83.71062000	33.90133000
100.89999419	0.00000000	80.64099000	33.48917000
101.09999417	0.00000000	77.52214000	32.68946000
101.29999416	0.00000000	74.78469000	31.11466000
101.49999415	0.00000000	72.87155000	28.88164000
101.69999414	0.00000000	72.08414000	27.34990000
101.89999413	0.00000000	72.87155000	26.93159000
102.09999411	0.00000000	74.73548000	27.34990000
102.29999410	0.00000000	77.10384000	28.93085000
102.49999409	0.00000000	79.43528000	31.57603000
102.69999408	0.00000000	81.75443000	34.27042000
102.89999407	0.00000000	83.29231000	36.22662000
103.09999406	0.00000000	83.71062000	37.38312000
103.29999404	0.00000000	83.33538000	37.34006000
103.49999403	0.00000000	82.12967000	35.75910000
103.69999402	0.00000000	80.22269000	32.68946000
103.89999401	0.00000000	77.89738000	28.88779000
104.09999400	0.00000000	75.99039000	25.81816000
104.29999398	0.00000000	74.78469000	24.23720000
104.49999397	0.00000000	74.45251000	24.23720000
104.69999396	0.00000000	75.15379000	25.77510000
104.89999395	0.00000000	76.68553000	28.46333000
105.09999394	0.00000000	77.85432000	31.53297000
105.29999392	0.00000000	79.06004000	34.22736000
105.49999391	0.00000000	80.17347000	35.80217000
105.69999390	0.00000000	80.59792000	36.17741000
105.89999389	0.00000000	80.59792000	35.38385000
106.09999388	0.00000000	80.17347000	33.11393000
106.29999387	0.00000000	79.06004000	30.46260000
106.49999385	0.00000000	77.89738000	28.51255000
106.69999384	0.00000000	77.14690000	27.34990000
106.89999383	0.00000000	76.78395000	27.34990000
107.09999382	0.00000000	77.52214000	28.46333000
107.29999381	0.00000000	78.59251000	30.00123000
107.49999379	0.00000000	79.01697000	31.53297000
107.69999378	0.00000000	79.10310000	32.68946000
107.89999377	0.00000000	79.43528000	33.06471000
108.09999376	0.00000000	79.75516000	32.73868000
108.29999375	0.00000000	78.96776000	31.95128000
108.49999374	0.00000000	77.52214000	31.15772000
108.69999372	0.00000000	76.36565000	30.00123000
108.89999371	0.00000000	75.94118000	28.88779000
109.09999370	0.00000000	75.94118000	28.51255000
109.29999369	0.00000000	76.36565000	28.88779000
109.49999368	0.00000000	77.52214000	30.04429000
109.69999366	0.00000000	79.01697000	31.57603000
109.89999365	0.00000000	80.17347000	33.06471000
110.09999364	0.00000000	80.59792000	33.85211000
110.29999363	0.00000000	80.59792000	33.48917000
110.49999362	0.00000000	80.17347000	32.73868000
110.69999360	0.00000000	79.01697000	31.53297000
110.89999359	0.00000000	77.52214000	30.04429000
111.09999358	0.00000000	76.36565000	28.88779000
111.29999357	0.00000000	75.94118000	28.46333000
111.49999356	0.00000000	75.94118000	28.46333000
111.69999355	0.00000000	76.31644000	28.79552000
111.89999353	0.00000000	77.10384000	29.25074000
112.09999352	0.00000000	77.85432000	29.63213000
112.29999351	0.00000000	78.68478000	30.82554000
112.49999350	0.00000000	79.43528000	31.85900000
112.69999349	0.00000000	80.17347000	32.32037000
112.89999347	0.00000000	80.17347000	31.95128000
113.09999346	0.00000000	79.43528000	31.61909000
113.29999345	0.00000000	78.68478000	31.57603000
113.49999344	0.00000000	77.89738000	31.57603000
113.69999343	0.00000000	77.52214000	31.57603000
113.89999341	0.00000000	77.47908000	31.53297000
114.09999340	0.00000000	77.47908000	31.15772000
114.29999339	0.00000000	77.52214000	30.41954000
114.49999338	0.00000000	77.89738000	30.04429000
114.69999337	0.00000000	78.64173000	30.00123000
114.89999336	0.00000000	79.01697000	30.00123000
115.09999334	0.00000000	79.06004000	30.00123000
115.29999333	0.00000000	79.06004000	30.00123000
115.49999332	0.00000000	79.06004000	30.04429000
115.69999331	0.00000000	79.06004000	30.41954000
115.89999330	0.00000000	79.01697000	31.20078000
116.09999328	0.00000000	78.64173000	31.95128000
116.29999327	0.00000000	77.89738000	32.73868000
116.49999326	0.00000000	77.47908000	33.11393000
116.69999325	0.00000000	77.10384000	33.11393000
116.89999324	0.00000000	76.73474000	32.73868000
117.09999322	0.00000000	77.14690000	31.95128000
117.29999321	0.00000000	77.85432000	31.20078000
117.49999320	0.00000000	78.68478000	30.37647000
117.69999319	0.00000000	79.43528000	29.62598000
117.89999318	0.00000000	80.22269000	28.88779000
118.09999317	0.00000000	80.54871000	28.88779000
118.29999315	0.00000000	80.22269000	29.62598000
118.49999314	0.00000000	79.43528000	30.37647000
118.69999313	0.00000000	78.64173000	31.15772000
118.89999312	0.00000000	77.47908000	31.53297000
119.09999311	0.00000000	76.36565000	31.61909000
119.29999309	0.00000000	75.94118000	31.99434000
119.49999308	0.00000000	75.94118000	32.73868000
119.69999307	0.00000000	76.36565000	33.06471000
119.89999306	0.00000000	77.52214000	32.73868000
120.09999305	0.00000000	79.01697000	31.99434000
120.29999303	0.00000000	80.17347000	31.57603000
120.49999302	0.00000000	80.59792000	31.15772000
120.69999301	0.00000000	80.64099000	30.41954000
120.89999300	0.00000000	80.59792000	30.04429000
121.09999299	0.00000000	80.17347000	29.95817000
121.29999298	0.00000000	79.01697000	29.62598000
121.49999296	0.00000000	77.52214000	29.25689000
121.69999295	0.00000000	76.36565000	29.66904000
121.89999294	0.00000000	75.94118000	30.37647000
122.09999293	0.00000000	75.89813000	31.15772000
122.29999292	0.00000000	75.89813000	31.53297000
122.49999290	0.00000000	75.94118000	31.61909000
122.69999289	0.00000000	76.36565000	31.99434000
122.89999288	0.00000000	77.47908000	32.68946000
123.09999287	0.00000000	78.59251000	32.68946000
123.29999286	0.00000000	79.01697000	31.95128000
123.49999284	0.00000000	79.10310000	31.20078000
123.69999283	0.00000000	79.43528000	30.41954000
123.89999282	0.00000000	79.80437000	30.00123000
124.09999281	0.00000000	79.39222000	29.58292000
124.29999280	0.00000000	78.68478000	28.88779000
124.49999279	0.00000000	77.85432000	28.88779000
124.69999277	0.00000000	77.10384000	29.58292000
124.89999276	0.00000000	76.31644000	29.95817000
125.09999275	0.00000000	75.94118000	30.04429000
125.29999274	0.00000000	75.89813000	30.41954000
125.49999273	0.00000000	75.94118000	31.15772000
125.69999271	0.00000000	76.31644000	31.53297000
125.89999270	0.00000000	77.10384000	31.57603000
126.09999269	0.00000000	77.85432000	31.57603000
126.29999268	0.00000000	78.68478000	31.57603000
126.49999267	0.00000000	79.39222000	31.53297000
126.69999265	0.00000000	79.80437000	31.15772000
126.89999264	0.00000000	79.43528000	30.41954000
127.09999263	0.00000000	79.06004000	30.04429000
127.29999262	0.00000000	78.59251000	30.00123000
127.49999261	0.00000000	77.47908000	30.00123000
127.69999260	0.00000000	76.36565000	30.04429000
127.89999258	0.00000000	75.94118000	30.41954000
128.09999257	0.00000000	75.94118000	31.15772000
128.29999256	0.00000000	76.36565000	31.53297000
128.49999255	0.00000000	77.47908000	31.57603000
128.69999254	0.00000000	78.64173000	31.57603000
128.89999252	0.00000000	79.43528000	31.57603000
129.09999251	0.00000000	80.17347000	31.57603000
129.29999250	0.00000000	80.17347000	31.57603000
129.49999249	0.00000000	79.43528000	31.57603000
129.69999248	0.00000000	78.68478000	31.57603000
129.89999246	0.00000000	77.85432000	31.57603000
130.09999245	0.00000000	77.10384000	31.57603000
130.29999244	0.00000000	76.31644000	31.57603000
130.49999243	0.00000000	75.99039000	31.57603000
130.69999242	0.00000000	76.36565000	31.57603000
130.89999241	0.00000000	77.47908000	31.57603000
131.09999239	0.00000000	78.59251000	31.57603000
131.29999238	0.00000000	79.01697000	31.57603000
131.49999237	0.00000000	79.06004000	31.53297000
131.69999236	0.00000000	79.06004000	31.15772000
131.89999235	0.00000000	79.01697000	30.41954000
132.09999233	0.00000000	78.64173000	30.04429000
132.29999232	0.00000000	77.89738000	30.00123000
132.49999231	0.00000000	77.52214000	30.00123000
132.69999230	0.00000000	77.47908000	30.04429000
132.89999229	0.00000000	77.47908000	30.41954000
133.09999227	0.00000000	77.47908000	31.15772000
133.29999226	0.00000000	77.47908000	31.53297000
133.49999225	0.00000000	77.47908000	31.61909000
133.69999224	0.00000000	77.47908000	31.95128000
133.89999223	0.00000000	77.47908000	32.32037000
134.09999222	0.00000000	77.47908000	31.90822000
134.29999220	0.00000000	77.47908000	31.20078000
134.49999219	0.00000000	77.47908000	30.37647000
134.69999218	0.00000000	77.47908000	29.62598000
134.89999217	0.00000000	77.52214000	28.83858000
135.09999216	0.00000000	77.89738000	28.51255000
135.29999214	0.00000000	78.64173000	28.83858000
135.49999213	0.00000000	79.01697000	29.58292000
135.69999212	0.00000000	79.01697000	30.00123000
135.89999211	0.00000000	78.64173000	30.41954000
136.09999210	0.00000000	77.85432000	31.15772000
136.29999208	0.00000000	77.14690000	31.57603000
136.49999207	0.00000000	76.69167000	31.95128000
136.69999206	0.00000000	76.72858000	32.32037000
136.89999205	0.00000000	76.69167000	31.90822000
137.09999204	0.00000000	77.10384000	31.20078000
137.29999203	0.00000000	77.47908000	30.41954000
137.49999201	0.00000000	77.89738000	30.04429000
137.69999200	0.00000000	78.64173000	29.95817000
137.89999199	0.00000000	79.01697000	29.58292000
138.09999198	0.00000000	79.06004000	28.88779000
138.29999197	0.00000000	79.01697000	28.88779000
138.49999195	0.00000000	78.64173000	29.58292000
138.69999194	0.00000000	77.85432000	30.00123000
138.89999193	0.00000000	77.10384000	30.41954000
139.09999192	0.00000000	76.31644000	31.15772000
139.29999191	0.00000000	75.94118000	31.53297000
139.49999189	0.00000000	75.94118000	31.57603000
139.69999188	0.00000000	76.31644000	31.57603000
139.89999187	0.00000000	77.10384000	31.57603000
140.09999186	0.00000000	77.85432000	31.53297000
140.29999185	0.00000000	78.64173000	31.15772000
140.49999184	0.00000000	79.01697000	30.37647000
140.69999182	0.00000000	79.01697000	29.62598000
140.89999181	0.00000000	78.64173000	28.83858000
141.09999180	0.00000000	77.89738000	28.51255000
141.29999179	0.00000000	77.52214000	28.88779000
141.49999178	0.00000000	77.47908000	30.00123000
141.69999176	0.00000000	77.47908000	31.15772000
141.89999175	0.00000000	77.47908000	31.95128000
142.09999174	0.00000000	77.47908000	32.73868000
142.29999173	0.00000000	77.47908000	33.11393000
142.49999172	0.00000000	77.47908000	33.11393000
142.69999170	0.00000000	77.47908000	32.68946000
142.89999169	0.00000000	77.47908000	31.57603000
143.09999168	0.00000000	77.47908000	30.41954000
143.29999167	0.00000000	77.47908000	29.62598000
143.49999166	0.00000000	77.47908000	28.83858000
143.69999165	0.00000000	77.47908000	28.46333000
143.89999163	0.00000000	77.47908000	28.46333000
144.09999162	0.00000000	77.47908000	28.83858000
144.29999161	0.00000000	77.47908000	29.62598000
144.49999160	0.00000000	77.52214000	30.37647000
144.69999159	0.00000000	77.89738000	31.15772000
144.89999157	0.00000000	78.59251000	31.53297000
145.09999156	0.00000000	78.59251000	31.57603000
145.29999155	0.00000000	77.85432000	31.53297000
145.49999154	0.00000000	77.14690000	31.15772000
145.69999153	0.00000000	76.69167000	30.41954000
145.89999151	0.00000000	76.72858000	30.04429000
146.09999150	0.00000000	76.69167000	30.00123000
146.29999149	0.00000000	77.10384000	30.00123000
146.49999148	0.00000000	77.43602000	30.00123000
146.69999147	0.00000000	77.47908000	30.00123000
146.89999146	0.00000000	77.52214000	30.00123000
147.09999144	0.00000000	77.89738000	30.04429000
147.29999143	0.00000000	78.64173000	30.41954000
147.49999142	0.00000000	78.96776000	31.15772000
147.69999141	0.00000000	78.64173000	31.53297000
147.89999140	0.00000000	77.89738000	31.57603000
148.09999138	0.00000000	77.47908000	31.57603000
148.29999137	0.00000000	77.10384000	31.57603000
148.49999136	0.00000000	76.73474000	31.53297000
148.69999135	0.00000000	77.10384000	31.15772000
148.89999134	0.00000000	77.43602000	30.41954000
149.09999132	0.00000000	77.47908000	30.04429000
149.29999131	0.00000000	77.47908000	30.00123000
149.49999130	0.00000000	77.52214000	30.00123000
149.69999129	0.00000000	77.89738000	30.00123000
149.89999128	0.00000000	78.59251000	30.00123000
150.09999127	0.00000000	78.59251000	30.04429000
150.29999125	0.00000000	77.89738000	30.41954000
150.49999124	0.00000000	77.52214000	31.15772000
150.69999123	0.00000000	77.43602000	31.53297000
150.89999122	0.00000000	77.06077000	31.57603000
151.09999121	0.00000000	76.31644000	31.53297000
151.29999119	0.00000000	75.94118000	31.15772000
151.49999118	0.00000000	75.94118000	30.41954000
151.69999117	0.00000000	76.31644000	30.04429000
151.89999116	0.00000000	77.06077000	30.00123000
152.09999115	0.00000000	77.43602000	30.00123000
152.29999113	0.00000000	77.47908000	30.00123000
152.49999112	0.00000000	77.47908000	30.00123000
152.69999111	0.00000000	77.47908000	30.00123000
152.89999110	0.00000000	77.47908000	30.00123000
153.09999109	0.00000000	77.47908000	30.00123000
153.29999108	0.00000000	77.47908000	30.04429000
153.49999106	0.00000000	77.43602000	30.37647000
153.69999105	0.00000000	77.06077000	30.78248000
153.89999104	0.00000000	76.31644000	30.79478000
154.09999103	0.00000000	75.99039000	31.20078000
154.29999102	0.00000000	76.27337000	31.48376000
154.49999100	0.00000000	76.64246000	31.15772000
154.69999099	0.00000000	76.31644000	30.41954000
154.89999098	0.00000000	76.36565000	30.04429000
155.09999097	0.00000000	77.06077000	30.00123000
155.29999096	0.00000000	77.43602000	30.00123000
155.49999094	0.00000000	77.52214000	30.00123000
155.69999093	0.00000000	77.85432000	30.00123000
155.89999092	0.00000000	78.22342000	30.00123000
156.09999091	0.00000000	77.85432000	30.04429000
156.29999090	0.00000000	77.52214000	30.37647000
156.49999089	0.00000000	77.43602000	30.78248000
156.69999087	0.00000000	77.06077000	30.79478000
156.89999086	0.00000000	76.31644000	31.20078000
157.09999085	0.00000000	75.94118000	31.53297000
157.29999084	0.00000000	75.89813000	31.57603000
157.49999083	0.00000000	75.89813000	31.57603000
157.69999081	0.00000000	75.94118000	31.53297000
157.89999080	0.00000000	76.31644000	31.15772000
158.09999079	0.00000000	77.06077000	30.41954000
158.29999078	0.00000000	77.43602000	30.00123000
158.49999077	0.00000000	77.52214000	29.62598000
158.69999075	0.00000000	77.85432000	29.25689000
158.89999074	0.00000000	78.22342000	29.62598000
159.09999073	0.00000000	77.85432000	30.00123000
159.29999072	0.00000000	77.52214000	30.41954000
159.49999071	0.00000000	77.43602000	31.15772000
159.69999070	0.00000000	77.06077000	31.53297000
159.89999068	0.00000000	76.31644000	31.57603000
160.09999067	0.00000000	75.94118000	31.57603000
160.29999066	0.00000000	75.89813000	31.57603000
160.49999065	0.00000000	75.89813000	31.53297000
160.69999064	0.00000000	75.94118000	31.15772000
160.89999062	0.00000000	76.31644000	30.41954000
161.09999061	0.00000000	77.06077000	30.04429000
161.29999060	0.00000000	77.43602000	30.00123000
161.49999059	0.00000000	77.47908000	30.00123000
161.69999058	0.00000000	77.47908000	30.00123000
161.89999056	0.00000000	77.47908000	30.04429000
162.09999055	0.00000000	77.47908000	30.41954000
162.29999054	0.00000000	77.47908000	31.15772000
162.49999053	0.00000000	77.47908000	31.53297000
162.69999052	0.00000000	77.47908000	31.57603000
162.89999051	0.00000000	77.43602000	31.57603000
163.09999049	0.00000000	77.06077000	31.57603000
163.29999048	0.00000000	76.31644000	31.53297000
163.49999047	0.00000000	75.94118000	31.15772000
163.69999046	0.00000000	75.89813000	30.41954000
163.89999045	0.00000000	75.89813000	30.04429000
164.09999043	0.00000000	75.94118000	30.00123000
164.29999042	0.00000000	76.31644000	30.00123000
164.49999041	0.00000000	77.06077000	30.00123000
164.69999040	0.00000000	77.43602000	30.00123000
164.89999039	0.00000000	77.47908000	30.00123000
165.09999037	0.00000000	77.47908000	30.00123000
165.29999036	0.00000000	77.47908000	30.00123000
165.49999035	0.00000000	77.47908000	30.00123000
165.69999034	0.00000000	77.43602000	30.00123000
165.89999033	0.00000000	77.06077000	30.00123000
166.09999032	0.00000000	76.31644000	30.00123000
166.29999030	0.00000000	75.94118000	30.00123000
166.49999029	0.00000000	75.89813000	30.00123000
166.69999028	0.00000000	75.89813000	30.00123000
166.89999027	0.00000000	75.94118000	30.00123000
167.09999026	0.00000000	76.31644000	30.00123000
167.29999024	0.00000000	77.06077000	30.00123000
167.49999023	0.00000000	77.43602000	30.00123000
167.69999022	0.00000000	77.47908000	30.00123000
167.89999021	0.00000000	77.47908000	30.00123000
168.09999020	0.00000000	77.47908000	30.00123000
168.29999018	0.00000000	77.47908000	30.00123000
168.49999017	0.00000000	77.43602000	30.00123000
168.69999016	0.00000000	77.10384000	30.00123000
168.89999015	0.00000000	76.69167000	30.00123000
169.09999014	0.00000000	76.68553000	30.00123000
169.29999013	0.00000000	76.27337000	30.00123000
169.49999011	0.00000000	75.94118000	30.00123000
169.69999010	0.00000000	75.89813000	30.00123000
169.89999009	0.00000000	75.89813000	30.00123000
170.09999008	0.00000000	75.94118000	30.00123000
170.29999007	0.00000000	76.31644000	30.00123000
170.49999005	0.00000000	77.06077000	30.00123000
170.69999004	0.00000000	77.43602000	30.00123000
170.89999003	0.00000000	77.47908000	30.00123000
171.09999002	0.00000000	77.47908000	29.95817000
171.29999001	0.00000000	77.47908000	29.62598000
171.49998999	0.00000000	77.47908000	29.25689000
171.69998998	0.00000000	77.47908000	29.62598000
171.89998997	0.00000000	77.43602000	29.95817000
172.09998996	0.00000000	77.06077000	30.00123000
172.29998995	0.00000000	76.31644000	30.00123000
172.49998994	0.00000000	75.94118000	30.00123000
172.69998992	0.00000000	75.89813000	30.00123000
172.89998991	0.00000000	75.89813000	30.00123000
173.09998990	0.00000000	75.94118000	30.00123000
173.29998989	0.00000000	76.31644000	30.00123000
173.49998988	0.00000000	77.06077000	30.00123000
173.69998986	0.00000000	77.43602000	30.00123000
173.89998985	0.00000000	77.47908000	30.00123000
174.09998984	0.00000000	77.47908000	30.00123000
174.29998983	0.00000000	77.43602000	30.00123000
174.49998982	0.00000000	77.10384000	30.00123000
174.69998980	0.00000000	76.73474000	30.00123000
174.89998979	0.00000000	77.06077000	30.00123000
175.09998978	0.00000000	77.01156000	30.00123000
175.29998977	0.00000000	76.31644000	30.00123000
175.49998976	0.00000000	75.99039000	30.00123000
175.69998975	0.00000000	76.31644000	30.00123000
175.89998973	0.00000000	77.06077000	30.00123000
176.09998972	0.00000000	77.43602000	30.04429000
176.29998971	0.00000000	77.47908000	30.37647000
176.49998970	0.00000000	77.47908000	30.73942000
176.69998969	0.00000000	77.47908000	30.37647000
176.89998967	0.00000000	77.47908000	30.04429000
177.09998966	0.00000000	77.43602000	30.00123000
177.29998965	0.00000000	77.10384000	30.00123000
177.49998964	0.00000000	76.69167000	30.00123000
177.69998963	0.00000000	76.68553000	30.00123000
177.89998961	0.00000000	76.27337000	30.00123000
178.09998960	0.00000000	75.94118000	30.00123000
178.29998959	0.00000000	75.94118000	30.00123000
178.49998958	0.00000000	76.27337000	30.00123000
178.69998957	0.00000000	76.68553000	30.04429000
178.89998956	0.00000000	76.69167000	30.37647000
179.09998954	0.00000000	77.10384000	30.73942000
179.29998953	0.00000000	77.43602000	30.41954000
179.49998952	0.00000000	77.47908000	30.41954000
179.69998951	0.00000000	77.47908000	30.73942000
179.89998950	0.00000000	77.47908000	30.37647000
180.09998948	0.00000000	77.43602000	30.04429000
180.29998947	0.00000000	77.06077000	30.00123000
180.49998946	0.00000000	76.31644000	30.00123000
180.69998945	0.00000000	75.94118000	30.00123000
180.89998944	0.00000000	75.89813000	30.00123000
181.09998942	0.00000000	75.89813000	30.00123000
181.29998941	0.00000000	75.89813000	30.00123000
181.49998940	0.00000000	75.89813000	30.00123000
181.69998939	0.00000000	75.89813000	30.00123000
181.89998938	0.00000000	75.94118000	30.00123000
182.09998937	0.00000000	76.27337000	30.00123000
182.29998935	0.00000000	76.68553000	30.00123000
182.49998934	0.00000000	76.64862000	30.00123000
182.69998933	0.00000000	76.72858000	30.00123000
182.89998932	0.00000000	76.64862000	30.00123000
183.09998931	0.00000000	76.72858000	30.00123000
183.29998929	0.00000000	76.64862000	30.00123000
183.49998928	0.00000000	76.68553000	30.00123000
183.69998927	0.00000000	76.27337000	30.00123000
183.89998926	0.00000000	75.94118000	30.00123000
184.09998925	0.00000000	75.89813000	30.00123000
184.29998923	0.00000000	75.89813000	30.04429000
184.49998922	0.00000000	75.89813000	30.37647000
184.69998921	0.00000000	75.89813000	30.78248000
184.89998920	0.00000000	75.89813000	30.74557000
185.09998919	0.00000000	75.89813000	30.78248000
185.29998918	0.00000000	75.89813000	30.37647000
185.49998916	0.00000000	75.94118000	30.04429000
185.69998915	0.00000000	76.31644000	30.00123000
185.89998914	0.00000000	77.06077000	30.00123000
186.09998913	0.00000000	77.43602000	30.00123000
186.29998912	0.00000000	77.47908000	30.00123000
186.49998910	0.00000000	77.47908000	30.00123000
186.69998909	0.00000000	77.43602000	30.00123000
186.89998908	0.00000000	77.06077000	30.00123000
187.09998907	0.00000000	76.31644000	30.00123000
187.29998906	0.00000000	75.94118000	30.04429000
187.49998904	0.00000000	75.89813000	30.37647000
187.69998903	0.00000000	75.89813000	30.73942000
187.89998902	0.00000000	75.89813000	30.37647000
188.09998901	0.00000000	75.89813000	30.04429000
188.29998900	0.00000000	75.89813000	30.00123000
188.49998899	0.00000000	75.94118000	30.00123000
188.69998897	0.00000000	76.31644000	29.95817000
188.89998896	0.00000000	77.01156000	29.58292000
189.09998895	0.00000000	77.01156000	28.83858000
189.29998894	0.00000000	76.31644000	28.46333000
189.49998893	0.00000000	75.94118000	28.46333000
189.69998891	0.00000000	75.89813000	28.83858000
189.89998890	0.00000000	75.85506000	29.53371000
190.09998889	0.00000000	75.52288000	29.58292000
190.29998888	0.00000000	75.15379000	29.25689000
190.49998887	0.00000000	75.52288000	29.62598000
190.69998885	0.00000000	75.85506000	30.00123000
190.89998884	0.00000000	75.89813000	30.37647000
191.09998883	0.00000000	75.89813000	30.73942000
191.29998882	0.00000000	75.94118000	30.37647000
191.49998881	0.00000000	76.27337000	30.04429000
191.69998880	0.00000000	76.64246000	30.00123000
191.89998878	0.00000000	76.27337000	30.00123000
192.09998877	0.00000000	75.99039000	30.00123000
192.29998876	0.00000000	76.27337000	30.00123000
192.49998875	0.00000000	76.64246000	30.00123000
192.69998874	0.00000000	76.27337000	30.00123000
192.89998872	0.00000000	75.94118000	30.00123000
193.09998871	0.00000000	75.89813000	30.00123000
193.29998870	0.00000000	75.89813000	30.00123000
193.49998869	0.00000000	75.89813000	30.00123000
193.69998868	0.00000000	75.89813000	30.04429000
193.89998866	0.00000000	75.89813000	30.41954000
194.09998865	0.00000000	75.94118000	31.15772000
194.29998864	0.00000000	76.31644000	31.53297000
194.49998863	0.00000000	77.06077000	31.53297000
194.69998862	0.00000000	77.38681000	31.15772000
194.89998861	0.00000000	77.06077000	30.41954000
195.09998859	0.00000000	76.36565000	30.04429000
195.29998858	0.00000000	76.31644000	30.00123000
195.49998857	0.00000000	76.64246000	30.00123000
195.69998856	0.00000000	76.27337000	30.00123000
195.89998855	0.00000000	75.94118000	30.00123000
196.09998853	0.00000000	75.89813000	30.00123000
