Time	Channel A	Channel B	Channel C
(us)	(V)	(mV)	(mV)

-4.53333289	0.00000000	12.64764000	1.57480300
-4.33333290	0.00000000	12.64764000	1.57480300
-4.13333291	0.00000000	12.64764000	1.57480300
-3.93333293	0.00000000	12.64764000	1.57480300
-3.73333294	0.00000000	12.64764000	1.57480300
-3.53333295	0.00000000	12.64764000	1.57480300
-3.33333296	0.00000000	12.64764000	1.57480300
-3.13333297	0.00000000	12.64764000	1.57480300
-2.93333299	0.00000000	12.64764000	1.57480300
-2.73333300	0.00000000	12.64764000	1.57480300
-2.53333301	0.00000000	12.64764000	1.57480300
-2.33333302	0.00000000	12.64764000	1.57480300
-2.13333303	0.00000000	12.64764000	1.57480300
-1.93333304	0.00000000	12.64764000	1.57480300
-1.73333306	0.00000000	12.64764000	1.57480300
-1.53333307	0.00000000	12.64764000	1.57480300
-1.33333308	0.00000000	12.64764000	1.57480300
-1.13333309	0.00000000	12.64764000	1.57480300
-0.93333310	0.00000000	12.64764000	1.57480300
-0.73333312	0.00000000	12.64764000	1.57480300
-0.53333313	0.00000000	12.64764000	1.57480300
-0.33333314	0.15871060	12.64764000	1.57480300
-0.13333315	0.47736220	12.64764000	1.57480300
0.06666684	0.95533960	12.64764000	1.57480300
0.26666682	0.95533960	12.64764000	1.57480300
0.46666681	0.95533960	12.64764000	1.57480300
0.66666680	0.47736220	12.64764000	1.57480300
0.86666679	-0.15871060	12.64764000	1.57480300
1.06666678	-1.27399100	12.64764000	1.57480300
1.26666677	-2.07062000	12.64764000	1.57480300
1.46666675	-2.70792300	12.64764000	1.57480300
1.66666674	-2.54859700	12.64764000	1.57480300
1.86666673	-1.75196900	12.64764000	1.57480300
2.06666672	0.00000000	12.64764000	1.57480300
2.26666671	2.07062000	12.64764000	1.57480300
2.46666669	3.98191400	12.64764000	1.57480300
2.66666668	5.25652100	12.64764000	1.57480300
2.86666667	5.09719500	12.69070000	1.57480300
3.06666666	3.66326300	12.97982000	1.57480300
3.26666665	0.79601380	13.01673000	1.57480300
3.46666663	-2.54859700	12.27854000	1.57480300
3.66666662	-5.73449800	12.31545000	1.57480300
3.86666661	-7.64579200	12.60458000	1.61786400
4.06666660	-7.80511800	12.64764000	1.99311000
4.26666659	-5.89382400	12.69070000	2.73745100
4.46666658	-2.22994600	13.02288000	3.11269700
4.66666656	2.07062000	13.39198000	3.11269700
4.86666655	6.21247500	13.02288000	2.73745100
5.06666654	8.92039900	12.69070000	1.99311000
5.26666653	9.39837600	12.64764000	1.57480300
5.46666652	7.48646600	12.64764000	1.15649600
5.66666650	3.66326300	12.64764000	0.46136810
5.86666649	-0.95533960	12.64764000	0.46136810
6.06666648	-5.57517200	12.64764000	1.15649600
6.26666647	-8.60174700	12.64764000	1.57480300
6.46666646	-9.39837600	12.64764000	1.99311000
6.66666644	-7.96444400	12.64764000	2.68823800
6.86666643	-4.61921700	12.64764000	2.68823800
7.06666642	-0.31803640	12.64764000	1.99311000
7.26666641	3.82258900	12.64764000	1.61786400
7.46666640	6.69045300	12.64764000	1.57480300
7.66666639	7.80511800	12.64764000	1.57480300
7.86666637	6.84916400	12.64764000	1.57480300
8.06666636	4.30056600	12.64764000	1.57480300
8.26666635	1.11466500	12.64764000	1.57480300
8.46666634	-2.07062000	12.64764000	1.57480300
8.66666633	-4.30056600	12.64764000	1.57480300
8.86666631	-5.25652100	12.64764000	1.57480300
9.06666630	-4.77854300	12.64764000	1.57480300
9.26666629	-3.18590100	12.64764000	1.57480300
9.46666628	-1.27399100	12.64764000	1.57480300
9.66666627	0.63668800	12.64764000	1.57480300
9.86666625	1.91129400	12.64764000	1.57480300
10.06666624	2.54859700	12.64764000	1.57480300
10.26666623	2.38927200	12.64764000	1.57480300
10.46666622	1.59264300	12.64764000	1.57480300
10.66666621	0.79601380	12.64764000	1.57480300
10.86666620	0.00000000	12.64764000	1.57480300
11.06666618	-0.63668800	12.64764000	1.57480300
11.26666617	-0.95533960	12.69070000	1.57480300
11.46666616	-0.95533960	13.02288000	1.57480300
11.66666615	-0.79601380	13.39198000	1.57480300
11.86666614	-0.47736220	13.02288000	1.57480300
12.06666612	-0.31803640	12.69070000	1.57480300
12.26666611	-0.15871060	12.64764000	1.57480300
12.46666610	0.00000000	12.64764000	1.57480300
12.66666609	0.00000000	12.64764000	1.57480300
12.86666608	0.00000000	12.64764000	1.57480300
13.06666606	0.00000000	12.64764000	1.57480300
13.26666605	0.15871060	12.64764000	1.57480300
13.46666604	0.00000000	12.64764000	1.57480300
13.66666603	0.00000000	12.64764000	1.57480300
13.86666602	0.00000000	12.64764000	1.57480300
14.06666601	-0.15871060	12.64764000	1.57480300
14.26666599	-0.15871060	12.64764000	1.57480300
14.46666598	-0.15871060	12.64764000	1.57480300
14.66666597	0.00000000	12.64764000	1.57480300
14.86666596	0.00000000	12.64764000	1.57480300
15.06666595	0.00000000	12.64764000	1.57480300
15.26666593	0.00000000	12.64764000	1.57480300
15.46666592	0.00000000	12.64764000	1.57480300
15.66666591	0.00000000	12.64764000	1.57480300
15.86666590	0.00000000	12.64764000	1.57480300
16.06666589	0.00000000	12.64764000	1.57480300
16.26666587	0.00000000	12.64764000	1.57480300
16.46666586	-0.15871060	12.64764000	1.57480300
16.66666585	-0.15871060	12.69070000	1.57480300
16.86666584	0.00000000	13.06594000	1.57480300
17.06666583	0.00000000	13.81028000	1.57480300
17.26666582	0.00000000	14.18553000	1.57480300
17.46666580	0.00000000	14.22859000	1.57480300
17.66666579	0.00000000	14.22859000	1.57480300
17.86666578	0.00000000	14.18553000	1.57480300
18.06666577	0.00000000	13.76107000	1.57480300
18.26666576	0.00000000	12.60458000	1.57480300
18.46666574	0.00000000	11.06668000	1.57480300
18.66666573	0.00000000	9.48572700	1.57480300
18.86666572	0.00000000	7.99704600	1.57480300
19.06666571	-0.15871060	7.25270600	1.57480300
19.26666570	0.00000000	8.08316900	1.57480300
19.46666568	0.00000000	10.41462000	1.57480300
19.66666567	0.00000000	14.27165000	1.57480300
19.86666566	0.00000000	18.50394000	1.61786400
20.06666565	0.00000000	21.99803000	1.95004900
20.26666564	0.00000000	24.27411000	2.31914400
20.46666563	0.00000000	24.18799000	1.95004900
20.66666561	0.00000000	21.11220000	1.61786400
20.86666560	0.00000000	15.63115000	1.57480300
21.06666559	0.00000000	8.64911400	1.57480300
21.26666558	0.00000000	0.92888770	1.57480300
21.46666557	0.00000000	-5.16732200	1.57480300
21.66666555	0.00000000	-7.86786400	1.57480300
21.86666554	0.00000000	-6.24384800	1.57480300
22.06666553	0.00000000	0.03690945	1.57480300
22.26666552	0.00000000	10.50689000	1.57480300
22.46666551	0.00000000	23.20374000	1.57480300
22.66666549	0.00000000	34.79330000	1.57480300
22.86666548	0.00000000	42.47662000	1.57480300
23.06666547	0.00000000	44.28518000	1.61786400
23.26666546	0.00000000	38.37967000	1.99311000
23.46666545	0.00000000	25.25836000	2.73745100
23.66666544	0.00000000	7.90477300	3.11269700
23.86666542	0.00000000	-9.49187900	3.15575800
24.06666541	0.00000000	-22.98843000	3.15575800
24.26666540	0.00000000	-29.49680000	3.11269700
24.46666539	0.00000000	-26.66708000	2.68823800
24.66666538	0.00000000	-14.29011000	1.53174200
24.86666536	0.00000000	5.43184000	0.00000000
25.06666535	0.00000000	27.81742000	-1.57480300
25.26666534	0.00000000	47.86540000	-3.06348400
25.46666533	0.00000000	60.52534000	-3.80782500
25.66666532	0.00000000	62.10630000	-2.97736200
25.86666530	0.00000000	52.38681000	-0.69512790
26.06666529	0.00000000	33.44611000	2.82972400
26.26666528	0.00000000	8.74753900	6.64370100
26.46666527	0.00000000	-15.12672000	10.16855000
26.66666526	0.00000000	-32.57259000	12.45079000
26.86666525	0.00000000	-39.92372000	13.14591000
27.06666523	0.00000000	-35.69143000	11.10359000
27.26666522	0.00000000	-20.98917000	5.71481200
27.46666521	0.00000000	1.06422200	-1.58095500
27.66666520	0.00000000	25.76895000	-8.96284400
27.86666519	0.00000000	47.35482000	-15.14518000
28.06666517	0.00000000	60.52534000	-18.90994000
28.26666516	0.00000000	62.52460000	-18.44857000
28.46666515	0.00000000	53.68479000	-13.01058000
28.66666514	0.00000000	36.28199000	-3.72170300
28.86666513	0.00000000	14.27780000	7.89247000
29.06666511	0.00000000	-7.35728300	19.46358000
29.26666510	0.00000000	-23.59744000	28.24803000
29.46666509	0.00000000	-31.03469000	31.68676000
29.66666508	0.00000000	-28.80167000	28.20497000
29.86666507	0.00000000	-18.42397000	18.90994000
30.06666506	0.00000000	-2.51599400	5.29650500
30.26666504	0.00000000	15.67421000	-10.49459000
30.46666503	0.00000000	32.65871000	-24.71087000
30.66666502	0.00000000	44.28518000	-33.58760000
30.86666501	0.00000000	48.24065000	-35.12549000
31.06666500	0.00000000	44.83883000	-28.90010000
31.26666498	0.00000000	35.16855000	-15.74803000
31.46666497	0.00000000	21.62278000	1.62401600
31.66666496	0.00000000	6.92052100	19.37131000
31.86666495	0.00000000	-5.81938900	33.67987000
32.06666494	0.00000000	-13.58883000	41.35088000
32.26666492	0.00000000	-15.21900000	40.60039000
32.46666491	0.00000000	-10.98671000	31.36073000
32.66666490	0.00000000	-2.09768700	16.30783000
32.86666489	0.00000000	9.48572700	-1.48868100
33.06666488	0.00000000	21.06914000	-18.53469000
33.26666487	0.00000000	29.95817000	-31.27460000
33.46666485	0.00000000	34.28272000	-37.44463000
33.66666484	0.00000000	33.53838000	-35.12549000
33.86666483	0.00000000	28.51255000	-25.13533000
34.06666482	0.00000000	20.04183000	-10.07628000
34.26666481	0.00000000	10.45768000	6.96358300
34.46666479	0.00000000	2.73745100	22.39788000
34.66666478	0.00000000	-1.58710600	33.21850000
34.86666477	0.00000000	-2.05462600	36.70644000
35.06666476	0.00000000	0.68897630	32.52337000
35.26666475	0.00000000	6.09005900	22.06570000
35.46666473	0.00000000	13.34276000	7.43110200
35.66666472	0.00000000	19.48819000	-7.94783400
35.86666471	0.00000000	23.02534000	-19.93110000
36.06666470	0.00000000	23.76353000	-26.16265000
36.26666469	0.00000000	21.06914000	-25.78740000
36.46666468	0.00000000	15.76649000	-18.90994000
36.66666466	0.00000000	9.99630800	-7.75713500
36.86666465	0.00000000	5.33956700	4.55831700
37.06666464	0.00000000	2.64517700	15.37894000
37.26666463	0.00000000	2.64517700	21.88730000
37.46666462	0.00000000	5.33956700	22.67470000
37.66666460	0.00000000	9.95324800	17.32899000
37.86666459	0.00000000	15.29897000	7.80634800
38.06666458	0.00000000	19.58046000	-2.55905500
38.26666457	0.00000000	21.90576000	-11.01132000
38.46666456	0.00000000	22.31791000	-15.19439000
38.66666454	0.00000000	20.37401000	-13.70571000
38.86666453	0.00000000	16.92298000	-7.25270600
39.06666452	0.00000000	12.60458000	1.57480300
39.26666451	0.00000000	7.99704600	10.40846000
39.46666450	0.00000000	4.18307100	16.86762000
39.66666449	0.00000000	2.60211600	18.39936000
39.86666447	0.00000000	3.29724400	14.59153000
40.06666446	0.00000000	5.25344500	6.87746000
40.26666445	0.00000000	8.37229300	-3.06963600
40.46666444	0.00000000	12.27239000	-12.21703000
40.66666443	0.00000000	16.14173000	-17.19365000
40.86666441	0.00000000	19.62352000	-16.86762000
41.06666440	0.00000000	21.53666000	-11.47884000
41.26666439	0.00000000	21.57972000	-2.64517700
41.46666438	0.00000000	20.04183000	7.33882900
41.66666437	0.00000000	17.29823000	15.79724000
41.86666435	0.00000000	13.81028000	20.44168000
42.06666434	0.00000000	9.95324800	20.44168000
42.26666433	0.00000000	6.87746000	15.79724000
42.46666432	0.00000000	5.25344500	7.38188900
42.66666431	0.00000000	4.87819900	-2.18380900
42.86666430	0.00000000	5.67175200	-9.89788300
43.06666428	0.00000000	7.94783400	-14.21629000
43.26666427	0.00000000	10.64838000	-14.58538000
43.46666426	0.00000000	12.97982000	-11.18971000
43.66666425	0.00000000	14.97293000	-5.01968500
43.86666424	0.00000000	16.09252000	1.86392700
44.06666422	0.00000000	16.55389000	8.03395600
44.26666421	0.00000000	16.18479000	11.56496000
44.46666420	0.00000000	15.85261000	12.40773000
44.66666419	0.00000000	15.76649000	11.23893000
44.86666418	0.00000000	15.39124000	7.75713500
45.06666416	0.00000000	14.64690000	3.20497000
45.26666415	0.00000000	14.22859000	-1.07037400
45.46666414	0.00000000	13.71801000	-4.18307100
45.66666413	0.00000000	12.13706000	-5.71481200
45.86666412	0.00000000	9.44266700	-5.38262700
46.06666411	0.00000000	6.41609200	-3.48179100
46.26666409	0.00000000	4.09079700	-1.15649600
46.46666408	0.00000000	3.34030500	1.58095500
46.66666407	0.00000000	4.13385800	4.22613100
46.86666406	0.00000000	6.92052100	5.80093500
47.06666405	0.00000000	11.57726000	6.21924200
47.26666403	0.00000000	17.39050000	5.80093500
47.46666402	0.00000000	23.11762000	4.26919300
47.66666401	0.00000000	26.97465000	1.95004900
47.86666400	0.00000000	27.67593000	-0.37524600
48.06666399	0.00000000	24.97539000	-2.69439000
48.26666397	0.00000000	18.74385000	-4.18307100
48.46666396	0.00000000	10.69144000	-4.18307100
48.66666395	0.00000000	2.55290300	-2.64517700
48.86666394	0.00000000	-3.58636800	0.04306102
49.06666393	0.00000000	-6.28690900	3.15575800
49.26666392	0.00000000	-4.70595500	6.22539300
49.46666390	0.00000000	1.10728300	8.50147600
49.66666389	0.00000000	9.95324800	8.91978400
49.86666388	0.00000000	19.58046000	7.75713500
50.06666387	0.00000000	27.25763000	5.38262700
50.26666386	0.00000000	31.11466000	1.53174200
50.46666384	0.00000000	30.00123000	-2.64517700
50.66666383	0.00000000	24.60630000	-5.75787400
50.86666382	0.00000000	16.50467000	-7.29576700
51.06666381	0.00000000	7.25270600	-6.92052100
51.26666380	0.00000000	-0.38139760	-4.55831700
51.46666379	0.00000000	-4.28764700	-0.73818890
51.66666377	0.00000000	-3.54330700	3.90009800
51.86666376	0.00000000	1.06422200	7.71407400
52.06666375	0.00000000	8.37229300	10.03322000
52.26666374	0.00000000	16.46161000	10.03322000
52.46666373	0.00000000	22.98228000	7.75713500
52.66666371	0.00000000	26.46407000	4.31840500
52.86666370	0.00000000	25.67667000	0.41830710
53.06666369	0.00000000	21.11220000	-3.02042300
53.26666368	0.00000000	14.18553000	-5.33956700
53.46666367	0.00000000	6.92052100	-5.71481200
53.66666365	0.00000000	1.57480300	-4.22613100
53.86666364	0.00000000	-0.00615157	-1.53174200
54.06666363	0.00000000	2.22687000	1.53174200
54.26666362	0.00000000	6.83439900	4.22613100
54.46666361	0.00000000	12.64764000	5.71481200
54.66666360	0.00000000	18.37475000	5.38262700
54.86666358	0.00000000	22.23179000	3.48179100
55.06666357	0.00000000	22.98228000	1.24877000
55.26666356	0.00000000	20.73696000	-0.69512790
55.46666355	0.00000000	16.09252000	-1.43946800
55.66666354	0.00000000	10.73450000	-1.06422200
55.86666352	0.00000000	5.71481200	0.51058070
56.06666351	0.00000000	2.68823800	3.15575800
56.26666350	0.00000000	2.64517700	5.75787400
56.46666349	0.00000000	5.29650500	6.92052100
56.66666348	0.00000000	9.52879000	6.13312000
56.86666346	0.00000000	14.13632000	3.80782500
57.06666345	0.00000000	17.99951000	-0.04306102
57.26666344	0.00000000	19.95571000	-4.22613100
57.46666343	0.00000000	19.99877000	-7.29576700
57.66666342	0.00000000	18.41781000	-8.40920300
57.86666341	0.00000000	15.29897000	-6.87746000
58.06666339	0.00000000	11.15896000	-2.97736200
58.26666338	0.00000000	7.72022600	2.41756900
58.46666337	0.00000000	6.50221400	8.54453700
58.66666336	0.00000000	6.79133800	13.10285000
58.86666335	0.00000000	7.99704600	14.63459000
59.06666333	0.00000000	9.90403500	12.72761000
59.26666332	0.00000000	12.22933000	7.71407400
59.46666331	0.00000000	14.13632000	1.15649600
59.66666330	0.00000000	15.29897000	-5.75787400
59.86666329	0.00000000	15.29897000	-11.10359000
60.06666327	0.00000000	14.18553000	-13.05364000
60.26666326	0.00000000	12.69070000	-11.52190000
60.46666325	0.00000000	11.53420000	-6.82824800
60.66666324	0.00000000	11.10974000	0.46751960
60.86666323	0.00000000	11.10974000	8.50147600
61.06666322	0.00000000	11.48499000	14.67766000
61.26666320	0.00000000	12.27239000	17.74729000
61.46666319	0.00000000	13.02288000	16.95374000
61.66666318	0.00000000	13.76107000	11.98942000
61.86666317	0.00000000	13.71801000	4.69365100
62.06666316	0.00000000	12.64764000	-3.06348400
62.26666314	0.00000000	11.48499000	-10.03322000
62.46666313	0.00000000	10.69144000	-14.58538000
62.66666312	0.00000000	9.90403500	-15.32972000
62.86666311	0.00000000	9.57800100	-11.52190000
63.06666310	0.00000000	9.95324800	-4.64443900
63.26666308	0.00000000	11.10974000	3.06348400
63.46666307	0.00000000	12.64764000	10.07628000
63.66666306	0.00000000	14.18553000	15.05290000
63.86666305	0.00000000	15.34203000	16.99680000
64.06666304	0.00000000	15.71727000	15.09596000
64.26666303	0.00000000	15.34203000	10.49459000
64.46666301	0.00000000	14.13632000	4.26919300
64.66666300	0.00000000	12.22933000	-2.60211600
64.86666299	0.00000000	9.95324800	-8.03395600
65.06666298	0.00000000	8.41535400	-10.77756000
65.26666297	0.00000000	7.99704600	-11.18971000
65.46666295	0.00000000	8.41535400	-8.87672100
65.66666294	0.00000000	9.95324800	-4.69365100
65.86666293	0.00000000	12.22933000	-0.04306102
66.06666292	0.00000000	14.09326000	4.26919300
66.26666291	0.00000000	14.92372000	7.75713500
66.46666289	0.00000000	14.51156000	10.11934000
66.66666288	0.00000000	13.39198000	10.91289000
66.86666287	0.00000000	11.44193000	10.53765000
67.06666286	0.00000000	9.57800100	8.96284400
67.26666285	0.00000000	8.45841400	6.26845500
67.46666284	0.00000000	8.83366100	3.15575800
67.66666282	0.00000000	10.73450000	0.00000000
67.86666281	0.00000000	13.06594000	-3.11269700
68.06666280	0.00000000	15.76649000	-5.80093500
68.26666279	0.00000000	17.99951000	-7.38188900
68.46666278	0.00000000	18.37475000	-7.75713500
68.66666276	0.00000000	16.87992000	-6.92052100
68.86666275	0.00000000	14.13632000	-4.18307100
69.06666274	0.00000000	10.64838000	0.04306102
69.26666273	0.00000000	6.79133800	4.69365100
69.46666272	0.00000000	3.75861200	8.91978400
69.66666270	0.00000000	2.60211600	11.61417000
69.86666269	0.00000000	3.75861200	12.03248000
70.06666268	0.00000000	6.87746000	10.49459000
70.26666267	0.00000000	11.53420000	7.33882900
70.46666266	0.00000000	16.92298000	2.69439000
70.66666265	0.00000000	21.53666000	-2.64517700
70.86666263	0.00000000	24.23105000	-6.92052100
71.06666262	0.00000000	24.18799000	-9.24581600
71.26666261	0.00000000	21.11220000	-9.61491000
71.46666260	0.00000000	15.71727000	-7.29576700
71.66666259	0.00000000	9.52879000	-3.11269700
71.86666257	0.00000000	3.71555100	1.53174200
72.06666256	0.00000000	-0.47367120	5.75787400
72.26666255	0.00000000	-1.63016700	8.50147600
72.46666254	0.00000000	0.64591530	9.29502900
72.66666253	0.00000000	5.25344500	8.54453700
72.86666251	0.00000000	11.06668000	6.22539300
73.06666250	0.00000000	16.87992000	3.19881900
73.26666249	0.00000000	21.53666000	0.51058070
73.46666248	0.00000000	24.18799000	-1.06422200
73.66666247	0.00000000	23.81275000	-1.48253000
73.86666246	0.00000000	20.41708000	-1.11343500
74.06666244	0.00000000	15.76649000	0.00000000
74.26666243	0.00000000	10.69144000	1.11343500
74.46666242	0.00000000	5.71481200	1.48253000
74.66666241	0.00000000	2.64517700	1.11343500
74.86666240	0.00000000	2.17765700	-0.04306102
75.06666238	0.00000000	3.71555100	-1.53174200
75.26666237	0.00000000	6.79133800	-2.64517700
75.46666236	0.00000000	10.64838000	-2.60211600
75.66666235	0.00000000	14.09326000	-1.07037400
75.86666234	0.00000000	16.46161000	1.62401600
76.06666232	0.00000000	17.25517000	4.73671200
76.26666231	0.00000000	16.92298000	7.75713500
76.46666230	0.00000000	15.76649000	9.65797200
76.66666229	0.00000000	14.22859000	9.24581600
76.86666228	0.00000000	12.69070000	6.96358300
77.06666227	0.00000000	11.53420000	3.06963600
77.26666225	0.00000000	11.10974000	-1.57480300
77.46666224	0.00000000	11.06668000	-6.17618100
77.66666223	0.00000000	11.06668000	-9.60875900
77.86666222	0.00000000	11.06668000	-10.35925000
78.06666221	0.00000000	11.02362000	-8.45226300
78.26666219	0.00000000	10.64838000	-4.18307100
78.46666218	0.00000000	9.90403500	1.57480300
78.66666217	0.00000000	9.52879000	7.33882900
78.86666216	0.00000000	9.57800100	11.61417000
79.06666215	0.00000000	10.37155000	13.56422000
79.26666213	0.00000000	12.27239000	13.18898000
79.46666212	0.00000000	14.18553000	10.45152000
79.66666211	0.00000000	15.76649000	5.85014700
79.86666210	0.00000000	16.87992000	0.41830710
80.06666209	0.00000000	16.83686000	-4.60137700
80.26666208	0.00000000	15.29897000	-8.45226300
80.46666206	0.00000000	12.64764000	-9.99015700
80.66666205	0.00000000	9.95324800	-8.87057000
80.86666204	0.00000000	7.94783400	-5.80093500
81.06666203	0.00000000	6.41609200	-1.57480300
81.26666202	0.00000000	5.71481200	2.69439000
81.46666200	0.00000000	6.87746000	6.17618100
81.66666199	0.00000000	9.52879000	8.54453700
81.86666198	0.00000000	12.60458000	9.33809000
82.06666197	0.00000000	15.29897000	9.00590400
82.26666196	0.00000000	16.83686000	7.80019600
82.46666194	0.00000000	16.87992000	5.85014700
82.66666193	0.00000000	15.71727000	3.11269700
82.86666192	0.00000000	13.81028000	0.00000000
83.06666191	0.00000000	11.48499000	-3.11269700
83.26666190	0.00000000	9.57800100	-5.80093500
83.46666189	0.00000000	8.41535400	-7.33882900
83.66666187	0.00000000	8.37229300	-7.33882900
83.86666186	0.00000000	9.11048200	-5.80093500
84.06666185	0.00000000	9.90403500	-3.06348400
84.26666184	0.00000000	11.06668000	0.41830710
84.46666183	0.00000000	12.18012000	4.31840500
84.66666181	0.00000000	12.60458000	7.75713500
84.86666180	0.00000000	12.64764000	10.07628000
85.06666179	0.00000000	12.64764000	10.45152000
85.26666178	0.00000000	12.64764000	8.91978400
85.46666177	0.00000000	12.64764000	5.80093500
85.66666175	0.00000000	12.64764000	1.57480300
85.86666174	0.00000000	12.64764000	-2.69439000
86.06666173	0.00000000	12.64764000	-6.17618100
86.26666172	0.00000000	12.64764000	-8.45226300
86.46666171	0.00000000	12.60458000	-8.45226300
86.66666170	0.00000000	12.18012000	-6.17618100
86.86666168	0.00000000	11.06668000	-2.69439000
87.06666167	0.00000000	9.90403500	1.62401600
87.26666166	0.00000000	9.15354300	6.17618100
87.46666165	0.00000000	8.74138700	9.65797200
87.66666164	0.00000000	9.20275500	10.77756000
87.86666162	0.00000000	10.32234000	9.65797200
88.06666161	0.00000000	12.27239000	6.17618100
88.26666160	0.00000000	14.13632000	1.57480300
88.46666159	0.00000000	15.29897000	-3.02042300
88.66666158	0.00000000	15.29897000	-6.50221400
88.86666156	0.00000000	14.18553000	-7.62180000
89.06666155	0.00000000	12.64764000	-6.50221400
89.26666154	0.00000000	11.10974000	-3.02042300
89.46666153	0.00000000	9.90403500	1.53174200
89.66666152	0.00000000	9.15354300	5.80093500
89.86666151	0.00000000	8.74138700	8.87057000
90.06666149	0.00000000	9.15354300	10.03322000
90.26666148	0.00000000	9.90403500	8.87057000
90.46666147	0.00000000	11.06668000	5.80093500
90.66666146	0.00000000	12.22933000	1.57480300
90.86666145	0.00000000	13.02288000	-2.64517700
91.06666143	0.00000000	13.76107000	-5.71481200
91.26666142	0.00000000	13.76107000	-6.87130900
91.46666141	0.00000000	13.06594000	-5.67175200
91.66666140	0.00000000	12.69070000	-2.22687000
91.86666139	0.00000000	12.60458000	2.69439000
92.06666137	0.00000000	12.27239000	6.92052100
92.26666136	0.00000000	11.86024000	9.29502900
92.46666135	0.00000000	11.85408000	10.03322000
92.66666134	0.00000000	11.44193000	8.45226300
92.86666133	0.00000000	11.06668000	4.64443900
93.06666132	0.00000000	10.64838000	0.04306102
93.26666130	0.00000000	9.86097400	-4.18307100
93.46666129	0.00000000	9.15354300	-6.87746000
93.66666128	0.00000000	8.79060000	-7.24655500
93.86666127	0.00000000	9.57800100	-5.33956700
94.06666126	0.00000000	11.06668000	-1.48868100
94.26666124	0.00000000	12.64764000	3.06963600
94.46666123	0.00000000	14.22859000	6.92052100
94.66666122	0.00000000	15.76649000	8.82750900
94.86666121	0.00000000	16.87992000	8.45226300
95.06666120	0.00000000	16.83686000	5.75787400
95.26666118	0.00000000	15.29897000	1.57480300
95.46666117	0.00000000	12.60458000	-2.60211600
95.66666116	0.00000000	9.52879000	-5.33956700
95.86666115	0.00000000	6.79133800	-6.13312000
96.06666114	0.00000000	4.87819900	-5.33956700
96.26666113	0.00000000	4.13385800	-2.64517700
96.46666111	0.00000000	5.29650500	1.11343500
96.66666110	0.00000000	7.99704600	4.22613100
96.86666109	0.00000000	11.48499000	6.17618100
97.06666108	0.00000000	15.34203000	6.96358300
97.26666107	0.00000000	18.41781000	6.17618100
97.46666105	0.00000000	19.99877000	4.26919300
97.66666104	0.00000000	19.99877000	1.58095500
97.86666103	0.00000000	18.41781000	-1.07037400
98.06666102	0.00000000	15.29897000	-2.60211600
98.26666101	0.00000000	11.06668000	-2.64517700
98.46666099	0.00000000	6.87746000	-1.53174200
98.66666098	0.00000000	4.13385800	-0.04306102
98.86666097	0.00000000	3.34030500	1.15649600
99.06666096	0.00000000	4.04773600	1.95004900
99.26666095	0.00000000	6.04084600	2.68823800
99.46666094	0.00000000	8.74138700	2.68823800
99.66666092	0.00000000	12.27239000	1.99311000
99.86666091	0.00000000	15.67421000	1.66707700
100.06666090	0.00000000	18.04257000	1.99311000
100.26666089	0.00000000	18.83612000	2.73745100
100.46666088	0.00000000	18.46087000	3.11269700
100.66666086	0.00000000	16.87992000	3.15575800
100.86666085	0.00000000	14.18553000	3.11269700
101.06666084	0.00000000	11.06668000	2.64517700
101.26666083	0.00000000	7.99704600	1.11343500
101.46666082	0.00000000	5.67175200	-1.11343500
101.66666080	0.00000000	4.87819900	-2.64517700
101.86666079	0.00000000	5.25344500	-3.06348400
102.06666078	0.00000000	6.79133800	-2.64517700
102.26666077	0.00000000	9.11048200	-1.07037400
102.46666076	0.00000000	11.44193000	1.58095500
102.66666075	0.00000000	13.76107000	4.26919300
102.86666073	0.00000000	15.29897000	6.22539300
103.06666072	0.00000000	15.76649000	7.38188900
103.26666071	0.00000000	15.71727000	7.33882900
103.46666070	0.00000000	14.92372000	5.80093500
103.66666069	0.00000000	13.02288000	3.11269700
103.86666067	0.00000000	11.10974000	0.00000000
104.06666066	0.00000000	9.48572700	-3.06348400
104.26666065	0.00000000	7.99704600	-5.33956700
104.46666064	0.00000000	7.25270600	-5.71481200
104.66666063	0.00000000	7.99704600	-4.22613100
104.86666061	0.00000000	9.48572700	-1.53174200
105.06666060	0.00000000	11.06668000	1.53174200
105.26666059	0.00000000	12.60458000	4.26919300
105.46666058	0.00000000	13.76107000	6.17618100
105.66666057	0.00000000	14.13632000	6.92052100
105.86666056	0.00000000	13.76107000	5.80093500
106.06666054	0.00000000	12.64764000	3.53100400
106.26666053	0.00000000	11.48499000	1.20570900
106.46666052	0.00000000	10.69144000	-1.11343500
106.66666051	0.00000000	9.90403500	-2.60211600
106.86666050	0.00000000	9.57800100	-2.64517700
107.06666048	0.00000000	9.95324800	-1.53174200
107.26666047	0.00000000	11.06668000	0.00000000
107.46666046	0.00000000	12.18012000	1.57480300
107.66666045	0.00000000	12.60458000	3.06348400
107.86666044	0.00000000	12.64764000	3.85088600
108.06666042	0.00000000	12.60458000	3.48794300
108.26666041	0.00000000	12.18012000	2.73745100
108.46666040	0.00000000	11.02362000	1.53174200
108.66666039	0.00000000	9.52879000	0.04306102
108.86666038	0.00000000	8.41535400	-1.11343500
109.06666037	0.00000000	8.41535400	-1.48253000
109.26666035	0.00000000	9.48572700	-1.11343500
109.46666034	0.00000000	10.64838000	0.04306102
109.66666033	0.00000000	11.48499000	1.53174200
109.86666032	0.00000000	12.64764000	2.73745100
110.06666031	0.00000000	13.76107000	3.48794300
110.26666029	0.00000000	14.13632000	3.85088600
110.46666028	0.00000000	13.76107000	3.11269700
110.66666027	0.00000000	12.60458000	1.99311000
110.86666026	0.00000000	11.10974000	1.15649600
111.06666025	0.00000000	9.90403500	0.00000000
111.26666023	0.00000000	9.11048200	-1.11343500
111.46666022	0.00000000	8.37229300	-1.48253000
111.66666021	0.00000000	8.41535400	-1.15649600
111.86666020	0.00000000	9.52879000	-0.37524600
112.06666019	0.00000000	11.02362000	0.37524600
112.26666018	0.00000000	12.18012000	1.15649600
112.46666016	0.00000000	12.60458000	1.57480300
112.66666015	0.00000000	12.60458000	1.95004900
112.86666014	0.00000000	12.22933000	2.31914400
113.06666013	0.00000000	11.48499000	1.95004900
113.26666012	0.00000000	11.10974000	1.61786400
113.46666010	0.00000000	11.02362000	1.57480300
113.66666009	0.00000000	10.64838000	1.53174200
113.86666008	0.00000000	9.95324800	1.15649600
114.06666007	0.00000000	9.95324800	0.41830710
114.26666006	0.00000000	10.64838000	0.04306102
114.46666004	0.00000000	11.02362000	0.00000000
114.66666003	0.00000000	11.06668000	0.00000000
114.86666002	0.00000000	11.10974000	0.00000000
115.06666001	0.00000000	11.48499000	0.00000000
115.26666000	0.00000000	12.18012000	0.00000000
115.46665999	0.00000000	12.18012000	0.04306102
115.66665997	0.00000000	11.48499000	0.41830710
115.86665996	0.00000000	11.10974000	1.15649600
116.06665995	0.00000000	11.02362000	1.57480300
116.26665994	0.00000000	10.64838000	1.99311000
116.46665993	0.00000000	9.90403500	2.73745100
116.66665991	0.00000000	9.52879000	3.06348400
116.86665990	0.00000000	9.52879000	2.73745100
117.06665989	0.00000000	9.95324800	1.99311000
117.26665988	0.00000000	11.06668000	1.57480300
117.46665987	0.00000000	12.18012000	1.15649600
117.66665985	0.00000000	12.64764000	0.41830710
117.86665984	0.00000000	13.06594000	0.04306102
118.06665983	0.00000000	13.76107000	0.00000000
118.26665982	0.00000000	13.71801000	0.00000000
118.46665981	0.00000000	12.64764000	0.04306102
118.66665980	0.00000000	11.48499000	0.41830710
118.86665978	0.00000000	10.64838000	1.15649600
119.06665977	0.00000000	9.48572700	1.57480300
119.26665976	0.00000000	8.37229300	1.99311000
119.46665975	0.00000000	7.99704600	2.68823800
119.66665974	0.00000000	8.37229300	2.68823800
119.86665972	0.00000000	9.52879000	1.99311000
120.06665971	0.00000000	11.06668000	1.61786400
120.26665970	0.00000000	12.60458000	1.53174200
120.46665969	0.00000000	13.76107000	1.15649600
120.66665968	0.00000000	14.18553000	0.41830710
120.86665966	0.00000000	14.18553000	0.04306102
121.06665965	0.00000000	13.76107000	0.00000000
121.26665964	0.00000000	12.60458000	0.00000000
121.46665963	0.00000000	11.06668000	0.00000000
121.66665962	0.00000000	9.52879000	0.00000000
121.86665961	0.00000000	8.37229300	0.00000000
122.06665959	0.00000000	7.99704600	0.04306102
122.26665958	0.00000000	8.32308000	0.41830710
122.46665957	0.00000000	9.11048200	1.19955700
122.66665956	0.00000000	9.90403500	1.95004900
122.86665955	0.00000000	11.06668000	2.73745100
123.06665953	0.00000000	12.18012000	3.06348400
123.26665952	0.00000000	12.64764000	2.73745100
123.46665951	0.00000000	13.02288000	1.95004900
123.66665950	0.00000000	13.39198000	1.19955700
123.86665949	0.00000000	12.97982000	0.41830710
124.06665947	0.00000000	12.27239000	0.04306102
124.26665946	0.00000000	11.44193000	0.00000000
124.46665945	0.00000000	10.69144000	0.00000000
124.66665944	0.00000000	9.90403500	0.00000000
124.86665943	0.00000000	9.52879000	0.04306102
125.06665942	0.00000000	9.48572700	0.41830710
125.26665940	0.00000000	9.48572700	1.15649600
125.46665939	0.00000000	9.52879000	1.53174200
125.66665938	0.00000000	9.90403500	1.57480300
125.86665937	0.00000000	10.69144000	1.57480300
126.06665936	0.00000000	11.44193000	1.57480300
126.26665934	0.00000000	12.22933000	1.57480300
126.46665933	0.00000000	12.60458000	1.57480300
126.66665932	0.00000000	12.64764000	1.53174200
126.86665931	0.00000000	12.60458000	1.15649600
127.06665930	0.00000000	12.18012000	0.41830710
127.26665928	0.00000000	11.06668000	0.04306102
127.46665927	0.00000000	9.95324800	0.00000000
127.66665926	0.00000000	9.52879000	0.00000000
127.86665925	0.00000000	9.48572700	0.00000000
128.06665924	0.00000000	9.48572700	0.00000000
128.26665923	0.00000000	9.52879000	0.04306102
128.46665921	0.00000000	9.95324800	0.41830710
128.66665920	0.00000000	11.06668000	1.15649600
128.86665919	0.00000000	12.18012000	1.53174200
129.06665918	0.00000000	12.60458000	1.57480300
129.26665917	0.00000000	12.64764000	1.53174200
129.46665915	0.00000000	12.60458000	1.15649600
129.66665914	0.00000000	12.18012000	0.41830710
129.86665913	0.00000000	11.06668000	0.04306102
130.06665912	0.00000000	9.90403500	0.00000000
130.26665911	0.00000000	9.15354300	0.04306102
130.46665909	0.00000000	8.74138700	0.41830710
130.66665908	0.00000000	9.15354300	1.15649600
130.86665907	0.00000000	9.86097400	1.48253000
131.06665906	0.00000000	10.69144000	1.19955700
131.26665905	0.00000000	11.44193000	0.83661410
131.46665904	0.00000000	12.18012000	1.15649600
131.66665902	0.00000000	12.22933000	1.11343500
131.86665901	0.00000000	11.86024000	0.41830710
132.06665900	0.00000000	11.85408000	0.04306102
132.26665899	0.00000000	11.39887000	0.00000000
132.46665898	0.00000000	10.69144000	0.00000000
132.66665896	0.00000000	9.90403500	0.00000000
132.86665895	0.00000000	9.57800100	0.04306102
133.06665894	0.00000000	9.90403500	0.41830710
133.26665893	0.00000000	10.64838000	1.19955700
133.46665892	0.00000000	11.02362000	1.95004900
133.66665890	0.00000000	11.06668000	2.68823800
133.86665889	0.00000000	11.06668000	2.68823800
134.06665888	0.00000000	11.06668000	1.95004900
134.26665887	0.00000000	11.06668000	1.19955700
134.46665886	0.00000000	11.06668000	0.37524600
134.66665885	0.00000000	11.06668000	-0.37524600
134.86665883	0.00000000	11.06668000	-1.15649600
135.06665882	0.00000000	11.06668000	-1.48253000
135.26665881	0.00000000	11.06668000	-1.15649600
135.46665880	0.00000000	11.06668000	-0.37524600
135.66665879	0.00000000	11.06668000	0.37524600
135.86665877	0.00000000	11.02362000	1.15649600
136.06665876	0.00000000	10.64838000	1.53174200
136.26665875	0.00000000	9.90403500	1.57480300
136.46665874	0.00000000	9.52879000	1.57480300
136.66665873	0.00000000	9.48572700	1.57480300
136.86665871	0.00000000	9.48572700	1.57480300
137.06665870	0.00000000	9.52879000	1.53174200
137.26665869	0.00000000	9.95324800	1.15649600
137.46665868	0.00000000	11.06668000	0.41830710
137.66665867	0.00000000	12.18012000	0.04306102
137.86665866	0.00000000	12.60458000	0.00000000
138.06665864	0.00000000	12.60458000	0.00000000
138.26665863	0.00000000	12.22933000	0.00000000
138.46665862	0.00000000	11.44193000	0.00000000
138.66665861	0.00000000	10.69144000	0.00000000
138.86665860	0.00000000	9.90403500	0.04306102
139.06665858	0.00000000	9.52879000	0.41830710
139.26665857	0.00000000	9.48572700	1.19955700
139.46665856	0.00000000	9.52879000	1.95004900
139.66665855	0.00000000	9.90403500	2.68823800
139.86665854	0.00000000	10.69144000	2.68823800
140.06665852	0.00000000	11.39887000	1.99311000
140.26665851	0.00000000	11.81102000	1.57480300
140.46665850	0.00000000	11.44193000	1.15649600
140.66665849	0.00000000	11.10974000	0.37524600
140.86665848	0.00000000	11.06668000	-0.37524600
141.06665847	0.00000000	11.06668000	-1.11343500
141.26665845	0.00000000	11.02362000	-1.11343500
141.46665844	0.00000000	10.64838000	-0.37524600
141.66665843	0.00000000	9.95324800	0.37524600
141.86665842	0.00000000	9.95324800	1.19955700
142.06665841	0.00000000	10.64838000	1.95004900
142.26665839	0.00000000	11.02362000	2.73745100
142.46665838	0.00000000	11.06668000	3.06348400
142.66665837	0.00000000	11.06668000	2.73745100
142.86665836	0.00000000	11.06668000	1.95004900
143.06665835	0.00000000	11.06668000	1.19955700
143.26665834	0.00000000	11.02362000	0.37524600
143.46665832	0.00000000	10.64838000	-0.37524600
143.66665831	0.00000000	9.95324800	-1.11343500
143.86665830	0.00000000	9.95324800	-1.11343500
144.06665829	0.00000000	10.64838000	-0.41830710
144.26665828	0.00000000	11.02362000	0.00000000
144.46665826	0.00000000	11.06668000	0.41830710
144.66665825	0.00000000	11.06668000	1.19955700
144.86665824	0.00000000	11.06668000	1.90698800
145.06665823	0.00000000	11.06668000	2.31914400
145.26665822	0.00000000	11.06668000	1.95004900
145.46665820	0.00000000	11.02362000	1.57480300
145.66665819	0.00000000	10.64838000	1.15649600
145.86665818	0.00000000	9.90403500	0.41830710
146.06665817	0.00000000	9.57800100	0.04306102
146.26665816	0.00000000	9.90403500	0.00000000
146.46665815	0.00000000	10.64838000	0.00000000
146.66665813	0.00000000	11.02362000	0.00000000
146.86665812	0.00000000	11.06668000	0.00000000
147.06665811	0.00000000	11.06668000	0.04306102
147.26665810	0.00000000	11.06668000	0.41830710
147.46665809	0.00000000	11.06668000	1.15649600
147.66665807	0.00000000	11.06668000	1.53174200
147.86665806	0.00000000	11.02362000	1.57480300
148.06665805	0.00000000	10.64838000	1.57480300
148.26665804	0.00000000	9.90403500	1.57480300
148.46665803	0.00000000	9.52879000	1.53174200
148.66665801	0.00000000	9.52879000	1.15649600
148.86665800	0.00000000	9.90403500	0.41830710
149.06665799	0.00000000	10.64838000	0.04306102
149.26665798	0.00000000	11.02362000	0.00000000
149.46665797	0.00000000	11.06668000	0.00000000
149.66665796	0.00000000	11.06668000	0.00000000
149.86665794	0.00000000	11.06668000	0.00000000
150.06665793	0.00000000	11.06668000	0.04306102
150.26665792	0.00000000	11.06668000	0.41830710
150.46665791	0.00000000	11.02362000	1.15649600
150.66665790	0.00000000	10.64838000	1.53174200
150.86665788	0.00000000	9.90403500	1.57480300
151.06665787	0.00000000	9.52879000	1.57480300
151.26665786	0.00000000	9.52879000	1.57480300
151.46665785	0.00000000	9.86097400	1.53174200
151.66665784	0.00000000	10.27313000	1.15649600
151.86665782	0.00000000	10.27928000	0.41830710
152.06665781	0.00000000	10.69144000	0.04306102
152.26665780	0.00000000	11.02362000	0.00000000
152.46665779	0.00000000	11.06668000	0.00000000
152.66665778	0.00000000	11.06668000	0.00000000
152.86665777	0.00000000	11.06668000	0.04306102
153.06665775	0.00000000	11.06668000	0.41830710
153.26665774	0.00000000	11.06668000	1.15649600
153.46665773	0.00000000	11.06668000	1.53174200
153.66665772	0.00000000	11.02362000	1.57480300
153.86665771	0.00000000	10.64838000	1.57480300
154.06665769	0.00000000	9.90403500	1.57480300
154.26665768	0.00000000	9.57800100	1.57480300
154.46665767	0.00000000	9.86097400	1.53174200
154.66665766	0.00000000	10.27313000	1.19955700
154.86665765	0.00000000	10.27928000	0.79355310
155.06665763	0.00000000	10.69144000	0.78124990
155.26665762	0.00000000	11.02362000	0.37524600
155.46665761	0.00000000	11.06668000	0.04306102
155.66665760	0.00000000	11.06668000	0.00000000
155.86665759	0.00000000	11.06668000	0.00000000
156.06665758	0.00000000	11.06668000	0.00000000
156.26665756	0.00000000	11.06668000	0.04306102
156.46665755	0.00000000	11.02362000	0.41830710
156.66665754	0.00000000	10.64838000	1.15649600
156.86665753	0.00000000	9.90403500	1.53174200
157.06665752	0.00000000	9.52879000	1.57480300
157.26665750	0.00000000	9.48572700	1.57480300
157.46665749	0.00000000	9.48572700	1.53174200
157.66665748	0.00000000	9.52879000	1.15649600
157.86665747	0.00000000	9.90403500	0.41830710
158.06665746	0.00000000	10.64838000	0.04306102
158.26665744	0.00000000	11.02362000	0.00000000
158.46665743	0.00000000	11.06668000	0.00000000
158.66665742	0.00000000	11.06668000	0.00000000
158.86665741	0.00000000	11.06668000	0.04306102
159.06665740	0.00000000	11.06668000	0.41830710
159.26665739	0.00000000	11.06668000	1.15649600
159.46665737	0.00000000	11.02362000	1.53174200
159.66665736	0.00000000	10.64838000	1.57480300
159.86665735	0.00000000	9.90403500	1.57480300
160.06665734	0.00000000	9.52879000	1.57480300
160.26665733	0.00000000	9.48572700	1.53174200
160.46665731	0.00000000	9.48572700	1.15649600
160.66665730	0.00000000	9.48572700	0.41830710
160.86665729	0.00000000	9.52879000	0.04306102
161.06665728	0.00000000	9.90403500	0.00000000
161.26665727	0.00000000	10.64838000	0.00000000
161.46665725	0.00000000	11.02362000	0.00000000
161.66665724	0.00000000	11.06668000	0.00000000
161.86665723	0.00000000	11.06668000	0.04306102
162.06665722	0.00000000	11.06668000	0.41830710
162.26665721	0.00000000	11.06668000	1.15649600
162.46665720	0.00000000	11.06668000	1.53174200
162.66665718	0.00000000	11.02362000	1.57480300
162.86665717	0.00000000	10.69144000	1.57480300
163.06665716	0.00000000	10.32234000	1.57480300
163.26665715	0.00000000	10.64838000	1.57480300
163.46665714	0.00000000	10.59916000	1.57480300
163.66665712	0.00000000	9.90403500	1.53174200
163.86665711	0.00000000	9.52879000	1.15649600
164.06665710	0.00000000	9.52879000	0.41830710
164.26665709	0.00000000	9.90403500	0.04306102
164.46665708	0.00000000	10.64838000	0.00000000
164.66665706	0.00000000	10.97441000	0.00000000
164.86665705	0.00000000	10.69144000	0.00000000
165.06665704	0.00000000	10.32234000	0.00000000
165.26665703	0.00000000	10.69144000	0.00000000
165.46665702	0.00000000	11.02362000	0.00000000
165.66665701	0.00000000	11.02362000	0.00000000
165.86665699	0.00000000	10.64838000	0.00000000
166.06665698	0.00000000	9.90403500	0.00000000
166.26665697	0.00000000	9.52879000	0.04306102
166.46665696	0.00000000	9.48572700	0.37524600
166.66665695	0.00000000	9.48572700	0.73818890
166.86665693	0.00000000	9.48572700	0.37524600
167.06665692	0.00000000	9.48572700	0.04306102
167.26665691	0.00000000	9.52879000	0.00000000
167.46665690	0.00000000	9.90403500	0.00000000
167.66665689	0.00000000	10.64838000	0.00000000
167.86665687	0.00000000	11.02362000	0.00000000
168.06665686	0.00000000	11.06668000	0.00000000
168.26665685	0.00000000	11.06668000	0.00000000
168.46665684	0.00000000	11.06668000	0.00000000
168.66665683	0.00000000	11.02362000	0.04306102
168.86665682	0.00000000	10.64838000	0.37524600
169.06665680	0.00000000	9.90403500	0.73818890
169.26665679	0.00000000	9.52879000	0.37524600
169.46665678	0.00000000	9.48572700	0.04306102
169.66665677	0.00000000	9.48572700	0.00000000
169.86665676	0.00000000	9.48572700	0.04306102
170.06665674	0.00000000	9.52879000	0.37524600
170.26665673	0.00000000	9.90403500	0.73818890
170.46665672	0.00000000	10.64838000	0.41830710
170.66665671	0.00000000	11.02362000	0.41830710
170.86665670	0.00000000	11.06668000	0.78124990
171.06665668	0.00000000	11.06668000	0.74434050
171.26665667	0.00000000	11.06668000	0.78124990
171.46665666	0.00000000	11.06668000	0.37524600
171.66665665	0.00000000	11.06668000	0.04306102
171.86665664	0.00000000	11.02362000	0.00000000
172.06665663	0.00000000	10.64838000	0.00000000
172.26665661	0.00000000	9.90403500	0.00000000
172.46665660	0.00000000	9.52879000	0.04306102
172.66665659	0.00000000	9.48572700	0.41830710
172.86665658	0.00000000	9.52879000	1.15649600
173.06665657	0.00000000	9.90403500	1.53174200
173.26665655	0.00000000	10.59916000	1.53174200
173.46665654	0.00000000	10.64838000	1.19955700
173.66665653	0.00000000	10.32234000	0.79355310
173.86665652	0.00000000	10.69144000	0.78124990
174.06665651	0.00000000	11.02362000	0.37524600
174.26665649	0.00000000	11.06668000	0.04306102
174.46665648	0.00000000	11.02362000	0.00000000
174.66665647	0.00000000	10.64838000	0.00000000
174.86665646	0.00000000	9.90403500	0.00000000
175.06665645	0.00000000	9.52879000	0.00000000
175.26665644	0.00000000	9.48572700	0.04306102
175.46665642	0.00000000	9.48572700	0.37524600
175.66665641	0.00000000	9.48572700	0.73818890
175.86665640	0.00000000	9.48572700	0.41830710
176.06665639	0.00000000	9.52879000	0.46136810
176.26665638	0.00000000	9.90403500	1.11343500
176.46665636	0.00000000	10.64838000	1.11343500
176.66665635	0.00000000	11.02362000	0.41830710
176.86665634	0.00000000	11.06668000	0.04306102
177.06665633	0.00000000	11.02362000	0.00000000
177.26665632	0.00000000	10.69144000	0.00000000
177.46665630	0.00000000	10.32234000	0.00000000
177.66665629	0.00000000	10.64838000	0.00000000
177.86665628	0.00000000	10.59916000	0.00000000
178.06665627	0.00000000	9.90403500	0.04306102
178.26665626	0.00000000	9.52879000	0.37524600
178.46665625	0.00000000	9.48572700	0.78124990
178.66665623	0.00000000	9.48572700	0.79355310
178.86665622	0.00000000	9.48572700	1.19955700
179.06665621	0.00000000	9.48572700	1.48253000
179.26665620	0.00000000	9.52879000	1.15649600
179.46665619	0.00000000	9.90403500	0.41830710
179.66665617	0.00000000	10.64838000	0.04306102
179.86665616	0.00000000	11.02362000	0.00000000
180.06665615	0.00000000	11.02362000	0.00000000
180.26665614	0.00000000	10.69144000	0.00000000
180.46665613	0.00000000	10.27928000	0.00000000
180.66665611	0.00000000	10.27313000	0.00000000
180.86665610	0.00000000	9.86097400	0.00000000
181.06665609	0.00000000	9.52879000	0.04306102
181.26665608	0.00000000	9.48572700	0.41830710
181.46665607	0.00000000	9.48572700	1.15649600
181.66665606	0.00000000	9.48572700	1.53174200
181.86665604	0.00000000	9.52879000	1.57480300
182.06665603	0.00000000	9.86097400	1.57480300
182.26665602	0.00000000	10.27313000	1.53174200
182.46665601	0.00000000	10.27928000	1.15649600
182.66665600	0.00000000	10.69144000	0.41830710
182.86665598	0.00000000	11.02362000	0.04306102
183.06665597	0.00000000	11.02362000	0.00000000
183.26665596	0.00000000	10.64838000	0.00000000
183.46665595	0.00000000	9.90403500	0.00000000
183.66665594	0.00000000	9.52879000	0.00000000
183.86665592	0.00000000	9.48572700	0.00000000
184.06665591	0.00000000	9.48572700	0.04306102
184.26665590	0.00000000	9.48572700	0.41830710
184.46665589	0.00000000	9.48572700	1.15649600
184.66665588	0.00000000	9.48572700	1.53174200
184.86665587	0.00000000	9.48572700	1.57480300
185.06665585	0.00000000	9.48572700	1.57480300
185.26665584	0.00000000	9.52879000	1.53174200
185.46665583	0.00000000	9.90403500	1.15649600
185.66665582	0.00000000	10.64838000	0.41830710
185.86665581	0.00000000	11.02362000	0.04306102
186.06665579	0.00000000	11.06668000	0.00000000
186.26665578	0.00000000	11.02362000	0.00000000
186.46665577	0.00000000	10.64838000	0.00000000
186.66665576	0.00000000	9.95324800	0.00000000
186.86665575	0.00000000	9.90403500	0.00000000
187.06665573	0.00000000	10.23007000	0.00000000
187.26665572	0.00000000	9.86097400	0.04306102
187.46665571	0.00000000	9.52879000	0.41830710
187.66665570	0.00000000	9.48572700	1.15649600
187.86665569	0.00000000	9.48572700	1.53174200
188.06665568	0.00000000	9.48572700	1.57480300
188.26665566	0.00000000	9.48572700	1.53174200
188.46665565	0.00000000	9.52879000	1.15649600
188.66665564	0.00000000	9.90403500	0.41830710
188.86665563	0.00000000	10.64838000	0.04306102
189.06665562	0.00000000	10.97441000	0.00000000
189.26665560	0.00000000	10.64838000	0.00000000
189.46665559	0.00000000	9.90403500	0.00000000
189.66665558	0.00000000	9.52879000	0.00000000
189.86665557	0.00000000	9.48572700	0.00000000
190.06665556	0.00000000	9.48572700	0.00000000
190.26665554	0.00000000	9.48572700	0.04306102
190.46665553	0.00000000	9.48572700	0.41830710
190.66665552	0.00000000	9.48572700	1.11343500
190.86665551	0.00000000	9.48572700	1.15649600
191.06665550	0.00000000	9.48572700	0.79355310
191.26665549	0.00000000	9.52879000	0.78124990
191.46665547	0.00000000	9.90403500	0.37524600
191.66665546	0.00000000	10.64838000	0.04306102
191.86665545	0.00000000	11.02362000	0.00000000
192.06665544	0.00000000	11.02362000	0.00000000
192.26665543	0.00000000	10.69144000	0.00000000
192.46665541	0.00000000	10.27928000	0.00000000
192.66665540	0.00000000	10.27313000	0.00000000
192.86665539	0.00000000	9.86097400	0.00000000
193.06665538	0.00000000	9.52879000	0.00000000
193.26665537	0.00000000	9.48572700	0.04306102
193.46665535	0.00000000	9.48572700	0.37524600
193.66665534	0.00000000	9.48572700	0.78124990
193.86665533	0.00000000	9.48572700	0.79355310
194.06665532	0.00000000	9.48572700	1.19955700
194.26665531	0.00000000	9.52879000	1.48253000
194.46665530	0.00000000	9.90403500	1.15649600
194.66665528	0.00000000	10.64838000	0.46136810
194.86665527	0.00000000	11.02362000	0.41830710
195.06665526	0.00000000	11.02362000	0.73818890
195.26665525	0.00000000	10.69144000	0.37524600
195.46665524	0.00000000	10.27928000	0.04306102
195.66665522	0.00000000	10.27313000	0.00000000
195.86665521	0.00000000	9.86097400	0.00000000
196.06665520	0.00000000	9.52879000	0.00000000
