Time	Channel A	Channel B	Channel C
(us)	(V)	(mV)	(mV)

-4.59999956	0.00000000	-53.75861000	-18.94685000
-4.39999957	0.00000000	-53.75861000	-18.94685000
-4.19999958	0.00000000	-53.75861000	-18.94685000
-3.99999959	0.00000000	-53.75861000	-18.94685000
-3.79999960	0.00000000	-53.75861000	-18.94685000
-3.59999962	0.00000000	-53.75861000	-18.94685000
-3.39999963	0.00000000	-53.75861000	-18.94685000
-3.19999964	0.00000000	-53.75861000	-18.94685000
-2.99999965	0.00000000	-53.75861000	-18.94685000
-2.79999966	0.00000000	-53.75861000	-18.94685000
-2.59999968	0.00000000	-53.75861000	-18.94685000
-2.39999969	0.00000000	-53.75861000	-18.94685000
-2.19999970	0.00000000	-53.75861000	-18.94685000
-1.99999971	0.00000000	-53.75861000	-18.94685000
-1.79999972	0.00000000	-53.75861000	-18.94685000
-1.59999973	0.00000000	-53.75861000	-18.94685000
-1.39999975	0.00000000	-53.75861000	-18.94685000
-1.19999976	0.00000000	-53.75861000	-18.94685000
-0.99999977	0.00000000	-53.75861000	-18.94685000
-0.79999978	0.00000000	-53.75861000	-18.94685000
-0.59999979	0.00000000	-53.75861000	-18.94685000
-0.39999981	0.15871060	-53.75861000	-18.94685000
-0.19999982	0.47736220	-53.75861000	-18.98991000
0.00000017	0.79601380	-53.75861000	-19.32210000
0.20000016	0.95533960	-53.75861000	-19.73425000
0.40000015	0.95533960	-53.75861000	-19.74040000
0.60000013	0.63668800	-53.75861000	-20.10950000
0.80000012	-0.15871060	-53.75861000	-20.06029000
1.00000011	-1.11466500	-53.75861000	-19.41437000
1.20000010	-2.07062000	-53.75861000	-19.36516000
1.40000009	-2.70792300	-53.75861000	-19.69119000
1.60000008	-2.70792300	-53.75861000	-19.32210000
1.80000006	-1.91129400	-53.75861000	-18.98991000
2.00000005	-0.31803640	-53.75861000	-18.94685000
2.20000004	1.75196900	-53.75861000	-18.94685000
2.40000003	3.66326300	-53.75861000	-18.94685000
2.60000002	5.09719500	-53.75861000	-18.98991000
2.80000000	5.25652100	-53.75861000	-19.36516000
2.99999999	3.98191400	-53.75861000	-20.10950000
3.19999998	1.27399100	-53.75861000	-20.48474000
3.39999997	-1.91129400	-53.75861000	-20.48474000
3.59999996	-5.25652100	-53.71555000	-20.10950000
3.79999994	-7.48646600	-53.34030000	-19.36516000
3.99999993	-7.96444400	-52.64517000	-18.98991000
4.19999992	-6.37180100	-52.64517000	-18.94685000
4.39999991	-3.02657500	-53.29109000	-18.94685000
4.59999990	1.43331700	-53.34030000	-18.94685000
4.79999989	5.73449800	-53.01427000	-18.94685000
4.99999987	8.60174700	-53.38336000	-18.98991000
5.19999986	9.39837600	-53.71555000	-19.36516000
5.39999985	7.96444400	-53.75861000	-20.10950000
5.59999984	4.30056600	-53.75861000	-20.48474000
5.79999983	-0.31803640	-53.75861000	-20.52780000
5.99999981	-4.93786900	-53.75861000	-20.48474000
6.19999980	-8.28309500	-53.71555000	-20.10950000
6.39999979	-9.55770200	-53.38336000	-19.36516000
6.59999978	-8.28309500	-53.01427000	-18.98991000
6.79999977	-5.09719500	-53.34030000	-18.94685000
6.99999975	-0.95533960	-53.29109000	-18.94685000
7.19999974	3.34522600	-52.59596000	-18.94685000
7.39999973	6.37180100	-52.22071000	-18.98991000
7.59999972	7.80511800	-52.22071000	-19.36516000
7.79999971	7.00848900	-52.59596000	-20.10950000
7.99999970	4.77854300	-53.34030000	-20.43553000
8.19999968	1.59264300	-53.71555000	-20.10950000
8.39999967	-1.59264300	-53.75861000	-19.36516000
8.59999966	-3.98191400	-53.75861000	-18.98991000
8.79999965	-5.09719500	-53.75861000	-18.94685000
8.99999964	-4.93786900	-53.75861000	-18.94685000
9.19999962	-3.50393700	-53.71555000	-18.94685000
9.39999961	-1.59264300	-53.34030000	-18.94685000
9.59999960	0.31803640	-52.64517000	-18.94685000
9.79999959	1.75196900	-52.59596000	-18.94685000
9.99999958	2.54859700	-52.92200000	-18.94685000
10.19999956	2.38927200	-52.55290000	-18.94685000
10.39999955	1.75196900	-52.22071000	-18.94685000
10.59999954	0.95533960	-52.17765000	-18.94685000
10.79999953	0.00000000	-52.22071000	-18.94685000
10.99999952	-0.63668800	-52.59596000	-18.94685000
11.19999951	-0.95533960	-53.29109000	-18.94685000
11.39999949	-0.95533960	-53.34030000	-18.94685000
11.59999948	-0.79601380	-53.01427000	-18.94685000
11.79999947	-0.63668800	-53.38336000	-18.94685000
11.99999946	-0.31803640	-53.66634000	-18.94685000
12.19999945	-0.15871060	-53.34030000	-18.94685000
12.39999943	-0.15871060	-52.64517000	-18.94685000
12.59999942	0.00000000	-52.64517000	-18.94685000
12.79999941	0.00000000	-53.29109000	-18.94685000
12.99999940	0.00000000	-53.29109000	-18.94685000
13.19999939	0.00000000	-52.59596000	-18.94685000
13.39999937	0.00000000	-52.22071000	-18.94685000
13.59999936	0.00000000	-52.17765000	-18.94685000
13.79999935	0.00000000	-52.22071000	-18.94685000
13.99999934	-0.15871060	-52.59596000	-18.94685000
14.19999933	-0.15871060	-53.34030000	-18.94685000
14.39999932	-0.15871060	-53.66634000	-18.94685000
14.59999930	0.00000000	-53.34030000	-18.94685000
14.79999929	0.00000000	-52.59596000	-18.94685000
14.99999928	0.00000000	-52.26993000	-18.94685000
15.19999927	0.00000000	-52.59596000	-18.94685000
15.39999926	0.00000000	-53.34030000	-18.94685000
15.59999924	0.00000000	-53.71555000	-18.94685000
15.79999923	0.00000000	-53.75861000	-18.94685000
15.99999922	0.00000000	-53.71555000	-18.94685000
16.19999921	0.00000000	-53.38336000	-18.94685000
16.39999920	-0.15871060	-52.97121000	-18.94685000
16.59999919	-0.15871060	-52.96506000	-18.98991000
16.79999917	-0.15871060	-52.55290000	-19.32210000
16.99999916	0.00000000	-52.17765000	-19.69119000
17.19999915	0.00000000	-51.75935000	-19.32210000
17.39999914	0.00000000	-51.01501000	-18.98991000
17.59999913	0.00000000	-50.68897000	-18.94685000
17.79999911	0.00000000	-51.06422000	-18.94685000
17.99999910	0.00000000	-52.22071000	-18.94685000
18.19999909	0.00000000	-53.75861000	-18.94685000
18.39999908	0.00000000	-55.33957000	-18.94685000
18.59999907	0.00000000	-56.87746000	-18.98991000
18.79999905	0.00000000	-58.03395000	-19.32210000
18.99999904	0.00000000	-58.36614000	-19.69119000
19.19999903	0.00000000	-57.57259000	-19.32210000
19.39999902	0.00000000	-55.20423000	-19.03912000
19.59999901	0.00000000	-51.75935000	-19.32210000
19.79999900	0.00000000	-47.85310000	-19.69119000
19.99999898	0.00000000	-44.40821000	-19.32210000
20.19999897	0.00000000	-42.08292000	-18.98991000
20.39999896	0.00000000	-41.75689000	-18.94685000
20.59999895	0.00000000	-43.75615000	-18.98991000
20.79999894	-0.15871060	-48.49901000	-19.32210000
20.99999892	0.00000000	-55.80708000	-19.69119000
21.19999891	0.00000000	-63.89641000	-19.32210000
21.39999890	0.00000000	-70.41707000	-18.98991000
21.59999889	0.00000000	-73.86195000	-18.94685000
21.79999888	0.00000000	-72.56397000	-18.94685000
21.99999886	0.00000000	-66.00024000	-18.94685000
22.19999885	0.00000000	-55.16117000	-18.94685000
22.39999884	0.00000000	-42.77805000	-18.94685000
22.59999883	0.00000000	-31.15157000	-18.94685000
22.79999882	0.00000000	-22.77313000	-18.94685000
22.99999881	0.00000000	-20.58317000	-18.90379000
23.19999879	0.00000000	-26.39640000	-18.52854000
23.39999878	0.00000000	-39.14862000	-17.78420000
23.59999877	0.00000000	-55.80708000	-17.40895000
23.79999876	0.00000000	-73.20374000	-17.36589000
23.99999875	0.00000000	-87.44463000	-17.36589000
24.19999873	0.00000000	-94.70349000	-17.40895000
24.39999872	0.00000000	-92.66116000	-17.83341000
24.59999871	0.00000000	-80.65329000	-18.98991000
24.79999870	0.00000000	-60.97440000	-20.52780000
24.99999869	0.00000000	-38.59498000	-22.05955000
25.19999867	0.00000000	-18.49163000	-23.21604000
25.39999866	0.00000000	-5.41953700	-23.59129000
25.59999865	0.00000000	-2.76820900	-23.17298000
25.79999864	0.00000000	-11.65108000	-21.54897000
25.99999863	-0.15871060	-30.21038000	-18.43627000
26.19999862	0.00000000	-54.17691000	-14.21014000
26.39999860	0.00000000	-78.51254000	-10.02707000
26.59999859	0.00000000	-97.36097000	-7.37573800
26.79999858	0.00000000	-105.87470000	-7.37573800
26.99999857	0.00000000	-102.01160000	-10.11319000
27.19999856	0.00000000	-86.97711000	-15.13902000
27.39999854	0.00000000	-64.22859000	-21.77658000
27.59999853	0.00000000	-39.52387000	-28.74631000
27.79999852	0.00000000	-18.58391000	-35.29773000
27.99999851	0.00000000	-5.41953700	-39.39468000
28.19999850	0.00000000	-2.71899600	-38.97638000
28.39999848	0.00000000	-11.18971000	-33.58760000
28.59999847	0.00000000	-28.49409000	-24.61860000
28.79999846	0.00000000	-50.12918000	-13.41658000
28.99999845	0.00000000	-71.06914000	-1.85777500
29.19999844	0.00000000	-87.30930000	6.56373000
29.39999843	0.00000000	-95.44782000	10.03937000
29.59999841	0.00000000	-93.59005000	7.21579700
29.79999840	0.00000000	-83.25540000	-2.03617100
29.99999839	0.00000000	-67.39050000	-15.92027000
30.19999838	0.00000000	-49.61245000	-31.02239000
30.39999837	0.00000000	-33.66142000	-44.54970000
30.59999835	0.00000000	-22.44094000	-53.74631000
30.79999834	0.00000000	-17.79650000	-55.65329000
30.99999833	0.00000000	-21.19217000	-49.84621000
31.19999832	0.00000000	-30.77633000	-37.43848000
31.39999831	0.00000000	-43.57775000	-20.43553000
31.59999829	0.00000000	-57.52953000	-2.73129900
31.79999828	0.00000000	-69.53740000	11.57726000
31.99999827	0.00000000	-77.30683000	19.33440000
32.19999826	0.00000000	-79.62598000	19.33440000
32.39999825	0.00000000	-75.81815000	11.57726000
32.59999824	0.00000000	-67.34743000	-2.73129900
32.79999822	0.00000000	-56.50221000	-20.47859000
32.99999821	0.00000000	-45.29404000	-37.85679000
33.19999820	0.00000000	-36.44808000	-51.00885000
33.39999819	0.00000000	-32.12352000	-57.23425000
33.59999818	0.00000000	-32.81865000	-55.69635000
33.79999816	0.00000000	-37.43233000	-46.77657000
33.99999815	0.00000000	-44.78346000	-32.09276000
34.19999814	0.00000000	-53.29109000	-14.76378000
34.39999813	0.00000000	-60.97440000	1.07652500
34.59999812	0.00000000	-66.00024000	11.90330000
34.79999810	0.00000000	-66.79379000	15.80339000
34.99999809	0.00000000	-63.81028000	11.95251000
35.19999808	0.00000000	-58.40920000	1.58710600
35.39999807	0.00000000	-52.22071000	-12.67840000
35.59999806	0.00000000	-46.45054000	-27.35605000
35.79999805	0.00000000	-42.59350000	-39.34547000
35.99999803	0.00000000	-41.84301000	-46.27214000
36.19999802	0.00000000	-44.13140000	-46.31520000
36.39999801	0.00000000	-49.10802000	-39.81299000
36.59999800	0.00000000	-54.78592000	-29.02928000
36.79999799	0.00000000	-59.06127000	-16.33858000
36.99999797	0.00000000	-61.06668000	-5.19192900
37.19999796	0.00000000	-61.06668000	1.35949800
37.39999795	0.00000000	-59.11048000	2.14689900
37.59999794	0.00000000	-55.24729000	-3.19266700
37.79999793	0.00000000	-50.63976000	-12.72146000
37.99999791	0.00000000	-46.40748000	-23.08686000
38.19999790	0.00000000	-43.71309000	-31.53912000
38.39999789	0.00000000	-43.28863000	-35.76525000
38.59999788	0.00000000	-44.82652000	-34.60876000
38.79999787	0.00000000	-47.94537000	-28.51870000
38.99999786	0.00000000	-52.22071000	-19.32210000
39.19999784	0.00000000	-56.82825000	-10.16240000
39.39999783	0.00000000	-60.69144000	-3.66018700
39.59999782	0.00000000	-62.59842000	-2.12229300
39.79999781	0.00000000	-62.27239000	-5.93626900
39.99999780	0.00000000	-59.94709000	-13.60113000
40.19999778	0.00000000	-56.45300000	-23.21604000
40.39999777	0.00000000	-52.17765000	-32.00664000
40.59999776	0.00000000	-47.90231000	-37.39542000
40.79999775	0.00000000	-44.45127000	-37.77067000
40.99999774	0.00000000	-42.50738000	-33.16314000
41.19999772	0.00000000	-42.87032000	-24.71087000
41.39999771	0.00000000	-44.78346000	-14.76378000
41.59999770	0.00000000	-47.90231000	-6.31151500
41.79999769	0.00000000	-51.75935000	-1.61786400
41.99999768	0.00000000	-55.29650000	-1.24261800
42.19999767	0.00000000	-58.40920000	-5.09965500
42.39999765	0.00000000	-60.69144000	-12.76452000
42.59999764	0.00000000	-61.06668000	-21.54897000
42.79999763	0.00000000	-59.57185000	-28.93701000
42.99999762	0.00000000	-56.87746000	-33.58144000
43.19999761	0.00000000	-53.80167000	-34.74409000
43.39999759	0.00000000	-51.06422000	-32.04970000
43.59999758	0.00000000	-49.10802000	-26.32874000
43.79999757	0.00000000	-47.94537000	-19.40822000
43.99999756	0.00000000	-47.90231000	-13.27510000
44.19999755	0.00000000	-48.64050000	-9.37500000
44.39999753	0.00000000	-49.39099000	-8.53838500
44.59999752	0.00000000	-50.17839000	-10.02707000
44.79999751	0.00000000	-50.55364000	-13.09670000
44.99999750	0.00000000	-50.59670000	-16.94759000
45.19999749	0.00000000	-50.63976000	-20.43553000
45.39999748	0.00000000	-51.10728000	-23.17298000
45.59999746	0.00000000	-52.68823000	-24.71087000
45.79999745	0.00000000	-55.33957000	-24.75394000
45.99999744	0.00000000	-58.03395000	-23.59129000
46.19999743	0.00000000	-59.99015000	-21.64124000
46.39999742	0.00000000	-61.15280000	-18.94685000
46.59999740	0.00000000	-61.01746000	-16.29552000
46.79999739	0.00000000	-58.64296000	-14.72072000
46.99999738	0.00000000	-53.62328000	-14.30241000
47.19999737	0.00000000	-47.47785000	-14.72072000
47.39999736	0.00000000	-41.66461000	-16.25246000
47.59999734	0.00000000	-37.47539000	-18.57160000
47.79999733	0.00000000	-36.40502000	-20.90305000
47.99999732	0.00000000	-39.48080000	-23.22219000
48.19999731	0.00000000	-46.03223000	-24.71087000
48.39999730	0.00000000	-54.13385000	-24.71087000
48.59999729	0.00000000	-62.27239000	-23.17298000
48.79999727	0.00000000	-68.37475000	-20.43553000
48.99999726	0.00000000	-70.74310000	-17.03986000
49.19999725	0.00000000	-68.75000000	-13.93332000
49.39999724	0.00000000	-62.96751000	-12.38927000
49.59999723	0.00000000	-54.04158000	-11.97711000
49.79999721	0.00000000	-44.45127000	-13.18282000
49.99999720	0.00000000	-36.36196000	-15.87721000
50.19999719	0.00000000	-32.16658000	-19.36516000
50.39999718	0.00000000	-33.28617000	-23.21604000
50.59999717	0.00000000	-39.05635000	-26.24262000
50.79999715	0.00000000	-47.90231000	-27.44832000
50.99999714	0.00000000	-57.52953000	-26.66092000
51.19999713	0.00000000	-65.20669000	-24.33563000
51.39999712	0.00000000	-69.11294000	-20.47859000
51.59999711	0.00000000	-68.32554000	-16.25246000
51.79999710	0.00000000	-63.34276000	-12.76452000
51.99999708	0.00000000	-55.29650000	-10.44537000
52.19999707	0.00000000	-46.82579000	-10.07013000
52.39999706	0.00000000	-40.31127000	-11.60187000
52.59999705	0.00000000	-37.19857000	-14.72072000
52.79999704	0.00000000	-38.73031000	-18.94685000
52.99999702	0.00000000	-43.66388000	-23.12992000
53.19999701	0.00000000	-50.59670000	-25.82431000
53.39999700	0.00000000	-57.52953000	-26.24262000
53.59999699	0.00000000	-62.51230000	-24.79700000
53.79999698	0.00000000	-64.45620000	-22.47785000
53.99999696	0.00000000	-62.51230000	-20.10950000
54.19999695	0.00000000	-57.57259000	-17.41511000
54.39999694	0.00000000	-51.01501000	-15.18209000
54.59999693	0.00000000	-44.91880000	-14.76378000
54.79999692	0.00000000	-41.06176000	-15.87721000
54.99999691	0.00000000	-40.63730000	-17.78420000
55.19999689	0.00000000	-43.28863000	-20.01722000
55.39999688	0.00000000	-47.94537000	-21.17372000
55.59999687	0.00000000	-53.71555000	-20.81078000
55.79999686	0.00000000	-59.06127000	-19.69119000
55.99999685	0.00000000	-62.13705000	-17.74114000
56.19999683	0.00000000	-62.18011000	-15.87721000
56.39999682	0.00000000	-59.52879000	-14.72072000
56.59999681	0.00000000	-55.29650000	-14.76378000
56.79999680	0.00000000	-50.63976000	-16.33858000
56.99999679	0.00000000	-46.40748000	-19.40822000
57.19999677	0.00000000	-43.71309000	-23.21604000
57.39999676	0.00000000	-43.33784000	-26.24262000
57.59999675	0.00000000	-45.24483000	-27.35605000
57.79999674	0.00000000	-49.05881000	-25.82431000
57.99999673	0.00000000	-53.24803000	-21.96727000
58.19999672	0.00000000	-56.36687000	-16.99065000
58.39999670	0.00000000	-57.94783000	-11.93405000
58.59999669	0.00000000	-57.94783000	-8.16313900
58.79999668	0.00000000	-56.45300000	-6.63754800
58.99999667	0.00000000	-54.13385000	-8.58144600
59.19999666	0.00000000	-51.84547000	-13.18282000
59.39999664	0.00000000	-49.85236000	-19.36516000
59.59999663	0.00000000	-48.73277000	-25.91043000
59.79999662	0.00000000	-48.32062000	-30.88705000
59.99999661	0.00000000	-49.10802000	-33.21235000
60.19999660	0.00000000	-50.55364000	-32.00664000
60.39999658	0.00000000	-51.71013000	-27.35605000
60.59999657	0.00000000	-52.13459000	-20.06029000
60.79999656	0.00000000	-52.17765000	-12.02633000
60.99999655	0.00000000	-52.13459000	-5.88705700
61.19999654	0.00000000	-51.75935000	-3.14960600
61.39999653	0.00000000	-51.01501000	-4.30610200
61.59999651	0.00000000	-50.63976000	-8.90747900
61.79999650	0.00000000	-50.63976000	-15.87721000
61.99999649	0.00000000	-51.06422000	-23.59129000
62.19999648	0.00000000	-52.17765000	-30.51181000
62.39999647	0.00000000	-53.29109000	-34.69488000
62.59999645	0.00000000	-53.71555000	-34.74409000
62.79999644	0.00000000	-53.75861000	-30.93627000
62.99999643	0.00000000	-53.66634000	-24.75394000
63.19999642	0.00000000	-52.92200000	-17.36589000
63.39999641	0.00000000	-51.39025000	-10.07013000
63.59999639	0.00000000	-50.26451000	-4.68134800
63.79999638	0.00000000	-49.43405000	-2.77436000
63.99999637	0.00000000	-49.10802000	-4.63828700
64.19999636	0.00000000	-49.48326000	-9.65182000
64.39999635	0.00000000	-50.63976000	-16.20325000
64.59999634	0.00000000	-52.17765000	-23.12992000
64.79999632	0.00000000	-53.71555000	-28.56176000
64.99999631	0.00000000	-54.82898000	-31.30536000
65.19999630	0.00000000	-54.87204000	-31.76673000
65.39999629	0.00000000	-54.09079000	-29.77362000
65.59999628	0.00000000	-52.96506000	-25.95964000
65.79999626	0.00000000	-51.39025000	-20.89690000
65.99999625	0.00000000	-50.31373000	-15.92027000
66.19999624	0.00000000	-49.85236000	-11.97711000
66.39999623	0.00000000	-50.31373000	-9.65182000
66.59999622	0.00000000	-51.39025000	-8.82135800
66.79999620	0.00000000	-52.96506000	-9.60875900
66.99999619	0.00000000	-54.09079000	-11.51575000
67.19999618	0.00000000	-54.82898000	-14.25320000
67.39999617	0.00000000	-54.41068000	-17.36589000
67.59999616	0.00000000	-52.50984000	-20.52780000
67.79999615	0.00000000	-50.22145000	-23.64050000
67.99999613	0.00000000	-47.90231000	-26.32874000
68.19999612	0.00000000	-46.40748000	-27.86663000
68.39999611	0.00000000	-46.40748000	-27.86663000
68.59999610	0.00000000	-47.94537000	-26.28568000
68.79999609	0.00000000	-50.68897000	-23.21604000
68.99999607	0.00000000	-54.17691000	-19.32210000
69.19999606	0.00000000	-57.99089000	-15.40969000
69.39999605	0.00000000	-60.64222000	-11.51575000
69.59999604	0.00000000	-61.06668000	-8.53223400
69.79999603	0.00000000	-59.48573000	-7.70792300
69.99999601	0.00000000	-55.99163000	-9.27657400
70.19999600	0.00000000	-50.97194000	-12.39542000
70.39999599	0.00000000	-45.98917000	-17.40895000
70.59999598	0.00000000	-42.08292000	-22.75467000
70.79999597	0.00000000	-40.17593000	-26.66092000
70.99999596	0.00000000	-40.59424000	-29.02928000
71.19999594	0.00000000	-43.71309000	-29.35531000
71.39999593	0.00000000	-49.10802000	-27.44832000
71.59999592	0.00000000	-55.24729000	-23.59129000
71.79999591	0.00000000	-60.64222000	-18.98991000
71.99999590	0.00000000	-63.76107000	-14.72072000
72.19999588	0.00000000	-64.17938000	-11.60187000
72.39999587	0.00000000	-62.22318000	-10.07013000
72.59999586	0.00000000	-57.94783000	-10.44537000
72.79999585	0.00000000	-52.17765000	-12.76452000
72.99999584	0.00000000	-46.40748000	-16.16018000
73.19999582	0.00000000	-42.13213000	-19.59892000
73.39999581	0.00000000	-40.17593000	-21.59203000
73.59999580	0.00000000	-40.55118000	-22.38558000
73.79999579	0.00000000	-43.28863000	-22.37943000
73.99999578	0.00000000	-47.85310000	-20.85384000
74.19999577	0.00000000	-52.87278000	-19.08218000
74.39999575	0.00000000	-56.78519000	-18.25172000
74.59999574	0.00000000	-59.52879000	-18.61466000
74.79999573	0.00000000	-60.64222000	-19.32210000
74.99999572	0.00000000	-59.48573000	-20.15256000
75.19999571	0.00000000	-56.45300000	-20.85384000
75.39999569	0.00000000	-52.59596000	-21.22293000
75.59999568	0.00000000	-49.15108000	-20.39247000
75.79999567	0.00000000	-46.78272000	-18.47933000
75.99999566	0.00000000	-45.98917000	-15.78494000
76.19999565	0.00000000	-46.32135000	-13.13976000
76.39999563	0.00000000	-47.52707000	-11.60187000
76.59999562	0.00000000	-49.39099000	-11.60187000
76.79999561	0.00000000	-51.29183000	-13.22589000
76.99999560	0.00000000	-52.08538000	-16.71383000
77.19999559	0.00000000	-52.17765000	-21.68430000
77.39999558	0.00000000	-52.17765000	-26.24262000
77.59999556	0.00000000	-52.17765000	-28.98007000
77.79999555	0.00000000	-52.22071000	-29.35531000
77.99999554	0.00000000	-52.59596000	-27.44832000
78.19999553	0.00000000	-53.34030000	-23.54823000
78.39999552	0.00000000	-53.71555000	-18.52854000
78.59999550	0.00000000	-53.75861000	-13.13976000
78.79999549	0.00000000	-53.66634000	-8.95669300
78.99999548	0.00000000	-52.87278000	-7.33267600
79.19999547	0.00000000	-50.97194000	-8.11392700
79.39999546	0.00000000	-49.05881000	-10.82062000
79.59999544	0.00000000	-47.47785000	-15.45891000
79.79999543	0.00000000	-46.36442000	-20.43553000
79.99999542	0.00000000	-46.40748000	-24.75394000
80.19999541	0.00000000	-47.94537000	-27.82357000
80.39999540	0.00000000	-50.63976000	-28.98007000
80.59999539	0.00000000	-53.71555000	-27.86663000
80.79999537	0.00000000	-56.40993000	-25.17224000
80.99999536	0.00000000	-57.94783000	-21.68430000
81.19999535	0.00000000	-57.90477000	-17.78420000
81.39999534	0.00000000	-56.03469000	-14.29626000
81.59999533	0.00000000	-52.97121000	-11.60187000
81.79999531	0.00000000	-50.26451000	-10.44537000
81.99999530	0.00000000	-47.90231000	-11.14050000
82.19999529	0.00000000	-46.40748000	-12.67224000
82.39999528	0.00000000	-46.36442000	-14.67150000
82.59999527	0.00000000	-47.52707000	-17.36589000
82.79999525	0.00000000	-49.43405000	-20.10950000
82.99999524	0.00000000	-51.75935000	-22.43479000
83.19999523	0.00000000	-53.66634000	-24.42790000
83.39999522	0.00000000	-54.82898000	-25.54749000
83.59999521	0.00000000	-54.87204000	-25.95964000
83.79999520	0.00000000	-54.13385000	-25.08612000
83.99999518	0.00000000	-53.34030000	-22.79773000
84.19999517	0.00000000	-52.17765000	-19.32210000
84.39999516	0.00000000	-51.06422000	-15.83415000
84.59999515	0.00000000	-50.63976000	-12.72146000
84.79999514	0.00000000	-50.59670000	-10.40231000
84.99999512	0.00000000	-50.59670000	-9.69488100
85.19999511	0.00000000	-50.59670000	-10.82062000
85.39999510	0.00000000	-50.59670000	-13.92717000
85.59999509	0.00000000	-50.55364000	-17.78420000
85.79999508	0.00000000	-50.22145000	-22.05955000
85.99999506	0.00000000	-49.85236000	-25.86737000
86.19999505	0.00000000	-50.26451000	-27.82357000
86.39999504	0.00000000	-50.97194000	-27.82357000
86.59999503	0.00000000	-51.80241000	-25.86737000
86.79999502	0.00000000	-52.55290000	-22.01033000
86.99999501	0.00000000	-53.34030000	-17.40895000
87.19999499	0.00000000	-53.71555000	-13.13976000
87.39999498	0.00000000	-53.71555000	-10.07013000
87.59999497	0.00000000	-53.29109000	-8.95669300
87.79999496	0.00000000	-52.13459000	-10.48843000
87.99999495	0.00000000	-50.59670000	-14.30241000
88.19999493	0.00000000	-49.05881000	-18.94685000
88.39999492	0.00000000	-47.94537000	-23.54823000
88.59999491	0.00000000	-47.94537000	-26.98080000
88.79999490	0.00000000	-49.05881000	-27.77436000
88.99999489	0.00000000	-50.59670000	-26.28568000
89.19999487	0.00000000	-52.13459000	-23.12992000
89.39999486	0.00000000	-53.29109000	-18.52854000
89.59999485	0.00000000	-53.71555000	-13.55807000
89.79999484	0.00000000	-53.71555000	-10.11319000
89.99999483	0.00000000	-53.29109000	-8.95669300
90.19999482	0.00000000	-52.22071000	-10.48843000
90.39999480	0.00000000	-51.39025000	-14.30241000
90.59999479	0.00000000	-50.96579000	-18.94685000
90.79999478	0.00000000	-49.85236000	-23.54823000
90.99999477	0.00000000	-49.52633000	-26.98080000
91.19999476	0.00000000	-50.17839000	-27.73130000
91.39999474	0.00000000	-50.55364000	-25.86737000
91.59999473	0.00000000	-50.59670000	-22.01033000
91.79999472	0.00000000	-50.59670000	-17.40895000
91.99999471	0.00000000	-50.59670000	-13.13976000
92.19999470	0.00000000	-50.59670000	-10.11319000
92.39999468	0.00000000	-50.59670000	-9.33193800
92.59999467	0.00000000	-50.63976000	-11.27584000
92.79999466	0.00000000	-51.06422000	-15.08981000
92.99999465	0.00000000	-52.17765000	-20.10950000
93.19999464	0.00000000	-53.29109000	-24.66781000
93.39999463	0.00000000	-53.71555000	-27.35605000
93.59999461	0.00000000	-53.71555000	-27.35605000
93.79999460	0.00000000	-53.29109000	-24.71087000
93.99999459	0.00000000	-52.08538000	-20.52780000
94.19999458	0.00000000	-50.17839000	-16.25246000
94.39999457	0.00000000	-47.90231000	-12.76452000
94.59999455	0.00000000	-46.36442000	-10.53765000
94.79999454	0.00000000	-45.94611000	-10.91289000
94.99999453	0.00000000	-46.32135000	-13.92717000
95.19999452	0.00000000	-47.57013000	-17.74114000
95.39999451	0.00000000	-49.90157000	-21.64124000
95.59999449	0.00000000	-53.34030000	-24.66166000
95.79999448	0.00000000	-56.36687000	-25.82431000
95.99999447	0.00000000	-57.99089000	-24.71087000
96.19999446	0.00000000	-58.36614000	-22.05955000
96.39999445	0.00000000	-57.52953000	-18.94685000
96.59999444	0.00000000	-54.82898000	-15.87721000
96.79999442	0.00000000	-50.97194000	-13.55807000
96.99999441	0.00000000	-47.10260000	-12.80758000
97.19999440	0.00000000	-43.66388000	-13.50886000
97.39999439	0.00000000	-42.13213000	-15.45891000
97.59999438	0.00000000	-42.82726000	-17.74114000
97.79999436	0.00000000	-44.78346000	-20.10950000
97.99999435	0.00000000	-47.94537000	-21.96727000
98.19999434	0.00000000	-52.13459000	-22.75467000
98.39999433	0.00000000	-55.99163000	-22.01649000
98.59999432	0.00000000	-58.36614000	-20.52780000
98.79999430	0.00000000	-59.52879000	-18.98991000
98.99999429	0.00000000	-59.11048000	-17.83341000
99.19999428	0.00000000	-56.78519000	-17.40895000
99.39999427	0.00000000	-53.34030000	-17.36589000
99.59999426	0.00000000	-49.43405000	-17.36589000
99.79999425	0.00000000	-45.98917000	-17.32283000
99.99999423	0.00000000	-43.62082000	-16.94759000
100.19999422	0.00000000	-42.87032000	-16.20325000
100.39999421	0.00000000	-43.62082000	-15.82800000
100.59999420	0.00000000	-45.94611000	-15.82800000
100.79999419	0.00000000	-49.01575000	-16.25246000
100.99999417	0.00000000	-52.13459000	-17.40895000
101.19999416	0.00000000	-54.82898000	-18.94685000
101.39999415	0.00000000	-56.40993000	-20.52780000
101.59999414	0.00000000	-56.82825000	-22.01649000
101.79999413	0.00000000	-56.40993000	-22.79773000
101.99999411	0.00000000	-54.87204000	-22.38558000
102.19999410	0.00000000	-52.55290000	-21.22293000
102.39999409	0.00000000	-50.22145000	-18.85458000
102.59999408	0.00000000	-47.90231000	-15.83415000
102.79999407	0.00000000	-46.36442000	-13.13976000
102.99999406	0.00000000	-45.94611000	-11.64493000
103.19999404	0.00000000	-46.32135000	-11.97711000
103.39999403	0.00000000	-47.52707000	-13.92101000
103.59999402	0.00000000	-49.43405000	-16.62770000
103.79999401	0.00000000	-51.75935000	-20.10950000
103.99999400	0.00000000	-53.66634000	-23.12992000
104.19999398	0.00000000	-54.87204000	-24.71087000
104.39999397	0.00000000	-55.24729000	-24.75394000
104.59999396	0.00000000	-54.87204000	-23.54823000
104.79999395	0.00000000	-53.71555000	-21.22293000
104.99999394	0.00000000	-52.17765000	-17.78420000
105.19999392	0.00000000	-50.59670000	-14.76378000
105.39999391	0.00000000	-49.10802000	-13.18282000
105.59999390	0.00000000	-48.32062000	-13.13976000
105.79999389	0.00000000	-48.68356000	-14.29626000
105.99999388	0.00000000	-49.43405000	-16.25246000
106.19999387	0.00000000	-50.59670000	-18.89764000
106.39999385	0.00000000	-51.71013000	-21.17372000
106.59999384	0.00000000	-52.13459000	-22.01033000
106.79999383	0.00000000	-52.17765000	-22.01033000
106.99999382	0.00000000	-52.13459000	-21.22293000
107.19999381	0.00000000	-51.71013000	-19.32210000
107.39999379	0.00000000	-50.59670000	-17.40895000
107.59999378	0.00000000	-49.48326000	-15.83415000
107.79999377	0.00000000	-49.10802000	-14.72072000
107.99999376	0.00000000	-49.43405000	-14.72072000
108.19999375	0.00000000	-50.22145000	-15.87721000
108.39999374	0.00000000	-51.01501000	-17.74114000
108.59999372	0.00000000	-52.17765000	-19.69119000
108.79999371	0.00000000	-53.29109000	-20.81078000
108.99999370	0.00000000	-53.66634000	-21.26599000
109.19999369	0.00000000	-53.29109000	-20.81078000
109.39999368	0.00000000	-52.13459000	-19.69119000
109.59999366	0.00000000	-50.63976000	-17.74114000
109.79999365	0.00000000	-49.48326000	-15.87721000
109.99999364	0.00000000	-49.05881000	-14.67150000
110.19999363	0.00000000	-49.05881000	-14.30241000
110.39999362	0.00000000	-49.43405000	-14.67150000
110.59999360	0.00000000	-50.22145000	-15.83415000
110.79999359	0.00000000	-50.97194000	-17.36589000
110.99999358	0.00000000	-51.75935000	-18.90379000
111.19999357	0.00000000	-52.13459000	-20.06029000
111.39999356	0.00000000	-52.17765000	-20.48474000
111.59999355	0.00000000	-52.13459000	-20.48474000
111.79999353	0.00000000	-51.75935000	-20.06029000
111.99999352	0.00000000	-51.01501000	-18.94685000
112.19999351	0.00000000	-50.59670000	-17.83341000
112.39999350	0.00000000	-50.17839000	-17.36589000
112.59999349	0.00000000	-49.43405000	-16.99065000
112.79999347	0.00000000	-49.10802000	-16.62155000
112.99999346	0.00000000	-49.43405000	-17.03371000
113.19999345	0.00000000	-50.17839000	-17.69808000
113.39999344	0.00000000	-50.55364000	-18.15330000
113.59999343	0.00000000	-50.63976000	-18.15945000
113.79999341	0.00000000	-50.97194000	-18.57160000
113.99999340	0.00000000	-51.34104000	-18.90379000
114.19999339	0.00000000	-50.97194000	-18.98991000
114.39999338	0.00000000	-50.63976000	-19.36516000
114.59999337	0.00000000	-50.59670000	-20.10950000
114.79999336	0.00000000	-50.59670000	-20.48474000
114.99999334	0.00000000	-50.59670000	-20.52780000
115.19999333	0.00000000	-50.59670000	-20.48474000
115.39999332	0.00000000	-50.59670000	-20.10950000
115.59999331	0.00000000	-50.59670000	-19.32210000
115.79999330	0.00000000	-50.59670000	-18.57160000
115.99999328	0.00000000	-50.59670000	-17.74114000
116.19999327	0.00000000	-50.63976000	-16.99065000
116.39999326	0.00000000	-51.01501000	-16.25246000
116.59999325	0.00000000	-51.75935000	-16.25246000
116.79999324	0.00000000	-52.08538000	-16.94759000
116.99999322	0.00000000	-51.75935000	-17.36589000
117.19999321	0.00000000	-50.97194000	-17.83341000
117.39999320	0.00000000	-50.22145000	-18.94685000
117.59999319	0.00000000	-49.43405000	-20.06029000
117.79999318	0.00000000	-49.05881000	-20.48474000
117.99999317	0.00000000	-49.01575000	-20.52780000
118.19999315	0.00000000	-49.05881000	-20.52780000
118.39999314	0.00000000	-49.43405000	-20.43553000
118.59999313	0.00000000	-50.22145000	-19.69119000
118.79999312	0.00000000	-51.01501000	-18.15945000
118.99999311	0.00000000	-52.17765000	-17.03371000
119.19999309	0.00000000	-53.24803000	-16.20325000
119.39999308	0.00000000	-53.29109000	-15.87721000
119.59999307	0.00000000	-52.55290000	-16.20325000
119.79999306	0.00000000	-51.75935000	-16.94759000
119.99999305	0.00000000	-50.55364000	-17.32283000
120.19999303	0.00000000	-49.05881000	-17.40895000
120.39999302	0.00000000	-47.90231000	-17.78420000
120.59999301	0.00000000	-47.47785000	-18.52854000
120.79999300	0.00000000	-47.47785000	-18.90379000
120.99999299	0.00000000	-47.90231000	-18.94685000
121.19999298	0.00000000	-49.05881000	-18.94685000
121.39999296	0.00000000	-50.55364000	-18.94685000
121.59999295	0.00000000	-51.75935000	-18.94685000
121.79999294	0.00000000	-52.55290000	-18.90379000
121.99999293	0.00000000	-53.34030000	-18.52854000
122.19999292	0.00000000	-53.62328000	-17.78420000
122.39999290	0.00000000	-52.92200000	-17.40895000
122.59999289	0.00000000	-51.39025000	-17.36589000
122.79999288	0.00000000	-50.26451000	-17.36589000
122.99999287	0.00000000	-49.39099000	-17.36589000
123.19999286	0.00000000	-48.64050000	-17.36589000
123.39999284	0.00000000	-47.85310000	-17.40895000
123.59999283	0.00000000	-47.52707000	-17.78420000
123.79999282	0.00000000	-47.85310000	-18.52854000
123.99999281	0.00000000	-48.64050000	-18.90379000
124.19999280	0.00000000	-49.39099000	-18.94685000
124.39999279	0.00000000	-50.22145000	-18.94685000
124.59999277	0.00000000	-50.97194000	-18.94685000
124.79999276	0.00000000	-51.75935000	-18.90379000
124.99999275	0.00000000	-52.13459000	-18.52854000
125.19999274	0.00000000	-52.17765000	-17.78420000
125.39999273	0.00000000	-52.17765000	-17.40895000
125.59999271	0.00000000	-52.13459000	-17.36589000
125.79999270	0.00000000	-51.71013000	-17.36589000
125.99999269	0.00000000	-50.59670000	-17.36589000
126.19999268	0.00000000	-49.43405000	-17.36589000
126.39999267	0.00000000	-48.64050000	-17.40895000
126.59999265	0.00000000	-47.90231000	-17.78420000
126.79999264	0.00000000	-47.94537000	-18.52854000
126.99999263	0.00000000	-49.01575000	-18.90379000
127.19999262	0.00000000	-50.17839000	-18.94685000
127.39999261	0.00000000	-51.01501000	-18.94685000
127.59999260	0.00000000	-52.17765000	-18.94685000
127.79999258	0.00000000	-53.24803000	-18.90379000
127.99999257	0.00000000	-53.29109000	-18.52854000
128.19999256	0.00000000	-52.55290000	-17.78420000
128.39999255	0.00000000	-51.75935000	-17.40895000
128.59999254	0.00000000	-50.59670000	-17.36589000
128.79999252	0.00000000	-49.48326000	-17.36589000
128.99999251	0.00000000	-49.05881000	-17.40895000
129.19999250	0.00000000	-49.01575000	-17.78420000
129.39999249	0.00000000	-49.05881000	-18.52854000
129.59999248	0.00000000	-49.48326000	-18.90379000
129.79999246	0.00000000	-50.59670000	-18.94685000
129.99999245	0.00000000	-51.71013000	-18.94685000
130.19999244	0.00000000	-52.13459000	-18.90379000
130.39999243	0.00000000	-52.13459000	-18.52854000
130.59999242	0.00000000	-51.75935000	-17.78420000
130.79999241	0.00000000	-50.97194000	-17.40895000
130.99999239	0.00000000	-50.22145000	-17.36589000
131.19999238	0.00000000	-49.43405000	-17.36589000
131.39999237	0.00000000	-49.05881000	-17.40895000
131.59999236	0.00000000	-49.01575000	-17.78420000
131.79999235	0.00000000	-49.05881000	-18.52854000
131.99999233	0.00000000	-49.43405000	-18.90379000
132.19999232	0.00000000	-50.17839000	-18.94685000
132.39999231	0.00000000	-50.55364000	-18.94685000
132.59999230	0.00000000	-50.59670000	-18.90379000
132.79999229	0.00000000	-50.59670000	-18.52854000
132.99999227	0.00000000	-50.59670000	-17.78420000
133.19999226	0.00000000	-50.59670000	-17.40895000
133.39999225	0.00000000	-50.59670000	-17.32283000
133.59999224	0.00000000	-50.59670000	-16.94759000
133.79999223	0.00000000	-50.59670000	-16.25246000
133.99999222	0.00000000	-50.59670000	-16.25246000
134.19999220	0.00000000	-50.59670000	-16.99065000
134.39999219	0.00000000	-50.59670000	-17.74114000
134.59999218	0.00000000	-50.59670000	-18.57160000
134.79999217	0.00000000	-50.59670000	-19.32210000
134.99999216	0.00000000	-50.55364000	-20.06029000
135.19999214	0.00000000	-50.17839000	-20.06029000
135.39999213	0.00000000	-49.43405000	-19.32210000
135.59999212	0.00000000	-49.10802000	-18.57160000
135.79999211	0.00000000	-49.43405000	-17.78420000
135.99999210	0.00000000	-50.22145000	-17.40895000
136.19999208	0.00000000	-50.97194000	-17.36589000
136.39999207	0.00000000	-51.75935000	-17.36589000
136.59999206	0.00000000	-52.08538000	-17.36589000
136.79999205	0.00000000	-51.75935000	-17.36589000
136.99999204	0.00000000	-50.97194000	-17.40895000
137.19999203	0.00000000	-50.22145000	-17.78420000
137.39999201	0.00000000	-49.43405000	-18.52854000
137.59999200	0.00000000	-49.05881000	-18.94685000
137.79999199	0.00000000	-49.01575000	-19.32210000
137.99999198	0.00000000	-49.01575000	-19.69119000
138.19999197	0.00000000	-49.05881000	-19.32210000
138.39999195	0.00000000	-49.43405000	-18.98991000
138.59999194	0.00000000	-50.22145000	-18.90379000
138.79999193	0.00000000	-50.97194000	-18.52854000
138.99999192	0.00000000	-51.75935000	-17.78420000
139.19999191	0.00000000	-52.08538000	-17.40895000
139.39999189	0.00000000	-51.75935000	-17.36589000
139.59999188	0.00000000	-50.97194000	-17.36589000
139.79999187	0.00000000	-50.22145000	-17.36589000
139.99999186	0.00000000	-49.43405000	-17.36589000
140.19999185	0.00000000	-49.05881000	-17.40895000
140.39999184	0.00000000	-49.01575000	-17.78420000
140.59999182	0.00000000	-49.05881000	-18.57160000
140.79999181	0.00000000	-49.43405000	-19.27903000
140.99999180	0.00000000	-50.17839000	-19.69119000
141.19999179	0.00000000	-50.55364000	-19.32210000
141.39999178	0.00000000	-50.59670000	-18.94685000
141.59999176	0.00000000	-50.59670000	-18.52854000
141.79999175	0.00000000	-50.59670000	-17.74114000
141.99999174	0.00000000	-50.59670000	-16.99065000
142.19999173	0.00000000	-50.55364000	-16.20325000
142.39999172	0.00000000	-50.17839000	-15.87721000
142.59999170	0.00000000	-49.43405000	-16.20325000
142.79999169	0.00000000	-49.10802000	-16.99065000
142.99999168	0.00000000	-49.43405000	-17.74114000
143.19999167	0.00000000	-50.17839000	-18.57160000
143.39999166	0.00000000	-50.55364000	-19.32210000
143.59999165	0.00000000	-50.59670000	-20.06029000
143.79999163	0.00000000	-50.59670000	-20.06029000
143.99999162	0.00000000	-50.55364000	-19.32210000
144.19999161	0.00000000	-50.17839000	-18.57160000
144.39999160	0.00000000	-49.43405000	-17.78420000
144.59999159	0.00000000	-49.05881000	-17.40895000
144.79999157	0.00000000	-49.01575000	-17.32283000
144.99999156	0.00000000	-49.05881000	-16.99065000
145.19999155	0.00000000	-49.48326000	-16.67077000
145.39999154	0.00000000	-50.55364000	-17.36589000
145.59999153	0.00000000	-51.29183000	-18.11024000
145.79999151	0.00000000	-50.97194000	-18.15945000
145.99999150	0.00000000	-50.63976000	-18.57160000
146.19999149	0.00000000	-50.59670000	-18.90379000
146.39999148	0.00000000	-50.55364000	-18.94685000
146.59999147	0.00000000	-50.17839000	-18.94685000
146.79999146	0.00000000	-49.43405000	-18.90379000
146.99999144	0.00000000	-49.05881000	-18.52854000
147.19999143	0.00000000	-49.01575000	-17.78420000
147.39999142	0.00000000	-49.01575000	-17.40895000
147.59999141	0.00000000	-49.05881000	-17.36589000
147.79999140	0.00000000	-49.43405000	-17.36589000
147.99999138	0.00000000	-50.17839000	-17.36589000
148.19999137	0.00000000	-50.55364000	-17.36589000
148.39999136	0.00000000	-50.59670000	-17.40895000
148.59999135	0.00000000	-50.59670000	-17.78420000
148.79999134	0.00000000	-50.59670000	-18.52854000
148.99999132	0.00000000	-50.59670000	-18.90379000
149.19999131	0.00000000	-50.55364000	-18.94685000
149.39999130	0.00000000	-50.17839000	-18.94685000
149.59999129	0.00000000	-49.43405000	-18.90379000
149.79999128	0.00000000	-49.01575000	-18.52854000
149.99999127	0.00000000	-48.68356000	-17.78420000
150.19999125	0.00000000	-48.64665000	-17.40895000
150.39999124	0.00000000	-49.38484000	-17.36589000
150.59999123	0.00000000	-49.39099000	-17.36589000
150.79999122	0.00000000	-49.48326000	-17.36589000
150.99999121	0.00000000	-50.17839000	-17.36589000
151.19999119	0.00000000	-50.55364000	-17.36589000
151.39999118	0.00000000	-50.59670000	-17.36589000
151.59999117	0.00000000	-50.59670000	-17.40895000
151.79999116	0.00000000	-50.55364000	-17.78420000
151.99999115	0.00000000	-50.17839000	-18.52854000
152.19999113	0.00000000	-49.43405000	-18.85458000
152.39999112	0.00000000	-49.05881000	-18.52854000
152.59999111	0.00000000	-49.01575000	-17.78420000
152.79999110	0.00000000	-49.01575000	-17.40895000
152.99999109	0.00000000	-49.01575000	-17.36589000
153.19999108	0.00000000	-49.01575000	-17.36589000
153.39999106	0.00000000	-49.05881000	-17.36589000
153.59999105	0.00000000	-49.43405000	-17.36589000
153.79999104	0.00000000	-50.17839000	-17.36589000
153.99999103	0.00000000	-50.55364000	-17.36589000
154.19999102	0.00000000	-50.55364000	-17.36589000
154.39999100	0.00000000	-50.26451000	-17.36589000
154.59999099	0.00000000	-50.22760000	-17.36589000
154.79999098	0.00000000	-50.91658000	-17.40895000
154.99999097	0.00000000	-50.50443000	-17.78420000
155.19999096	0.00000000	-49.48326000	-18.52854000
155.39999094	0.00000000	-49.05881000	-18.90379000
155.59999093	0.00000000	-49.01575000	-18.90379000
155.79999092	0.00000000	-49.01575000	-18.52854000
155.99999091	0.00000000	-49.01575000	-17.78420000
156.19999090	0.00000000	-49.05881000	-17.40895000
156.39999089	0.00000000	-49.43405000	-17.36589000
156.59999087	0.00000000	-50.17839000	-17.36589000
156.79999086	0.00000000	-50.55364000	-17.36589000
156.99999085	0.00000000	-50.59670000	-17.36589000
157.19999084	0.00000000	-50.59670000	-17.36589000
157.39999083	0.00000000	-50.59670000	-17.36589000
157.59999081	0.00000000	-50.59670000	-17.36589000
157.79999080	0.00000000	-50.55364000	-17.40895000
157.99999079	0.00000000	-50.17839000	-17.78420000
158.19999078	0.00000000	-49.43405000	-18.52854000
158.39999077	0.00000000	-49.05881000	-18.90379000
158.59999075	0.00000000	-49.01575000	-18.94685000
158.79999074	0.00000000	-49.01575000	-18.90379000
158.99999073	0.00000000	-49.01575000	-18.52854000
159.19999072	0.00000000	-49.05881000	-17.78420000
159.39999071	0.00000000	-49.43405000	-17.40895000
159.59999070	0.00000000	-50.17839000	-17.36589000
159.79999068	0.00000000	-50.55364000	-17.36589000
159.99999067	0.00000000	-50.59670000	-17.36589000
160.19999066	0.00000000	-50.59670000	-17.36589000
160.39999065	0.00000000	-50.59670000	-17.36589000
160.59999064	0.00000000	-50.55364000	-17.40895000
160.79999062	0.00000000	-50.22145000	-17.78420000
160.99999061	0.00000000	-49.85236000	-18.52854000
161.19999060	0.00000000	-50.17839000	-18.90379000
161.39999059	0.00000000	-50.12918000	-18.94685000
161.59999058	0.00000000	-49.43405000	-18.90379000
161.79999056	0.00000000	-49.05881000	-18.52854000
161.99999055	0.00000000	-49.01575000	-17.78420000
162.19999054	0.00000000	-49.01575000	-17.40895000
162.39999053	0.00000000	-49.01575000	-17.36589000
162.59999052	0.00000000	-49.01575000	-17.36589000
162.79999051	0.00000000	-49.05881000	-17.36589000
162.99999049	0.00000000	-49.43405000	-17.36589000
163.19999048	0.00000000	-50.17839000	-17.40895000
163.39999047	0.00000000	-50.55364000	-17.74114000
163.59999046	0.00000000	-50.59670000	-18.11024000
163.79999045	0.00000000	-50.59670000	-17.74114000
163.99999043	0.00000000	-50.59670000	-17.45817000
164.19999042	0.00000000	-50.55364000	-17.74114000
164.39999041	0.00000000	-50.17839000	-18.15330000
164.59999040	0.00000000	-49.43405000	-18.11639000
164.79999039	0.00000000	-49.05881000	-18.23942000
164.99999037	0.00000000	-49.01575000	-18.44242000
165.19999036	0.00000000	-49.01575000	-18.51624000
165.39999035	0.00000000	-49.01575000	-17.37205000
165.59999034	0.00000000	-49.05881000	-17.08292000
165.79999033	0.00000000	-49.43405000	-17.32283000
165.99999032	0.00000000	-50.17839000	-17.36589000
166.19999030	0.00000000	-50.55364000	-17.36589000
166.39999029	0.00000000	-50.59670000	-17.36589000
166.59999028	0.00000000	-50.55364000	-17.36589000
166.79999027	0.00000000	-50.22145000	-17.36589000
166.99999026	0.00000000	-49.80930000	-17.36589000
167.19999024	0.00000000	-49.80315000	-17.36589000
167.39999023	0.00000000	-49.39099000	-17.40895000
167.59999022	0.00000000	-49.05881000	-17.74114000
167.79999021	0.00000000	-49.01575000	-18.11024000
167.99999020	0.00000000	-49.01575000	-17.74114000
168.19999018	0.00000000	-49.01575000	-17.40895000
168.39999017	0.00000000	-49.01575000	-17.36589000
168.59999016	0.00000000	-49.01575000	-17.36589000
168.79999015	0.00000000	-49.01575000	-17.36589000
168.99999014	0.00000000	-49.01575000	-17.36589000
169.19999013	0.00000000	-49.05881000	-17.36589000
169.39999011	0.00000000	-49.43405000	-17.36589000
169.59999010	0.00000000	-50.12918000	-17.36589000
169.79999009	0.00000000	-50.12918000	-17.36589000
169.99999008	0.00000000	-49.48326000	-17.36589000
170.19999007	0.00000000	-49.43405000	-17.36589000
170.39999005	0.00000000	-49.76009000	-17.36589000
170.59999004	0.00000000	-49.39099000	-17.36589000
170.79999003	0.00000000	-49.05881000	-17.36589000
170.99999002	0.00000000	-49.01575000	-17.36589000
171.19999001	0.00000000	-49.01575000	-17.36589000
171.39998999	0.00000000	-49.01575000	-17.40895000
171.59998998	0.00000000	-49.01575000	-17.78420000
171.79998997	0.00000000	-49.01575000	-18.47933000
171.99998996	0.00000000	-49.05881000	-18.47933000
172.19998995	0.00000000	-49.39099000	-17.78420000
172.39998994	0.00000000	-49.76009000	-17.40895000
172.59998992	0.00000000	-49.39099000	-17.36589000
172.79998991	0.00000000	-49.05881000	-17.36589000
172.99998990	0.00000000	-49.01575000	-17.36589000
173.19998989	0.00000000	-49.01575000	-17.36589000
173.39998988	0.00000000	-49.01575000	-17.36589000
173.59998986	0.00000000	-49.01575000	-17.36589000
173.79998985	0.00000000	-49.01575000	-17.36589000
173.99998984	0.00000000	-49.05881000	-17.36589000
174.19998983	0.00000000	-49.39099000	-17.36589000
174.39998982	0.00000000	-49.76009000	-17.36589000
174.59998980	0.00000000	-49.39099000	-17.36589000
174.79998979	0.00000000	-49.05881000	-17.36589000
174.99998978	0.00000000	-49.01575000	-17.36589000
175.19998977	0.00000000	-49.01575000	-17.36589000
175.39998976	0.00000000	-49.05881000	-17.36589000
175.59998975	0.00000000	-49.39099000	-17.36589000
175.79998973	0.00000000	-49.76009000	-17.36589000
175.99998972	0.00000000	-49.39099000	-17.36589000
176.19998971	0.00000000	-49.05881000	-17.36589000
176.39998970	0.00000000	-49.01575000	-17.36589000
176.59998969	0.00000000	-49.01575000	-17.36589000
176.79998967	0.00000000	-49.01575000	-17.36589000
176.99998966	0.00000000	-49.01575000	-17.36589000
177.19998965	0.00000000	-49.01575000	-17.36589000
177.39998964	0.00000000	-49.01575000	-17.36589000
177.59998963	0.00000000	-49.05881000	-17.36589000
177.79998961	0.00000000	-49.39099000	-17.36589000
177.99998960	0.00000000	-49.80315000	-17.36589000
178.19998959	0.00000000	-49.76624000	-17.36589000
178.39998958	0.00000000	-49.84621000	-17.36589000
178.59998957	0.00000000	-49.76624000	-17.36589000
178.79998956	0.00000000	-49.80315000	-17.36589000
178.99998954	0.00000000	-49.39099000	-17.36589000
179.19998953	0.00000000	-49.05881000	-17.36589000
179.39998952	0.00000000	-49.01575000	-17.36589000
179.59998951	0.00000000	-49.01575000	-17.36589000
179.79998950	0.00000000	-49.01575000	-17.36589000
179.99998948	0.00000000	-49.01575000	-17.40895000
180.19998947	0.00000000	-49.01575000	-17.74114000
180.39998946	0.00000000	-49.01575000	-18.11024000
180.59998945	0.00000000	-49.01575000	-17.74114000
180.79998944	0.00000000	-49.01575000	-17.40895000
180.99998942	0.00000000	-49.05881000	-17.36589000
181.19998941	0.00000000	-49.39099000	-17.36589000
181.39998940	0.00000000	-49.76009000	-17.36589000
181.59998939	0.00000000	-49.39099000	-17.36589000
181.79998938	0.00000000	-49.05881000	-17.36589000
181.99998937	0.00000000	-49.01575000	-17.36589000
182.19998935	0.00000000	-49.01575000	-17.36589000
182.39998934	0.00000000	-49.01575000	-17.36589000
182.59998933	0.00000000	-49.01575000	-17.36589000
182.79998932	0.00000000	-49.01575000	-17.40895000
182.99998931	0.00000000	-49.01575000	-17.78420000
183.19998929	0.00000000	-49.01575000	-18.47933000
183.39998928	0.00000000	-49.01575000	-18.47933000
183.59998927	0.00000000	-49.01575000	-17.78420000
183.79998926	0.00000000	-49.01575000	-17.40895000
183.99998925	0.00000000	-49.01575000	-17.36589000
184.19998923	0.00000000	-49.01575000	-17.36589000
184.39998922	0.00000000	-49.01575000	-17.36589000
184.59998921	0.00000000	-49.01575000	-17.36589000
184.79998920	0.00000000	-49.01575000	-17.36589000
184.99998919	0.00000000	-49.01575000	-17.36589000
185.19998918	0.00000000	-49.01575000	-17.36589000
185.39998916	0.00000000	-49.01575000	-17.36589000
185.59998915	0.00000000	-49.01575000	-17.40895000
185.79998914	0.00000000	-49.01575000	-17.78420000
185.99998913	0.00000000	-49.01575000	-18.47933000
186.19998912	0.00000000	-48.97269000	-18.47933000
186.39998910	0.00000000	-48.68356000	-17.83341000
186.59998909	0.00000000	-48.64665000	-17.78420000
186.79998908	0.00000000	-49.38484000	-18.11024000
186.99998907	0.00000000	-49.39099000	-17.69808000
187.19998906	0.00000000	-49.43405000	-17.03371000
187.39998904	0.00000000	-49.76009000	-16.62155000
187.59998903	0.00000000	-49.39099000	-16.99065000
187.79998902	0.00000000	-49.05881000	-17.32283000
187.99998901	0.00000000	-49.01575000	-17.36589000
188.19998900	0.00000000	-49.01575000	-17.36589000
188.39998899	0.00000000	-49.01575000	-17.36589000
188.59998897	0.00000000	-49.01575000	-17.36589000
188.79998896	0.00000000	-49.01575000	-17.36589000
188.99998895	0.00000000	-49.01575000	-17.36589000
189.19998894	0.00000000	-49.01575000	-17.40895000
189.39998893	0.00000000	-49.01575000	-17.78420000
189.59998891	0.00000000	-49.01575000	-18.52854000
189.79998890	0.00000000	-49.01575000	-18.85458000
189.99998889	0.00000000	-49.01575000	-18.52854000
190.19998888	0.00000000	-49.01575000	-17.78420000
190.39998887	0.00000000	-49.01575000	-17.40895000
190.59998885	0.00000000	-49.01575000	-17.36589000
190.79998884	0.00000000	-49.01575000	-17.36589000
190.99998883	0.00000000	-49.01575000	-17.36589000
191.19998882	0.00000000	-49.01575000	-17.36589000
191.39998881	0.00000000	-49.01575000	-17.36589000
191.59998880	0.00000000	-49.01575000	-17.36589000
191.79998878	0.00000000	-49.01575000	-17.36589000
191.99998877	0.00000000	-49.01575000	-17.36589000
192.19998876	0.00000000	-49.01575000	-17.40895000
192.39998875	0.00000000	-49.01575000	-17.74114000
192.59998874	0.00000000	-49.01575000	-18.11024000
192.79998872	0.00000000	-49.01575000	-17.74114000
192.99998871	0.00000000	-49.01575000	-17.40895000
193.19998870	0.00000000	-49.01575000	-17.36589000
193.39998869	0.00000000	-49.01575000	-17.36589000
193.59998868	0.00000000	-49.01575000	-17.36589000
193.79998866	0.00000000	-49.01575000	-17.36589000
193.99998865	0.00000000	-49.01575000	-17.36589000
194.19998864	0.00000000	-49.01575000	-17.32283000
194.39998863	0.00000000	-49.01575000	-16.99065000
194.59998862	0.00000000	-49.01575000	-16.62155000
194.79998861	0.00000000	-49.01575000	-16.99065000
194.99998859	0.00000000	-49.01575000	-17.32283000
195.19998858	0.00000000	-49.01575000	-17.36589000
195.39998857	0.00000000	-49.01575000	-17.36589000
195.59998856	0.00000000	-49.01575000	-17.36589000
195.79998855	0.00000000	-49.01575000	-17.36589000
195.99998853	0.00000000	-49.01575000	-17.36589000
