Time	Channel A	Channel B	Channel C
(us)	(V)	(mV)	(mV)

-4.59999956	0.00000000	-22.13336000	-14.21014000
-4.39999957	0.00000000	-22.13336000	-14.21014000
-4.19999958	0.00000000	-22.13336000	-14.21014000
-3.99999959	0.00000000	-22.17643000	-14.21014000
-3.79999960	0.00000000	-22.50861000	-14.21014000
-3.59999962	0.00000000	-22.87770000	-14.21014000
-3.39999963	0.00000000	-22.50861000	-14.21014000
-3.19999964	0.00000000	-22.17643000	-14.21014000
-2.99999965	0.00000000	-22.13336000	-14.21014000
-2.79999966	0.00000000	-22.13336000	-14.21014000
-2.59999968	0.00000000	-22.13336000	-14.21014000
-2.39999969	0.00000000	-22.13336000	-14.21014000
-2.19999970	0.00000000	-22.13336000	-14.21014000
-1.99999971	0.00000000	-22.17643000	-14.21014000
-1.79999972	0.00000000	-22.50861000	-14.21014000
-1.59999973	0.00000000	-22.92076000	-14.21014000
-1.39999975	0.00000000	-22.92692000	-14.21014000
-1.19999976	0.00000000	-23.33907000	-14.21014000
-0.99999977	0.00000000	-23.67126000	-14.21014000
-0.79999978	0.00000000	-23.71432000	-14.21014000
-0.59999979	0.00000000	-23.71432000	-14.21014000
-0.39999981	0.15871060	-23.67126000	-14.21014000
-0.19999982	0.47736220	-23.33907000	-14.21014000
0.00000017	0.79601380	-22.96998000	-14.21014000
0.20000016	0.95533960	-23.33907000	-14.21014000
0.40000015	0.95533960	-23.67126000	-14.25320000
0.60000013	0.63668800	-23.71432000	-14.58538000
0.80000012	0.00000000	-23.71432000	-14.94833000
1.00000011	-1.11466500	-23.71432000	-14.58538000
1.20000010	-2.07062000	-23.71432000	-14.25320000
1.40000009	-2.70792300	-23.71432000	-14.21014000
1.60000008	-2.70792300	-23.71432000	-14.21014000
1.80000006	-1.91129400	-23.71432000	-14.21014000
2.00000005	-0.31803640	-23.71432000	-14.21014000
2.20000004	1.59264300	-23.71432000	-14.21014000
2.40000003	3.66326300	-23.71432000	-14.21014000
2.60000002	5.09719500	-23.71432000	-14.21014000
2.80000000	5.25652100	-23.71432000	-14.25320000
2.99999999	3.98191400	-23.67126000	-14.62844000
3.19999998	1.43331700	-23.33907000	-15.36663000
3.39999997	-1.91129400	-22.96998000	-15.69267000
3.59999996	-5.25652100	-23.33907000	-15.36663000
3.79999994	-7.32714100	-23.67126000	-14.62844000
3.99999993	-7.96444400	-23.67126000	-14.21014000
4.19999992	-6.37180100	-23.33907000	-13.79183000
4.39999991	-3.02657500	-22.96998000	-13.09670000
4.59999990	1.27399100	-23.33907000	-13.09670000
4.79999989	5.41584600	-23.67126000	-13.79183000
4.99999987	8.44242100	-23.71432000	-14.16708000
5.19999986	9.39837600	-23.71432000	-14.21014000
5.39999985	7.96444400	-23.71432000	-14.25320000
5.59999984	4.45989200	-23.71432000	-14.62844000
5.79999983	0.00000000	-23.71432000	-15.36663000
5.99999981	-4.77854300	-23.71432000	-15.69267000
6.19999980	-8.12377000	-23.71432000	-15.36663000
6.39999979	-9.39837600	-23.71432000	-14.62844000
6.59999978	-8.44242100	-23.71432000	-14.25320000
6.79999977	-5.41584600	-23.71432000	-14.21014000
6.99999975	-1.11466500	-23.71432000	-14.21014000
7.19999974	3.18590100	-23.71432000	-14.21014000
7.39999973	6.37180100	-23.71432000	-14.21014000
7.59999972	7.64579200	-23.71432000	-14.21014000
7.79999971	7.16781500	-23.71432000	-14.25320000
7.99999970	4.93786900	-23.71432000	-14.58538000
8.19999968	1.75196900	-23.71432000	-14.94833000
8.39999967	-1.59264300	-23.71432000	-14.58538000
8.59999966	-3.98191400	-23.71432000	-14.25320000
8.79999965	-5.09719500	-23.71432000	-14.21014000
8.99999964	-4.93786900	-23.71432000	-14.21014000
9.19999962	-3.50393700	-23.71432000	-14.21014000
9.39999961	-1.59264300	-23.71432000	-14.21014000
9.59999960	0.31803640	-23.71432000	-14.21014000
9.79999959	1.75196900	-23.71432000	-14.21014000
9.99999958	2.38927200	-23.71432000	-14.21014000
10.19999956	2.38927200	-23.71432000	-14.21014000
10.39999955	1.75196900	-23.71432000	-14.21014000
10.59999954	0.95533960	-23.71432000	-14.21014000
10.79999953	0.15871060	-23.71432000	-14.21014000
10.99999952	-0.47736220	-23.71432000	-14.21014000
11.19999951	-0.95533960	-23.71432000	-14.21014000
11.39999949	-0.95533960	-23.71432000	-14.21014000
11.59999948	-0.79601380	-23.71432000	-14.21014000
11.79999947	-0.63668800	-23.71432000	-14.21014000
11.99999946	-0.31803640	-23.71432000	-14.21014000
12.19999945	-0.15871060	-23.71432000	-14.21014000
12.39999943	-0.15871060	-23.71432000	-14.21014000
12.59999942	0.00000000	-23.71432000	-14.21014000
12.79999941	0.00000000	-23.71432000	-14.21014000
12.99999940	0.00000000	-23.71432000	-14.21014000
13.19999939	0.00000000	-23.71432000	-14.21014000
13.39999937	0.00000000	-23.71432000	-14.21014000
13.59999936	0.00000000	-23.71432000	-14.21014000
13.79999935	0.00000000	-23.71432000	-14.21014000
13.99999934	-0.15871060	-23.71432000	-14.21014000
14.19999933	-0.15871060	-23.75738000	-14.25320000
14.39999932	-0.15871060	-24.08957000	-14.58538000
14.59999930	-0.15871060	-24.45866000	-14.99139000
14.79999929	0.00000000	-24.08957000	-14.95448000
14.99999928	0.00000000	-23.75738000	-15.04060000
15.19999927	0.00000000	-23.71432000	-15.00369000
15.39999926	0.00000000	-23.71432000	-15.40969000
15.59999924	0.00000000	-23.71432000	-15.74188000
15.79999923	0.00000000	-23.75738000	-15.78494000
15.99999922	0.00000000	-24.08957000	-15.78494000
16.19999921	0.00000000	-24.50172000	-15.78494000
16.39999920	-0.15871060	-24.46481000	-15.78494000
16.59999919	-0.15871060	-24.50172000	-15.78494000
16.79999917	-0.15871060	-24.08957000	-15.78494000
16.99999916	0.00000000	-23.71432000	-15.78494000
17.19999915	0.00000000	-23.29601000	-15.78494000
17.39999914	0.00000000	-22.55167000	-15.78494000
17.59999913	0.00000000	-22.22564000	-15.78494000
17.79999911	0.00000000	-22.55167000	-15.78494000
17.99999910	0.00000000	-23.33907000	-15.78494000
18.19999909	0.00000000	-24.13263000	-15.78494000
18.39999908	0.00000000	-25.38755000	-15.78494000
18.59999907	0.00000000	-27.25147000	-15.78494000
18.79999905	0.00000000	-29.15231000	-15.74188000
18.99999904	0.00000000	-29.90280000	-15.40969000
19.19999903	0.00000000	-29.52756000	-15.04675000
19.39999902	0.00000000	-27.90354000	-15.40969000
19.59999901	0.00000000	-24.78469000	-15.69267000
19.79999900	0.00000000	-20.55241000	-15.40969000
19.99999898	0.00000000	-16.36319000	-15.04675000
20.19999897	0.00000000	-13.66880000	-15.36663000
20.39999896	0.00000000	-13.24434000	-15.32357000
20.59999895	0.00000000	-14.87451000	-14.62844000
20.79999894	0.00000000	-18.82997000	-14.25320000
20.99999892	0.00000000	-25.43061000	-14.21014000
21.19999891	0.00000000	-33.11393000	-14.25320000
21.39999890	0.00000000	-40.04675000	-14.58538000
21.59999889	0.00000000	-44.23597000	-14.94833000
21.79999888	0.00000000	-44.19291000	-14.58538000
21.99999886	0.00000000	-39.49311000	-14.25320000
22.19999885	0.00000000	-30.51181000	-14.21014000
22.39999884	0.00000000	-18.55315000	-14.21014000
22.59999883	0.00000000	-6.22539300	-14.21014000
22.79999882	0.00000000	2.98966500	-14.21014000
22.99999881	0.00000000	6.84670200	-14.21014000
23.19999879	0.00000000	4.01697800	-14.16708000
23.39999878	0.00000000	-5.75787400	-13.79183000
23.59999877	0.00000000	-21.61663000	-13.04749000
23.79999876	0.00000000	-40.08981000	-12.67224000
23.99999875	0.00000000	-56.23769000	-12.62918000
24.19999873	0.00000000	-65.87106000	-12.67224000
24.39999872	0.00000000	-66.20325000	-13.09670000
24.59999871	0.00000000	-56.88976000	-14.25320000
24.79999870	0.00000000	-39.44390000	-15.78494000
24.99999869	0.00000000	-17.43971000	-17.36589000
25.19999867	0.00000000	4.15231300	-18.90379000
25.39999866	0.00000000	19.96801000	-20.01722000
25.59999865	0.00000000	26.11343000	-19.97416000
25.79999864	0.00000000	21.03838000	-18.39321000
25.99999863	0.00000000	5.17962600	-15.27436000
26.19999862	0.00000000	-18.03642000	-11.09129000
26.39999860	0.00000000	-43.49163000	-7.19734200
26.59999859	0.00000000	-65.45275000	-4.49680100
26.79999858	0.00000000	-77.78666000	-3.01427100
26.99999857	0.00000000	-77.87278000	-4.26304100
27.19999856	0.00000000	-66.24631000	-8.48917200
27.39999854	0.00000000	-45.39862000	-14.72072000
27.59999853	0.00000000	-19.90034000	-22.10261000
27.79999852	0.00000000	4.01697800	-29.39837000
27.99999851	0.00000000	21.03838000	-34.74409000
28.19999850	0.00000000	27.26993000	-36.18971000
28.39999848	0.00000000	21.92421000	-32.65871000
28.59999847	0.00000000	6.84670200	-24.15723000
28.79999846	0.00000000	-14.78223000	-12.58612000
28.99999845	0.00000000	-37.95522000	-0.59670270
29.19999844	0.00000000	-57.31422000	9.43036400
29.39999843	0.00000000	-68.94070000	15.15133000
29.59999841	0.00000000	-70.52164000	14.68996000
29.79999840	0.00000000	-62.10014000	7.30191900
29.99999839	0.00000000	-46.27829000	-5.84399600
30.19999838	0.00000000	-26.92544000	-22.05955000
30.39999837	0.00000000	-7.98474400	-37.85679000
30.59999835	0.00000000	6.29306100	-49.42790000
30.79999834	0.00000000	12.57382000	-54.02928000
30.99999833	0.00000000	10.34080000	-50.54134000
31.19999832	0.00000000	1.12573800	-39.30241000
31.39999831	0.00000000	-12.82603000	-22.66855000
31.59999829	0.00000000	-28.27879000	-3.75861200
31.79999828	0.00000000	-42.23056000	13.19513000
31.99999827	0.00000000	-51.53789000	24.02805000
32.19999826	0.00000000	-54.65674000	26.72244000
32.39999825	0.00000000	-51.21186000	20.49705000
32.59999824	0.00000000	-42.00295000	6.27460600
32.79999822	0.00000000	-30.03814000	-12.21087000
32.99999821	0.00000000	-18.03642000	-30.46875000
33.19999820	0.00000000	-8.35998900	-45.52780000
33.39999819	0.00000000	-3.33415300	-54.39837000
33.59999818	0.00000000	-3.66633800	-54.44759000
33.79999816	0.00000000	-9.06126900	-46.77657000
33.99999815	0.00000000	-17.85802000	-33.16314000
34.19999814	0.00000000	-27.48524000	-15.79109000
34.39999813	0.00000000	-35.25467000	1.53789400
34.59999812	0.00000000	-39.91141000	14.68996000
34.79999810	0.00000000	-40.65575000	20.86614000
34.99999809	0.00000000	-36.83563000	19.00221000
35.19999808	0.00000000	-29.99508000	9.76254800
35.39999807	0.00000000	-22.68701000	-4.08464600
35.59999806	0.00000000	-16.87377000	-19.55585000
35.79999805	0.00000000	-13.80413000	-33.07701000
35.99999803	0.00000000	-14.13017000	-41.95374000
36.19999802	0.00000000	-17.61811000	-44.27288000
36.39999801	0.00000000	-22.92692000	-39.30241000
36.59999800	0.00000000	-28.73400000	-28.93701000
36.79999799	0.00000000	-32.92938000	-15.87721000
36.99999797	0.00000000	-34.92864000	-3.56791300
37.19999796	0.00000000	-34.14124000	4.52140800
37.39999795	0.00000000	-31.06545000	6.88361200
37.59999794	0.00000000	-26.45792000	3.03272600
37.79999793	0.00000000	-21.43824000	-5.70866100
37.99999791	0.00000000	-17.61811000	-16.43701000
38.19999790	0.00000000	-15.62500000	-25.63976000
38.39999789	0.00000000	-16.03715000	-31.02854000
38.59999788	0.00000000	-18.31939000	-31.02854000
38.79999787	0.00000000	-22.22564000	-25.73203000
38.99999786	0.00000000	-26.78395000	-17.27362000
39.19999784	0.00000000	-30.69020000	-8.07086500
39.39999783	0.00000000	-33.02165000	-0.46136810
39.59999782	0.00000000	-33.85211000	2.56520700
39.79999781	0.00000000	-33.06471000	-0.08612204
39.99999780	0.00000000	-31.15157000	-7.33267600
40.19999778	0.00000000	-28.41412000	-16.94759000
40.39999777	0.00000000	-25.29527000	-26.15034000
40.59999776	0.00000000	-22.22564000	-32.70177000
40.79999775	0.00000000	-19.85728000	-34.56570000
40.99999774	0.00000000	-18.68848000	-31.07775000
41.19999772	0.00000000	-18.27633000	-22.66240000
41.39999771	0.00000000	-19.06373000	-11.93405000
41.59999770	0.00000000	-20.59547000	-2.35605300
41.79999769	0.00000000	-22.60088000	3.85703700
41.99999768	0.00000000	-25.29527000	4.98277500
42.19999767	0.00000000	-27.98966000	1.21186000
42.39999765	0.00000000	-29.94586000	-6.48991100
42.59999764	0.00000000	-31.15157000	-15.69882000
42.79999763	0.00000000	-31.52682000	-24.20029000
42.99999762	0.00000000	-31.15157000	-30.00738000
43.19999761	0.00000000	-29.94586000	-31.95743000
43.39999759	0.00000000	-28.03888000	-30.05044000
43.59999758	0.00000000	-25.71358000	-24.66166000
43.79999757	0.00000000	-23.75738000	-17.36589000
43.99999756	0.00000000	-22.17643000	-10.07013000
44.19999755	0.00000000	-21.01993000	-4.68134800
44.39999753	0.00000000	-20.59547000	-2.68208600
44.59999752	0.00000000	-20.59547000	-3.79552100
44.79999751	0.00000000	-21.01993000	-7.24040300
44.99999750	0.00000000	-22.13336000	-12.21087000
45.19999749	0.00000000	-23.33907000	-16.85531000
45.39999748	0.00000000	-24.60015000	-20.39247000
45.59999746	0.00000000	-26.91929000	-22.71161000
45.79999745	0.00000000	-29.61983000	-23.08686000
45.99999744	0.00000000	-31.99434000	-21.59203000
46.19999743	0.00000000	-34.31963000	-18.89764000
46.39999742	0.00000000	-35.76525000	-15.83415000
46.59999740	0.00000000	-35.34695000	-13.09055000
46.79999739	0.00000000	-32.60334000	-11.14050000
46.99999738	0.00000000	-27.94660000	-9.93479300
47.19999737	0.00000000	-22.13336000	-9.65182000
47.39999736	0.00000000	-16.32013000	-10.82062000
47.59999734	0.00000000	-11.71260000	-13.83489000
47.79999733	0.00000000	-9.47957600	-16.90453000
47.99999732	0.00000000	-11.06053000	-19.32210000
48.19999731	0.00000000	-16.45546000	-21.59203000
48.39999730	0.00000000	-24.22490000	-22.71161000
48.59999729	0.00000000	-33.11393000	-21.96727000
48.79999727	0.00000000	-41.16019000	-20.01722000
48.99999726	0.00000000	-45.77386000	-16.94759000
49.19999725	0.00000000	-45.77386000	-13.46580000
49.39999724	0.00000000	-41.11712000	-10.76525000
49.59999723	0.00000000	-32.60334000	-8.82135800
49.79999721	0.00000000	-22.22564000	-8.48917200
49.99999720	0.00000000	-12.59842000	-10.02707000
50.19999719	0.00000000	-6.45300100	-13.13976000
50.39999718	0.00000000	-5.24729300	-17.32283000
50.59999717	0.00000000	-9.10433000	-21.17372000
50.79999715	0.00000000	-16.78149000	-23.50517000
50.99999714	0.00000000	-26.45792000	-24.29257000
51.19999713	0.00000000	-35.67913000	-23.04380000
51.39999712	0.00000000	-42.23671000	-19.64198000
51.59999711	0.00000000	-44.14370000	-15.04675000
51.79999710	0.00000000	-41.11712000	-11.18356000
51.99999708	0.00000000	-34.18430000	-8.40305000
52.19999707	0.00000000	-25.38755000	-6.90821800
52.39999706	0.00000000	-17.29208000	-7.33267600
52.59999705	0.00000000	-12.26624000	-9.98400600
52.79999704	0.00000000	-11.10359000	-13.79183000
52.99999702	0.00000000	-14.17938000	-17.27977000
53.19999701	0.00000000	-20.64468000	-20.01722000
53.39999700	0.00000000	-27.94660000	-21.50590000
53.59999699	0.00000000	-34.14124000	-21.13066000
53.79999698	0.00000000	-37.95522000	-18.85458000
53.99999696	0.00000000	-37.95522000	-15.83415000
54.19999695	0.00000000	-34.14124000	-13.13976000
54.39999694	0.00000000	-28.03888000	-11.55881000
54.59999693	0.00000000	-21.52436000	-11.18356000
54.79999692	0.00000000	-16.91683000	-11.97711000
54.99999691	0.00000000	-15.33587000	-14.25320000
55.19999689	0.00000000	-16.87377000	-16.85531000
55.39999688	0.00000000	-21.06299000	-18.39321000
55.59999687	0.00000000	-26.45792000	-18.39321000
55.79999686	0.00000000	-31.48376000	-16.85531000
55.99999685	0.00000000	-35.30389000	-14.21014000
56.19999683	0.00000000	-36.41732000	-11.55881000
56.39999682	0.00000000	-34.14124000	-10.02707000
56.59999681	0.00000000	-29.57677000	-10.02707000
56.79999680	0.00000000	-24.18184000	-11.60187000
56.99999679	0.00000000	-19.52510000	-14.72072000
57.19999677	0.00000000	-16.45546000	-18.90379000
57.39999676	0.00000000	-15.71112000	-22.71161000
57.59999675	0.00000000	-17.98720000	-24.61860000
57.79999674	0.00000000	-22.17643000	-24.20029000
57.99999673	0.00000000	-26.83317000	-21.13066000
58.19999672	0.00000000	-31.06545000	-16.11712000
58.39999670	0.00000000	-33.76599000	-10.72219000
58.59999669	0.00000000	-34.18430000	-5.70866100
58.79999668	0.00000000	-32.64640000	-2.73129900
58.99999667	0.00000000	-29.57062000	-3.14960600
59.19999666	0.00000000	-25.76279000	-7.37573800
59.39999664	0.00000000	-22.68701000	-14.25320000
59.59999663	0.00000000	-21.10605000	-21.54897000
59.79999662	0.00000000	-21.06299000	-27.35605000
59.99999661	0.00000000	-22.22564000	-30.42569000
60.19999660	0.00000000	-24.18184000	-30.05044000
60.39999658	0.00000000	-26.87623000	-26.15034000
60.59999657	0.00000000	-29.48450000	-19.59892000
60.79999656	0.00000000	-30.64714000	-11.51575000
60.99999655	0.00000000	-29.94586000	-4.26304100
61.19999654	0.00000000	-28.41412000	-0.03690945
61.39999653	0.00000000	-26.50098000	0.00615157
61.59999651	0.00000000	-24.55093000	-3.84473400
61.79999650	0.00000000	-23.43135000	-10.40231000
61.99999649	0.00000000	-23.01919000	-18.47933000
62.19999648	0.00000000	-23.84965000	-25.82431000
62.39999647	0.00000000	-25.71358000	-30.84399000
62.59999645	0.00000000	-28.03888000	-32.74483000
62.79999644	0.00000000	-29.94586000	-30.42569000
62.99999643	0.00000000	-31.10851000	-24.71087000
63.19999642	0.00000000	-31.06545000	-17.36589000
63.39999641	0.00000000	-29.57062000	-10.02707000
63.59999639	0.00000000	-27.25147000	-4.26304100
63.79999638	0.00000000	-24.96309000	-1.52559000
63.99999637	0.00000000	-23.01919000	-2.26377900
64.19999636	0.00000000	-22.26870000	-5.75172200
64.39999635	0.00000000	-22.64394000	-11.51575000
64.59999634	0.00000000	-24.18184000	-18.01796000
64.79999632	0.00000000	-26.50098000	-23.08686000
64.99999631	0.00000000	-28.78937000	-26.24262000
65.19999630	0.00000000	-30.69020000	-27.39911000
65.39999629	0.00000000	-31.06545000	-26.24262000
65.59999628	0.00000000	-29.99508000	-23.21604000
65.79999626	0.00000000	-28.45718000	-19.36516000
65.99999625	0.00000000	-26.87623000	-15.83415000
66.19999624	0.00000000	-25.33834000	-12.67224000
66.39999623	0.00000000	-24.22490000	-9.98400600
66.59999622	0.00000000	-24.26796000	-8.40305000
66.79999620	0.00000000	-25.71358000	-7.98474400
66.99999619	0.00000000	-27.62057000	-8.35998900
67.19999618	0.00000000	-28.78937000	-9.55954600
67.39999617	0.00000000	-29.57062000	-11.51575000
67.59999616	0.00000000	-29.48450000	-14.25320000
67.79999615	0.00000000	-27.94660000	-17.41511000
67.99999613	0.00000000	-25.33834000	-20.90305000
68.19999612	0.00000000	-22.96998000	-24.33563000
68.39999611	0.00000000	-21.47515000	-26.24262000
68.59999610	0.00000000	-20.74311000	-26.28568000
68.79999609	0.00000000	-22.36097000	-24.66166000
68.99999607	0.00000000	-25.76279000	-21.13066000
69.19999606	0.00000000	-30.03814000	-15.74188000
69.39999605	0.00000000	-34.23351000	-9.98400600
69.59999604	0.00000000	-36.88484000	-5.33341500
69.79999603	0.00000000	-36.92790000	-2.63902500
69.99999601	0.00000000	-34.55955000	-2.63902500
70.19999600	0.00000000	-30.31496000	-5.37647600
70.39999599	0.00000000	-24.50787000	-10.40231000
70.59999598	0.00000000	-19.14985000	-16.94759000
70.79999597	0.00000000	-15.24975000	-23.08686000
70.99999596	0.00000000	-13.75492000	-27.35605000
71.19999594	0.00000000	-15.29281000	-28.89395000
71.39999593	0.00000000	-19.56816000	-27.35605000
71.59999592	0.00000000	-25.76279000	-23.17298000
71.79999591	0.00000000	-32.68946000	-17.78420000
71.99999590	0.00000000	-38.46580000	-12.76452000
72.19999588	0.00000000	-41.53543000	-8.86441900
72.39999587	0.00000000	-41.16019000	-6.90821800
72.59999586	0.00000000	-37.34621000	-6.90821800
72.79999585	0.00000000	-31.53297000	-8.82135800
72.99999584	0.00000000	-24.92003000	-12.25394000
73.19999582	0.00000000	-18.41166000	-15.69882000
73.39999581	0.00000000	-14.17938000	-18.43627000
73.59999580	0.00000000	-13.33661000	-19.93110000
73.79999579	0.00000000	-15.24975000	-19.59892000
73.99999578	0.00000000	-19.52510000	-17.74114000
74.19999577	0.00000000	-25.29527000	-15.87721000
74.39999575	0.00000000	-31.10851000	-14.72072000
74.59999574	0.00000000	-35.72219000	-14.72072000
74.79999573	0.00000000	-38.04749000	-15.87721000
74.99999572	0.00000000	-37.30315000	-17.74114000
75.19999571	0.00000000	-34.27657000	-19.64198000
75.39999569	0.00000000	-30.03814000	-20.39247000
75.59999568	0.00000000	-25.76279000	-19.97416000
75.79999567	0.00000000	-22.26870000	-18.01796000
75.99999566	0.00000000	-19.99262000	-14.53617000
76.19999565	0.00000000	-19.94340000	-10.76525000
76.39999563	0.00000000	-21.80118000	-7.70177100
76.59999562	0.00000000	-24.08957000	-6.95743000
76.79999561	0.00000000	-26.45792000	-8.48917200
76.99999560	0.00000000	-28.41412000	-12.02018000
77.19999559	0.00000000	-29.90280000	-17.40895000
77.39999558	0.00000000	-30.31496000	-23.12992000
77.59999556	0.00000000	-29.25074000	-27.40526000
77.79999555	0.00000000	-28.54946000	-29.31225000
77.99999554	0.00000000	-28.45718000	-28.51870000
78.19999553	0.00000000	-28.45718000	-24.66781000
78.39999552	0.00000000	-28.50024000	-18.90379000
78.59999550	0.00000000	-28.87549000	-12.72146000
78.79999549	0.00000000	-29.57062000	-7.33267600
78.99999548	0.00000000	-29.52756000	-4.26304100
79.19999547	0.00000000	-28.41412000	-4.21998000
79.39999546	0.00000000	-26.83317000	-6.90821800
79.59999544	0.00000000	-24.92003000	-11.46653000
79.79999543	0.00000000	-23.01919000	-16.57234000
79.99999542	0.00000000	-22.31176000	-21.22908000
80.19999541	0.00000000	-23.06225000	-25.44906000
80.39999540	0.00000000	-25.33834000	-27.35605000
80.59999539	0.00000000	-28.03888000	-26.70398000
80.79999537	0.00000000	-30.37032000	-24.71087000
80.99999536	0.00000000	-32.31422000	-21.22293000
81.19999535	0.00000000	-33.06471000	-16.62155000
81.39999534	0.00000000	-32.68946000	-12.80758000
81.59999533	0.00000000	-31.10851000	-10.40231000
81.79999531	0.00000000	-28.41412000	-9.56569900
81.99999530	0.00000000	-25.38755000	-9.51648500
82.19999529	0.00000000	-23.06225000	-9.93479300
82.39999528	0.00000000	-22.26870000	-11.14050000
82.59999527	0.00000000	-22.64394000	-13.09055000
82.79999525	0.00000000	-24.18184000	-15.83415000
82.99999524	0.00000000	-26.45792000	-18.89764000
83.19999523	0.00000000	-28.41412000	-21.59203000
83.39999522	0.00000000	-29.99508000	-23.17298000
83.59999521	0.00000000	-31.10851000	-23.59129000
83.79999520	0.00000000	-31.10851000	-23.21604000
83.99999518	0.00000000	-29.99508000	-21.96727000
84.19999517	0.00000000	-28.50024000	-19.64198000
84.39999516	0.00000000	-27.34375000	-16.16018000
84.59999515	0.00000000	-26.91929000	-12.67224000
84.79999514	0.00000000	-26.87623000	-9.55954600
84.99999512	0.00000000	-26.87623000	-7.28346400
85.19999511	0.00000000	-26.87623000	-6.95743000
85.39999510	0.00000000	-26.87623000	-8.86441900
85.59999509	0.00000000	-26.83317000	-12.72146000
85.79999508	0.00000000	-26.45792000	-17.32283000
85.99999506	0.00000000	-25.71358000	-21.59203000
86.19999505	0.00000000	-25.38755000	-24.66166000
86.39999504	0.00000000	-25.76279000	-25.82431000
86.59999503	0.00000000	-26.91929000	-24.66166000
86.79999502	0.00000000	-28.45718000	-21.59203000
86.99999501	0.00000000	-29.99508000	-17.32283000
87.19999499	0.00000000	-31.15157000	-12.72146000
87.39999498	0.00000000	-31.52682000	-8.86441900
87.59999497	0.00000000	-31.15157000	-6.95743000
87.79999496	0.00000000	-29.99508000	-7.33267600
87.99999495	0.00000000	-28.41412000	-10.02707000
88.19999493	0.00000000	-26.50098000	-14.21014000
88.39999492	0.00000000	-24.60015000	-18.47933000
88.59999491	0.00000000	-23.84965000	-21.96727000
88.79999490	0.00000000	-24.18184000	-24.24335000
88.99999489	0.00000000	-25.33834000	-24.20029000
89.19999487	0.00000000	-26.87623000	-21.54897000
89.39999486	0.00000000	-28.45718000	-17.36589000
89.59999485	0.00000000	-29.99508000	-13.13976000
89.79999484	0.00000000	-31.10851000	-10.02707000
89.99999483	0.00000000	-31.15157000	-8.48917200
90.19999482	0.00000000	-30.37032000	-8.90747900
90.39999480	0.00000000	-29.24459000	-11.60187000
90.59999479	0.00000000	-27.66978000	-15.78494000
90.79999478	0.00000000	-26.54404000	-20.01722000
90.99999477	0.00000000	-25.71358000	-23.12992000
91.19999476	0.00000000	-25.38755000	-24.61860000
91.39999474	0.00000000	-25.71358000	-23.82505000
91.59999473	0.00000000	-26.50098000	-20.39247000
91.79999472	0.00000000	-27.25147000	-15.83415000
91.99999471	0.00000000	-28.03888000	-11.55881000
92.19999470	0.00000000	-28.41412000	-8.53223400
92.39999468	0.00000000	-28.45718000	-7.75098400
92.59999467	0.00000000	-28.50024000	-9.69488100
92.79999466	0.00000000	-28.83243000	-13.51501000
92.99999465	0.00000000	-29.24459000	-18.52854000
93.19999464	0.00000000	-29.29380000	-23.08686000
93.39999463	0.00000000	-30.08120000	-25.82431000
93.59999461	0.00000000	-31.10851000	-26.19955000
93.79999460	0.00000000	-31.10851000	-24.24335000
93.99999459	0.00000000	-29.99508000	-20.01722000
94.19999458	0.00000000	-28.45718000	-14.72072000
94.39999457	0.00000000	-26.87623000	-10.48843000
94.59999455	0.00000000	-25.29527000	-8.48917200
94.79999454	0.00000000	-23.80659000	-8.53838500
94.99999453	0.00000000	-23.06225000	-10.82062000
95.19999452	0.00000000	-23.84965000	-14.99139000
95.39999451	0.00000000	-25.76279000	-18.85458000
95.59999449	0.00000000	-28.50024000	-22.01649000
95.79999448	0.00000000	-31.53297000	-24.29257000
95.99999447	0.00000000	-33.90133000	-24.61860000
96.19999446	0.00000000	-35.02707000	-22.71161000
96.39999445	0.00000000	-35.01476000	-18.90379000
96.59999444	0.00000000	-33.06471000	-14.72072000
96.79999442	0.00000000	-29.99508000	-11.60187000
96.99999441	0.00000000	-26.45792000	-10.07013000
97.19999440	0.00000000	-22.64394000	-10.44537000
97.39999439	0.00000000	-19.94340000	-12.72146000
97.59999438	0.00000000	-19.19906000	-15.74188000
97.79999436	0.00000000	-20.31865000	-18.47933000
97.99999435	0.00000000	-23.43135000	-20.43553000
98.19999434	0.00000000	-27.25147000	-21.54897000
98.39999433	0.00000000	-31.20078000	-21.17372000
98.59999432	0.00000000	-34.65182000	-19.32210000
98.79999430	0.00000000	-36.97712000	-17.45817000
98.99999429	0.00000000	-37.35236000	-16.25246000
99.19999428	0.00000000	-35.81446000	-15.78494000
99.39999427	0.00000000	-32.73868000	-15.40969000
99.59999426	0.00000000	-28.87549000	-15.04675000
99.79999425	0.00000000	-25.38755000	-15.40969000
99.99999423	0.00000000	-22.64394000	-15.74188000
100.19999422	0.00000000	-21.06299000	-15.74188000
100.39999421	0.00000000	-20.73080000	-15.36663000
100.59999420	0.00000000	-21.89960000	-14.62844000
100.79999419	0.00000000	-24.96309000	-14.30241000
100.99999417	0.00000000	-28.41412000	-14.67150000
101.19999416	0.00000000	-31.53297000	-15.83415000
101.39999415	0.00000000	-33.90133000	-17.36589000
101.59999414	0.00000000	-35.02707000	-18.90379000
101.79999413	0.00000000	-35.06397000	-20.01722000
101.99999411	0.00000000	-33.48917000	-20.01722000
102.19999410	0.00000000	-31.24384000	-18.85458000
102.39999409	0.00000000	-28.87549000	-16.90453000
102.59999408	0.00000000	-26.91929000	-14.21014000
102.79999407	0.00000000	-25.29527000	-11.55881000
102.99999406	0.00000000	-23.80659000	-10.02707000
103.19999404	0.00000000	-23.06225000	-9.98400600
103.39999403	0.00000000	-23.80659000	-11.18356000
103.59999402	0.00000000	-25.33834000	-13.46580000
103.79999401	0.00000000	-27.29453000	-16.57234000
103.99999400	0.00000000	-29.57062000	-19.22982000
104.19999398	0.00000000	-31.10851000	-21.22293000
104.39999397	0.00000000	-31.57603000	-21.92421000
104.59999396	0.00000000	-31.57603000	-21.22293000
104.79999395	0.00000000	-31.15157000	-19.22982000
104.99999394	0.00000000	-29.99508000	-16.57234000
105.19999392	0.00000000	-28.50024000	-13.50886000
105.39999391	0.00000000	-27.29453000	-11.60187000
105.59999390	0.00000000	-26.54404000	-11.18356000
105.79999389	0.00000000	-26.13189000	-11.93405000
105.99999388	0.00000000	-26.54404000	-13.87795000
106.19999387	0.00000000	-27.29453000	-16.16018000
106.39999385	0.00000000	-28.45718000	-18.47933000
106.59999384	0.00000000	-29.57062000	-20.01722000
106.79999383	0.00000000	-29.99508000	-20.43553000
106.99999382	0.00000000	-29.99508000	-20.06029000
107.19999381	0.00000000	-29.61983000	-18.85458000
107.39999379	0.00000000	-28.83243000	-16.99065000
107.59999378	0.00000000	-28.08194000	-15.08981000
107.79999377	0.00000000	-27.34375000	-14.34547000
107.99999376	0.00000000	-27.38681000	-14.67150000
108.19999375	0.00000000	-28.45718000	-15.83415000
108.39999374	0.00000000	-29.61983000	-17.36589000
108.59999372	0.00000000	-30.41338000	-18.90379000
108.79999371	0.00000000	-31.20078000	-20.06029000
108.99999370	0.00000000	-31.52682000	-20.43553000
109.19999369	0.00000000	-31.15157000	-20.01722000
109.39999368	0.00000000	-30.03814000	-18.52854000
109.59999366	0.00000000	-28.87549000	-16.62155000
109.79999365	0.00000000	-28.08194000	-15.45891000
109.99999364	0.00000000	-27.29453000	-14.62844000
110.19999363	0.00000000	-26.96850000	-14.30241000
110.39999362	0.00000000	-27.34375000	-14.67150000
110.59999360	0.00000000	-28.45718000	-15.83415000
110.79999359	0.00000000	-29.61983000	-17.36589000
110.99999358	0.00000000	-30.41338000	-18.90379000
111.19999357	0.00000000	-31.20078000	-20.06029000
111.39999356	0.00000000	-31.52682000	-20.48474000
111.59999355	0.00000000	-31.15157000	-20.43553000
111.79999353	0.00000000	-30.03814000	-19.69119000
111.99999352	0.00000000	-28.92470000	-18.15945000
112.19999351	0.00000000	-28.45718000	-16.99065000
112.39999350	0.00000000	-28.03888000	-15.83415000
112.59999349	0.00000000	-27.34375000	-15.08981000
112.79999347	0.00000000	-27.34375000	-15.40969000
112.99999346	0.00000000	-28.08194000	-15.78494000
113.19999345	0.00000000	-28.83243000	-16.20325000
113.39999344	0.00000000	-29.61983000	-16.94759000
113.59999343	0.00000000	-29.99508000	-17.32283000
113.79999341	0.00000000	-30.03814000	-17.36589000
113.99999340	0.00000000	-30.03814000	-17.36589000
114.19999339	0.00000000	-30.03814000	-17.36589000
114.39999338	0.00000000	-29.99508000	-17.36589000
114.59999337	0.00000000	-29.61983000	-17.40895000
114.79999336	0.00000000	-28.87549000	-17.78420000
114.99999334	0.00000000	-28.50024000	-18.47933000
115.19999333	0.00000000	-28.45718000	-18.47933000
115.39999332	0.00000000	-28.45718000	-17.78420000
115.59999331	0.00000000	-28.45718000	-17.36589000
115.79999330	0.00000000	-28.50024000	-16.94759000
115.99999328	0.00000000	-28.87549000	-16.16018000
116.19999327	0.00000000	-29.61983000	-15.40969000
116.39999326	0.00000000	-29.99508000	-14.62844000
116.59999325	0.00000000	-30.03814000	-14.30241000
116.79999324	0.00000000	-30.03814000	-14.62844000
116.99999322	0.00000000	-29.99508000	-15.40969000
117.19999321	0.00000000	-29.61983000	-16.16018000
117.39999320	0.00000000	-28.83243000	-16.99065000
117.59999319	0.00000000	-28.08194000	-17.74114000
117.79999318	0.00000000	-27.29453000	-18.52854000
117.99999317	0.00000000	-26.91929000	-18.90379000
118.19999315	0.00000000	-26.91929000	-18.90379000
118.39999314	0.00000000	-27.34375000	-18.47933000
118.59999313	0.00000000	-28.50024000	-17.36589000
118.79999312	0.00000000	-29.99508000	-16.25246000
118.99999311	0.00000000	-31.15157000	-15.78494000
119.19999309	0.00000000	-31.57603000	-15.36663000
119.39999308	0.00000000	-31.61909000	-14.67150000
119.59999307	0.00000000	-31.57603000	-14.67150000
119.79999306	0.00000000	-31.15157000	-15.40969000
119.99999305	0.00000000	-29.99508000	-16.16018000
120.19999303	0.00000000	-28.50024000	-16.94759000
120.39999302	0.00000000	-27.34375000	-17.32283000
120.59999301	0.00000000	-26.91929000	-17.40895000
120.79999300	0.00000000	-26.87623000	-17.78420000
120.99999299	0.00000000	-26.91929000	-18.52854000
121.19999298	0.00000000	-27.34375000	-18.85458000
121.39999296	0.00000000	-28.50024000	-18.52854000
121.59999295	0.00000000	-29.99508000	-17.78420000
121.79999294	0.00000000	-31.15157000	-17.40895000
121.99999293	0.00000000	-31.57603000	-17.32283000
122.19999292	0.00000000	-31.61909000	-16.94759000
122.39999290	0.00000000	-31.57603000	-16.20325000
122.59999289	0.00000000	-31.20078000	-15.82800000
122.79999288	0.00000000	-30.41338000	-15.78494000
122.99999287	0.00000000	-29.66289000	-15.78494000
123.19999286	0.00000000	-28.83243000	-15.82800000
123.39999284	0.00000000	-28.12500000	-16.20325000
123.59999283	0.00000000	-27.71284000	-16.94759000
123.79999282	0.00000000	-28.08194000	-17.36589000
123.99999281	0.00000000	-28.41412000	-17.78420000
124.19999280	0.00000000	-28.50024000	-18.52854000
124.39999279	0.00000000	-28.87549000	-18.85458000
124.59999277	0.00000000	-29.66289000	-18.52854000
124.79999276	0.00000000	-30.41338000	-17.78420000
124.99999275	0.00000000	-31.20078000	-17.40895000
125.19999274	0.00000000	-31.57603000	-17.36589000
125.39999273	0.00000000	-31.61909000	-17.36589000
125.59999271	0.00000000	-31.57603000	-17.36589000
125.79999270	0.00000000	-31.20078000	-17.36589000
125.99999269	0.00000000	-30.41338000	-17.36589000
126.19999268	0.00000000	-29.66289000	-17.36589000
126.39999267	0.00000000	-28.87549000	-17.36589000
126.59999265	0.00000000	-28.50024000	-17.36589000
126.79999264	0.00000000	-28.45718000	-17.36589000
126.99999263	0.00000000	-28.50024000	-17.36589000
127.19999262	0.00000000	-28.92470000	-17.40895000
127.39999261	0.00000000	-30.03814000	-17.78420000
127.59999260	0.00000000	-31.15157000	-18.47933000
127.79999258	0.00000000	-31.57603000	-18.47933000
127.99999257	0.00000000	-31.61909000	-17.78420000
128.19999256	0.00000000	-31.57603000	-17.40895000
128.39999255	0.00000000	-31.20078000	-17.36589000
128.59999254	0.00000000	-30.41338000	-17.36589000
128.79999252	0.00000000	-29.61983000	-17.36589000
128.99999251	0.00000000	-28.50024000	-17.36589000
129.19999250	0.00000000	-27.76206000	-17.36589000
129.39999249	0.00000000	-28.12500000	-17.36589000
129.59999248	0.00000000	-28.87549000	-17.36589000
129.79999246	0.00000000	-30.03814000	-17.36589000
129.99999245	0.00000000	-31.20078000	-17.36589000
130.19999244	0.00000000	-31.95128000	-17.36589000
130.39999243	0.00000000	-32.36343000	-17.36589000
130.59999242	0.00000000	-31.95128000	-17.36589000
130.79999241	0.00000000	-31.24384000	-17.32283000
130.99999239	0.00000000	-30.41338000	-16.99065000
131.19999238	0.00000000	-29.66289000	-16.62155000
131.39999237	0.00000000	-28.87549000	-16.99065000
131.59999236	0.00000000	-28.54946000	-17.32283000
131.79999235	0.00000000	-28.87549000	-17.40895000
131.99999233	0.00000000	-29.61983000	-17.78420000
132.19999232	0.00000000	-29.99508000	-18.47933000
132.39999231	0.00000000	-30.08120000	-18.52854000
132.59999230	0.00000000	-30.45644000	-18.15945000
132.79999229	0.00000000	-31.15157000	-18.15330000
132.99999227	0.00000000	-31.15157000	-17.69808000
133.19999226	0.00000000	-30.45644000	-16.99065000
133.39999225	0.00000000	-30.08120000	-16.20325000
133.59999224	0.00000000	-30.03814000	-15.82800000
133.79999223	0.00000000	-30.03814000	-15.78494000
133.99999222	0.00000000	-30.03814000	-15.82800000
134.19999220	0.00000000	-30.03814000	-16.20325000
134.39999219	0.00000000	-30.03814000	-16.99065000
134.59999218	0.00000000	-30.03814000	-17.74114000
134.79999217	0.00000000	-30.03814000	-18.52854000
134.99999216	0.00000000	-30.03814000	-18.90379000
135.19999214	0.00000000	-30.03814000	-18.90379000
135.39999213	0.00000000	-30.03814000	-18.52854000
135.59999212	0.00000000	-30.03814000	-17.78420000
135.79999211	0.00000000	-30.03814000	-17.36589000
135.99999210	0.00000000	-30.03814000	-16.94759000
136.19999208	0.00000000	-30.08120000	-16.20325000
136.39999207	0.00000000	-30.45644000	-15.87721000
136.59999206	0.00000000	-31.20078000	-16.20325000
136.79999205	0.00000000	-31.57603000	-16.94759000
136.99999204	0.00000000	-31.57603000	-17.32283000
137.19999203	0.00000000	-31.20078000	-17.40895000
137.39999201	0.00000000	-30.41338000	-17.78420000
137.59999200	0.00000000	-29.66289000	-18.52854000
137.79999199	0.00000000	-28.87549000	-18.90379000
137.99999198	0.00000000	-28.50024000	-18.94685000
138.19999197	0.00000000	-28.50024000	-18.90379000
138.39999195	0.00000000	-28.92470000	-18.57160000
138.59999194	0.00000000	-30.03814000	-18.20251000
138.79999193	0.00000000	-31.15157000	-18.52854000
138.99999192	0.00000000	-31.61909000	-18.47933000
139.19999191	0.00000000	-31.99434000	-17.78420000
139.39999189	0.00000000	-32.36343000	-17.40895000
139.59999188	0.00000000	-31.95128000	-17.36589000
139.79999187	0.00000000	-31.24384000	-17.36589000
139.99999186	0.00000000	-30.45644000	-17.36589000
140.19999185	0.00000000	-30.08120000	-17.36589000
140.39999184	0.00000000	-30.03814000	-17.40895000
140.59999182	0.00000000	-30.03814000	-17.78420000
140.79999181	0.00000000	-30.08120000	-18.52854000
140.99999180	0.00000000	-30.45644000	-18.94685000
141.19999179	0.00000000	-31.15157000	-19.32210000
141.39999178	0.00000000	-31.20078000	-19.69119000
141.59999176	0.00000000	-30.87475000	-19.27903000
141.79999175	0.00000000	-31.20078000	-18.52854000
141.99999174	0.00000000	-31.20078000	-17.36589000
142.19999173	0.00000000	-30.83169000	-16.25246000
142.39999172	0.00000000	-30.82554000	-15.82800000
142.59999170	0.00000000	-30.41338000	-15.82800000
142.79999169	0.00000000	-30.08120000	-16.20325000
142.99999168	0.00000000	-30.03814000	-16.99065000
143.19999167	0.00000000	-30.08120000	-17.74114000
143.39999166	0.00000000	-30.45644000	-18.52854000
143.59999165	0.00000000	-31.20078000	-18.90379000
143.79999163	0.00000000	-31.57603000	-18.94685000
143.99999162	0.00000000	-31.61909000	-18.94685000
144.19999161	0.00000000	-31.57603000	-18.90379000
144.39999160	0.00000000	-31.20078000	-18.52854000
144.59999159	0.00000000	-30.45644000	-17.74114000
144.79999157	0.00000000	-30.08120000	-16.99065000
144.99999156	0.00000000	-30.03814000	-16.20325000
145.19999155	0.00000000	-30.03814000	-15.87721000
145.39999154	0.00000000	-30.08120000	-16.20325000
145.59999153	0.00000000	-30.45644000	-16.94759000
145.79999151	0.00000000	-31.20078000	-17.36589000
145.99999150	0.00000000	-31.57603000	-17.78420000
146.19999149	0.00000000	-31.61909000	-18.52854000
146.39999148	0.00000000	-31.57603000	-18.90379000
146.59999147	0.00000000	-31.20078000	-18.90379000
146.79999146	0.00000000	-30.45644000	-18.52854000
146.99999144	0.00000000	-30.08120000	-17.78420000
147.19999143	0.00000000	-30.03814000	-17.40895000
147.39999142	0.00000000	-30.03814000	-17.36589000
147.59999141	0.00000000	-30.08120000	-17.32283000
147.79999140	0.00000000	-30.45644000	-16.99065000
147.99999138	0.00000000	-31.20078000	-16.62155000
148.19999137	0.00000000	-31.57603000	-16.94759000
148.39999136	0.00000000	-31.61909000	-16.94759000
148.59999135	0.00000000	-31.61909000	-16.62155000
148.79999134	0.00000000	-31.61909000	-17.03371000
148.99999132	0.00000000	-31.57603000	-17.69808000
149.19999131	0.00000000	-31.20078000	-18.11024000
149.39999130	0.00000000	-30.45644000	-17.78420000
149.59999129	0.00000000	-30.08120000	-17.78420000
149.79999128	0.00000000	-30.03814000	-18.11024000
149.99999127	0.00000000	-30.03814000	-17.74114000
150.19999125	0.00000000	-30.03814000	-17.40895000
150.39999124	0.00000000	-30.08120000	-17.36589000
150.59999123	0.00000000	-30.45644000	-17.32283000
150.79999122	0.00000000	-31.20078000	-16.99065000
150.99999121	0.00000000	-31.57603000	-16.62155000
151.19999119	0.00000000	-31.61909000	-16.99065000
151.39999118	0.00000000	-31.61909000	-17.32283000
151.59999117	0.00000000	-31.61909000	-17.36589000
151.79999116	0.00000000	-31.57603000	-17.40895000
151.99999115	0.00000000	-31.24384000	-17.78420000
152.19999113	0.00000000	-30.83169000	-18.52854000
152.39999112	0.00000000	-30.82554000	-18.85458000
152.59999111	0.00000000	-30.41338000	-18.57160000
152.79999110	0.00000000	-30.08120000	-18.15945000
152.99999109	0.00000000	-30.08120000	-18.15330000
153.19999108	0.00000000	-30.45644000	-17.74114000
153.39999106	0.00000000	-31.20078000	-17.40895000
153.59999105	0.00000000	-31.57603000	-17.36589000
153.79999104	0.00000000	-31.61909000	-17.36589000
153.99999103	0.00000000	-31.66215000	-17.36589000
154.19999102	0.00000000	-32.03740000	-17.40895000
154.39999100	0.00000000	-32.78174000	-17.78420000
154.59999099	0.00000000	-33.10777000	-18.47933000
154.79999098	0.00000000	-32.78174000	-18.52854000
154.99999097	0.00000000	-32.03740000	-18.20251000
155.19999096	0.00000000	-31.61909000	-18.57160000
155.39999094	0.00000000	-31.20078000	-18.90379000
155.59999093	0.00000000	-30.45644000	-18.94685000
155.79999092	0.00000000	-30.13041000	-18.94685000
155.99999091	0.00000000	-30.45644000	-18.94685000
156.19999090	0.00000000	-31.20078000	-18.90379000
156.39999089	0.00000000	-31.57603000	-18.52854000
156.59999087	0.00000000	-31.66215000	-17.78420000
156.79999086	0.00000000	-32.03740000	-17.40895000
156.99999085	0.00000000	-32.78174000	-17.36589000
157.19999084	0.00000000	-33.15699000	-17.36589000
157.39999083	0.00000000	-33.15699000	-17.36589000
157.59999081	0.00000000	-32.78174000	-17.36589000
157.79999080	0.00000000	-32.03740000	-17.40895000
157.99999079	0.00000000	-31.61909000	-17.78420000
158.19999078	0.00000000	-31.20078000	-18.52854000
158.39999077	0.00000000	-30.45644000	-18.90379000
158.59999075	0.00000000	-30.08120000	-18.94685000
158.79999074	0.00000000	-30.08120000	-18.90379000
158.99999073	0.00000000	-30.45644000	-18.52854000
159.19999072	0.00000000	-31.20078000	-17.78420000
159.39999071	0.00000000	-31.57603000	-17.40895000
159.59999070	0.00000000	-31.61909000	-17.36589000
159.79999068	0.00000000	-31.61909000	-17.36589000
159.99999067	0.00000000	-31.61909000	-17.36589000
160.19999066	0.00000000	-31.61909000	-17.36589000
160.39999065	0.00000000	-31.61909000	-17.36589000
160.59999064	0.00000000	-31.61909000	-17.40895000
160.79999062	0.00000000	-31.61909000	-17.78420000
160.99999061	0.00000000	-31.61909000	-18.52854000
161.19999060	0.00000000	-31.61909000	-18.90379000
161.39999059	0.00000000	-31.61909000	-18.94685000
161.59999058	0.00000000	-31.61909000	-18.94685000
161.79999056	0.00000000	-31.61909000	-18.90379000
161.99999055	0.00000000	-31.57603000	-18.52854000
162.19999054	0.00000000	-31.24384000	-17.78420000
162.39999053	0.00000000	-30.87475000	-17.40895000
162.59999052	0.00000000	-31.24384000	-17.36589000
162.79999051	0.00000000	-31.57603000	-17.36589000
162.99999049	0.00000000	-31.61909000	-17.36589000
163.19999048	0.00000000	-31.61909000	-17.36589000
163.39999047	0.00000000	-31.66215000	-17.36589000
163.59999046	0.00000000	-32.03740000	-17.36589000
163.79999045	0.00000000	-32.73252000	-17.36589000
163.99999043	0.00000000	-32.73252000	-17.36589000
164.19999042	0.00000000	-32.03740000	-17.36589000
164.39999041	0.00000000	-31.66215000	-17.36589000
164.59999040	0.00000000	-31.61909000	-17.36589000
164.79999039	0.00000000	-31.57603000	-17.36589000
164.99999037	0.00000000	-31.20078000	-17.36589000
165.19999036	0.00000000	-30.50566000	-17.40895000
165.39999035	0.00000000	-30.50566000	-17.74114000
165.59999034	0.00000000	-31.20078000	-18.11024000
165.79999033	0.00000000	-31.57603000	-17.74114000
165.99999032	0.00000000	-31.61909000	-17.40895000
166.19999030	0.00000000	-31.61909000	-17.36589000
166.39999029	0.00000000	-31.66215000	-17.36589000
166.59999028	0.00000000	-31.99434000	-17.36589000
166.79999027	0.00000000	-32.36343000	-17.36589000
166.99999026	0.00000000	-31.99434000	-17.36589000
167.19999024	0.00000000	-31.66215000	-17.40895000
167.39999023	0.00000000	-31.61909000	-17.78420000
167.59999022	0.00000000	-31.61909000	-18.52854000
167.79999021	0.00000000	-31.61909000	-18.90379000
167.99999020	0.00000000	-31.61909000	-18.94685000
168.19999018	0.00000000	-31.61909000	-18.94685000
168.39999017	0.00000000	-31.61909000	-18.94685000
168.59999016	0.00000000	-31.61909000	-18.94685000
168.79999015	0.00000000	-31.61909000	-18.94685000
168.99999014	0.00000000	-31.61909000	-18.94685000
169.19999013	0.00000000	-31.66215000	-18.94685000
169.39999011	0.00000000	-32.03740000	-18.94685000
169.59999010	0.00000000	-32.78174000	-18.94685000
169.79999009	0.00000000	-33.15699000	-18.94685000
169.99999008	0.00000000	-33.20005000	-18.94685000
170.19999007	0.00000000	-33.15699000	-18.94685000
170.39999005	0.00000000	-32.82480000	-18.94685000
170.59999004	0.00000000	-32.41265000	-18.94685000
170.79999003	0.00000000	-32.40649000	-18.94685000
170.99999002	0.00000000	-31.99434000	-18.94685000
171.19999001	0.00000000	-31.66215000	-18.94685000
171.39998999	0.00000000	-31.61909000	-18.94685000
171.59998998	0.00000000	-31.61909000	-18.94685000
171.79998997	0.00000000	-31.66215000	-18.94685000
171.99998996	0.00000000	-32.03740000	-18.94685000
172.19998995	0.00000000	-32.78174000	-18.94685000
172.39998994	0.00000000	-33.15699000	-18.94685000
172.59998992	0.00000000	-33.20005000	-18.94685000
172.79998991	0.00000000	-33.20005000	-18.94685000
172.99998990	0.00000000	-33.20005000	-18.94685000
173.19998989	0.00000000	-33.20005000	-18.94685000
173.39998988	0.00000000	-33.15699000	-18.94685000
173.59998986	0.00000000	-32.82480000	-18.94685000
173.79998985	0.00000000	-32.45571000	-18.94685000
173.99998984	0.00000000	-32.78174000	-18.94685000
174.19998983	0.00000000	-32.73252000	-18.94685000
174.39998982	0.00000000	-32.03740000	-18.94685000
174.59998980	0.00000000	-31.71137000	-18.94685000
174.79998979	0.00000000	-32.03740000	-18.94685000
174.99998978	0.00000000	-32.73252000	-18.94685000
175.19998977	0.00000000	-32.73252000	-18.94685000
175.39998976	0.00000000	-32.03740000	-18.90379000
175.59998975	0.00000000	-31.71137000	-18.57160000
175.79998973	0.00000000	-31.99434000	-18.20251000
175.99998972	0.00000000	-32.36343000	-18.52854000
176.19998971	0.00000000	-31.99434000	-18.47933000
176.39998970	0.00000000	-31.66215000	-17.78420000
176.59998969	0.00000000	-31.61909000	-17.45817000
176.79998967	0.00000000	-31.66215000	-17.74114000
176.99998966	0.00000000	-31.99434000	-18.15330000
177.19998965	0.00000000	-32.40649000	-18.15945000
177.39998964	0.00000000	-32.41265000	-18.52854000
177.59998963	0.00000000	-32.82480000	-18.52854000
177.79998961	0.00000000	-33.15699000	-18.15945000
177.99998960	0.00000000	-33.20005000	-18.15330000
178.19998959	0.00000000	-33.15699000	-17.74114000
178.39998958	0.00000000	-32.78174000	-17.40895000
178.59998957	0.00000000	-32.03740000	-17.36589000
178.79998956	0.00000000	-31.66215000	-17.36589000
178.99998954	0.00000000	-31.61909000	-17.36589000
179.19998953	0.00000000	-31.66215000	-17.36589000
179.39998952	0.00000000	-31.99434000	-17.36589000
179.59998951	0.00000000	-32.36343000	-17.40895000
179.79998950	0.00000000	-31.99434000	-17.78420000
179.99998948	0.00000000	-31.66215000	-18.52854000
180.19998947	0.00000000	-31.61909000	-18.90379000
180.39998946	0.00000000	-31.66215000	-18.94685000
180.59998945	0.00000000	-32.03740000	-18.94685000
180.79998944	0.00000000	-32.78174000	-18.94685000
180.99998942	0.00000000	-33.15699000	-18.94685000
181.19998941	0.00000000	-33.20005000	-18.94685000
181.39998940	0.00000000	-33.20005000	-18.94685000
181.59998939	0.00000000	-33.20005000	-18.90379000
181.79998938	0.00000000	-33.15699000	-18.52854000
181.99998937	0.00000000	-32.82480000	-17.78420000
182.19998935	0.00000000	-32.45571000	-17.45817000
182.39998934	0.00000000	-32.78174000	-17.78420000
182.59998933	0.00000000	-32.73252000	-18.52854000
182.79998932	0.00000000	-32.08661000	-18.90379000
182.99998931	0.00000000	-32.08661000	-18.94685000
183.19998929	0.00000000	-32.78174000	-18.94685000
183.39998928	0.00000000	-33.15699000	-18.94685000
183.59998927	0.00000000	-33.20005000	-18.94685000
183.79998926	0.00000000	-33.20005000	-18.94685000
183.99998925	0.00000000	-33.20005000	-18.94685000
184.19998923	0.00000000	-33.20005000	-18.94685000
184.39998922	0.00000000	-33.20005000	-18.94685000
184.59998921	0.00000000	-33.20005000	-18.90379000
184.79998920	0.00000000	-33.20005000	-18.52854000
184.99998919	0.00000000	-33.20005000	-17.83341000
185.19998918	0.00000000	-33.20005000	-17.83341000
185.39998916	0.00000000	-33.20005000	-18.52854000
185.59998915	0.00000000	-33.20005000	-18.90379000
185.79998914	0.00000000	-33.20005000	-18.94685000
185.99998913	0.00000000	-33.20005000	-18.98991000
186.19998912	0.00000000	-33.20005000	-19.36516000
186.39998910	0.00000000	-33.20005000	-20.10950000
186.59998909	0.00000000	-33.20005000	-20.43553000
186.79998908	0.00000000	-33.20005000	-20.10950000
186.99998907	0.00000000	-33.20005000	-19.36516000
187.19998906	0.00000000	-33.20005000	-18.98991000
187.39998904	0.00000000	-33.20005000	-18.94685000
187.59998903	0.00000000	-33.20005000	-18.90379000
187.79998902	0.00000000	-33.20005000	-18.57160000
187.99998901	0.00000000	-33.20005000	-18.15945000
188.19998900	0.00000000	-33.20005000	-18.19636000
188.39998899	0.00000000	-33.20005000	-18.15945000
188.59998897	0.00000000	-33.20005000	-18.57160000
188.79998896	0.00000000	-33.20005000	-18.90379000
188.99998895	0.00000000	-33.20005000	-18.98991000
189.19998894	0.00000000	-33.20005000	-19.32210000
189.39998893	0.00000000	-33.20005000	-19.73425000
189.59998891	0.00000000	-33.20005000	-19.69734000
189.79998890	0.00000000	-33.20005000	-19.73425000
189.99998889	0.00000000	-33.20005000	-19.32210000
190.19998888	0.00000000	-33.20005000	-18.98991000
190.39998887	0.00000000	-33.24311000	-18.94685000
190.59998885	0.00000000	-33.57529000	-18.90379000
190.79998884	0.00000000	-33.94439000	-18.52854000
190.99998883	0.00000000	-33.57529000	-17.78420000
191.19998882	0.00000000	-33.24311000	-17.45817000
191.39998881	0.00000000	-33.20005000	-17.78420000
191.59998880	0.00000000	-33.20005000	-18.52854000
191.79998878	0.00000000	-33.20005000	-18.90379000
191.99998877	0.00000000	-33.15699000	-18.94685000
192.19998876	0.00000000	-32.82480000	-18.94685000
192.39998875	0.00000000	-32.45571000	-18.94685000
192.59998874	0.00000000	-32.82480000	-18.94685000
192.79998872	0.00000000	-33.15699000	-18.94685000
192.99998871	0.00000000	-33.20005000	-18.98991000
193.19998870	0.00000000	-33.20005000	-19.27903000
193.39998869	0.00000000	-33.20005000	-19.31594000
193.59998868	0.00000000	-33.20005000	-18.53469000
193.79998866	0.00000000	-33.20005000	-18.23942000
193.99998865	0.00000000	-33.20005000	-18.11639000
194.19998864	0.00000000	-33.20005000	-18.15330000
194.39998863	0.00000000	-33.20005000	-17.74114000
194.59998862	0.00000000	-33.20005000	-17.45817000
194.79998861	0.00000000	-33.20005000	-17.78420000
194.99998859	0.00000000	-33.20005000	-18.52854000
195.19998858	0.00000000	-33.20005000	-18.90379000
195.39998857	0.00000000	-33.20005000	-18.94685000
195.59998856	0.00000000	-33.20005000	-18.94685000
195.79998855	0.00000000	-33.20005000	-18.94685000
195.99998853	0.00000000	-33.20005000	-18.94685000
