Time	Channel A	Channel B	Channel C
(us)	(V)	(mV)	(mV)

-4.59999956	0.00000000	-12.64764000	-7.89247000
-4.39999957	0.00000000	-12.64764000	-7.89247000
-4.19999958	0.00000000	-12.64764000	-7.89247000
-3.99999959	0.00000000	-12.64764000	-7.89247000
-3.79999960	0.00000000	-12.64764000	-7.89247000
-3.59999962	0.00000000	-12.64764000	-7.89247000
-3.39999963	0.00000000	-12.64764000	-7.89247000
-3.19999964	0.00000000	-12.64764000	-7.89247000
-2.99999965	0.00000000	-12.64764000	-7.89247000
-2.79999966	0.00000000	-12.64764000	-7.89247000
-2.59999968	0.00000000	-12.64764000	-7.89247000
-2.39999969	0.00000000	-12.64764000	-7.89247000
-2.19999970	0.00000000	-12.64764000	-7.89247000
-1.99999971	0.00000000	-12.64764000	-7.89247000
-1.79999972	0.00000000	-12.64764000	-7.93553100
-1.59999973	0.00000000	-12.64764000	-8.26771600
-1.39999975	0.00000000	-12.64764000	-8.63681000
-1.19999976	0.00000000	-12.64764000	-8.26771600
-0.99999977	0.00000000	-12.64764000	-7.93553100
-0.79999978	0.00000000	-12.64764000	-7.89247000
-0.59999979	0.00000000	-12.64764000	-7.89247000
-0.39999981	0.15871060	-12.64764000	-7.89247000
-0.19999982	0.47736220	-12.64764000	-7.89247000
0.00000017	0.79601380	-12.64764000	-7.89247000
0.20000016	0.95533960	-12.64764000	-7.93553100
0.40000015	0.95533960	-12.64764000	-8.31077700
0.60000013	0.63668800	-12.64764000	-9.05511800
0.80000012	0.00000000	-12.64764000	-9.38115100
1.00000011	-0.95533960	-12.64764000	-9.09817800
1.20000010	-1.91129400	-12.64764000	-8.68602300
1.40000009	-2.70792300	-12.64764000	-8.67987200
1.60000008	-2.70792300	-12.64764000	-8.26771600
1.80000006	-1.91129400	-12.64764000	-7.93553100
2.00000005	-0.47736220	-12.64764000	-7.89247000
2.20000004	1.59264300	-12.64764000	-7.89247000
2.40000003	3.66326300	-12.64764000	-7.89247000
2.60000002	5.09719500	-12.64764000	-7.93553100
2.80000000	5.25652100	-12.64764000	-8.31077700
2.99999999	3.98191400	-12.64764000	-9.05511800
3.19999998	1.59264300	-12.64764000	-9.43036400
3.39999997	-1.75196900	-12.64764000	-9.47342500
3.59999996	-5.09719500	-12.64764000	-9.43036400
3.79999994	-7.32714100	-12.64764000	-9.05511800
3.99999993	-7.96444400	-12.64764000	-8.31077700
4.19999992	-6.53112700	-12.64764000	-7.93553100
4.39999991	-3.18590100	-12.64764000	-7.89247000
4.59999990	0.95533960	-12.64764000	-7.89247000
4.79999989	5.41584600	-12.64764000	-7.89247000
4.99999987	8.44242100	-12.64764000	-7.93553100
5.19999986	9.55770200	-12.64764000	-8.31077700
5.39999985	8.12377000	-12.64764000	-9.05511800
5.59999984	4.77854300	-12.64764000	-9.43036400
5.79999983	0.00000000	-12.64764000	-9.47342500
5.99999981	-4.61921700	-12.64764000	-9.43036400
6.19999980	-8.12377000	-12.64764000	-9.05511800
6.39999979	-9.39837600	-12.64764000	-8.31077700
6.59999978	-8.60174700	-12.64764000	-7.93553100
6.79999977	-5.41584600	-12.64764000	-7.89247000
6.99999975	-1.27399100	-12.64764000	-7.89247000
7.19999974	3.02657500	-12.64764000	-7.89247000
7.39999973	6.21247500	-12.64764000	-7.89247000
7.59999972	7.64579200	-12.64764000	-7.93553100
7.79999971	7.16781500	-12.64764000	-8.31077700
7.99999970	4.93786900	-12.64764000	-9.05511800
8.19999968	1.75196900	-12.64764000	-9.43036400
8.39999967	-1.43331700	-12.64764000	-9.43036400
8.59999966	-3.82258900	-12.64764000	-9.05511800
8.79999965	-5.09719500	-12.64764000	-8.31077700
8.99999964	-4.93786900	-12.64764000	-7.93553100
9.19999962	-3.66326300	-12.64764000	-7.89247000
9.39999961	-1.75196900	-12.64764000	-7.89247000
9.59999960	0.15871060	-12.64764000	-7.89247000
9.79999959	1.75196900	-12.64764000	-7.89247000
9.99999958	2.38927200	-12.64764000	-7.93553100
10.19999956	2.54859700	-12.64764000	-8.26771600
10.39999955	1.91129400	-12.64764000	-8.63681000
10.59999954	0.95533960	-12.64764000	-8.26771600
10.79999953	0.15871060	-12.64764000	-7.93553100
10.99999952	-0.47736220	-12.64764000	-7.89247000
11.19999951	-0.79601380	-12.64764000	-7.89247000
11.39999949	-0.95533960	-12.64764000	-7.89247000
11.59999948	-0.79601380	-12.64764000	-7.89247000
11.79999947	-0.63668800	-12.64764000	-7.89247000
11.99999946	-0.31803640	-12.64764000	-7.89247000
12.19999945	-0.15871060	-12.64764000	-7.89247000
12.39999943	-0.15871060	-12.64764000	-7.89247000
12.59999942	0.00000000	-12.64764000	-7.93553100
12.79999941	0.00000000	-12.64764000	-8.31077700
12.99999940	0.00000000	-12.64764000	-9.05511800
13.19999939	0.00000000	-12.64764000	-9.38115100
13.39999937	0.00000000	-12.64764000	-9.09817800
13.59999936	0.00000000	-12.64764000	-8.68602300
13.79999935	0.00000000	-12.64764000	-8.67987200
13.99999934	0.00000000	-12.64764000	-8.26771600
14.19999933	-0.15871060	-12.64764000	-7.93553100
14.39999932	-0.15871060	-12.64764000	-7.89247000
14.59999930	0.00000000	-12.64764000	-7.89247000
14.79999929	0.00000000	-12.64764000	-7.89247000
14.99999928	0.00000000	-12.64764000	-7.89247000
15.19999927	0.00000000	-12.64764000	-7.89247000
15.39999926	0.00000000	-12.64764000	-7.89247000
15.59999924	0.00000000	-12.64764000	-7.89247000
15.79999923	0.00000000	-12.64764000	-7.89247000
15.99999922	0.00000000	-12.64764000	-7.89247000
16.19999921	0.00000000	-12.64764000	-7.89247000
16.39999920	-0.15871060	-12.64764000	-7.89247000
16.59999919	0.00000000	-12.64764000	-7.89247000
16.79999917	0.00000000	-12.60458000	-7.89247000
16.99999916	0.00000000	-12.22933000	-7.89247000
17.19999915	0.00000000	-11.48499000	-7.89247000
17.39999914	0.00000000	-11.10974000	-7.89247000
17.59999913	0.00000000	-11.06668000	-7.89247000
17.79999911	0.00000000	-11.10974000	-7.93553100
17.99999910	0.00000000	-11.53420000	-8.26771600
18.19999909	0.00000000	-12.69070000	-8.63681000
18.39999908	0.00000000	-14.22859000	-8.26771600
18.59999907	0.00000000	-15.80955000	-7.93553100
18.79999905	0.00000000	-17.29823000	-7.89247000
18.99999904	0.00000000	-18.04257000	-7.89247000
19.19999903	0.00000000	-17.25517000	-7.89247000
19.39999902	0.00000000	-15.34203000	-7.89247000
19.59999901	0.00000000	-12.55536000	-7.89247000
19.79999900	0.00000000	-9.06742000	-7.89247000
19.99999898	0.00000000	-5.21038300	-7.89247000
20.19999897	0.00000000	-2.17765700	-7.89247000
20.39999896	0.00000000	-1.06422200	-7.89247000
20.59999895	0.00000000	-2.64517700	-7.93553100
20.79999894	0.00000000	-6.96973400	-8.26771600
20.99999892	0.00000000	-13.53346000	-8.63681000
21.19999891	0.00000000	-21.29675000	-8.26771600
21.39999890	0.00000000	-28.18651000	-7.98474400
21.59999889	0.00000000	-32.79404000	-8.26771600
21.79999888	0.00000000	-33.07701000	-8.67987200
21.99999886	0.00000000	-28.42027000	-8.68602300
22.19999885	0.00000000	-19.44513000	-9.09817800
22.39999884	0.00000000	-7.43725300	-9.43036400
22.59999883	0.00000000	5.25959600	-9.43036400
22.79999882	0.00000000	15.21900000	-9.05511800
22.99999881	0.00000000	19.40822000	-8.31077700
23.19999879	0.00000000	16.24631000	-7.93553100
23.39999878	0.00000000	5.77632800	-7.84940900
23.59999877	0.00000000	-10.08243000	-7.47416300
23.79999876	0.00000000	-27.86048000	-6.72982200
23.99999875	0.00000000	-43.67618000	-6.35457700
24.19999873	0.00000000	-53.63558000	-6.35457700
24.39999872	0.00000000	-54.71210000	-6.77903500
24.59999871	0.00000000	-45.77386000	-7.93553100
24.79999870	0.00000000	-28.37721000	-9.47342500
24.99999869	0.00000000	-6.36687900	-11.04823000
25.19999867	0.00000000	15.26206000	-12.58612000
25.39999866	0.00000000	31.45915000	-13.69956000
25.59999865	0.00000000	38.34277000	-13.65650000
25.79999864	0.00000000	33.64296000	-12.07554000
25.99999863	0.00000000	17.82726000	-8.96284400
26.19999862	0.00000000	-5.33956700	-4.73671200
26.39999860	0.00000000	-30.46875000	-0.51058070
26.59999859	0.00000000	-52.10384000	2.55905500
26.79999858	0.00000000	-65.18208000	3.71555100
26.99999857	0.00000000	-66.34473000	2.46678100
27.19999856	0.00000000	-55.13041000	-1.43946800
27.39999854	0.00000000	-34.32578000	-8.02780400
27.59999853	0.00000000	-8.83366100	-15.74188000
27.79999852	0.00000000	15.08366000	-23.08686000
27.99999851	0.00000000	32.19734000	-28.38337000
28.19999850	0.00000000	39.09325000	-29.49680000
28.39999848	0.00000000	34.52264000	-25.63976000
28.59999847	0.00000000	19.13140000	-17.83957000
28.79999846	0.00000000	-2.09153500	-6.96358300
28.99999845	0.00000000	-24.60630000	5.33956700
29.19999844	0.00000000	-44.28518000	15.70497000
29.39999843	0.00000000	-56.29306000	21.51206000
29.59999841	0.00000000	-58.29232000	21.41978000
29.79999840	0.00000000	-50.56594000	14.77608000
29.99999839	0.00000000	-34.79330000	2.00541300
30.19999838	0.00000000	-15.11442000	-14.16708000
30.39999837	0.00000000	3.45103300	-30.00738000
30.59999835	0.00000000	17.49508000	-41.90453000
30.79999834	0.00000000	24.43405000	-46.91806000
30.99999833	0.00000000	23.35138000	-43.44242000
31.19999832	0.00000000	14.47465000	-32.60949000
31.39999831	0.00000000	0.60900590	-16.30783000
31.59999829	0.00000000	-15.25591000	2.55905500
31.79999828	0.00000000	-29.53986000	19.51279000
31.99999827	0.00000000	-38.89025000	30.33957000
32.19999826	0.00000000	-42.05216000	33.08317000
32.39999825	0.00000000	-38.98253000	27.27608000
32.59999824	0.00000000	-30.46875000	14.12401000
32.79999822	0.00000000	-18.55315000	-3.66633800
32.99999821	0.00000000	-6.18233200	-22.57628000
33.19999820	0.00000000	3.50024600	-38.42273000
33.39999819	0.00000000	8.93823700	-47.66855000
33.59999818	0.00000000	8.93823700	-48.49901000
33.79999816	0.00000000	3.63558100	-40.79109000
33.99999815	0.00000000	-4.83513700	-26.89468000
34.19999814	0.00000000	-14.09326000	-9.47342500
34.39999813	0.00000000	-22.23179000	7.85556000
34.59999812	0.00000000	-27.21457000	21.00763000
34.79999810	0.00000000	-28.04503000	27.23302000
34.99999809	0.00000000	-24.60630000	25.69513000
35.19999808	0.00000000	-18.50394000	16.86762000
35.39999807	0.00000000	-11.53420000	2.97736200
35.59999806	0.00000000	-5.38877900	-12.45079000
35.79999805	0.00000000	-1.57480300	-26.38410000
35.99999803	0.00000000	-1.53174200	-35.58686000
36.19999802	0.00000000	-4.92125900	-37.95522000
36.39999801	0.00000000	-9.95324800	-32.98474000
36.59999800	0.00000000	-15.71727000	-22.66855000
36.79999799	0.00000000	-20.69390000	-9.98400600
36.99999797	0.00000000	-22.98228000	1.63016700
37.19999796	0.00000000	-22.27485000	9.71948700
37.39999795	0.00000000	-18.83612000	12.77682000
37.59999794	0.00000000	-14.22859000	9.34424200
37.79999793	0.00000000	-9.52879000	0.97810030
37.99999791	0.00000000	-5.33956700	-9.38730200
38.19999790	0.00000000	-3.02042300	-18.95300000
38.39999789	0.00000000	-3.38951800	-24.71703000
38.59999788	0.00000000	-5.67175200	-25.13533000
38.79999787	0.00000000	-9.57800100	-20.52780000
38.99999786	0.00000000	-14.13632000	-12.07554000
39.19999784	0.00000000	-18.04257000	-2.17765700
39.39999783	0.00000000	-20.37401000	5.81323800
39.59999782	0.00000000	-21.20448000	8.87672100
39.79999781	0.00000000	-20.41708000	6.27460600
39.99999780	0.00000000	-18.50394000	-0.64591530
40.19999778	0.00000000	-15.76649000	-9.89173200
40.39999777	0.00000000	-12.69070000	-19.46358000
40.59999776	0.00000000	-9.95324800	-26.34104000
40.79999775	0.00000000	-7.94783400	-28.24803000
40.99999774	0.00000000	-6.41609200	-24.80315000
41.19999772	0.00000000	-5.67175200	-16.71998000
41.39999771	0.00000000	-6.41609200	-6.40378900
41.59999770	0.00000000	-7.94783400	3.25418300
41.79999769	0.00000000	-9.95324800	9.76254800
41.99999768	0.00000000	-12.64764000	11.70645000
42.19999767	0.00000000	-15.34203000	8.23080600
42.39999765	0.00000000	-17.29823000	0.60285430
42.59999764	0.00000000	-18.50394000	-9.01205700
42.79999763	0.00000000	-18.87918000	-17.83957000
42.99999762	0.00000000	-18.50394000	-23.68971000
43.19999761	0.00000000	-17.29823000	-25.64591000
43.39999759	0.00000000	-15.39124000	-23.68971000
43.59999758	0.00000000	-13.06594000	-17.97490000
43.79999757	0.00000000	-11.10974000	-10.31004000
43.99999756	0.00000000	-9.52879000	-3.38336600
44.19999755	0.00000000	-8.37229300	1.67322800
44.39999753	0.00000000	-7.94783400	3.62942900
44.59999752	0.00000000	-7.90477300	2.55905500
44.79999751	0.00000000	-7.94783400	-0.55364170
44.99999750	0.00000000	-8.37229300	-5.15501900
45.19999749	0.00000000	-9.52879000	-10.11934000
45.39999748	0.00000000	-11.10974000	-13.65650000
45.59999746	0.00000000	-13.11516000	-15.64960000
45.79999745	0.00000000	-15.85261000	-16.39395000
45.99999744	0.00000000	-18.92839000	-15.23130000
46.19999743	0.00000000	-21.62278000	-12.58612000
46.39999742	0.00000000	-23.11762000	-9.47342500
46.59999740	0.00000000	-22.69316000	-6.40378900
46.79999739	0.00000000	-19.95571000	-4.08464600
46.99999738	0.00000000	-15.29897000	-3.29109200
47.19999737	0.00000000	-9.48572700	-3.62327700
47.39999736	0.00000000	-3.67249000	-4.82283400
47.59999734	0.00000000	0.93503930	-6.72982200
47.79999733	0.00000000	3.21112200	-9.09817800
47.99999732	0.00000000	2.00541300	-11.42347000
48.19999731	0.00000000	-2.68823800	-13.69956000
48.39999730	0.00000000	-10.41462000	-14.81299000
48.59999729	0.00000000	-19.66658000	-14.07480000
48.79999727	0.00000000	-27.72515000	-12.16781000
48.99999726	0.00000000	-32.74483000	-9.42421200
49.19999725	0.00000000	-33.07701000	-6.31151500
49.39999724	0.00000000	-28.46333000	-3.24803100
49.59999723	0.00000000	-19.95571000	-1.01501000
49.79999721	0.00000000	-9.57800100	-1.01501000
49.99999720	0.00000000	0.04921259	-3.24803100
50.19999719	0.00000000	6.24384800	-6.36072800
50.39999718	0.00000000	7.82480200	-9.89173200
50.59999717	0.00000000	4.70595500	-13.69956000
50.79999715	0.00000000	-2.64517700	-16.39395000
50.99999714	0.00000000	-12.60458000	-17.14444000
51.19999713	0.00000000	-22.23179000	-16.01870000
51.39999712	0.00000000	-28.79552000	-12.91215000
51.59999711	0.00000000	-31.11466000	-9.09817800
51.79999710	0.00000000	-28.42027000	-5.15501900
51.99999708	0.00000000	-21.57972000	-1.75935000
52.19999707	0.00000000	-13.06594000	0.14148620
52.39999706	0.00000000	-5.01353300	-0.64591530
52.59999705	0.00000000	0.75049200	-3.62327700
52.79999704	0.00000000	1.87007900	-7.47416300
52.99999702	0.00000000	-1.48253000	-10.96211000
53.19999701	0.00000000	-7.99704600	-13.69956000
53.39999700	0.00000000	-15.29897000	-15.18824000
53.59999699	0.00000000	-21.44439000	-14.81299000
53.79999698	0.00000000	-24.92618000	-12.53691000
53.99999696	0.00000000	-24.56324000	-9.51648500
54.19999695	0.00000000	-21.11220000	-6.82209600
54.39999694	0.00000000	-15.34203000	-5.24729300
54.59999693	0.00000000	-8.83366100	-4.87204700
54.79999692	0.00000000	-3.85088600	-5.61638700
54.99999691	0.00000000	-1.53174200	-7.51722400
55.19999689	0.00000000	-2.68823800	-9.42421200
55.39999688	0.00000000	-6.87746000	-10.96211000
55.59999687	0.00000000	-12.64764000	-11.65723000
55.79999686	0.00000000	-18.41781000	-10.49459000
55.99999685	0.00000000	-22.60704000	-7.89247000
56.19999683	0.00000000	-23.76353000	-5.24729300
56.39999682	0.00000000	-21.48745000	-3.70939900
56.59999681	0.00000000	-16.92298000	-3.70939900
56.79999680	0.00000000	-11.53420000	-5.29035400
56.99999679	0.00000000	-6.87746000	-8.35998900
57.19999677	0.00000000	-3.80782500	-12.16166000
57.39999676	0.00000000	-3.02042300	-15.23130000
57.59999675	0.00000000	-4.92125900	-16.76919000
57.79999674	0.00000000	-8.37229300	-16.35089000
57.99999673	0.00000000	-12.64764000	-13.61343000
58.19999672	0.00000000	-16.87992000	-8.96284400
58.39999670	0.00000000	-19.95571000	-3.24803100
58.59999669	0.00000000	-21.06914000	1.72244100
58.79999668	0.00000000	-19.58046000	4.00467500
58.99999667	0.00000000	-16.18479000	3.25418300
59.19999666	0.00000000	-12.69070000	-0.63976370
59.39999664	0.00000000	-9.57800100	-6.77903500
59.59999663	0.00000000	-7.29576700	-13.74262000
59.79999662	0.00000000	-6.92052100	-19.88189000
59.99999661	0.00000000	-8.41535400	-23.68971000
60.19999660	0.00000000	-11.06668000	-23.64665000
60.39999658	0.00000000	-13.76107000	-19.46358000
60.59999657	0.00000000	-15.71727000	-12.54306000
60.79999656	0.00000000	-16.87992000	-4.82898600
60.99999655	0.00000000	-16.83686000	2.09153500
61.19999654	0.00000000	-15.34203000	6.32381900
61.39999653	0.00000000	-13.06594000	6.74212600
61.59999651	0.00000000	-11.15896000	3.62942900
61.79999650	0.00000000	-9.95324800	-2.54675200
61.99999649	0.00000000	-9.57800100	-10.62992000
62.19999648	0.00000000	-9.99630800	-18.30093000
62.39999647	0.00000000	-11.53420000	-23.68971000
62.59999645	0.00000000	-13.81028000	-25.22145000
62.79999644	0.00000000	-15.71727000	-22.57628000
62.99999643	0.00000000	-16.87992000	-16.81225000
63.19999642	0.00000000	-16.87992000	-9.47342500
63.39999641	0.00000000	-15.71727000	-2.17765700
63.59999639	0.00000000	-13.76107000	3.25418300
63.79999638	0.00000000	-11.10974000	5.57947800
63.99999637	0.00000000	-8.83366100	4.87204700
64.19999636	0.00000000	-8.04010800	1.35334600
64.39999635	0.00000000	-8.41535400	-3.99237200
64.59999634	0.00000000	-9.95324800	-10.21161000
64.79999632	0.00000000	-12.27239000	-15.56348000
64.99999631	0.00000000	-14.56078000	-19.08834000
65.19999630	0.00000000	-16.50467000	-19.88189000
65.39999629	0.00000000	-17.21210000	-18.43627000
65.59999628	0.00000000	-16.50467000	-15.69882000
65.79999626	0.00000000	-14.60384000	-12.21087000
65.99999625	0.00000000	-12.69070000	-8.35998900
66.19999624	0.00000000	-11.10974000	-5.24729300
66.39999623	0.00000000	-9.99630800	-3.19881900
66.59999622	0.00000000	-10.03937000	-1.66707700
66.79999620	0.00000000	-11.53420000	-0.87967510
66.99999619	0.00000000	-13.81028000	-1.29183100
67.19999618	0.00000000	-15.67421000	-2.41141700
67.39999617	0.00000000	-16.46161000	-4.40452700
67.59999616	0.00000000	-15.67421000	-6.77903500
67.79999615	0.00000000	-13.81028000	-9.93479300
67.99999613	0.00000000	-11.44193000	-13.74262000
68.19999612	0.00000000	-9.15354300	-16.85531000
68.39999611	0.00000000	-7.25270600	-18.81152000
68.59999610	0.00000000	-6.92052100	-19.50664000
68.79999609	0.00000000	-8.45841400	-17.93184000
68.99999607	0.00000000	-11.57726000	-14.07480000
69.19999606	0.00000000	-15.76649000	-9.00590400
69.39999605	0.00000000	-19.62352000	-3.20497000
69.59999604	0.00000000	-21.95497000	2.09153500
69.79999603	0.00000000	-22.69316000	4.78592500
69.99999601	0.00000000	-21.06914000	4.09079700
70.19999600	0.00000000	-16.83686000	0.97810030
70.39999599	0.00000000	-11.06668000	-4.04158400
70.59999598	0.00000000	-5.29650500	-10.21161000
70.79999597	0.00000000	-1.06422200	-15.60654000
70.99999596	0.00000000	0.47367120	-19.54970000
71.19999594	0.00000000	-1.06422200	-21.41363000
71.39999593	0.00000000	-5.33956700	-20.62008000
71.59999592	0.00000000	-11.53420000	-16.76919000
71.79999591	0.00000000	-18.46087000	-11.04823000
71.99999590	0.00000000	-24.23105000	-5.29035400
72.19999588	0.00000000	-27.34990000	-1.02116100
72.39999587	0.00000000	-27.34990000	0.93503930
72.59999586	0.00000000	-24.23105000	0.60285430
72.79999585	0.00000000	-18.46087000	-1.71013800
72.99999584	0.00000000	-11.53420000	-5.15501900
73.19999582	0.00000000	-5.33956700	-9.00590400
73.39999581	0.00000000	-1.06422200	-12.03248000
73.59999580	0.00000000	0.47367120	-13.23819000
73.79999579	0.00000000	-1.06422200	-12.53691000
73.99999578	0.00000000	-5.29650500	-11.04823000
74.19999577	0.00000000	-11.10974000	-9.47342500
74.39999575	0.00000000	-17.25517000	-7.98474400
74.59999574	0.00000000	-22.23179000	-7.24040300
74.79999573	0.00000000	-24.18799000	-8.02780400
74.99999572	0.00000000	-23.16068000	-9.89173200
75.19999571	0.00000000	-20.41708000	-12.11860000
75.39999569	0.00000000	-16.55389000	-13.23819000
75.59999568	0.00000000	-11.90330000	-12.49385000
75.79999567	0.00000000	-8.08316900	-10.53765000
75.99999566	0.00000000	-5.71481200	-7.42495000
76.19999565	0.00000000	-5.33956700	-3.62327700
76.39999563	0.00000000	-6.83439900	-0.59670270
76.59999562	0.00000000	-9.48572700	0.55979330
76.79999561	0.00000000	-12.18012000	-0.64591530
76.99999560	0.00000000	-14.13632000	-4.12770700
77.19999559	0.00000000	-15.29897000	-9.51648500
77.39999558	0.00000000	-15.34203000	-15.23130000
77.59999556	0.00000000	-14.64690000	-19.50664000
77.79999555	0.00000000	-14.27165000	-21.46284000
77.99999554	0.00000000	-14.22859000	-20.99532000
78.19999553	0.00000000	-14.22859000	-17.50738000
78.39999552	0.00000000	-14.27165000	-11.38041000
78.59999550	0.00000000	-14.60384000	-4.87204700
78.79999549	0.00000000	-14.97293000	0.55979330
78.99999548	0.00000000	-14.56078000	3.67249000
79.19999547	0.00000000	-13.76107000	4.09079700
79.39999546	0.00000000	-12.22933000	2.14074800
79.59999544	0.00000000	-10.32234000	-2.12844500
79.79999543	0.00000000	-9.15354300	-7.89247000
79.99999542	0.00000000	-8.41535400	-13.65650000
80.19999541	0.00000000	-8.83366100	-17.88263000
80.39999540	0.00000000	-10.73450000	-19.50664000
80.59999539	0.00000000	-13.06594000	-18.76845000
80.79999537	0.00000000	-15.76649000	-16.43701000
80.99999536	0.00000000	-18.04257000	-12.58612000
81.19999535	0.00000000	-18.83612000	-8.35998900
81.39999534	0.00000000	-18.46087000	-4.87204700
81.59999533	0.00000000	-16.87992000	-2.46063000
81.79999531	0.00000000	-14.22859000	-1.29183100
81.99999530	0.00000000	-11.53420000	-0.87967510
82.19999529	0.00000000	-9.52879000	-1.66707700
82.39999528	0.00000000	-8.04010800	-3.19881900
82.59999527	0.00000000	-7.67101300	-5.19808000
82.79999525	0.00000000	-9.20275500	-7.89247000
82.99999524	0.00000000	-11.44193000	-10.62992000
83.19999523	0.00000000	-13.76107000	-12.95522000
83.39999522	0.00000000	-15.29897000	-14.90526000
83.59999521	0.00000000	-15.76649000	-15.64960000
83.79999520	0.00000000	-15.76649000	-15.32357000
83.99999518	0.00000000	-15.34203000	-14.11786000
84.19999517	0.00000000	-14.22859000	-12.11860000
84.39999516	0.00000000	-13.11516000	-9.00590400
84.59999515	0.00000000	-12.73991000	-5.19808000
84.79999514	0.00000000	-13.02288000	-2.12844500
84.99999512	0.00000000	-13.39198000	-0.55364170
85.19999511	0.00000000	-13.02288000	-0.55364170
85.39999510	0.00000000	-12.69070000	-2.12844500
85.59999509	0.00000000	-12.60458000	-5.24729300
85.79999508	0.00000000	-12.22933000	-9.47342500
85.99999506	0.00000000	-11.48499000	-13.69956000
86.19999505	0.00000000	-11.10974000	-16.76919000
86.39999504	0.00000000	-11.10974000	-17.97490000
86.59999503	0.00000000	-11.53420000	-17.14444000
86.79999502	0.00000000	-12.69070000	-14.43775000
86.99999501	0.00000000	-14.22859000	-9.84867000
87.19999499	0.00000000	-15.76649000	-5.29035400
87.39999498	0.00000000	-16.87992000	-2.12844500
87.59999497	0.00000000	-16.87992000	-0.55364170
87.79999496	0.00000000	-15.71727000	-0.59670270
87.99999495	0.00000000	-13.81028000	-2.54675200
88.19999493	0.00000000	-11.48499000	-6.40378900
88.39999492	0.00000000	-9.57800100	-10.95595000
88.59999491	0.00000000	-8.41535400	-14.81299000
88.79999490	0.00000000	-8.45841400	-16.71998000
88.99999489	0.00000000	-9.95324800	-16.35089000
89.19999487	0.00000000	-12.22933000	-13.65650000
89.39999486	0.00000000	-14.13632000	-9.47342500
89.59999485	0.00000000	-15.39124000	-5.24729300
89.79999484	0.00000000	-16.14173000	-2.17765700
89.99999483	0.00000000	-16.50467000	-0.97194880
90.19999482	0.00000000	-15.71727000	-1.75319900
90.39999480	0.00000000	-14.22859000	-4.08464600
90.59999479	0.00000000	-12.69070000	-7.93553100
90.79999478	0.00000000	-11.53420000	-12.11860000
90.99999477	0.00000000	-11.10974000	-15.18824000
91.19999476	0.00000000	-11.06668000	-16.34473000
91.39999474	0.00000000	-11.10974000	-15.18824000
91.59999473	0.00000000	-11.48499000	-12.11860000
91.79999472	0.00000000	-12.22933000	-7.89247000
91.99999471	0.00000000	-12.60458000	-3.66633800
92.19999470	0.00000000	-12.64764000	-0.59670270
92.39999468	0.00000000	-12.64764000	0.51673230
92.59999467	0.00000000	-12.64764000	-1.02116100
92.79999466	0.00000000	-12.69070000	-4.87204700
92.99999465	0.00000000	-13.06594000	-9.84867000
93.19999464	0.00000000	-13.85334000	-14.81299000
93.39999463	0.00000000	-14.60384000	-17.88263000
93.59999461	0.00000000	-15.39124000	-18.30093000
93.79999460	0.00000000	-15.71727000	-16.39395000
93.99999459	0.00000000	-15.29897000	-12.49385000
94.19999458	0.00000000	-13.76107000	-7.56028500
94.39999457	0.00000000	-11.48499000	-2.97121000
94.59999455	0.00000000	-9.57800100	-0.63976370
94.79999454	0.00000000	-8.37229300	-0.59670270
94.99999453	0.00000000	-7.99704600	-2.54675200
95.19999452	0.00000000	-8.41535400	-6.40378900
95.39999451	0.00000000	-9.99630800	-10.95595000
95.59999449	0.00000000	-12.73991000	-14.81299000
95.79999448	0.00000000	-16.14173000	-16.71998000
95.99999447	0.00000000	-19.20522000	-16.39395000
96.19999446	0.00000000	-20.37401000	-14.07480000
96.39999445	0.00000000	-20.04183000	-10.62992000
96.59999444	0.00000000	-18.41781000	-6.77903500
96.79999442	0.00000000	-15.34203000	-3.70939900
96.99999441	0.00000000	-11.48499000	-2.17150600
97.19999440	0.00000000	-7.99704600	-2.50369100
97.39999439	0.00000000	-5.29650500	-4.40452700
97.59999438	0.00000000	-4.18307100	-6.72982200
97.79999436	0.00000000	-5.29650500	-9.42421200
97.99999435	0.00000000	-7.99704600	-11.70029000
98.19999434	0.00000000	-11.48499000	-12.49385000
98.39999433	0.00000000	-15.39124000	-12.16166000
98.59999432	0.00000000	-18.83612000	-11.00517000
98.79999430	0.00000000	-21.16142000	-9.51648500
98.99999429	0.00000000	-21.53666000	-8.31077700
99.19999428	0.00000000	-20.04183000	-7.56028500
99.39999427	0.00000000	-17.29823000	-7.14812900
99.59999426	0.00000000	-13.81028000	-7.51722400
99.79999425	0.00000000	-9.95324800	-7.84940900
99.99999423	0.00000000	-6.87746000	-7.84940900
100.19999422	0.00000000	-5.29650500	-7.47416300
100.39999421	0.00000000	-5.29650500	-6.72982200
100.59999420	0.00000000	-6.83439900	-6.35457700
100.79999419	0.00000000	-9.52879000	-6.40378900
100.99999417	0.00000000	-12.64764000	-7.19734200
101.19999416	0.00000000	-15.71727000	-9.09817800
101.39999415	0.00000000	-18.04257000	-10.96211000
101.59999414	0.00000000	-18.87918000	-12.16166000
101.79999413	0.00000000	-18.87918000	-12.58612000
101.99999411	0.00000000	-18.08563000	-12.53691000
102.19999410	0.00000000	-16.14173000	-11.70029000
102.39999409	0.00000000	-13.85334000	-9.42421200
102.59999408	0.00000000	-11.48499000	-6.77903500
102.79999407	0.00000000	-9.57800100	-4.77977300
102.99999406	0.00000000	-8.37229300	-3.24803100
103.19999404	0.00000000	-7.99704600	-2.50369100
103.39999403	0.00000000	-8.41535400	-3.29109200
103.59999402	0.00000000	-9.95324800	-5.24729300
103.79999401	0.00000000	-12.22933000	-8.31077700
103.99999400	0.00000000	-14.18553000	-11.74951000
104.19999398	0.00000000	-15.76649000	-14.03174000
104.39999397	0.00000000	-16.92298000	-14.85605000
104.59999396	0.00000000	-17.29823000	-14.07480000
104.79999395	0.00000000	-16.92298000	-12.16781000
104.99999394	0.00000000	-15.71727000	-9.42421200
105.19999392	0.00000000	-13.85334000	-6.40378900
105.39999391	0.00000000	-11.95251000	-4.12770700
105.59999390	0.00000000	-11.15896000	-3.70939900
105.79999389	0.00000000	-11.06668000	-4.77977300
105.99999388	0.00000000	-11.10974000	-6.40378900
106.19999387	0.00000000	-11.53420000	-8.68602300
106.39999385	0.00000000	-12.64764000	-11.28199000
106.59999384	0.00000000	-13.76107000	-12.11860000
106.79999383	0.00000000	-14.18553000	-11.84178000
106.99999382	0.00000000	-14.18553000	-11.74336000
107.19999381	0.00000000	-13.81028000	-10.53765000
107.39999379	0.00000000	-13.02288000	-8.35383800
107.59999378	0.00000000	-12.27239000	-6.82209600
107.79999377	0.00000000	-11.53420000	-6.35457700
107.99999376	0.00000000	-11.57726000	-6.35457700
108.19999375	0.00000000	-12.64764000	-6.77903500
108.39999374	0.00000000	-13.81028000	-7.93553100
108.59999372	0.00000000	-14.60384000	-9.42421200
108.79999371	0.00000000	-15.39124000	-10.58686000
108.99999370	0.00000000	-15.71727000	-11.00517000
109.19999369	0.00000000	-15.34203000	-10.95595000
109.39999368	0.00000000	-14.18553000	-10.16855000
109.59999366	0.00000000	-12.69070000	-8.26771600
109.79999365	0.00000000	-11.53420000	-6.40378900
109.99999364	0.00000000	-11.10974000	-5.24729300
110.19999363	0.00000000	-11.06668000	-5.19808000
110.39999362	0.00000000	-11.10974000	-5.93626900
110.59999360	0.00000000	-11.53420000	-6.72982200
110.79999359	0.00000000	-12.69070000	-7.93553100
110.99999358	0.00000000	-14.18553000	-9.47342500
111.19999357	0.00000000	-15.34203000	-10.96211000
111.39999356	0.00000000	-15.71727000	-11.74336000
111.59999355	0.00000000	-15.34203000	-11.38041000
111.79999353	0.00000000	-14.22859000	-10.62992000
111.99999352	0.00000000	-13.06594000	-9.47342500
112.19999351	0.00000000	-12.27239000	-8.35998900
112.39999350	0.00000000	-11.48499000	-7.89247000
112.59999349	0.00000000	-11.15896000	-7.51722400
112.79999347	0.00000000	-11.48499000	-7.14812900
112.99999346	0.00000000	-12.22933000	-7.51722400
113.19999345	0.00000000	-12.64764000	-7.84940900
113.39999344	0.00000000	-13.06594000	-7.89247000
113.59999343	0.00000000	-13.81028000	-7.93553100
113.79999341	0.00000000	-14.18553000	-8.31077700
113.99999340	0.00000000	-14.22859000	-9.05511800
114.19999339	0.00000000	-14.18553000	-9.43036400
114.39999338	0.00000000	-13.81028000	-9.51648500
114.59999337	0.00000000	-13.06594000	-9.84867000
114.79999336	0.00000000	-12.69070000	-10.25467000
114.99999334	0.00000000	-12.64764000	-10.26698000
115.19999333	0.00000000	-12.64764000	-10.62992000
115.39999332	0.00000000	-12.64764000	-10.58686000
115.59999331	0.00000000	-12.69070000	-9.84867000
115.79999330	0.00000000	-13.06594000	-9.05511800
115.99999328	0.00000000	-13.81028000	-7.89247000
116.19999327	0.00000000	-14.18553000	-6.77903500
116.39999326	0.00000000	-14.22859000	-6.35457700
116.59999325	0.00000000	-14.22859000	-6.31151500
116.79999324	0.00000000	-14.18553000	-6.35457700
116.99999322	0.00000000	-13.81028000	-6.77903500
117.19999321	0.00000000	-13.06594000	-7.89247000
117.39999320	0.00000000	-12.64764000	-9.05511800
117.59999319	0.00000000	-12.22933000	-9.84867000
117.79999318	0.00000000	-11.48499000	-10.62992000
117.99999317	0.00000000	-11.10974000	-10.95595000
118.19999315	0.00000000	-11.10974000	-10.62992000
118.39999314	0.00000000	-11.53420000	-9.84867000
118.59999313	0.00000000	-12.64764000	-9.09817800
118.79999312	0.00000000	-13.81028000	-8.31077700
118.99999311	0.00000000	-14.60384000	-7.89247000
119.19999309	0.00000000	-15.39124000	-7.47416300
119.39999308	0.00000000	-15.76649000	-6.72982200
119.59999307	0.00000000	-15.76649000	-6.40378900
119.79999306	0.00000000	-15.34203000	-6.72982200
119.99999305	0.00000000	-14.18553000	-7.47416300
120.19999303	0.00000000	-12.69070000	-7.89247000
120.39999302	0.00000000	-11.53420000	-8.31077700
120.59999301	0.00000000	-11.10974000	-9.05511800
120.79999300	0.00000000	-11.06668000	-9.43036400
120.99999299	0.00000000	-11.10974000	-9.51648500
121.19999298	0.00000000	-11.53420000	-9.84867000
121.39999296	0.00000000	-12.64764000	-10.21161000
121.59999295	0.00000000	-13.81028000	-9.84867000
121.79999294	0.00000000	-14.60384000	-9.51648500
121.99999293	0.00000000	-15.39124000	-9.43036400
122.19999292	0.00000000	-15.71727000	-9.05511800
122.39999290	0.00000000	-15.39124000	-8.31077700
122.59999289	0.00000000	-14.60384000	-7.93553100
122.79999288	0.00000000	-13.85334000	-7.89247000
122.99999287	0.00000000	-13.02288000	-7.89247000
123.19999286	0.00000000	-12.27239000	-7.89247000
123.39999284	0.00000000	-11.48499000	-7.93553100
123.59999283	0.00000000	-11.10974000	-8.31077700
123.79999282	0.00000000	-11.06668000	-9.05511800
123.99999281	0.00000000	-11.10974000	-9.43036400
124.19999280	0.00000000	-11.53420000	-9.47342500
124.39999279	0.00000000	-12.64764000	-9.47342500
124.59999277	0.00000000	-13.76107000	-9.47342500
124.79999276	0.00000000	-14.22859000	-9.47342500
124.99999275	0.00000000	-14.64690000	-9.47342500
125.19999274	0.00000000	-15.39124000	-9.47342500
125.39999273	0.00000000	-15.71727000	-9.43036400
125.59999271	0.00000000	-15.34203000	-9.05511800
125.79999270	0.00000000	-14.22859000	-8.31077700
125.99999269	0.00000000	-13.06594000	-7.93553100
126.19999268	0.00000000	-12.27239000	-7.89247000
126.39999267	0.00000000	-11.48499000	-7.89247000
126.59999265	0.00000000	-11.10974000	-7.89247000
126.79999264	0.00000000	-11.06668000	-7.93553100
126.99999263	0.00000000	-11.10974000	-8.31077700
127.19999262	0.00000000	-11.53420000	-9.05511800
127.39999261	0.00000000	-12.69070000	-9.43036400
127.59999260	0.00000000	-14.18553000	-9.47342500
127.79999258	0.00000000	-15.34203000	-9.47342500
127.99999257	0.00000000	-15.71727000	-9.43036400
128.19999256	0.00000000	-15.39124000	-9.05511800
128.39999255	0.00000000	-14.60384000	-8.31077700
128.59999254	0.00000000	-13.81028000	-7.93553100
128.79999252	0.00000000	-12.64764000	-7.89247000
128.99999251	0.00000000	-11.53420000	-7.89247000
129.19999250	0.00000000	-11.15896000	-7.93553100
129.39999249	0.00000000	-11.48499000	-8.31077700
129.59999248	0.00000000	-12.27239000	-9.05511800
129.79999246	0.00000000	-13.06594000	-9.43036400
129.99999245	0.00000000	-14.22859000	-9.47342500
130.19999244	0.00000000	-15.34203000	-9.47342500
130.39999243	0.00000000	-15.71727000	-9.43036400
130.59999242	0.00000000	-15.39124000	-9.05511800
130.79999241	0.00000000	-14.60384000	-8.31077700
130.99999239	0.00000000	-13.81028000	-7.93553100
131.19999238	0.00000000	-12.64764000	-7.93553100
131.39999237	0.00000000	-11.57726000	-8.31077700
131.59999236	0.00000000	-11.53420000	-9.05511800
131.79999235	0.00000000	-12.22933000	-9.43036400
131.99999233	0.00000000	-12.64764000	-9.51648500
132.19999232	0.00000000	-13.06594000	-9.89173200
132.39999231	0.00000000	-13.81028000	-10.58686000
132.59999230	0.00000000	-14.18553000	-10.58686000
132.79999229	0.00000000	-14.22859000	-9.84867000
132.99999227	0.00000000	-14.18553000	-9.05511800
133.19999226	0.00000000	-13.81028000	-7.89247000
133.39999225	0.00000000	-13.06594000	-6.77903500
133.59999224	0.00000000	-12.69070000	-6.40378900
133.79999223	0.00000000	-12.64764000	-6.72982200
133.99999222	0.00000000	-12.69070000	-7.51722400
134.19999220	0.00000000	-13.06594000	-8.26771600
134.39999219	0.00000000	-13.81028000	-9.09817800
134.59999218	0.00000000	-14.18553000	-9.84867000
134.79999217	0.00000000	-14.18553000	-10.62992000
134.99999216	0.00000000	-13.81028000	-10.95595000
135.19999214	0.00000000	-13.06594000	-10.62992000
135.39999213	0.00000000	-12.69070000	-9.89173200
135.59999212	0.00000000	-12.64764000	-9.47342500
135.79999211	0.00000000	-12.69070000	-9.05511800
135.99999210	0.00000000	-13.06594000	-8.31077700
136.19999208	0.00000000	-13.81028000	-7.89247000
136.39999207	0.00000000	-14.22859000	-7.51722400
136.59999206	0.00000000	-14.60384000	-7.14812900
136.79999205	0.00000000	-14.97293000	-7.56028500
136.99999204	0.00000000	-14.60384000	-8.26771600
137.19999203	0.00000000	-14.22859000	-9.05511800
137.39999201	0.00000000	-13.81028000	-9.43036400
137.59999200	0.00000000	-13.02288000	-9.47342500
137.79999199	0.00000000	-12.27239000	-9.47342500
137.99999198	0.00000000	-11.53420000	-9.47342500
138.19999197	0.00000000	-11.53420000	-9.47342500
138.39999195	0.00000000	-12.22933000	-9.47342500
138.59999194	0.00000000	-12.64764000	-9.47342500
138.79999193	0.00000000	-13.06594000	-9.43036400
138.99999192	0.00000000	-13.81028000	-9.05511800
139.19999191	0.00000000	-14.18553000	-8.31077700
139.39999189	0.00000000	-14.22859000	-7.93553100
139.59999188	0.00000000	-14.18553000	-7.89247000
139.79999187	0.00000000	-13.81028000	-7.89247000
139.99999186	0.00000000	-13.06594000	-7.89247000
140.19999185	0.00000000	-12.69070000	-7.93553100
140.39999184	0.00000000	-12.64764000	-8.31077700
140.59999182	0.00000000	-12.64764000	-9.05511800
140.79999181	0.00000000	-12.69070000	-9.47342500
140.99999180	0.00000000	-13.06594000	-9.89173200
141.19999179	0.00000000	-13.81028000	-10.58686000
141.39999178	0.00000000	-14.13632000	-10.58686000
141.59999176	0.00000000	-13.81028000	-9.84867000
141.79999175	0.00000000	-13.06594000	-9.09817800
141.99999174	0.00000000	-12.69070000	-8.26771600
142.19999173	0.00000000	-12.64764000	-7.51722400
142.39999172	0.00000000	-12.64764000	-6.72982200
142.59999170	0.00000000	-12.64764000	-6.40378900
142.79999169	0.00000000	-12.64764000	-6.72982200
142.99999168	0.00000000	-12.64764000	-7.51722400
143.19999167	0.00000000	-12.69070000	-8.31077700
143.39999166	0.00000000	-13.06594000	-9.47342500
143.59999165	0.00000000	-13.81028000	-10.58686000
143.79999163	0.00000000	-14.18553000	-10.95595000
143.99999162	0.00000000	-14.22859000	-10.62992000
144.19999161	0.00000000	-14.18553000	-9.84867000
144.39999160	0.00000000	-13.81028000	-9.09817800
144.59999159	0.00000000	-13.06594000	-8.31077700
144.79999157	0.00000000	-12.69070000	-7.93553100
144.99999156	0.00000000	-12.64764000	-7.89247000
145.19999155	0.00000000	-12.64764000	-7.89247000
145.39999154	0.00000000	-12.69070000	-7.89247000
145.59999153	0.00000000	-13.06594000	-7.93553100
145.79999151	0.00000000	-13.81028000	-8.31077700
145.99999150	0.00000000	-14.18553000	-9.05511800
146.19999149	0.00000000	-14.22859000	-9.43036400
146.39999148	0.00000000	-14.18553000	-9.47342500
146.59999147	0.00000000	-13.81028000	-9.47342500
146.79999146	0.00000000	-13.06594000	-9.47342500
146.99999144	0.00000000	-12.69070000	-9.43036400
147.19999143	0.00000000	-12.64764000	-9.05511800
147.39999142	0.00000000	-12.64764000	-8.31077700
147.59999141	0.00000000	-12.64764000	-7.93553100
147.79999140	0.00000000	-12.69070000	-7.89247000
147.99999138	0.00000000	-13.06594000	-7.89247000
148.19999137	0.00000000	-13.81028000	-7.89247000
148.39999136	0.00000000	-14.18553000	-7.89247000
148.59999135	0.00000000	-14.22859000	-7.93553100
148.79999134	0.00000000	-14.18553000	-8.31077700
148.99999132	0.00000000	-13.81028000	-9.05511800
149.19999131	0.00000000	-13.06594000	-9.43036400
149.39999130	0.00000000	-12.69070000	-9.47342500
149.59999129	0.00000000	-12.64764000	-9.47342500
149.79999128	0.00000000	-12.64764000	-9.47342500
149.99999127	0.00000000	-12.64764000	-9.43036400
150.19999125	0.00000000	-12.69070000	-9.05511800
150.39999124	0.00000000	-13.06594000	-8.31077700
150.59999123	0.00000000	-13.81028000	-7.93553100
150.79999122	0.00000000	-14.18553000	-7.89247000
150.99999121	0.00000000	-14.22859000	-7.84940900
151.19999119	0.00000000	-14.22859000	-7.56028500
151.39999118	0.00000000	-14.18553000	-7.52337600
151.59999117	0.00000000	-13.81028000	-8.30462600
151.79999116	0.00000000	-13.11516000	-8.64296200
151.99999115	0.00000000	-13.06594000	-9.09817800
152.19999113	0.00000000	-13.39198000	-9.43036400
152.39999112	0.00000000	-13.02288000	-9.47342500
152.59999111	0.00000000	-12.69070000	-9.47342500
152.79999110	0.00000000	-12.64764000	-9.43036400
152.99999109	0.00000000	-12.64764000	-9.09817800
153.19999108	0.00000000	-12.64764000	-8.68602300
153.39999106	0.00000000	-12.69070000	-8.67987200
153.59999105	0.00000000	-13.06594000	-8.26771600
153.79999104	0.00000000	-13.81028000	-7.93553100
153.99999103	0.00000000	-14.18553000	-7.89247000
154.19999102	0.00000000	-14.22859000	-7.89247000
154.39999100	0.00000000	-14.22859000	-7.93553100
154.59999099	0.00000000	-14.22859000	-8.26771600
154.79999098	0.00000000	-14.22859000	-8.67987200
154.99999097	0.00000000	-14.18553000	-8.68602300
155.19999096	0.00000000	-13.81028000	-9.09817800
155.39999094	0.00000000	-13.06594000	-9.43036400
155.59999093	0.00000000	-12.69070000	-9.47342500
155.79999092	0.00000000	-12.64764000	-9.47342500
155.99999091	0.00000000	-12.64764000	-9.43036400
156.19999090	0.00000000	-12.64764000	-9.05511800
156.39999089	0.00000000	-12.69070000	-8.31077700
156.59999087	0.00000000	-13.06594000	-7.93553100
156.79999086	0.00000000	-13.81028000	-7.89247000
156.99999085	0.00000000	-14.18553000	-7.89247000
157.19999084	0.00000000	-14.22859000	-7.89247000
157.39999083	0.00000000	-14.22859000	-7.89247000
157.59999081	0.00000000	-14.18553000	-7.93553100
157.79999080	0.00000000	-13.81028000	-8.31077700
157.99999079	0.00000000	-13.06594000	-9.05511800
158.19999078	0.00000000	-12.69070000	-9.43036400
158.39999077	0.00000000	-12.64764000	-9.47342500
158.59999075	0.00000000	-12.64764000	-9.47342500
158.79999074	0.00000000	-12.64764000	-9.47342500
158.99999073	0.00000000	-12.64764000	-9.43036400
159.19999072	0.00000000	-12.69070000	-9.05511800
159.39999071	0.00000000	-13.06594000	-8.31077700
159.59999070	0.00000000	-13.81028000	-7.93553100
159.79999068	0.00000000	-14.18553000	-7.89247000
159.99999067	0.00000000	-14.22859000	-7.89247000
160.19999066	0.00000000	-14.22859000	-7.89247000
160.39999065	0.00000000	-14.22859000	-7.89247000
160.59999064	0.00000000	-14.22859000	-7.93553100
160.79999062	0.00000000	-14.22859000	-8.31077700
160.99999061	0.00000000	-14.22859000	-9.05511800
161.19999060	0.00000000	-14.22859000	-9.43036400
161.39999059	0.00000000	-14.18553000	-9.43036400
161.59999058	0.00000000	-13.81028000	-9.09817800
161.79999056	0.00000000	-13.06594000	-8.68602300
161.99999055	0.00000000	-12.69070000	-8.67987200
162.19999054	0.00000000	-12.64764000	-8.26771600
162.39999053	0.00000000	-12.64764000	-7.93553100
162.59999052	0.00000000	-12.64764000	-7.89247000
162.79999051	0.00000000	-12.64764000	-7.89247000
162.99999049	0.00000000	-12.69070000	-7.93553100
163.19999048	0.00000000	-13.06594000	-8.31077700
163.39999047	0.00000000	-13.81028000	-9.05511800
163.59999046	0.00000000	-14.18553000	-9.43036400
163.79999045	0.00000000	-14.22859000	-9.47342500
163.99999043	0.00000000	-14.22859000	-9.47342500
164.19999042	0.00000000	-14.22859000	-9.47342500
164.39999041	0.00000000	-14.18553000	-9.47342500
164.59999040	0.00000000	-13.81028000	-9.47342500
164.79999039	0.00000000	-13.06594000	-9.43036400
164.99999037	0.00000000	-12.69070000	-9.09817800
165.19999036	0.00000000	-12.64764000	-8.72908400
165.39999035	0.00000000	-12.69070000	-9.09817800
165.59999034	0.00000000	-13.06594000	-9.43036400
165.79999033	0.00000000	-13.81028000	-9.43036400
165.99999032	0.00000000	-14.18553000	-9.05511800
166.19999030	0.00000000	-14.22859000	-8.31077700
166.39999029	0.00000000	-14.22859000	-7.93553100
166.59999028	0.00000000	-14.22859000	-7.89247000
166.79999027	0.00000000	-14.22859000	-7.93553100
166.99999026	0.00000000	-14.22859000	-8.31077700
167.19999024	0.00000000	-14.18553000	-9.05511800
167.39999023	0.00000000	-13.81028000	-9.43036400
167.59999022	0.00000000	-13.06594000	-9.47342500
167.79999021	0.00000000	-12.69070000	-9.47342500
167.99999020	0.00000000	-12.64764000	-9.47342500
168.19999018	0.00000000	-12.64764000	-9.47342500
168.39999017	0.00000000	-12.64764000	-9.47342500
168.59999016	0.00000000	-12.64764000	-9.47342500
168.79999015	0.00000000	-12.69070000	-9.47342500
168.99999014	0.00000000	-13.02288000	-9.47342500
169.19999013	0.00000000	-13.43504000	-9.47342500
169.39999011	0.00000000	-13.44119000	-9.43036400
169.59999010	0.00000000	-13.85334000	-9.09817800
169.79999009	0.00000000	-14.18553000	-8.68602300
169.99999008	0.00000000	-14.22859000	-8.67987200
170.19999007	0.00000000	-14.22859000	-8.31077700
170.39999005	0.00000000	-14.22859000	-8.35998900
170.59999004	0.00000000	-14.18553000	-9.05511800
170.79999003	0.00000000	-13.81028000	-9.43036400
170.99999002	0.00000000	-13.06594000	-9.47342500
171.19999001	0.00000000	-12.69070000	-9.47342500
171.39998999	0.00000000	-12.64764000	-9.47342500
171.59998998	0.00000000	-12.64764000	-9.47342500
171.79998997	0.00000000	-12.64764000	-9.47342500
171.99998996	0.00000000	-12.69070000	-9.43036400
172.19998995	0.00000000	-13.06594000	-9.09817800
172.39998994	0.00000000	-13.81028000	-8.72908400
172.59998992	0.00000000	-14.18553000	-9.09817800
172.79998991	0.00000000	-14.22859000	-9.43036400
172.99998990	0.00000000	-14.22859000	-9.47342500
173.19998989	0.00000000	-14.18553000	-9.47342500
173.39998988	0.00000000	-13.81028000	-9.47342500
173.59998986	0.00000000	-13.06594000	-9.47342500
173.79998985	0.00000000	-12.69070000	-9.47342500
173.99998984	0.00000000	-12.64764000	-9.47342500
174.19998983	0.00000000	-12.69070000	-9.47342500
174.39998982	0.00000000	-13.02288000	-9.47342500
174.59998980	0.00000000	-13.43504000	-9.47342500
174.79998979	0.00000000	-13.44119000	-9.47342500
174.99998978	0.00000000	-13.85334000	-9.47342500
175.19998977	0.00000000	-14.18553000	-9.47342500
175.39998976	0.00000000	-14.22859000	-9.43036400
175.59998975	0.00000000	-14.22859000	-9.09817800
175.79998973	0.00000000	-14.22859000	-8.68602300
175.99998972	0.00000000	-14.18553000	-8.67987200
176.19998971	0.00000000	-13.81028000	-8.26771600
176.39998970	0.00000000	-13.06594000	-7.93553100
176.59998969	0.00000000	-12.69070000	-7.89247000
176.79998967	0.00000000	-12.69070000	-7.93553100
176.99998966	0.00000000	-13.06594000	-8.31077700
177.19998965	0.00000000	-13.81028000	-9.05511800
177.39998964	0.00000000	-14.18553000	-9.43036400
177.59998963	0.00000000	-14.22859000	-9.47342500
177.79998961	0.00000000	-14.22859000	-9.47342500
177.99998960	0.00000000	-14.22859000	-9.47342500
178.19998959	0.00000000	-14.22859000	-9.47342500
178.39998958	0.00000000	-14.22859000	-9.43036400
178.59998957	0.00000000	-14.18553000	-9.05511800
178.79998956	0.00000000	-13.81028000	-8.31077700
178.99998954	0.00000000	-13.06594000	-7.93553100
179.19998953	0.00000000	-12.69070000	-7.89247000
179.39998952	0.00000000	-12.64764000	-7.93553100
179.59998951	0.00000000	-12.64764000	-8.31077700
179.79998950	0.00000000	-12.64764000	-9.05511800
179.99998948	0.00000000	-12.69070000	-9.43036400
180.19998947	0.00000000	-13.06594000	-9.47342500
180.39998946	0.00000000	-13.81028000	-9.47342500
180.59998945	0.00000000	-14.18553000	-9.47342500
180.79998944	0.00000000	-14.22859000	-9.47342500
180.99998942	0.00000000	-14.18553000	-9.47342500
181.19998941	0.00000000	-13.81028000	-9.43036400
181.39998940	0.00000000	-13.11516000	-9.05511800
181.59998939	0.00000000	-13.11516000	-8.31077700
181.79998938	0.00000000	-13.81028000	-7.93553100
181.99998937	0.00000000	-14.18553000	-7.89247000
182.19998935	0.00000000	-14.22859000	-7.89247000
182.39998934	0.00000000	-14.18553000	-7.93553100
182.59998933	0.00000000	-13.81028000	-8.31077700
182.79998932	0.00000000	-13.06594000	-9.00590400
182.99998931	0.00000000	-12.73991000	-9.05511800
183.19998929	0.00000000	-13.02288000	-8.72908400
183.39998928	0.00000000	-13.39198000	-9.09817800
183.59998927	0.00000000	-13.06594000	-9.43036400
183.79998926	0.00000000	-13.11516000	-9.47342500
183.99998925	0.00000000	-13.81028000	-9.47342500
184.19998923	0.00000000	-14.18553000	-9.43036400
184.39998922	0.00000000	-14.22859000	-9.05511800
184.59998921	0.00000000	-14.22859000	-8.31077700
184.79998920	0.00000000	-14.18553000	-7.93553100
184.99998919	0.00000000	-13.85334000	-7.89247000
185.19998918	0.00000000	-13.48425000	-7.89247000
185.39998916	0.00000000	-13.81028000	-7.93553100
185.59998915	0.00000000	-13.76107000	-8.31077700
185.79998914	0.00000000	-13.06594000	-9.05511800
185.99998913	0.00000000	-12.69070000	-9.43036400
186.19998912	0.00000000	-12.64764000	-9.47342500
186.39998910	0.00000000	-12.64764000	-9.47342500
186.59998909	0.00000000	-12.69070000	-9.47342500
186.79998908	0.00000000	-13.06594000	-9.47342500
186.99998907	0.00000000	-13.81028000	-9.43036400
187.19998906	0.00000000	-14.18553000	-9.05511800
187.39998904	0.00000000	-14.22859000	-8.31077700
187.59998903	0.00000000	-14.22859000	-7.93553100
187.79998902	0.00000000	-14.22859000	-7.89247000
187.99998901	0.00000000	-14.18553000	-7.89247000
188.19998900	0.00000000	-13.85334000	-7.89247000
188.39998899	0.00000000	-13.44119000	-7.93553100
188.59998897	0.00000000	-13.43504000	-8.31077700
188.79998896	0.00000000	-13.02288000	-9.05511800
188.99998895	0.00000000	-12.69070000	-9.43036400
189.19998894	0.00000000	-12.69070000	-9.47342500
189.39998893	0.00000000	-13.06594000	-9.47342500
189.59998891	0.00000000	-13.81028000	-9.47342500
189.79998890	0.00000000	-14.18553000	-9.47342500
189.99998889	0.00000000	-14.22859000	-9.43036400
190.19998888	0.00000000	-14.22859000	-9.05511800
190.39998887	0.00000000	-14.22859000	-8.31077700
190.59998885	0.00000000	-14.22859000	-7.93553100
190.79998884	0.00000000	-14.22859000	-7.89247000
190.99998883	0.00000000	-14.18553000	-7.89247000
191.19998882	0.00000000	-13.81028000	-7.89247000
191.39998881	0.00000000	-13.06594000	-7.93553100
191.59998880	0.00000000	-12.69070000	-8.31077700
191.79998878	0.00000000	-12.64764000	-9.05511800
191.99998877	0.00000000	-12.64764000	-9.43036400
192.19998876	0.00000000	-12.69070000	-9.47342500
192.39998875	0.00000000	-13.06594000	-9.47342500
192.59998874	0.00000000	-13.81028000	-9.47342500
192.79998872	0.00000000	-14.18553000	-9.47342500
192.99998871	0.00000000	-14.22859000	-9.47342500
193.19998870	0.00000000	-14.22859000	-9.47342500
193.39998869	0.00000000	-14.22859000	-9.43036400
193.59998868	0.00000000	-14.22859000	-9.05511800
193.79998866	0.00000000	-14.22859000	-8.31077700
193.99998865	0.00000000	-14.18553000	-7.93553100
194.19998864	0.00000000	-13.81028000	-7.89247000
194.39998863	0.00000000	-13.06594000	-7.89247000
194.59998862	0.00000000	-12.69070000	-7.93553100
194.79998861	0.00000000	-12.64764000	-8.26771600
194.99998859	0.00000000	-12.64764000	-8.63681000
195.19998858	0.00000000	-12.69070000	-8.31077700
195.39998857	0.00000000	-13.06594000	-8.35998900
195.59998856	0.00000000	-13.81028000	-9.05511800
195.79998855	0.00000000	-14.18553000	-9.43036400
195.99998853	0.00000000	-14.22859000	-9.47342500
