Time	Channel A	Channel B	Channel C
(us)	(V)	(mV)	(mV)

-4.49999956	0.00000000	17.39050000	4.73671200
-4.29999957	0.00000000	17.39050000	4.73671200
-4.09999958	0.00000000	17.39050000	4.73671200
-3.89999959	0.00000000	17.39050000	4.73671200
-3.69999960	0.00000000	17.43356000	4.73671200
-3.49999962	0.00000000	17.76575000	4.73671200
-3.29999963	0.00000000	18.13484000	4.73671200
-3.09999964	0.00000000	17.76575000	4.73671200
-2.89999965	0.00000000	17.43356000	4.73671200
-2.69999966	0.00000000	17.39050000	4.73671200
-2.49999968	0.00000000	17.39050000	4.73671200
-2.29999969	0.00000000	17.39050000	4.73671200
-2.09999970	0.00000000	17.39050000	4.73671200
-1.89999971	0.00000000	17.39050000	4.73671200
-1.69999972	0.00000000	17.39050000	4.73671200
-1.49999973	0.00000000	17.39050000	4.73671200
-1.29999975	0.00000000	17.43356000	4.73671200
-1.09999976	0.00000000	17.80881000	4.73671200
-0.89999977	0.00000000	18.50394000	4.73671200
-0.69999978	0.00000000	18.50394000	4.73671200
-0.49999979	0.00000000	17.85802000	4.73671200
-0.29999981	0.15871060	17.80881000	4.73671200
-0.09999982	0.63668800	18.13484000	4.73671200
0.10000017	0.95533960	17.76575000	4.73671200
0.30000016	1.11466500	17.43356000	4.73671200
0.50000015	0.79601380	17.39050000	4.73671200
0.70000013	0.47736220	17.39050000	4.73671200
0.90000012	-0.31803640	17.39050000	4.73671200
1.10000011	-1.27399100	17.39050000	4.73671200
1.30000010	-2.22994600	17.39050000	4.73671200
1.50000009	-2.70792300	17.43356000	4.73671200
1.70000008	-2.54859700	17.80881000	4.77977300
1.90000006	-1.59264300	18.55315000	5.11195900
2.10000005	0.15871060	18.87918000	5.47490100
2.30000004	2.38927200	18.55315000	5.11195900
2.50000003	4.14124000	17.80881000	4.77977300
2.70000002	5.25652100	17.43356000	4.73671200
2.90000000	4.93786900	17.39050000	4.73671200
3.09999999	3.34522600	17.39050000	4.73671200
3.29999998	0.47736220	17.39050000	4.73671200
3.49999997	-3.02657500	17.39050000	4.73671200
3.69999996	-6.05315000	17.39050000	4.73671200
3.89999994	-7.80511800	17.39050000	4.77977300
4.09999993	-7.64579200	17.39050000	5.15501900
4.29999992	-5.57517200	17.39050000	5.89320800
4.49999991	-1.75196900	17.39050000	6.21924200
4.69999990	2.70792300	17.39050000	5.89320800
4.89999989	6.69045300	17.39050000	5.15501900
5.09999987	9.07972400	17.39050000	4.77977300
5.29999986	9.23905000	17.39050000	4.73671200
5.49999985	7.00848900	17.39050000	4.69365100
5.69999984	3.02657500	17.39050000	4.36146600
5.89999983	-1.59264300	17.39050000	3.99237200
6.09999981	-6.05315000	17.39050000	4.36146600
6.29999980	-8.92039900	17.39050000	4.69365100
6.49999979	-9.39837600	17.39050000	4.77977300
6.69999978	-7.64579200	17.39050000	5.15501900
6.89999977	-4.14124000	17.39050000	5.85014700
7.09999975	0.31803640	17.39050000	5.85014700
7.29999974	4.30056600	17.39050000	5.15501900
7.49999973	7.00848900	17.39050000	4.77977300
7.69999972	7.64579200	17.39050000	4.73671200
7.89999971	6.53112700	17.39050000	4.73671200
8.09999970	3.98191400	17.39050000	4.73671200
8.29999968	0.63668800	17.39050000	4.73671200
8.49999967	-2.38927200	17.39050000	4.73671200
8.69999966	-4.45989200	17.39050000	4.73671200
8.89999965	-5.25652100	17.39050000	4.73671200
9.09999964	-4.61921700	17.39050000	4.73671200
9.29999962	-3.02657500	17.39050000	4.73671200
9.49999961	-0.95533960	17.39050000	4.73671200
9.69999960	0.79601380	17.39050000	4.73671200
9.89999959	2.07062000	17.39050000	4.73671200
10.09999958	2.54859700	17.39050000	4.73671200
10.29999956	2.22994600	17.39050000	4.73671200
10.49999955	1.59264300	17.43356000	4.73671200
10.69999954	0.63668800	17.76575000	4.73671200
10.89999953	-0.15871060	18.13484000	4.73671200
11.09999952	-0.63668800	17.76575000	4.73671200
11.29999951	-0.95533960	17.43356000	4.73671200
11.49999949	-0.95533960	17.39050000	4.73671200
11.69999948	-0.79601380	17.39050000	4.73671200
11.89999947	-0.47736220	17.39050000	4.73671200
12.09999946	-0.15871060	17.39050000	4.73671200
12.29999945	-0.15871060	17.39050000	4.73671200
12.49999943	-0.15871060	17.39050000	4.73671200
12.69999942	0.00000000	17.39050000	4.73671200
12.89999941	0.00000000	17.39050000	4.73671200
13.09999940	0.00000000	17.39050000	4.73671200
13.29999939	0.00000000	17.39050000	4.73671200
13.49999937	0.00000000	17.39050000	4.73671200
13.69999936	0.00000000	17.39050000	4.73671200
13.89999935	0.00000000	17.39050000	4.73671200
14.09999934	-0.15871060	17.39050000	4.73671200
14.29999933	-0.15871060	17.39050000	4.73671200
14.49999932	-0.15871060	17.39050000	4.73671200
14.69999930	-0.15871060	17.39050000	4.73671200
14.89999929	0.00000000	17.39050000	4.73671200
15.09999928	0.00000000	17.39050000	4.73671200
15.29999927	0.00000000	17.39050000	4.73671200
15.49999926	0.00000000	17.39050000	4.73671200
15.69999924	0.00000000	17.39050000	4.73671200
15.89999923	0.00000000	17.39050000	4.73671200
16.09999922	0.00000000	17.39050000	4.73671200
16.29999921	0.00000000	17.43356000	4.73671200
16.49999920	-0.15871060	17.80881000	4.73671200
16.69999919	0.00000000	18.50394000	4.73671200
16.89999917	-0.15871060	18.55315000	4.73671200
17.09999916	0.00000000	18.22711000	4.73671200
17.29999915	0.00000000	18.59621000	4.73671200
17.49999914	0.00000000	18.92839000	4.73671200
17.69999913	0.00000000	18.97145000	4.73671200
17.89999911	0.00000000	18.92839000	4.73671200
18.09999910	0.00000000	18.50394000	4.73671200
18.29999909	0.00000000	17.34744000	4.73671200
18.49999908	0.00000000	15.80955000	4.73671200
18.69999907	0.00000000	14.27165000	4.73671200
18.89999905	-0.15871060	13.11516000	4.73671200
19.09999904	0.00000000	12.73991000	4.73671200
19.29999903	0.00000000	13.20128000	4.73671200
19.49999902	0.00000000	15.15748000	4.73671200
19.69999901	0.00000000	18.63927000	4.73671200
19.89999900	0.00000000	22.46555000	4.73671200
20.09999898	0.00000000	25.99040000	4.73671200
20.29999897	0.00000000	28.22958000	4.73671200
20.49999896	0.00000000	28.59867000	4.73671200
20.69999895	0.00000000	26.18725000	4.73671200
20.89999894	0.00000000	21.16142000	4.73671200
21.09999892	0.00000000	14.13632000	4.73671200
21.29999891	0.00000000	6.45915300	4.73671200
21.49999890	0.00000000	-0.04921259	4.73671200
21.69999889	0.00000000	-3.08193900	4.73671200
21.89999888	0.00000000	-1.50098400	4.73671200
22.09999886	0.00000000	4.73671200	4.73671200
22.29999885	0.00000000	14.87451000	4.73671200
22.49999884	0.00000000	27.20841000	4.73671200
22.69999883	0.00000000	39.16092000	4.73671200
22.89999882	0.00000000	47.17027000	4.73671200
23.09999881	0.00000000	49.07726000	4.77977300
23.29999879	0.00000000	43.54699000	5.15501900
23.49999878	0.00000000	31.16388000	5.89320800
23.69999877	0.00000000	14.13632000	6.31151500
23.89999876	0.00000000	-3.58636800	6.68676100
24.09999875	0.00000000	-17.87033000	7.05585600
24.29999873	0.00000000	-25.12918000	6.64370100
24.49999872	0.00000000	-23.08686000	5.89320800
24.69999871	0.00000000	-11.07899000	4.68750000
24.89999870	0.00000000	8.63681000	3.15575800
25.09999869	0.00000000	31.39763000	1.57480300
25.29999867	0.00000000	52.23917000	0.09227362
25.49999866	0.00000000	65.69267000	-0.65206690
25.69999865	0.00000000	68.38705000	0.13533460
25.89999864	0.00000000	59.45497000	2.08538400
26.09999863	0.00000000	40.51427000	5.24729300
26.29999862	0.00000000	15.80955000	9.47342500
26.49999860	0.00000000	-8.89517700	13.65650000
26.69999859	0.00000000	-27.78666000	16.35089000
26.89999858	0.00000000	-36.30044000	16.71998000
27.09999857	0.00000000	-32.43725000	14.72072000
27.29999856	0.00000000	-17.40895000	9.98400600
27.49999854	0.00000000	5.38877900	2.69439000
27.69999853	0.00000000	30.51181000	-5.38262700
27.89999852	0.00000000	52.52214000	-11.94021000
28.09999851	0.00000000	66.43085000	-15.74803000
28.29999850	0.00000000	68.80536000	-15.28666000
28.49999848	0.00000000	59.96555000	-9.84867000
28.69999847	0.00000000	42.18750000	-0.55979330
28.89999846	0.00000000	19.38976000	11.09744000
29.09999845	0.00000000	-2.98966500	22.99459000
29.29999844	0.00000000	-20.06029000	32.23425000
29.49999843	0.00000000	-28.20497000	36.00517000
29.69999841	0.00000000	-26.33489000	33.26156000
29.89999840	0.00000000	-15.16978000	23.55438000
30.09999839	0.00000000	2.17765700	8.91978400
30.29999838	0.00000000	21.53666000	-7.33882900
30.49999837	0.00000000	38.98253000	-21.97957000
30.69999835	0.00000000	50.98425000	-31.59449000
30.89999834	0.00000000	55.26574000	-33.50147000
31.09999833	0.00000000	51.03346000	-27.31914000
31.29999832	0.00000000	39.53617000	-14.12401000
31.49999831	0.00000000	24.13263000	3.62327700
31.69999829	0.00000000	8.96899500	22.15797000
31.89999828	0.00000000	-3.45103300	37.21087000
32.09999827	0.00000000	-11.17126000	45.71235000
32.29999826	0.00000000	-11.96481000	45.66929000
32.49999825	0.00000000	-6.24384800	36.79257000
32.69999824	0.00000000	4.13385800	20.99532000
32.89999822	0.00000000	16.50467000	2.08538400
33.09999821	0.00000000	27.72515000	-15.70497000
33.29999820	0.00000000	35.90674000	-28.90010000
33.49999819	0.00000000	39.35777000	-35.07628000
33.69999818	0.00000000	37.48769000	-33.12623000
33.89999816	0.00000000	30.93012000	-23.09301000
34.09999815	0.00000000	21.75812000	-7.29576700
34.29999814	0.00000000	12.46309000	10.45152000
34.49999813	0.00000000	5.52411400	26.29183000
34.69999812	0.00000000	1.99311000	36.79257000
34.89999810	0.00000000	2.78051200	40.28051000
35.09999809	0.00000000	7.34498000	36.41732000
35.29999808	0.00000000	14.22859000	25.59670000
35.49999807	0.00000000	21.16142000	10.62992000
35.69999806	0.00000000	26.18725000	-4.83513700
35.89999805	0.00000000	28.50640000	-17.19365000
36.09999803	0.00000000	27.34990000	-24.16338000
36.29999802	0.00000000	23.16068000	-24.16338000
36.49999801	0.00000000	17.39050000	-17.23671000
36.69999800	0.00000000	11.66339000	-5.38262700
36.89999799	0.00000000	7.80634800	8.04010800
37.09999797	0.00000000	7.01279500	18.81767000
37.29999796	0.00000000	8.87672100	24.71703000
37.49999795	0.00000000	12.78297000	25.08612000
37.69999794	0.00000000	17.76575000	20.10950000
37.89999793	0.00000000	22.74237000	10.91289000
38.09999791	0.00000000	25.85507000	0.59670270
38.29999790	0.00000000	26.69783000	-7.85556000
38.49999789	0.00000000	25.90428000	-12.03863000
38.69999788	0.00000000	23.16068000	-10.54995000
38.89999787	0.00000000	18.97145000	-4.04773600
39.09999786	0.00000000	14.73917000	5.11195900
39.29999784	0.00000000	11.57726000	14.30241000
39.49999783	0.00000000	9.62106200	20.39862000
39.69999782	0.00000000	8.87672100	21.55512000
39.89999781	0.00000000	9.99630800	17.32899000
40.09999780	0.00000000	12.31545000	8.91978400
40.29999778	0.00000000	15.02214000	-1.02116100
40.49999777	0.00000000	18.17790000	-9.47957600
40.69999776	0.00000000	20.83538000	-14.08095000
40.89999775	0.00000000	22.82849000	-13.70571000
41.09999774	0.00000000	23.62205000	-8.31692900
41.29999772	0.00000000	23.67126000	0.55364170
41.49999771	0.00000000	23.20374000	10.91289000
41.69999770	0.00000000	21.62278000	20.10950000
41.89999769	0.00000000	18.97145000	25.08612000
42.09999768	0.00000000	16.22785000	24.76009000
42.29999767	0.00000000	13.89641000	19.37131000
42.49999765	0.00000000	11.90330000	10.58686000
42.69999764	0.00000000	10.78371000	0.92888770
42.89999763	0.00000000	10.37155000	-7.11737200
43.09999762	0.00000000	11.20202000	-11.79872000
43.29999761	0.00000000	13.06594000	-11.85408000
43.49999759	0.00000000	15.43430000	-8.40920300
43.69999758	0.00000000	17.72268000	-2.22687000
43.89999757	0.00000000	19.71580000	5.43184000
44.09999756	0.00000000	20.88459000	11.94021000
44.29999755	0.00000000	21.71506000	15.88336000
44.49999753	0.00000000	22.09030000	16.67692000
44.69999752	0.00000000	22.09030000	14.81299000
44.89999751	0.00000000	21.66585000	10.95595000
45.09999750	0.00000000	20.55241000	6.35457700
45.29999749	0.00000000	19.34670000	2.08538400
45.49999748	0.00000000	18.08563000	-1.02116100
45.69999746	0.00000000	15.71727000	-2.55905500
45.89999745	0.00000000	12.64764000	-2.22687000
46.09999744	0.00000000	9.57800100	-0.33218500
46.29999743	0.00000000	7.25270600	1.99311000
46.49999742	0.00000000	6.55142700	4.73671200
46.69999740	0.00000000	7.72022600	7.43110200
46.89999739	0.00000000	11.24508000	9.33809000
47.09999738	0.00000000	16.27707000	10.11934000
47.29999737	0.00000000	22.13336000	9.38115100
47.49999736	0.00000000	27.90354000	7.84940900
47.69999734	0.00000000	32.09276000	5.85014700
47.89999733	0.00000000	33.21235000	3.15575800
48.09999732	0.00000000	30.46875000	0.51058070
48.29999731	0.00000000	24.27411000	-1.06422200
48.49999730	0.00000000	15.80955000	-1.43946800
48.69999729	0.00000000	7.29576700	-0.64591530
48.89999727	0.00000000	0.73203740	1.66707700
49.09999726	0.00000000	-2.70669300	4.73671200
49.29999725	0.00000000	-1.50098400	7.84940900
49.49999724	0.00000000	4.26919300	10.49459000
49.69999723	0.00000000	13.15822000	11.65723000
49.89999721	0.00000000	23.20374000	10.91289000
50.09999720	0.00000000	32.04970000	8.96284400
50.29999719	0.00000000	37.40157000	5.85014700
50.49999718	0.00000000	37.40157000	1.99311000
50.69999717	0.00000000	32.04970000	-1.44562000
50.89999715	0.00000000	23.20374000	-3.71555100
51.09999714	0.00000000	13.15822000	-3.71555100
51.29999713	0.00000000	4.31840500	-1.44562000
51.49999712	0.00000000	-1.07652500	2.04232300
51.69999711	0.00000000	-1.45177200	6.26845500
51.89999710	0.00000000	3.11269700	10.11934000
52.09999708	0.00000000	11.15896000	12.45079000
52.29999707	0.00000000	19.99877000	13.23819000
52.49999706	0.00000000	27.30069000	12.03248000
52.69999705	0.00000000	31.20694000	8.96284400
52.89999704	0.00000000	30.83784000	4.77977300
53.09999702	0.00000000	27.01772000	0.92888770
53.29999701	0.00000000	20.41708000	-1.39640700
53.49999700	0.00000000	12.82603000	-2.18380900
53.69999699	0.00000000	6.69291300	-1.02116100
53.89999698	0.00000000	4.36146600	1.62401600
54.09999696	0.00000000	5.85014700	4.68750000
54.29999695	0.00000000	10.45768000	7.33882900
54.49999694	0.00000000	16.97219000	8.54453700
54.69999693	0.00000000	23.06841000	8.17544300
54.89999692	0.00000000	26.97465000	7.01279500
55.09999691	0.00000000	27.72515000	4.73671200
55.29999689	0.00000000	25.43676000	2.50369100
55.49999688	0.00000000	20.46014000	1.71013800
55.69999687	0.00000000	14.69611000	2.08538400
55.89999686	0.00000000	9.66412400	3.66633800
56.09999685	0.00000000	6.22539300	6.31151500
56.29999683	0.00000000	5.89936000	8.91978400
56.49999682	0.00000000	8.92593500	10.07628000
56.69999681	0.00000000	14.27165000	9.29502900
56.89999680	0.00000000	19.99877000	7.01279500
57.09999679	0.00000000	24.27411000	3.48794300
57.29999677	0.00000000	26.23031000	-0.33218500
57.49999676	0.00000000	25.85507000	-3.76476400
57.69999675	0.00000000	23.16068000	-5.20423200
57.89999674	0.00000000	18.92839000	-3.67249000
58.09999673	0.00000000	14.32087000	0.55364170
58.29999672	0.00000000	10.45768000	6.31151500
58.49999670	0.00000000	8.55068800	12.07554000
58.69999669	0.00000000	8.87672100	16.30167000
58.89999668	0.00000000	11.20202000	17.79035000
59.09999667	0.00000000	14.64690000	15.88336000
59.29999666	0.00000000	18.50394000	10.86983000
59.49999664	0.00000000	21.53666000	4.31840500
59.69999663	0.00000000	22.74237000	-2.60211600
59.89999662	0.00000000	21.99803000	-7.99089500
60.09999661	0.00000000	20.08489000	-10.27313000
60.29999660	0.00000000	17.39050000	-9.10433000
60.49999658	0.00000000	14.73917000	-4.09079700
60.69999657	0.00000000	13.15822000	3.19881900
60.89999656	0.00000000	12.73991000	10.91289000
61.09999655	0.00000000	13.15822000	17.46432000
61.29999654	0.00000000	14.69611000	20.85999000
61.49999653	0.00000000	16.97219000	20.10950000
61.69999651	0.00000000	18.87918000	15.14518000
61.89999650	0.00000000	20.04183000	7.84940900
62.09999649	0.00000000	20.04183000	0.09227362
62.29999648	0.00000000	18.87918000	-6.82824800
62.49999647	0.00000000	16.97219000	-11.01132000
62.69999645	0.00000000	14.64690000	-11.05438000
62.89999644	0.00000000	12.78297000	-7.24655500
63.09999643	0.00000000	11.99557000	-1.07037400
63.29999642	0.00000000	12.78297000	6.26845500
63.49999641	0.00000000	14.69611000	13.18898000
63.69999639	0.00000000	17.39050000	17.83957000
63.89999638	0.00000000	20.04183000	19.37131000
64.09999637	0.00000000	21.57972000	17.46432000
64.29999636	0.00000000	21.62278000	12.49385000
64.49999635	0.00000000	20.46014000	6.36072800
64.69999634	0.00000000	18.55315000	0.51058070
64.89999632	0.00000000	16.22785000	-4.14000900
65.09999631	0.00000000	14.32087000	-6.82824800
65.29999630	0.00000000	13.11516000	-6.87746000
65.49999629	0.00000000	12.78297000	-4.64443900
65.69999628	0.00000000	13.53346000	-1.53174200
65.89999626	0.00000000	15.43430000	1.99311000
66.09999625	0.00000000	17.34744000	5.85014700
66.29999624	0.00000000	18.87918000	8.96284400
66.49999623	0.00000000	19.62352000	10.96211000
66.69999622	0.00000000	18.87918000	12.16166000
66.89999620	0.00000000	17.39050000	12.53691000
67.09999619	0.00000000	15.80955000	12.11860000
67.29999618	0.00000000	14.32087000	10.53765000
67.49999617	0.00000000	13.57652000	7.84940900
67.69999616	0.00000000	14.36393000	4.73671200
67.89999615	0.00000000	16.27707000	1.58095500
68.09999613	0.00000000	18.97145000	-1.53174200
68.29999612	0.00000000	21.57972000	-4.22613100
68.49999611	0.00000000	22.74237000	-5.71481200
68.69999610	0.00000000	21.99803000	-5.33956700
68.89999609	0.00000000	20.04183000	-2.97736200
69.09999607	0.00000000	16.87992000	0.92888770
69.29999606	0.00000000	12.69070000	6.31151500
69.49999605	0.00000000	8.87672100	11.70029000
69.69999604	0.00000000	6.96973400	15.56348000
69.89999603	0.00000000	7.34498000	17.50738000
70.09999601	0.00000000	10.08243000	16.67692000
70.29999600	0.00000000	14.73917000	13.18898000
70.49999599	0.00000000	20.50935000	7.43110200
70.69999598	0.00000000	25.85507000	0.87967510
70.89999597	0.00000000	28.93085000	-4.51525500
71.09999596	0.00000000	28.97392000	-8.03395600
71.29999594	0.00000000	26.23031000	-8.74138700
71.49999593	0.00000000	21.20448000	-6.45300100
71.69999592	0.00000000	14.64690000	-1.48868100
71.89999591	0.00000000	8.45841400	4.27534400
72.09999590	0.00000000	3.85088600	9.33809000
72.29999588	0.00000000	1.90083600	13.18898000
72.49999587	0.00000000	3.47564000	14.72687000
72.69999586	0.00000000	7.67101300	13.60728000
72.89999585	0.00000000	13.89641000	10.58686000
73.09999584	0.00000000	20.46014000	6.72982200
73.29999582	0.00000000	26.27953000	3.29109200
73.49999581	0.00000000	30.08735000	0.92888770
73.69999580	0.00000000	30.46260000	0.13533460
73.89999579	0.00000000	27.43602000	0.51058070
74.09999578	0.00000000	22.04109000	1.99311000
74.29999577	0.00000000	15.90182000	3.90009800
74.49999575	0.00000000	10.45768000	4.97662400
74.69999574	0.00000000	6.96973400	5.01353300
74.89999573	0.00000000	5.76402500	3.48179100
75.09999572	0.00000000	6.92052100	1.62401600
75.29999571	0.00000000	9.99630800	0.09227362
75.49999569	0.00000000	14.22859000	-0.60285430
75.69999568	0.00000000	18.46087000	0.59670270
75.89999567	0.00000000	21.57972000	3.62327700
76.09999566	0.00000000	23.16068000	7.47416300
76.29999565	0.00000000	23.16068000	10.91289000
76.49999563	0.00000000	21.62278000	13.23819000
76.69999562	0.00000000	18.97145000	13.56422000
76.89999561	0.00000000	16.32013000	11.61417000
77.09999560	0.00000000	14.73917000	7.33882900
77.29999559	0.00000000	14.27165000	1.62401600
77.49999558	0.00000000	14.27165000	-3.76476400
77.69999556	0.00000000	14.64690000	-7.25270600
77.89999555	0.00000000	15.39124000	-8.40920300
78.09999554	0.00000000	15.76649000	-6.82824800
78.29999553	0.00000000	15.76649000	-2.55905500
78.49999552	0.00000000	15.39124000	3.57406500
78.69999550	0.00000000	14.64690000	10.11934000
78.89999549	0.00000000	14.32087000	15.09596000
79.09999548	0.00000000	14.69611000	17.46432000
79.29999547	0.00000000	15.85261000	16.67692000
79.49999546	0.00000000	17.39050000	13.23819000
79.69999544	0.00000000	18.97145000	7.84940900
79.89999543	0.00000000	20.46014000	2.08538400
80.09999542	0.00000000	21.20448000	-2.60211600
80.29999541	0.00000000	20.41708000	-5.71481200
80.49999540	0.00000000	18.50394000	-6.87130900
80.69999539	0.00000000	15.80955000	-5.71481200
80.89999537	0.00000000	13.11516000	-2.69439000
81.09999536	0.00000000	11.20202000	1.20570900
81.29999535	0.00000000	10.45768000	5.06274600
81.49999534	0.00000000	11.62032000	8.58759800
81.69999533	0.00000000	14.22859000	10.91289000
81.89999531	0.00000000	16.97219000	12.11860000
82.09999530	0.00000000	19.30364000	12.11860000
82.29999529	0.00000000	21.24754000	10.96211000
82.49999528	0.00000000	21.95497000	9.00590400
82.69999527	0.00000000	21.24754000	6.31151500
82.89999525	0.00000000	19.30364000	3.61712600
83.09999524	0.00000000	17.01525000	1.57480300
83.29999523	0.00000000	14.69611000	-0.41830710
83.49999522	0.00000000	13.15822000	-2.64517700
83.69999521	0.00000000	12.73991000	-3.76476400
83.89999520	0.00000000	13.11516000	-3.02042300
84.09999518	0.00000000	14.27165000	-1.07037400
84.29999517	0.00000000	15.76649000	2.04232300
84.49999516	0.00000000	16.92298000	5.89320800
84.69999515	0.00000000	17.34744000	9.38115100
84.89999514	0.00000000	17.39050000	12.11860000
85.09999512	0.00000000	17.39050000	13.56422000
85.29999511	0.00000000	17.39050000	12.81988000
85.49999510	0.00000000	17.39050000	9.75639700
85.69999509	0.00000000	17.39050000	5.89320800
85.89999508	0.00000000	17.43356000	1.62401600
86.09999506	0.00000000	17.76575000	-2.22687000
86.29999505	0.00000000	18.13484000	-4.55831700
86.49999504	0.00000000	17.72268000	-5.29650500
86.69999503	0.00000000	16.97219000	-3.71555100
86.89999502	0.00000000	15.76649000	0.09227362
87.09999501	0.00000000	14.27165000	4.69365100
87.29999499	0.00000000	13.11516000	8.96284400
87.49999498	0.00000000	12.73991000	12.03248000
87.69999497	0.00000000	13.11516000	13.18898000
87.89999496	0.00000000	14.32087000	12.03248000
88.09999495	0.00000000	16.22785000	8.96284400
88.29999493	0.00000000	18.50394000	4.73671200
88.49999492	0.00000000	20.04183000	0.51058070
88.69999491	0.00000000	20.46014000	-2.55905500
88.89999490	0.00000000	20.08489000	-3.71555100
89.09999489	0.00000000	18.87918000	-2.55905500
89.29999487	0.00000000	16.97219000	0.51058070
89.49999486	0.00000000	14.69611000	4.73671200
89.69999485	0.00000000	13.15822000	8.91978400
89.89999484	0.00000000	12.73991000	11.61417000
90.09999483	0.00000000	13.11516000	12.03248000
90.29999482	0.00000000	14.27165000	10.49459000
90.49999480	0.00000000	15.76649000	7.38188900
90.69999479	0.00000000	16.97219000	3.15575800
90.89999478	0.00000000	17.76575000	-1.02116100
91.09999477	0.00000000	18.50394000	-3.71555100
91.29999476	0.00000000	18.50394000	-4.09079700
91.49999474	0.00000000	17.76575000	-2.14074800
91.69999473	0.00000000	17.01525000	2.04232300
91.89999472	0.00000000	16.22785000	7.00664300
92.09999471	0.00000000	15.85261000	10.86983000
92.29999470	0.00000000	15.80955000	13.18898000
92.49999468	0.00000000	15.80955000	13.14591000
92.69999467	0.00000000	15.80955000	10.45152000
92.89999466	0.00000000	15.76649000	5.89320800
93.09999465	0.00000000	15.39124000	0.87967510
93.29999464	0.00000000	14.60384000	-2.93430100
93.49999463	0.00000000	13.85334000	-4.87819900
93.69999461	0.00000000	13.11516000	-4.09079700
93.89999460	0.00000000	13.15822000	-1.07037400
94.09999459	0.00000000	14.27165000	3.20497000
94.29999458	0.00000000	15.85261000	7.80019600
94.49999457	0.00000000	17.80881000	11.61417000
94.69999455	0.00000000	20.08489000	13.14591000
94.89999454	0.00000000	21.57972000	12.03248000
95.09999453	0.00000000	21.62278000	8.96284400
95.29999452	0.00000000	20.41708000	4.73671200
95.49999451	0.00000000	18.08563000	0.51058070
95.69999449	0.00000000	14.64690000	-2.55905500
95.89999448	0.00000000	11.57726000	-3.71555100
96.09999447	0.00000000	9.57800100	-2.60211600
96.29999446	0.00000000	8.45841400	0.09227362
96.49999445	0.00000000	8.87672100	3.57406500
96.69999444	0.00000000	11.20202000	7.38188900
96.89999442	0.00000000	14.69611000	10.03322000
97.09999441	0.00000000	18.92839000	10.49459000
97.29999440	0.00000000	22.74237000	9.38115100
97.49999439	0.00000000	24.69857000	7.43110200
97.69999438	0.00000000	24.74163000	4.73671200
97.89999436	0.00000000	23.16068000	2.08538400
98.09999435	0.00000000	20.04183000	0.51058070
98.29999434	0.00000000	15.80955000	0.09227362
98.49999433	0.00000000	11.57726000	0.46136810
98.69999432	0.00000000	8.45841400	1.62401600
98.89999430	0.00000000	6.92052100	3.15575800
99.09999429	0.00000000	7.29576700	4.68750000
99.29999428	0.00000000	9.62106200	5.80093500
99.49999427	0.00000000	13.06594000	5.85014700
99.69999426	0.00000000	16.97219000	5.15501900
99.89999425	0.00000000	20.41708000	4.77977300
100.09999423	0.00000000	22.78543000	4.77977300
100.29999422	0.00000000	23.57899000	5.15501900
100.49999421	0.00000000	23.20374000	5.89320800
100.69999420	0.00000000	21.62278000	6.26845500
100.89999419	0.00000000	18.92839000	6.21924200
101.09999417	0.00000000	15.80955000	5.43184000
101.29999416	0.00000000	12.73991000	3.53100400
101.49999415	0.00000000	10.41462000	1.66707700
101.69999414	0.00000000	9.62106200	0.46136810
101.89999413	0.00000000	9.99630800	0.09227362
102.09999411	0.00000000	11.53420000	0.46136810
102.29999410	0.00000000	13.85334000	1.66707700
102.49999409	0.00000000	16.18479000	3.61712600
102.69999408	0.00000000	18.50394000	6.31151500
102.89999407	0.00000000	20.04183000	8.96284400
103.09999406	0.00000000	20.50935000	10.49459000
103.29999404	0.00000000	20.46014000	10.49459000
103.49999403	0.00000000	19.66658000	8.96284400
103.69999402	0.00000000	17.76575000	6.26845500
103.89999401	0.00000000	15.85261000	3.15575800
104.09999400	0.00000000	14.22859000	0.09227362
104.29999398	0.00000000	12.73991000	-2.18380900
104.49999397	0.00000000	11.95251000	-2.55905500
104.69999396	0.00000000	12.31545000	-1.07037400
104.89999395	0.00000000	13.06594000	1.62401600
105.09999394	0.00000000	14.27165000	4.68750000
105.29999392	0.00000000	15.80955000	7.38188900
105.49999391	0.00000000	17.34744000	8.91978400
105.69999390	0.00000000	18.46087000	8.96284400
105.89999389	0.00000000	18.46087000	7.84940900
106.09999388	0.00000000	17.39050000	6.26845500
106.29999387	0.00000000	16.22785000	4.31840500
106.49999385	0.00000000	15.43430000	2.04232300
106.69999384	0.00000000	14.64690000	0.55364170
106.89999383	0.00000000	14.32087000	0.51058070
107.09999382	0.00000000	14.64690000	1.62401600
107.29999381	0.00000000	15.43430000	3.15575800
107.49999379	0.00000000	16.18479000	4.73671200
107.69999378	0.00000000	16.97219000	6.22539300
107.89999377	0.00000000	17.29823000	7.00664300
108.09999376	0.00000000	16.97219000	6.59448800
108.29999375	0.00000000	16.18479000	5.47490100
108.49999374	0.00000000	15.39124000	3.57406500
108.69999372	0.00000000	14.22859000	2.08538400
108.89999371	0.00000000	13.15822000	1.61786400
109.09999370	0.00000000	13.15822000	1.61786400
109.29999369	0.00000000	14.27165000	2.04232300
109.49999368	0.00000000	15.76649000	3.19881900
109.69999366	0.00000000	16.97219000	4.73671200
109.89999365	0.00000000	17.76575000	6.26845500
110.09999364	0.00000000	18.50394000	7.38188900
110.29999363	0.00000000	18.50394000	7.38188900
110.49999362	0.00000000	17.76575000	6.26845500
110.69999360	0.00000000	16.97219000	4.73671200
110.89999359	0.00000000	15.76649000	3.19881900
111.09999358	0.00000000	14.27165000	1.99311000
111.29999357	0.00000000	13.15822000	1.24877000
111.49999356	0.00000000	13.11516000	0.83661410
111.69999355	0.00000000	13.85334000	1.24877000
111.89999353	0.00000000	14.64690000	1.99311000
112.09999352	0.00000000	15.80955000	3.15575800
112.29999351	0.00000000	16.92298000	4.31840500
112.49999350	0.00000000	17.34744000	5.11195900
112.69999349	0.00000000	17.39050000	5.85014700
112.89999347	0.00000000	17.34744000	5.85014700
113.09999346	0.00000000	16.97219000	5.15501900
113.29999345	0.00000000	16.18479000	4.77977300
113.49999344	0.00000000	15.43430000	4.69365100
113.69999343	0.00000000	14.64690000	4.31840500
113.89999341	0.00000000	14.27165000	3.57406500
114.09999340	0.00000000	14.27165000	3.19881900
114.29999339	0.00000000	14.64690000	3.15575800
114.49999338	0.00000000	15.39124000	3.15575800
114.69999337	0.00000000	15.76649000	3.11269700
114.89999336	0.00000000	15.85261000	2.78051200
115.09999334	0.00000000	16.22785000	2.41141700
115.29999333	0.00000000	16.92298000	2.78051200
115.49999332	0.00000000	16.92298000	3.15575800
115.69999331	0.00000000	16.22785000	3.57406500
115.89999330	0.00000000	15.80955000	4.31840500
116.09999328	0.00000000	15.39124000	4.73671200
116.29999327	0.00000000	14.64690000	5.15501900
116.49999326	0.00000000	14.27165000	5.89320800
116.69999325	0.00000000	14.22859000	6.21924200
116.89999324	0.00000000	14.27165000	5.89320800
117.09999322	0.00000000	14.64690000	5.11195900
117.29999321	0.00000000	15.43430000	4.31840500
117.49999320	0.00000000	16.18479000	3.15575800
117.69999319	0.00000000	16.97219000	2.04232300
117.89999318	0.00000000	17.34744000	1.61786400
118.09999317	0.00000000	17.39050000	1.61786400
118.29999315	0.00000000	17.34744000	1.99311000
118.49999314	0.00000000	16.92298000	2.78051200
118.69999313	0.00000000	15.80955000	3.53100400
118.89999312	0.00000000	14.64690000	4.31840500
119.09999311	0.00000000	13.85334000	4.73671200
119.29999309	0.00000000	13.11516000	5.15501900
119.49999308	0.00000000	13.11516000	5.85014700
119.69999307	0.00000000	13.85334000	5.85014700
119.89999306	0.00000000	14.64690000	5.15501900
120.09999305	0.00000000	15.80955000	4.73671200
120.29999303	0.00000000	16.97219000	4.31840500
120.49999302	0.00000000	17.76575000	3.57406500
120.69999301	0.00000000	18.55315000	3.19881900
120.89999300	0.00000000	18.87918000	3.15575800
121.09999299	0.00000000	18.50394000	3.15575800
121.29999298	0.00000000	17.34744000	3.15575800
121.49999296	0.00000000	15.85261000	3.15575800
121.69999295	0.00000000	14.64690000	3.15575800
121.89999294	0.00000000	13.85334000	3.19881900
122.09999293	0.00000000	13.06594000	3.57406500
122.29999292	0.00000000	12.73991000	4.31840500
122.49999290	0.00000000	13.06594000	4.69365100
122.69999289	0.00000000	13.85334000	4.73671200
122.89999288	0.00000000	14.64690000	4.73671200
123.09999287	0.00000000	15.80955000	4.73671200
123.29999286	0.00000000	16.92298000	4.73671200
123.49999284	0.00000000	17.34744000	4.73671200
123.69999283	0.00000000	17.39050000	4.69365100
123.89999282	0.00000000	17.39050000	4.31840500
124.09999281	0.00000000	17.34744000	3.57406500
124.29999280	0.00000000	16.97219000	3.19881900
124.49999279	0.00000000	16.18479000	3.15575800
124.69999277	0.00000000	15.43430000	3.15575800
124.89999276	0.00000000	14.60384000	3.15575800
125.09999275	0.00000000	13.85334000	3.15575800
125.29999274	0.00000000	13.11516000	3.19881900
125.49999273	0.00000000	13.11516000	3.57406500
125.69999271	0.00000000	13.85334000	4.31840500
125.89999270	0.00000000	14.64690000	4.69365100
126.09999269	0.00000000	15.80955000	4.73671200
126.29999268	0.00000000	16.97219000	4.73671200
126.49999267	0.00000000	17.72268000	4.73671200
126.69999265	0.00000000	18.13484000	4.73671200
126.89999264	0.00000000	17.72268000	4.69365100
127.09999263	0.00000000	16.97219000	4.31840500
127.29999262	0.00000000	15.80955000	3.57406500
127.49999261	0.00000000	14.64690000	3.19881900
127.69999260	0.00000000	13.85334000	3.15575800
127.89999258	0.00000000	13.11516000	3.15575800
128.09999257	0.00000000	13.11516000	3.15575800
128.29999256	0.00000000	13.85334000	3.19881900
128.49999255	0.00000000	14.64690000	3.57406500
128.69999254	0.00000000	15.80955000	4.31840500
128.89999252	0.00000000	16.97219000	4.69365100
129.09999251	0.00000000	17.72268000	4.73671200
129.29999250	0.00000000	18.13484000	4.69365100
129.49999249	0.00000000	17.72268000	4.31840500
129.69999248	0.00000000	16.97219000	3.57406500
129.89999246	0.00000000	15.76649000	3.19881900
130.09999245	0.00000000	14.27165000	3.15575800
130.29999244	0.00000000	13.15822000	3.19881900
130.49999243	0.00000000	13.11516000	3.57406500
130.69999242	0.00000000	13.85334000	4.31840500
130.89999241	0.00000000	14.60384000	4.69365100
131.09999239	0.00000000	15.43430000	4.73671200
131.29999238	0.00000000	16.18479000	4.73671200
131.49999237	0.00000000	16.97219000	4.69365100
131.69999236	0.00000000	17.29823000	4.31840500
131.89999235	0.00000000	16.97219000	3.57406500
132.09999233	0.00000000	16.18479000	3.19881900
132.29999232	0.00000000	15.43430000	3.15575800
132.49999231	0.00000000	14.64690000	3.15575800
132.69999230	0.00000000	14.27165000	3.19881900
132.89999229	0.00000000	14.22859000	3.57406500
133.09999227	0.00000000	14.27165000	4.31840500
133.29999226	0.00000000	14.64690000	4.73671200
133.49999225	0.00000000	15.39124000	5.11195900
133.69999224	0.00000000	15.76649000	5.47490100
133.89999223	0.00000000	15.80955000	5.11195900
134.09999222	0.00000000	15.76649000	4.73671200
134.29999220	0.00000000	15.39124000	4.31840500
134.49999219	0.00000000	14.69611000	3.53100400
134.69999218	0.00000000	14.69611000	2.78051200
134.89999217	0.00000000	15.39124000	2.04232300
135.09999216	0.00000000	15.76649000	2.04232300
135.29999214	0.00000000	15.80955000	2.73745100
135.49999213	0.00000000	15.80955000	3.15575800
135.69999212	0.00000000	15.80955000	3.57406500
135.89999211	0.00000000	15.76649000	4.31840500
136.09999210	0.00000000	15.39124000	4.69365100
136.29999208	0.00000000	14.64690000	4.73671200
136.49999207	0.00000000	14.27165000	4.73671200
136.69999206	0.00000000	14.22859000	4.73671200
136.89999205	0.00000000	14.22859000	4.69365100
137.09999204	0.00000000	14.27165000	4.31840500
137.29999203	0.00000000	14.64690000	3.57406500
137.49999201	0.00000000	15.43430000	3.19881900
137.69999200	0.00000000	16.14173000	3.15575800
137.89999199	0.00000000	16.59695000	3.15575800
138.09999198	0.00000000	16.56004000	3.15575800
138.29999197	0.00000000	16.59695000	3.15575800
138.49999195	0.00000000	16.14173000	3.15575800
138.69999194	0.00000000	15.43430000	3.15575800
138.89999193	0.00000000	14.64690000	3.19881900
139.09999192	0.00000000	14.27165000	3.57406500
139.29999191	0.00000000	14.22859000	4.31840500
139.49999189	0.00000000	14.22859000	4.69365100
139.69999188	0.00000000	14.27165000	4.73671200
139.89999187	0.00000000	14.64690000	4.73671200
140.09999186	0.00000000	15.39124000	4.73671200
140.29999185	0.00000000	15.76649000	4.69365100
140.49999184	0.00000000	15.80955000	4.31840500
140.69999182	0.00000000	15.76649000	3.53100400
140.89999181	0.00000000	15.43430000	2.78051200
141.09999180	0.00000000	15.02214000	2.04232300
141.29999179	0.00000000	15.01599000	2.04232300
141.49999178	0.00000000	14.60384000	2.78051200
141.69999176	0.00000000	14.27165000	3.53100400
141.89999175	0.00000000	14.27165000	4.31840500
142.09999174	0.00000000	14.64690000	4.73671200
142.29999173	0.00000000	15.39124000	5.15501900
142.49999172	0.00000000	15.76649000	5.85014700
142.69999170	0.00000000	15.80955000	5.85014700
142.89999169	0.00000000	15.80955000	5.11195900
143.09999168	0.00000000	15.80955000	4.36146600
143.29999167	0.00000000	15.76649000	3.53100400
143.49999166	0.00000000	15.39124000	2.78051200
143.69999165	0.00000000	14.64690000	1.99311000
143.89999163	0.00000000	14.27165000	1.66707700
144.09999162	0.00000000	14.22859000	1.99311000
144.29999161	0.00000000	14.27165000	2.78051200
144.49999160	0.00000000	14.64690000	3.53100400
144.69999159	0.00000000	15.39124000	4.31840500
144.89999157	0.00000000	15.76649000	4.69365100
145.09999156	0.00000000	15.80955000	4.73671200
145.29999155	0.00000000	15.80955000	4.73671200
145.49999154	0.00000000	15.76649000	4.69365100
145.69999153	0.00000000	15.39124000	4.31840500
145.89999151	0.00000000	14.64690000	3.57406500
146.09999150	0.00000000	14.27165000	3.15575800
146.29999149	0.00000000	14.27165000	2.78051200
146.49999148	0.00000000	14.60384000	2.41141700
146.69999147	0.00000000	15.01599000	2.78051200
146.89999146	0.00000000	15.02214000	3.11269700
147.09999144	0.00000000	15.43430000	3.15575800
147.29999143	0.00000000	15.76649000	3.19881900
147.49999142	0.00000000	15.80955000	3.57406500
147.69999141	0.00000000	15.76649000	4.31840500
147.89999140	0.00000000	15.43430000	4.69365100
148.09999138	0.00000000	15.02214000	4.73671200
148.29999137	0.00000000	15.01599000	4.73671200
148.49999136	0.00000000	14.60384000	4.69365100
148.69999135	0.00000000	14.27165000	4.31840500
148.89999134	0.00000000	14.22859000	3.57406500
149.09999132	0.00000000	14.27165000	3.19881900
149.29999131	0.00000000	14.64690000	3.15575800
149.49999130	0.00000000	15.39124000	3.15575800
149.69999129	0.00000000	15.76649000	3.15575800
149.89999128	0.00000000	15.80955000	3.19881900
150.09999127	0.00000000	15.80955000	3.57406500
150.29999125	0.00000000	15.80955000	4.31840500
150.49999124	0.00000000	15.80955000	4.69365100
150.69999123	0.00000000	15.76649000	4.73671200
150.89999122	0.00000000	15.39124000	4.73671200
151.09999121	0.00000000	14.64690000	4.73671200
151.29999119	0.00000000	14.27165000	4.69365100
151.49999118	0.00000000	14.22859000	4.31840500
151.69999117	0.00000000	14.27165000	3.57406500
151.89999116	0.00000000	14.64690000	3.19881900
152.09999115	0.00000000	15.39124000	3.15575800
152.29999113	0.00000000	15.76649000	3.15575800
152.49999112	0.00000000	15.80955000	3.15575800
152.69999111	0.00000000	15.80955000	3.15575800
152.89999110	0.00000000	15.80955000	3.15575800
153.09999109	0.00000000	15.80955000	3.19881900
153.29999108	0.00000000	15.76649000	3.57406500
153.49999106	0.00000000	15.39124000	4.31840500
153.69999105	0.00000000	14.64690000	4.69365100
153.89999104	0.00000000	14.27165000	4.73671200
154.09999103	0.00000000	14.22859000	4.73671200
154.29999102	0.00000000	14.22859000	4.69365100
154.49999100	0.00000000	14.22859000	4.36146600
154.69999099	0.00000000	14.22859000	3.94931100
154.89999098	0.00000000	14.27165000	3.94315900
155.09999097	0.00000000	14.64690000	3.53100400
155.29999096	0.00000000	15.39124000	3.19881900
155.49999094	0.00000000	15.76649000	3.15575800
155.69999093	0.00000000	15.80955000	3.15575800
155.89999092	0.00000000	15.80955000	3.15575800
156.09999091	0.00000000	15.80955000	3.15575800
156.29999090	0.00000000	15.80955000	3.19881900
156.49999089	0.00000000	15.76649000	3.57406500
156.69999087	0.00000000	15.39124000	4.31840500
156.89999086	0.00000000	14.64690000	4.69365100
157.09999085	0.00000000	14.27165000	4.73671200
157.29999084	0.00000000	14.22859000	4.73671200
157.49999083	0.00000000	14.22859000	4.69365100
157.69999081	0.00000000	14.22859000	4.31840500
157.89999080	0.00000000	14.27165000	3.57406500
158.09999079	0.00000000	14.64690000	3.19881900
158.29999078	0.00000000	15.39124000	3.15575800
158.49999077	0.00000000	15.76649000	3.15575800
158.69999075	0.00000000	15.80955000	3.15575800
158.89999074	0.00000000	15.80955000	3.15575800
159.09999073	0.00000000	15.76649000	3.15575800
159.29999072	0.00000000	15.39124000	3.19881900
159.49999071	0.00000000	14.64690000	3.57406500
159.69999070	0.00000000	14.27165000	4.31840500
159.89999068	0.00000000	14.22859000	4.69365100
160.09999067	0.00000000	14.22859000	4.73671200
160.29999066	0.00000000	14.22859000	4.73671200
160.49999065	0.00000000	14.22859000	4.69365100
160.69999064	0.00000000	14.22859000	4.31840500
160.89999062	0.00000000	14.22859000	3.57406500
161.09999061	0.00000000	14.22859000	3.19881900
161.29999060	0.00000000	14.22859000	3.15575800
161.49999059	0.00000000	14.27165000	3.15575800
161.69999058	0.00000000	14.64690000	3.15575800
161.89999056	0.00000000	15.39124000	3.15575800
162.09999055	0.00000000	15.76649000	3.15575800
162.29999054	0.00000000	15.80955000	3.19881900
162.49999053	0.00000000	15.76649000	3.57406500
162.69999052	0.00000000	15.43430000	4.31840500
162.89999051	0.00000000	15.02214000	4.69365100
163.09999049	0.00000000	15.01599000	4.73671200
163.29999048	0.00000000	14.60384000	4.73671200
163.49999047	0.00000000	14.27165000	4.69365100
163.69999046	0.00000000	14.22859000	4.31840500
163.89999045	0.00000000	14.22859000	3.57406500
164.09999043	0.00000000	14.22859000	3.19881900
164.29999042	0.00000000	14.22859000	3.15575800
164.49999041	0.00000000	14.27165000	3.15575800
164.69999040	0.00000000	14.64690000	3.15575800
164.89999039	0.00000000	15.39124000	3.15575800
165.09999037	0.00000000	15.76649000	3.15575800
165.29999036	0.00000000	15.80955000	3.15575800
165.49999035	0.00000000	15.80955000	3.15575800
165.69999034	0.00000000	15.76649000	3.15575800
165.89999033	0.00000000	15.39124000	3.15575800
166.09999032	0.00000000	14.64690000	3.15575800
166.29999030	0.00000000	14.27165000	3.15575800
166.49999029	0.00000000	14.22859000	3.15575800
166.69999028	0.00000000	14.22859000	3.19881900
166.89999027	0.00000000	14.22859000	3.53100400
167.09999026	0.00000000	14.22859000	3.90009800
167.29999024	0.00000000	14.27165000	3.53100400
167.49999023	0.00000000	14.60384000	3.19881900
167.69999022	0.00000000	15.01599000	3.15575800
167.89999021	0.00000000	15.02214000	3.15575800
168.09999020	0.00000000	15.39124000	3.15575800
168.29999018	0.00000000	15.39124000	3.15575800
168.49999017	0.00000000	15.02214000	3.15575800
168.69999016	0.00000000	15.01599000	3.15575800
168.89999015	0.00000000	14.60384000	3.15575800
169.09999014	0.00000000	14.27165000	3.15575800
169.29999013	0.00000000	14.22859000	3.15575800
169.49999011	0.00000000	14.22859000	3.15575800
169.69999010	0.00000000	14.22859000	3.15575800
169.89999009	0.00000000	14.22859000	3.15575800
170.09999008	0.00000000	14.22859000	3.15575800
170.29999007	0.00000000	14.22859000	3.15575800
170.49999005	0.00000000	14.22859000	3.15575800
170.69999004	0.00000000	14.22859000	3.15575800
170.89999003	0.00000000	14.27165000	3.15575800
171.09999002	0.00000000	14.64690000	3.15575800
171.29999001	0.00000000	15.34203000	3.15575800
171.49998999	0.00000000	15.34203000	3.15575800
171.69998998	0.00000000	14.64690000	3.15575800
171.89998997	0.00000000	14.27165000	3.15575800
172.09998996	0.00000000	14.22859000	3.15575800
172.29998995	0.00000000	14.22859000	3.15575800
172.49998994	0.00000000	14.22859000	3.15575800
172.69998992	0.00000000	14.22859000	3.15575800
172.89998991	0.00000000	14.22859000	3.15575800
173.09998990	0.00000000	14.22859000	3.15575800
173.29998989	0.00000000	14.22859000	3.15575800
173.49998988	0.00000000	14.22859000	3.15575800
173.69998986	0.00000000	14.22859000	3.15575800
173.89998985	0.00000000	14.22859000	3.15575800
174.09998984	0.00000000	14.22859000	3.15575800
174.29998983	0.00000000	14.22859000	3.15575800
174.49998982	0.00000000	14.22859000	3.15575800
174.69998980	0.00000000	14.22859000	3.15575800
174.89998979	0.00000000	14.22859000	3.15575800
175.09998978	0.00000000	14.22859000	3.15575800
175.29998977	0.00000000	14.22859000	3.15575800
175.49998976	0.00000000	14.27165000	3.15575800
175.69998975	0.00000000	14.60384000	3.15575800
175.89998973	0.00000000	14.97293000	3.15575800
176.09998972	0.00000000	14.60384000	3.15575800
176.29998971	0.00000000	14.27165000	3.19881900
176.49998970	0.00000000	14.22859000	3.53100400
176.69998969	0.00000000	14.27165000	3.94315900
176.89998967	0.00000000	14.60384000	3.90625000
177.09998966	0.00000000	14.97293000	3.94315900
177.29998965	0.00000000	14.60384000	3.53100400
177.49998964	0.00000000	14.27165000	3.19881900
177.69998963	0.00000000	14.22859000	3.15575800
177.89998961	0.00000000	14.22859000	3.15575800
178.09998960	0.00000000	14.22859000	3.15575800
178.29998959	0.00000000	14.22859000	3.15575800
178.49998958	0.00000000	14.22859000	3.15575800
178.69998957	0.00000000	14.22859000	3.15575800
178.89998956	0.00000000	14.22859000	3.15575800
179.09998954	0.00000000	14.22859000	3.15575800
179.29998953	0.00000000	14.22859000	3.15575800
179.49998952	0.00000000	14.22859000	3.15575800
179.69998951	0.00000000	14.22859000	3.15575800
179.89998950	0.00000000	14.22859000	3.15575800
180.09998948	0.00000000	14.22859000	3.15575800
180.29998947	0.00000000	14.22859000	3.15575800
180.49998946	0.00000000	14.22859000	3.15575800
180.69998945	0.00000000	14.22859000	3.15575800
180.89998944	0.00000000	14.22859000	3.15575800
181.09998942	0.00000000	14.22859000	3.15575800
181.29998941	0.00000000	14.22859000	3.15575800
181.49998940	0.00000000	14.22859000	3.19881900
181.69998939	0.00000000	14.22859000	3.57406500
181.89998938	0.00000000	14.22859000	4.31840500
182.09998937	0.00000000	14.22859000	4.64443900
182.29998935	0.00000000	14.22859000	4.31840500
182.49998934	0.00000000	14.22859000	3.57406500
182.69998933	0.00000000	14.27165000	3.19881900
182.89998932	0.00000000	14.60384000	3.15575800
183.09998931	0.00000000	14.97293000	3.15575800
183.29998929	0.00000000	14.60384000	3.15575800
183.49998928	0.00000000	14.27165000	3.15575800
183.69998927	0.00000000	14.22859000	3.15575800
183.89998926	0.00000000	14.22859000	3.15575800
184.09998925	0.00000000	14.22859000	3.15575800
184.29998923	0.00000000	14.22859000	3.15575800
184.49998922	0.00000000	14.22859000	3.19881900
184.69998921	0.00000000	14.22859000	3.57406500
184.89998920	0.00000000	14.22859000	4.31840500
185.09998919	0.00000000	14.22859000	4.69365100
185.29998918	0.00000000	14.22859000	4.69365100
185.49998916	0.00000000	14.22859000	4.31840500
185.69998915	0.00000000	14.22859000	3.57406500
185.89998914	0.00000000	14.22859000	3.19881900
186.09998913	0.00000000	14.22859000	3.15575800
186.29998912	0.00000000	14.22859000	3.15575800
186.49998910	0.00000000	14.22859000	3.15575800
186.69998909	0.00000000	14.22859000	3.15575800
186.89998908	0.00000000	14.22859000	3.15575800
187.09998907	0.00000000	14.22859000	3.15575800
187.29998906	0.00000000	14.22859000	3.19881900
187.49998904	0.00000000	14.22859000	3.57406500
187.69998903	0.00000000	14.22859000	4.31840500
187.89998902	0.00000000	14.22859000	4.69365100
188.09998901	0.00000000	14.22859000	4.69365100
188.29998900	0.00000000	14.22859000	4.31840500
188.49998899	0.00000000	14.22859000	3.57406500
188.69998897	0.00000000	14.22859000	3.19881900
188.89998896	0.00000000	14.22859000	3.15575800
189.09998895	0.00000000	14.22859000	3.15575800
189.29998894	0.00000000	14.22859000	3.15575800
189.49998893	0.00000000	14.22859000	3.15575800
189.69998891	0.00000000	14.22859000	3.15575800
189.89998890	0.00000000	14.22859000	3.15575800
190.09998889	0.00000000	14.22859000	3.15575800
190.29998888	0.00000000	14.22859000	3.15575800
190.49998887	0.00000000	14.22859000	3.15575800
190.69998885	0.00000000	14.22859000	3.15575800
190.89998884	0.00000000	14.22859000	3.15575800
191.09998883	0.00000000	14.22859000	3.15575800
191.29998882	0.00000000	14.22859000	3.15575800
191.49998881	0.00000000	14.22859000	3.15575800
191.69998880	0.00000000	14.22859000	3.15575800
191.89998878	0.00000000	14.22859000	3.15575800
192.09998877	0.00000000	14.22859000	3.15575800
192.29998876	0.00000000	14.22859000	3.15575800
192.49998875	0.00000000	14.22859000	3.15575800
192.69998874	0.00000000	14.22859000	3.15575800
192.89998872	0.00000000	14.22859000	3.15575800
193.09998871	0.00000000	14.22859000	3.15575800
193.29998870	0.00000000	14.22859000	3.15575800
193.49998869	0.00000000	14.22859000	3.15575800
193.69998868	0.00000000	14.22859000	3.15575800
193.89998866	0.00000000	14.22859000	3.15575800
194.09998865	0.00000000	14.22859000	3.15575800
194.29998864	0.00000000	14.22859000	3.15575800
194.49998863	0.00000000	14.22859000	3.15575800
194.69998862	0.00000000	14.22859000	3.15575800
194.89998861	0.00000000	14.22859000	3.15575800
195.09998859	0.00000000	14.22859000	3.15575800
195.29998858	0.00000000	14.22859000	3.15575800
195.49998857	0.00000000	14.22859000	3.15575800
195.69998856	0.00000000	14.22859000	3.15575800
195.89998855	0.00000000	14.22859000	3.15575800
196.09998853	0.00000000	14.22859000	3.15575800
