Time	Channel A	Channel B	Channel C
(us)	(V)	(mV)	(mV)

-4.49999956	0.00000000	23.71432000	4.73671200
-4.29999957	0.00000000	23.71432000	4.77977300
-4.09999958	0.00000000	23.71432000	5.11195900
-3.89999959	0.00000000	23.71432000	5.47490100
-3.69999960	0.00000000	23.71432000	5.11195900
-3.49999962	0.00000000	23.71432000	4.77977300
-3.29999963	0.00000000	23.71432000	4.73671200
-3.09999964	0.00000000	23.71432000	4.73671200
-2.89999965	0.00000000	23.71432000	4.73671200
-2.69999966	0.00000000	23.71432000	4.73671200
-2.49999968	0.00000000	23.71432000	4.73671200
-2.29999969	0.00000000	23.71432000	4.73671200
-2.09999970	0.00000000	23.71432000	4.73671200
-1.89999971	0.00000000	23.71432000	4.73671200
-1.69999972	0.00000000	23.71432000	4.77977300
-1.49999973	0.00000000	23.71432000	5.15501900
-1.29999975	0.00000000	23.71432000	5.89320800
-1.09999976	0.00000000	23.71432000	6.26845500
-0.89999977	0.00000000	23.71432000	6.31151500
-0.69999978	0.00000000	23.71432000	6.26845500
-0.49999979	0.00000000	23.71432000	5.89320800
-0.29999981	0.15871060	23.71432000	5.15501900
-0.09999982	0.63668800	23.71432000	4.77977300
0.10000017	0.95533960	23.71432000	4.73671200
0.30000016	0.95533960	23.71432000	4.73671200
0.50000015	0.95533960	23.71432000	4.73671200
0.70000013	0.31803640	23.71432000	4.73671200
0.90000012	-0.47736220	23.71432000	4.73671200
1.10000011	-1.43331700	23.71432000	4.73671200
1.30000010	-2.22994600	23.71432000	4.73671200
1.50000009	-2.70792300	23.71432000	4.77977300
1.70000008	-2.54859700	23.71432000	5.15501900
1.90000006	-1.59264300	23.71432000	5.89320800
2.10000005	0.31803640	23.71432000	6.21924200
2.30000004	2.38927200	23.71432000	5.89320800
2.50000003	4.30056600	23.71432000	5.15501900
2.70000002	5.25652100	23.71432000	4.77977300
2.90000000	4.93786900	23.71432000	4.73671200
3.09999999	3.18590100	23.71432000	4.73671200
3.29999998	0.31803640	23.71432000	4.73671200
3.49999997	-3.02657500	23.71432000	4.73671200
3.69999996	-6.05315000	23.71432000	4.77977300
3.89999994	-7.80511800	23.71432000	5.15501900
4.09999993	-7.64579200	23.71432000	5.89320800
4.29999992	-5.41584600	23.71432000	6.26845500
4.49999991	-1.59264300	23.71432000	6.31151500
4.69999990	2.70792300	23.71432000	6.31151500
4.89999989	6.69045300	23.71432000	6.26845500
5.09999987	9.07972400	23.71432000	5.89320800
5.29999986	9.23905000	23.71432000	5.15501900
5.49999985	7.00848900	23.71432000	4.77977300
5.69999984	3.02657500	23.71432000	4.73671200
5.89999983	-1.75196900	23.71432000	4.73671200
6.09999981	-6.21247500	23.71432000	4.77977300
6.29999980	-8.92039900	23.71432000	5.15501900
6.49999979	-9.39837600	23.71432000	5.89320800
6.69999978	-7.64579200	23.71432000	6.26845500
6.89999977	-3.98191400	23.67126000	6.26845500
7.09999975	0.47736220	23.33907000	5.89320800
7.29999974	4.45989200	22.96998000	5.15501900
7.49999973	7.00848900	23.33907000	4.77977300
7.69999972	7.80511800	23.67126000	4.73671200
7.89999971	6.53112700	23.71432000	4.73671200
8.09999970	3.82258900	23.71432000	4.73671200
8.29999968	0.47736220	23.71432000	4.73671200
8.49999967	-2.54859700	23.71432000	4.73671200
8.69999966	-4.61921700	23.71432000	4.73671200
8.89999965	-5.25652100	23.71432000	4.73671200
9.09999964	-4.61921700	23.71432000	4.73671200
9.29999962	-2.86724900	23.71432000	4.73671200
9.49999961	-0.95533960	23.71432000	4.73671200
9.69999960	0.79601380	23.71432000	4.73671200
9.89999959	2.07062000	23.71432000	4.73671200
10.09999958	2.54859700	23.71432000	4.73671200
10.29999956	2.22994600	23.71432000	4.73671200
10.49999955	1.59264300	23.71432000	4.73671200
10.69999954	0.63668800	23.71432000	4.73671200
10.89999953	-0.15871060	23.71432000	4.73671200
11.09999952	-0.63668800	23.71432000	4.77977300
11.29999951	-0.95533960	23.71432000	5.11195900
11.49999949	-0.95533960	23.67126000	5.47490100
11.69999948	-0.79601380	23.33907000	5.11195900
11.89999947	-0.47736220	22.96998000	4.77977300
12.09999946	-0.15871060	23.33907000	4.73671200
12.29999945	-0.15871060	23.67126000	4.73671200
12.49999943	0.00000000	23.71432000	4.73671200
12.69999942	0.00000000	23.71432000	4.73671200
12.89999941	0.00000000	23.71432000	4.73671200
13.09999940	0.00000000	23.71432000	4.73671200
13.29999939	0.00000000	23.71432000	4.73671200
13.49999937	0.00000000	23.71432000	4.73671200
13.69999936	0.00000000	23.71432000	4.73671200
13.89999935	0.00000000	23.71432000	4.73671200
14.09999934	-0.15871060	23.71432000	4.73671200
14.29999933	-0.15871060	23.71432000	4.73671200
14.49999932	-0.15871060	23.71432000	4.77977300
14.69999930	-0.15871060	23.71432000	5.11195900
14.89999929	0.00000000	23.71432000	5.47490100
15.09999928	0.00000000	23.71432000	5.11195900
15.29999927	0.00000000	23.71432000	4.77977300
15.49999926	0.00000000	23.71432000	4.73671200
15.69999924	0.00000000	23.71432000	4.73671200
15.89999923	0.00000000	23.71432000	4.73671200
16.09999922	0.00000000	23.71432000	4.77977300
16.29999921	-0.15871060	23.71432000	5.11195900
16.49999920	-0.15871060	23.71432000	5.47490100
16.69999919	-0.15871060	23.71432000	5.11195900
16.89999917	-0.15871060	23.75738000	4.77977300
17.09999916	0.00000000	24.13263000	4.73671200
17.29999915	0.00000000	24.87697000	4.73671200
17.49999914	0.00000000	25.25221000	4.73671200
17.69999913	0.00000000	25.25221000	4.73671200
17.89999911	0.00000000	24.82775000	4.73671200
18.09999910	0.00000000	23.67126000	4.73671200
18.29999909	0.00000000	22.13336000	4.73671200
18.49999908	0.00000000	20.55241000	4.73671200
18.69999907	0.00000000	19.01451000	4.73671200
18.89999905	-0.15871060	17.90108000	4.73671200
19.09999904	0.00000000	17.94414000	4.73671200
19.29999903	0.00000000	19.48204000	4.73671200
19.49999902	0.00000000	22.22564000	4.73671200
19.69999901	0.00000000	25.71358000	4.73671200
19.89999900	0.00000000	29.61983000	4.73671200
20.09999898	0.00000000	33.06471000	4.73671200
20.29999897	0.00000000	35.30389000	4.73671200
20.49999896	0.00000000	34.83636000	4.73671200
20.69999895	0.00000000	30.97933000	4.73671200
20.89999894	0.00000000	24.74163000	4.73671200
21.09999892	0.00000000	17.01525000	4.73671200
21.29999891	0.00000000	9.30118100	4.73671200
21.49999890	0.00000000	3.94315900	4.73671200
21.69999889	0.00000000	2.08538400	4.73671200
21.89999888	0.00000000	5.29035400	4.73671200
22.09999886	0.00000000	13.80413000	4.73671200
22.29999885	0.00000000	25.76279000	4.73671200
22.49999884	0.00000000	38.50886000	4.73671200
22.69999883	0.00000000	48.93578000	4.73671200
22.89999882	0.00000000	54.65674000	4.77977300
23.09999881	0.00000000	53.77091000	5.15501900
23.29999879	0.00000000	45.21407000	5.89320800
23.49999878	0.00000000	30.51181000	6.26845500
23.69999877	0.00000000	12.73991000	6.31151500
23.89999876	0.00000000	-4.23843500	6.31151500
24.09999875	0.00000000	-16.15404000	6.31151500
24.29999873	0.00000000	-19.92495000	6.21924200
24.49999872	0.00000000	-13.68725000	5.47490100
24.69999871	0.00000000	1.79626000	3.94931100
24.89999870	0.00000000	23.06225000	2.78051200
25.09999869	0.00000000	45.81693000	1.57480300
25.29999867	0.00000000	64.29010000	0.46136810
25.49999866	0.00000000	73.55437000	0.13533460
25.69999865	0.00000000	71.59202000	0.97194880
25.89999864	0.00000000	58.42765000	3.70939900
26.09999863	0.00000000	36.79257000	7.89247000
26.29999862	0.00000000	11.71260000	12.11860000
26.49999860	0.00000000	-11.07899000	15.23130000
26.69999859	0.00000000	-26.11343000	16.76919000
26.89999858	0.00000000	-29.97047000	16.30167000
27.09999857	0.00000000	-21.50590000	13.14591000
27.29999856	0.00000000	-2.98966500	7.33882900
27.49999854	0.00000000	20.97687000	0.00000000
27.69999853	0.00000000	45.30634000	-7.33882900
27.89999852	0.00000000	64.19783000	-13.05364000
28.09999851	0.00000000	73.17913000	-15.32972000
28.29999850	0.00000000	70.89690000	-12.96752000
28.49999848	0.00000000	58.56299000	-6.36687900
28.69999847	0.00000000	38.84104000	3.75246000
28.89999846	0.00000000	16.45546000	15.69882000
29.09999845	0.00000000	-3.64173200	26.80241000
29.29999844	0.00000000	-16.80610000	33.67987000
29.49999843	0.00000000	-20.38632000	34.09818000
29.69999841	0.00000000	-14.66535000	28.29109000
29.89999840	0.00000000	-1.54404500	17.37205000
30.09999839	0.00000000	15.90182000	2.69439000
30.29999838	0.00000000	34.00591000	-12.72761000
30.49999837	0.00000000	48.74508000	-25.04306000
30.69999835	0.00000000	56.56988000	-31.54527000
30.89999834	0.00000000	57.44340000	-29.97047000
31.09999833	0.00000000	51.58710000	-20.34941000
31.29999832	0.00000000	40.04675000	-5.29650500
31.49999831	0.00000000	25.76279000	12.12475000
31.69999829	0.00000000	12.17397000	28.34030000
31.89999828	0.00000000	1.71013800	39.95448000
32.09999827	0.00000000	-3.68479300	44.55585000
32.29999826	-0.15871060	-2.61441900	41.06791000
32.49999825	0.00000000	3.89394600	29.87205000
32.69999824	0.00000000	13.53346000	13.65650000
32.89999822	0.00000000	24.41560000	-4.14000900
33.09999821	0.00000000	34.09818000	-19.98031000
33.29999820	0.00000000	41.03100000	-30.38878000
33.49999819	0.00000000	43.35015000	-33.12623000
33.69999818	0.00000000	40.32972000	-27.73745000
33.89999816	0.00000000	33.85827000	-15.79724000
34.09999815	0.00000000	25.71358000	0.04306102
34.29999814	0.00000000	17.98720000	16.30167000
34.49999813	0.00000000	12.17397000	29.87205000
34.69999812	0.00000000	9.47957600	38.28125000
34.89999810	0.00000000	10.59301000	39.06865000
35.09999809	0.00000000	14.78223000	31.82825000
35.29999808	0.00000000	20.55241000	19.50664000
35.49999807	0.00000000	26.36565000	4.82898600
35.69999806	0.00000000	30.97318000	-9.06126900
35.89999805	0.00000000	33.25541000	-18.73154000
36.09999803	0.00000000	32.13582000	-22.63164000
36.29999802	0.00000000	28.32185000	-19.93110000
36.49999801	0.00000000	23.33907000	-11.47884000
36.69999800	0.00000000	18.31939000	0.41830710
36.89999799	0.00000000	14.87451000	12.72761000
37.09999797	0.00000000	13.71186000	21.93036000
37.29999796	0.00000000	15.24975000	25.83046000
37.49999795	-0.15871060	19.06373000	23.55438000
37.69999794	0.00000000	23.67126000	16.30167000
37.89999793	0.00000000	27.94660000	6.36072800
38.09999791	0.00000000	31.02239000	-3.25418300
38.29999790	0.00000000	32.17888000	-9.76254800
38.49999789	0.00000000	31.06545000	-11.66339000
38.69999788	0.00000000	28.36491000	-7.85556000
38.89999787	0.00000000	24.82775000	0.09227362
39.09999786	0.00000000	20.59547000	8.96284400
39.29999784	0.00000000	16.73843000	16.67692000
39.49999783	-0.15871060	14.40699000	21.55512000
39.69999782	0.00000000	13.61959000	21.13681000
39.89999781	0.00000000	14.78223000	15.05290000
40.09999780	0.00000000	17.48277000	5.89320800
40.29999778	0.00000000	21.01993000	-3.72170300
40.49999777	0.00000000	25.25221000	-11.01132000
40.69999776	0.00000000	29.10925000	-14.08095000
40.89999775	0.00000000	31.44069000	-12.12475000
41.09999774	0.00000000	32.27116000	-5.20423200
41.29999772	0.00000000	31.44069000	4.69365100
41.49999771	0.00000000	29.15231000	14.30241000
41.69999770	0.00000000	25.62746000	20.90305000
41.89999769	0.00000000	21.80118000	23.60359000
42.09999768	0.00000000	18.27633000	21.69045000
42.29999767	0.00000000	15.94488000	15.56348000
42.49999765	0.00000000	14.78223000	7.47416300
42.69999764	0.00000000	15.15748000	-0.97810030
42.89999763	0.00000000	17.05832000	-7.52337600
43.09999762	0.00000000	19.38976000	-10.27313000
43.29999761	0.00000000	22.13336000	-9.52263600
43.49999759	0.00000000	24.78469000	-5.29650500
43.69999758	0.00000000	26.36565000	1.20570900
43.89999757	0.00000000	26.83317000	7.71407400
44.09999756	0.00000000	26.83317000	12.77067000
44.29999755	0.00000000	26.45792000	15.09596000
44.49999753	0.00000000	25.71358000	14.81299000
44.69999752	0.00000000	25.33834000	12.49385000
44.89999751	0.00000000	25.29527000	9.05511800
45.09999750	0.00000000	25.25221000	5.15501900
45.29999749	0.00000000	24.82775000	1.71013800
45.49999748	0.00000000	23.62205000	-0.60285430
45.69999746	0.00000000	21.66585000	-1.02116100
45.89999745	0.00000000	18.92839000	0.09227362
46.09999744	0.00000000	15.90182000	2.04232300
46.29999743	0.00000000	13.61959000	4.73671200
46.49999742	0.00000000	13.29355000	7.43110200
46.69999740	0.00000000	15.20054000	9.33809000
46.89999739	0.00000000	19.14985000	10.11934000
47.09999738	0.00000000	24.55093000	9.38115100
47.29999737	0.00000000	30.73942000	7.84940900
47.49999736	0.00000000	35.72219000	5.89320800
47.69999734	0.00000000	38.37352000	3.57406500
47.89999733	0.00000000	37.53691000	1.62401600
48.09999732	0.00000000	32.51107000	0.09227362
48.29999731	0.00000000	24.82775000	-0.65206690
48.49999730	0.00000000	16.27707000	0.13533460
48.69999729	0.00000000	8.59375000	2.04232300
48.89999727	0.00000000	3.61712600	4.77977300
49.09999726	0.00000000	3.29109200	7.84940900
49.29999725	0.00000000	7.85556000	10.53765000
49.49999724	0.00000000	15.98794000	12.07554000
49.69999723	0.00000000	25.62746000	12.03248000
49.89999721	0.00000000	34.88558000	10.11934000
50.09999720	0.00000000	41.03100000	6.68676100
50.29999719	0.00000000	42.56274000	3.19881900
50.49999718	0.00000000	39.11786000	0.04306102
50.69999717	0.00000000	31.39763000	-2.60211600
50.89999715	0.00000000	21.80118000	-3.71555100
51.09999714	-0.15871060	12.54921000	-2.55905500
51.29999713	-0.15871060	6.40378900	0.51058070
51.49999712	0.00000000	4.82283400	4.73671200
51.69999711	0.00000000	7.89862200	8.96284400
51.89999710	0.00000000	14.82529000	12.07554000
52.09999708	0.00000000	23.62205000	13.61343000
52.29999707	0.00000000	31.71752000	13.18898000
52.49999706	0.00000000	36.74950000	10.53765000
52.69999705	0.00000000	37.91216000	6.72982200
52.89999704	0.00000000	34.83636000	3.19881900
53.09999702	0.00000000	28.32185000	0.09227362
53.29999701	0.00000000	20.64468000	-2.18380900
53.49999700	0.00000000	13.71186000	-2.50984200
53.69999699	0.00000000	9.52263600	-0.64591530
53.89999698	0.00000000	9.47957600	2.73745100
54.09999696	0.00000000	13.29355000	5.80093500
54.29999695	0.00000000	19.43897000	7.75713500
54.49999694	0.00000000	26.32259000	8.54453700
54.69999693	0.00000000	31.71752000	7.80019600
54.89999692	0.00000000	34.04897000	6.31151500
55.09999691	0.00000000	33.29847000	4.73671200
55.29999689	0.00000000	29.44143000	3.24803100
55.49999688	0.00000000	23.71432000	2.50369100
55.69999687	0.00000000	17.94414000	3.24803100
55.89999686	0.00000000	13.71186000	4.73671200
56.09999685	0.00000000	12.17397000	6.31151500
56.29999683	0.00000000	13.66880000	7.80019600
56.49999682	0.00000000	17.48277000	8.50147600
56.69999681	0.00000000	22.13336000	7.33882900
56.89999680	0.00000000	26.78395000	4.68750000
57.09999679	0.00000000	30.59793000	1.62401600
57.29999677	0.00000000	32.13582000	-1.07037400
57.49999676	0.00000000	30.97318000	-2.60211600
57.69999675	0.00000000	27.57136000	-2.55905500
57.89999674	0.00000000	22.96998000	-0.55979330
58.09999673	0.00000000	19.14985000	3.66633800
58.29999672	0.00000000	16.73843000	9.00590400
58.49999670	0.00000000	15.98794000	13.61343000
58.69999669	0.00000000	16.73843000	16.25861000
58.89999668	0.00000000	19.06373000	15.88336000
59.09999667	0.00000000	22.09030000	12.40773000
59.29999666	0.00000000	24.78469000	7.01279500
59.49999664	0.00000000	26.36565000	0.46751960
59.69999663	0.00000000	26.74089000	-5.29650500
59.89999662	0.00000000	25.99040000	-8.73523500
60.09999661	0.00000000	24.08957000	-9.10433000
60.29999660	0.00000000	22.22564000	-5.62253900
60.49999658	0.00000000	21.01993000	0.51058070
60.69999657	0.00000000	20.59547000	7.84940900
60.89999656	0.00000000	20.59547000	14.76993000
61.09999655	0.00000000	21.01993000	19.37131000
61.29999654	0.00000000	22.13336000	20.48474000
61.49999653	0.00000000	23.24680000	17.42126000
61.69999651	0.00000000	23.67126000	10.91289000
61.89999650	0.00000000	23.67126000	3.19881900
62.09999649	0.00000000	23.24680000	-4.14000900
62.29999648	0.00000000	22.09030000	-9.52263600
62.49999647	0.00000000	20.59547000	-11.42962000
62.69999645	0.00000000	19.43897000	-9.52263600
62.89999644	0.00000000	19.06373000	-4.14000900
63.09999643	0.00000000	19.43897000	3.15575800
63.29999642	0.00000000	20.64468000	10.49459000
63.49999641	0.00000000	22.55167000	16.30167000
63.69999639	0.00000000	24.78469000	19.37131000
63.89999638	0.00000000	25.94734000	19.04527000
64.09999637	0.00000000	25.62746000	15.56348000
64.29999636	0.00000000	24.87697000	10.16855000
64.49999635	0.00000000	23.67126000	3.57406500
64.69999634	0.00000000	22.13336000	-2.55905500
64.89999632	0.00000000	20.64468000	-6.78518600
65.09999631	0.00000000	19.85728000	-8.03395600
65.29999630	0.00000000	20.22022000	-6.55142700
65.49999629	0.00000000	20.97072000	-3.80782500
65.69999628	0.00000000	22.13336000	0.46136810
65.89999626	0.00000000	23.24680000	5.43184000
66.09999625	0.00000000	23.67126000	9.33809000
66.29999624	0.00000000	23.67126000	12.11860000
66.49999623	0.00000000	23.24680000	13.65650000
66.69999622	0.00000000	22.09030000	13.69956000
66.89999620	0.00000000	20.59547000	12.53691000
67.09999619	0.00000000	19.48204000	10.58686000
67.29999618	0.00000000	19.48204000	7.84940900
67.49999617	0.00000000	20.64468000	4.73671200
67.69999616	0.00000000	22.55167000	1.58095500
67.89999615	0.00000000	24.87697000	-1.48868100
68.09999613	0.00000000	26.78395000	-3.80782500
68.29999612	0.00000000	27.90354000	-4.60137700
68.49999611	0.00000000	27.48524000	-4.18307100
68.69999610	0.00000000	25.20300000	-2.18380900
68.89999609	0.00000000	22.09030000	1.66707700
69.09999607	0.00000000	18.59621000	6.31151500
69.29999606	0.00000000	15.15748000	10.95595000
69.49999605	0.00000000	13.29355000	14.81299000
69.69999604	0.00000000	13.66880000	16.71998000
69.89999603	0.00000000	16.36319000	16.30167000
70.09999601	0.00000000	20.59547000	13.23819000
70.29999600	0.00000000	25.25221000	8.22465500
70.49999599	0.00000000	29.57062000	2.82972400
70.69999598	0.00000000	32.97859000	-2.22687000
70.89999597	0.00000000	34.46112000	-5.67175200
71.09999596	0.00000000	32.46801000	-6.87130900
71.29999594	0.00000000	27.57136000	-5.67175200
71.49999593	0.00000000	21.38902000	-2.22687000
71.69999592	0.00000000	15.94488000	2.78051200
71.89999591	0.00000000	11.66339000	7.75713500
72.09999590	0.00000000	9.38730200	11.65723000
72.29999588	0.00000000	10.17470000	13.61343000
72.49999587	0.00000000	13.61959000	13.61343000
72.69999586	0.00000000	19.01451000	11.70029000
72.89999585	0.00000000	24.82775000	8.26771600
73.09999584	0.00000000	29.85974000	4.82283400
73.29999582	0.00000000	33.34769000	2.08538400
73.49999581	0.00000000	34.09818000	0.55364170
73.69999580	0.00000000	32.18504000	0.51058070
73.89999579	0.00000000	27.94660000	1.62401600
74.09999578	0.00000000	22.60088000	3.11269700
74.29999577	0.00000000	17.94414000	4.31840500
74.49999575	0.00000000	14.78223000	5.06274600
74.69999574	0.00000000	13.24434000	5.43184000
74.89999573	0.00000000	13.66880000	4.64443900
75.09999572	0.00000000	16.32013000	3.19881900
75.29999571	0.00000000	20.13410000	2.08538400
75.49999569	0.00000000	23.57899000	2.12844500
75.69999568	0.00000000	25.94734000	3.66633800
75.89999567	0.00000000	26.78395000	6.31151500
76.09999566	0.00000000	26.78395000	9.00590400
76.29999565	0.00000000	26.03961000	10.91289000
76.49999563	0.00000000	24.46481000	11.65723000
76.69999562	0.00000000	22.96383000	10.49459000
76.89999561	0.00000000	21.38902000	7.75713500
77.09999560	0.00000000	20.68774000	3.90009800
77.29999559	0.00000000	20.97072000	-0.69512790
77.49999558	0.00000000	21.71506000	-4.13385800
77.69999556	0.00000000	22.04109000	-5.71481200
77.89999555	0.00000000	21.71506000	-5.24729300
78.09999554	0.00000000	20.92766000	-2.18380900
78.29999553	0.00000000	20.17716000	2.78051200
78.49999552	0.00000000	19.38976000	7.80019600
78.69999550	0.00000000	19.06373000	12.07554000
78.89999549	0.00000000	19.48204000	14.76993000
79.09999548	0.00000000	21.01993000	15.14518000
79.29999547	0.00000000	23.29601000	13.23819000
79.49999546	0.00000000	25.25221000	9.38115100
79.69999544	0.00000000	26.78395000	4.77977300
79.89999543	0.00000000	27.52830000	0.51058070
80.09999542	0.00000000	26.74089000	-2.60211600
80.29999541	0.00000000	24.82775000	-4.18307100
80.49999540	0.00000000	22.09030000	-4.18307100
80.69999539	0.00000000	19.06373000	-2.64517700
80.89999537	0.00000000	16.73843000	0.09227362
81.09999536	0.00000000	15.98794000	3.53100400
81.29999535	0.00000000	16.73843000	7.05585600
81.49999534	0.00000000	19.06373000	9.75639700
81.69999533	0.00000000	22.09030000	11.74951000
81.89999531	0.00000000	24.82775000	12.45079000
82.09999530	0.00000000	26.74089000	11.74951000
82.29999529	0.00000000	27.52830000	9.79945900
82.49999528	0.00000000	26.78395000	7.47416300
82.69999527	0.00000000	25.25221000	4.73671200
82.89999525	0.00000000	23.29601000	2.04232300
83.09999524	0.00000000	20.97072000	0.04306102
83.29999523	0.00000000	19.10679000	-1.53174200
83.49999522	0.00000000	18.27633000	-2.64517700
83.69999521	0.00000000	18.63927000	-2.60211600
83.89999520	0.00000000	19.38976000	-1.02116100
84.09999518	0.00000000	20.55241000	2.04232300
84.29999517	0.00000000	21.71506000	5.89320800
84.49999516	0.00000000	22.50861000	9.38115100
84.69999515	0.00000000	23.29601000	12.11860000
84.89999514	0.00000000	23.62205000	13.61343000
85.09999512	0.00000000	23.29601000	13.23819000
85.29999511	0.00000000	22.55167000	10.86983000
85.49999510	0.00000000	22.22564000	7.05585600
85.69999509	0.00000000	22.50861000	2.41756900
85.89999508	0.00000000	22.87770000	-1.44562000
86.09999506	0.00000000	22.50861000	-4.18307100
86.29999505	0.00000000	22.13336000	-5.25344500
86.49999504	0.00000000	21.71506000	-3.71555100
86.69999503	0.00000000	20.92766000	0.09227362
86.89999502	0.00000000	20.17716000	4.73671200
87.09999501	0.00000000	19.38976000	9.33809000
87.29999499	0.00000000	19.06373000	12.81988000
87.49999498	0.00000000	19.43897000	13.98253000
87.69999497	0.00000000	20.59547000	13.23819000
87.89999496	0.00000000	22.13336000	10.45152000
88.09999495	0.00000000	23.67126000	5.89320800
88.29999493	0.00000000	24.82775000	0.92888770
88.49999492	0.00000000	25.20300000	-2.55905500
88.69999491	0.00000000	24.82775000	-4.14000900
88.89999490	0.00000000	23.67126000	-3.71555100
89.09999489	0.00000000	22.13336000	-1.02116100
89.29999487	0.00000000	20.59547000	3.20497000
89.49999486	0.00000000	19.43897000	7.80019600
89.69999485	0.00000000	19.06373000	11.65723000
89.89999484	0.00000000	19.43897000	13.52116000
90.09999483	0.00000000	20.55241000	12.77067000
90.29999482	0.00000000	21.71506000	9.33809000
90.49999480	0.00000000	22.50861000	4.77977300
90.69999479	0.00000000	23.24680000	0.51058070
90.89999478	0.00000000	23.24680000	-2.60211600
91.09999477	-0.15871060	22.55167000	-4.09079700
91.29999476	0.00000000	22.17643000	-3.29724400
91.49999474	0.00000000	22.13336000	0.13533460
91.69999473	0.00000000	22.13336000	4.69365100
91.89999472	0.00000000	22.17643000	8.96284400
92.09999471	0.00000000	22.50861000	12.03248000
92.29999470	0.00000000	22.87770000	13.18898000
92.49999468	0.00000000	22.50861000	11.98942000
92.69999467	0.00000000	22.13336000	8.58759800
92.89999466	0.00000000	21.66585000	3.94931100
93.09999465	0.00000000	20.55241000	-0.23991140
93.29999464	0.00000000	19.43897000	-3.34645700
93.49999463	0.00000000	19.01451000	-4.09079700
93.69999461	0.00000000	19.06373000	-2.60211600
93.89999460	0.00000000	19.85728000	0.51058070
94.09999459	0.00000000	21.80118000	4.73671200
94.29999458	0.00000000	24.08957000	8.91978400
94.49999457	0.00000000	26.40871000	11.61417000
94.69999455	0.00000000	27.90354000	11.98327000
94.89999454	0.00000000	27.94660000	10.07628000
95.09999453	0.00000000	26.78395000	6.26845500
95.29999452	0.00000000	24.78469000	2.08538400
95.49999451	0.00000000	21.71506000	-1.02116100
95.69999449	0.00000000	18.27633000	-2.55905500
95.89999448	0.00000000	15.94488000	-2.18380900
96.09999447	0.00000000	14.73917000	0.09227362
96.29999446	0.00000000	14.82529000	3.15575800
96.49999445	0.00000000	16.73843000	6.26845500
96.69999444	0.00000000	20.22022000	8.96284400
96.89999442	0.00000000	24.04650000	10.45152000
97.09999441	0.00000000	27.57136000	10.07628000
97.29999440	0.00000000	29.85974000	7.84940900
97.49999439	0.00000000	30.64714000	5.19808000
97.69999438	0.00000000	29.44143000	3.24803100
97.89999436	0.00000000	26.40871000	2.04232300
98.09999435	0.00000000	22.50861000	1.61786400
98.29999434	0.00000000	18.63927000	1.61786400
98.49999433	0.00000000	15.15748000	2.04232300
98.69999432	0.00000000	13.24434000	3.19881900
98.89999430	0.00000000	13.20128000	4.68750000
99.09999429	0.00000000	14.78223000	5.80093500
99.29999428	0.00000000	17.85802000	5.89320800
99.49999427	0.00000000	21.71506000	5.57332700
99.69999426	0.00000000	25.20300000	5.93626900
99.89999425	0.00000000	27.94660000	6.26845500
100.09999423	0.00000000	29.48450000	6.31151500
100.29999422	0.00000000	29.48450000	6.31151500
100.49999421	0.00000000	27.94660000	6.31151500
100.69999420	0.00000000	25.25221000	6.26845500
100.89999419	0.00000000	22.13336000	5.80093500
101.09999417	0.00000000	19.06373000	4.26919300
101.29999416	0.00000000	16.73843000	2.04232300
101.49999415	0.00000000	15.90182000	0.51058070
101.69999414	0.00000000	15.90182000	0.09227362
101.89999413	0.00000000	16.73843000	0.46136810
102.09999411	0.00000000	19.01451000	1.66707700
102.29999410	0.00000000	21.66585000	3.61712600
102.49999409	0.00000000	23.67126000	6.31151500
102.69999408	0.00000000	25.25221000	8.96284400
102.89999407	0.00000000	26.36565000	10.49459000
103.09999406	0.00000000	26.36565000	10.53765000
103.29999404	0.00000000	25.25221000	9.33809000
103.49999403	0.00000000	23.67126000	7.01279500
103.69999402	0.00000000	21.75812000	3.57406500
103.89999401	0.00000000	19.80807000	0.51058070
104.09999400	0.00000000	18.63927000	-1.43946800
104.29999398	0.00000000	17.85802000	-2.18380900
104.49999397	0.00000000	17.90108000	-1.02116100
104.69999396	0.00000000	19.01451000	1.62401600
104.89999395	0.00000000	20.55241000	4.68750000
105.09999394	0.00000000	22.13336000	7.43110200
105.29999392	0.00000000	23.67126000	9.33809000
105.49999391	0.00000000	24.78469000	10.11934000
105.69999390	0.00000000	24.78469000	9.33809000
105.89999389	0.00000000	23.67126000	7.43110200
106.09999388	0.00000000	22.13336000	4.73671200
106.29999387	0.00000000	20.59547000	2.08538400
106.49999385	0.00000000	19.43897000	0.51058070
106.69999384	0.00000000	19.06373000	0.09227362
106.89999383	0.00000000	19.43897000	0.51058070
107.09999382	0.00000000	20.55241000	2.04232300
107.29999381	0.00000000	21.71506000	4.31840500
107.49999379	0.00000000	22.50861000	6.22539300
107.69999378	0.00000000	23.24680000	7.38188900
107.89999377	0.00000000	23.24680000	7.42495000
108.09999376	0.00000000	22.50861000	6.64370100
108.29999375	0.00000000	21.71506000	5.47490100
108.49999374	0.00000000	20.55241000	3.57406500
108.69999372	0.00000000	19.43897000	2.08538400
108.89999371	0.00000000	19.06373000	1.66707700
109.09999370	0.00000000	19.38976000	2.04232300
109.29999369	0.00000000	20.17716000	3.19881900
109.49999368	0.00000000	20.97072000	4.73671200
109.69999366	0.00000000	22.13336000	6.26845500
109.89999365	0.00000000	23.24680000	7.42495000
110.09999364	0.00000000	23.62205000	7.80019600
110.29999363	0.00000000	23.29601000	7.42495000
110.49999362	0.00000000	22.50861000	6.26845500
110.69999360	0.00000000	21.71506000	4.73671200
110.89999359	0.00000000	20.59547000	3.19881900
111.09999358	0.00000000	19.80807000	2.04232300
111.29999357	0.00000000	19.80192000	1.61786400
111.49999356	0.00000000	19.76501000	1.61786400
111.69999355	0.00000000	20.22022000	1.99311000
111.89999353	0.00000000	20.92766000	2.78051200
112.09999352	0.00000000	21.71506000	3.57406500
112.29999351	0.00000000	22.13336000	4.73671200
112.49999350	0.00000000	22.50861000	5.85014700
112.69999349	0.00000000	22.87770000	6.21924200
112.89999347	0.00000000	22.50861000	5.89320800
113.09999346	0.00000000	22.17643000	5.15501900
113.29999345	0.00000000	22.09030000	4.77977300
113.49999344	0.00000000	21.71506000	4.73671200
113.69999343	0.00000000	20.97072000	4.69365100
113.89999341	0.00000000	20.59547000	4.31840500
114.09999340	0.00000000	20.59547000	3.57406500
114.29999339	0.00000000	20.92766000	3.19881900
114.49999338	0.00000000	21.29675000	3.15575800
114.69999337	0.00000000	20.92766000	3.15575800
114.89999336	0.00000000	20.64468000	3.15575800
115.09999334	0.00000000	20.97072000	3.15575800
115.29999333	0.00000000	21.71506000	3.19881900
115.49999332	0.00000000	22.09030000	3.57406500
115.69999331	0.00000000	22.13336000	4.36146600
115.89999330	0.00000000	22.09030000	5.11195900
116.09999328	0.00000000	21.71506000	5.93626900
116.29999327	0.00000000	20.97072000	6.68676100
116.49999326	0.00000000	20.59547000	7.42495000
116.69999325	0.00000000	20.55241000	7.38188900
116.89999324	0.00000000	20.59547000	6.31151500
117.09999322	0.00000000	20.97072000	5.15501900
117.29999321	0.00000000	21.71506000	4.36146600
117.49999320	0.00000000	22.13336000	3.53100400
117.69999319	0.00000000	22.55167000	2.78051200
117.89999318	0.00000000	23.24680000	1.99311000
118.09999317	0.00000000	23.24680000	1.66707700
118.29999315	0.00000000	22.55167000	2.04232300
118.49999314	0.00000000	22.13336000	3.15575800
118.69999313	0.00000000	21.66585000	4.31840500
118.89999312	0.00000000	20.55241000	5.11195900
119.09999311	0.00000000	19.43897000	5.89320800
119.29999309	0.00000000	19.01451000	6.26845500
119.49999308	0.00000000	19.01451000	6.26845500
119.69999307	0.00000000	19.43897000	5.89320800
119.89999306	0.00000000	20.55241000	5.11195900
120.09999305	0.00000000	21.71506000	4.36146600
120.29999303	0.00000000	22.55167000	3.57406500
120.49999302	0.00000000	23.67126000	3.19881900
120.69999301	0.00000000	24.40945000	3.15575800
120.89999300	0.00000000	24.04650000	3.15575800
121.09999299	0.00000000	23.29601000	3.15575800
121.29999298	0.00000000	22.09030000	3.15575800
121.49999296	0.00000000	20.59547000	3.19881900
121.69999295	0.00000000	19.38976000	3.57406500
121.89999294	0.00000000	18.63927000	4.31840500
122.09999293	0.00000000	18.22711000	4.69365100
122.29999292	0.00000000	18.63927000	4.73671200
122.49999290	0.00000000	19.38976000	4.73671200
122.69999289	0.00000000	20.55241000	4.73671200
122.89999288	0.00000000	21.71506000	4.73671200
123.09999287	0.00000000	22.50861000	4.73671200
123.29999286	0.00000000	23.24680000	4.69365100
123.49999284	0.00000000	23.29601000	4.31840500
123.69999283	0.00000000	22.92692000	3.57406500
123.89999282	0.00000000	22.92076000	3.19881900
124.09999281	0.00000000	22.46555000	3.15575800
124.29999280	0.00000000	21.75812000	3.15575800
124.49999279	0.00000000	20.92766000	3.15575800
124.69999277	0.00000000	20.17716000	3.19881900
124.89999276	0.00000000	19.38976000	3.57406500
125.09999275	0.00000000	19.01451000	4.31840500
125.29999274	0.00000000	19.01451000	4.69365100
125.49999273	0.00000000	19.38976000	4.73671200
125.69999271	0.00000000	20.17716000	4.77977300
125.89999270	0.00000000	20.97072000	5.11195900
126.09999269	0.00000000	22.13336000	5.47490100
126.29999268	0.00000000	23.20374000	5.11195900
126.49999267	0.00000000	23.29601000	4.77977300
126.69999265	0.00000000	22.92692000	4.69365100
126.89999264	0.00000000	22.87770000	4.31840500
127.09999263	0.00000000	22.04109000	3.57406500
127.29999262	0.00000000	20.59547000	3.19881900
127.49999261	0.00000000	19.38976000	3.15575800
127.69999260	0.00000000	18.63927000	3.15575800
127.89999258	0.00000000	18.22711000	3.19881900
128.09999257	0.00000000	18.63927000	3.57406500
128.29999256	0.00000000	19.38976000	4.31840500
128.49999255	0.00000000	20.59547000	4.69365100
128.69999254	0.00000000	22.09030000	4.73671200
128.89999252	0.00000000	23.24680000	4.73671200
129.09999251	0.00000000	23.62205000	4.73671200
129.29999250	0.00000000	23.24680000	4.69365100
129.49999249	0.00000000	22.13336000	4.31840500
129.69999248	0.00000000	20.97072000	3.57406500
129.89999246	0.00000000	20.17716000	3.19881900
130.09999245	0.00000000	19.38976000	3.19881900
130.29999244	0.00000000	19.06373000	3.57406500
130.49999243	0.00000000	19.38976000	4.31840500
130.69999242	0.00000000	20.17716000	4.69365100
130.89999241	0.00000000	20.92766000	4.73671200
131.09999239	0.00000000	21.71506000	4.73671200
131.29999238	0.00000000	22.09030000	4.73671200
131.49999237	0.00000000	22.13336000	4.69365100
131.69999236	0.00000000	22.13336000	4.31840500
131.89999235	0.00000000	22.09030000	3.57406500
132.09999233	0.00000000	21.71506000	3.19881900
132.29999232	0.00000000	20.97072000	3.15575800
132.49999231	0.00000000	20.59547000	3.15575800
132.69999230	0.00000000	20.55241000	3.19881900
132.89999229	0.00000000	20.55241000	3.57406500
133.09999227	0.00000000	20.55241000	4.36146600
133.29999226	0.00000000	20.55241000	5.11195900
133.49999225	0.00000000	20.55241000	5.89320800
133.69999224	0.00000000	20.55241000	6.21924200
133.89999223	0.00000000	20.55241000	5.89320800
134.09999222	0.00000000	20.55241000	5.11195900
134.29999220	0.00000000	20.59547000	4.36146600
134.49999219	0.00000000	20.97072000	3.57406500
134.69999218	0.00000000	21.71506000	3.15575800
134.89999217	0.00000000	22.09030000	2.78051200
135.09999216	0.00000000	22.13336000	2.41141700
135.29999214	0.00000000	22.13336000	2.82357300
135.49999213	0.00000000	22.09030000	3.53100400
135.69999212	0.00000000	21.71506000	4.31840500
135.89999211	0.00000000	20.97072000	4.69365100
136.09999210	0.00000000	20.55241000	4.73671200
136.29999208	0.00000000	20.13410000	4.73671200
136.49999207	0.00000000	19.43897000	4.73671200
136.69999206	0.00000000	19.43897000	4.73671200
136.89999205	0.00000000	20.17716000	4.73671200
137.09999204	0.00000000	20.92766000	4.69365100
137.29999203	0.00000000	21.71506000	4.31840500
137.49999201	0.00000000	22.09030000	3.57406500
137.69999200	0.00000000	22.13336000	3.19881900
137.89999199	0.00000000	22.13336000	3.15575800
138.09999198	0.00000000	22.09030000	3.15575800
138.29999197	0.00000000	21.71506000	3.15575800
138.49999195	0.00000000	20.92766000	3.19881900
138.69999194	0.00000000	20.17716000	3.57406500
138.89999193	0.00000000	19.38976000	4.31840500
139.09999192	0.00000000	19.06373000	4.73671200
139.29999191	0.00000000	19.38976000	5.15501900
139.49999189	0.00000000	20.17716000	5.85014700
139.69999188	0.00000000	20.92766000	5.85014700
139.89999187	0.00000000	21.71506000	5.11195900
140.09999186	0.00000000	22.09030000	4.36146600
140.29999185	0.00000000	22.13336000	3.57406500
140.49999184	0.00000000	22.09030000	3.19881900
140.69999182	0.00000000	21.71506000	3.15575800
140.89999181	0.00000000	20.97072000	3.11269700
141.09999180	0.00000000	20.59547000	2.78051200
141.29999179	0.00000000	20.55241000	2.46063000
141.49999178	0.00000000	20.55241000	3.19881900
141.69999176	0.00000000	20.55241000	4.31840500
141.89999175	0.00000000	20.55241000	5.11195900
142.09999174	0.00000000	20.59547000	5.89320800
142.29999173	0.00000000	20.97072000	6.21924200
142.49999172	0.00000000	21.66585000	5.89320800
142.69999170	0.00000000	21.71506000	5.15501900
142.89999169	0.00000000	21.34596000	4.73671200
143.09999168	0.00000000	21.33981000	4.31840500
143.29999167	0.00000000	20.92766000	3.57406500
143.49999166	0.00000000	20.59547000	3.15575800
143.69999165	0.00000000	20.55241000	2.78051200
143.89999163	0.00000000	20.59547000	2.46063000
144.09999162	0.00000000	20.97072000	3.19881900
144.29999161	0.00000000	21.71506000	4.26919300
144.49999160	0.00000000	22.09030000	4.73671200
144.69999159	0.00000000	22.09030000	5.11195900
144.89999157	0.00000000	21.71506000	5.47490100
145.09999156	0.00000000	20.97072000	5.11195900
145.29999155	0.00000000	20.59547000	4.77977300
145.49999154	0.00000000	20.55241000	4.69365100
145.69999153	0.00000000	20.55241000	4.31840500
145.89999151	0.00000000	20.55241000	3.57406500
146.09999150	0.00000000	20.55241000	3.19881900
146.29999149	0.00000000	20.55241000	3.15575800
146.49999148	0.00000000	20.55241000	3.15575800
146.69999147	0.00000000	20.59547000	3.19881900
146.89999146	0.00000000	20.97072000	3.57406500
147.09999144	0.00000000	21.66585000	4.31840500
147.29999143	0.00000000	21.71506000	4.69365100
147.49999142	0.00000000	21.34596000	4.73671200
147.69999141	0.00000000	21.33981000	4.73671200
147.89999140	0.00000000	20.92766000	4.73671200
148.09999138	0.00000000	20.59547000	4.73671200
148.29999137	0.00000000	20.55241000	4.69365100
148.49999136	0.00000000	20.55241000	4.31840500
148.69999135	0.00000000	20.55241000	3.57406500
148.89999134	0.00000000	20.55241000	3.19881900
149.09999132	0.00000000	20.59547000	3.15575800
149.29999131	0.00000000	20.97072000	3.15575800
149.49999130	0.00000000	21.71506000	3.19881900
149.69999129	0.00000000	22.09030000	3.57406500
149.89999128	0.00000000	22.09030000	4.31840500
150.09999127	0.00000000	21.71506000	4.69365100
150.29999125	0.00000000	20.97072000	4.73671200
150.49999124	0.00000000	20.59547000	4.73671200
150.69999123	0.00000000	20.55241000	4.73671200
150.89999122	0.00000000	20.55241000	4.73671200
151.09999121	0.00000000	20.55241000	4.73671200
151.29999119	0.00000000	20.55241000	4.73671200
151.49999118	0.00000000	20.55241000	4.69365100
151.69999117	0.00000000	20.55241000	4.31840500
151.89999116	0.00000000	20.55241000	3.57406500
152.09999115	0.00000000	20.59547000	3.19881900
152.29999113	0.00000000	20.97072000	3.15575800
152.49999112	0.00000000	21.71506000	3.15575800
152.69999111	0.00000000	22.09030000	3.19881900
152.89999110	0.00000000	22.09030000	3.57406500
153.09999109	0.00000000	21.71506000	4.31840500
153.29999108	0.00000000	20.97072000	4.69365100
153.49999106	0.00000000	20.59547000	4.73671200
153.69999105	0.00000000	20.50935000	4.73671200
153.89999104	0.00000000	20.13410000	4.73671200
154.09999103	0.00000000	19.38976000	4.73671200
154.29999102	0.00000000	19.06373000	4.73671200
154.49999100	0.00000000	19.38976000	4.69365100
154.69999099	0.00000000	20.13410000	4.31840500
154.89999098	0.00000000	20.50935000	3.57406500
155.09999097	0.00000000	20.59547000	3.19881900
155.29999096	0.00000000	20.97072000	3.15575800
155.49999094	0.00000000	21.71506000	3.15575800
155.69999093	0.00000000	22.04109000	3.19881900
155.89999092	0.00000000	21.71506000	3.57406500
156.09999091	0.00000000	20.97072000	4.31840500
156.29999090	0.00000000	20.55241000	4.69365100
156.49999089	0.00000000	20.13410000	4.73671200
156.69999087	0.00000000	19.38976000	4.73671200
156.89999086	0.00000000	19.01451000	4.73671200
157.09999085	0.00000000	18.97145000	4.73671200
157.29999084	0.00000000	19.01451000	4.73671200
157.49999083	0.00000000	19.38976000	4.69365100
157.69999081	0.00000000	20.13410000	4.31840500
157.89999080	0.00000000	20.55241000	3.57406500
158.09999079	0.00000000	20.97072000	3.19881900
158.29999078	0.00000000	21.71506000	3.15575800
158.49999077	0.00000000	22.09030000	3.15575800
158.69999075	0.00000000	22.09030000	3.19881900
158.89999074	0.00000000	21.71506000	3.53100400
159.09999073	0.00000000	20.97072000	3.94315900
159.29999072	0.00000000	20.59547000	3.94931100
159.49999071	0.00000000	20.55241000	4.36146600
159.69999070	0.00000000	20.55241000	4.69365100
159.89999068	0.00000000	20.55241000	4.73671200
160.09999067	0.00000000	20.55241000	4.73671200
160.29999066	0.00000000	20.55241000	4.69365100
160.49999065	0.00000000	20.55241000	4.31840500
160.69999064	0.00000000	20.55241000	3.57406500
160.89999062	0.00000000	20.55241000	3.19881900
161.09999061	0.00000000	20.55241000	3.15575800
161.29999060	0.00000000	20.55241000	3.15575800
161.49999059	0.00000000	20.55241000	3.15575800
161.69999058	0.00000000	20.55241000	3.19881900
161.89999056	0.00000000	20.55241000	3.57406500
162.09999055	0.00000000	20.55241000	4.31840500
162.29999054	0.00000000	20.55241000	4.69365100
162.49999053	0.00000000	20.55241000	4.73671200
162.69999052	0.00000000	20.55241000	4.73671200
162.89999051	0.00000000	20.55241000	4.73671200
163.09999049	0.00000000	20.50935000	4.73671200
163.29999048	0.00000000	20.13410000	4.73671200
163.49999047	0.00000000	19.38976000	4.73671200
163.69999046	0.00000000	19.01451000	4.69365100
163.89999045	0.00000000	19.01451000	4.31840500
164.09999043	0.00000000	19.38976000	3.57406500
164.29999042	0.00000000	20.13410000	3.19881900
164.49999041	0.00000000	20.55241000	3.15575800
164.69999040	0.00000000	20.92766000	3.15575800
164.89999039	0.00000000	21.29675000	3.15575800
165.09999037	0.00000000	20.92766000	3.15575800
165.29999036	0.00000000	20.59547000	3.15575800
165.49999035	0.00000000	20.55241000	3.19881900
165.69999034	0.00000000	20.55241000	3.57406500
165.89999033	0.00000000	20.55241000	4.31840500
166.09999032	0.00000000	20.55241000	4.69365100
166.29999030	0.00000000	20.55241000	4.73671200
166.49999029	0.00000000	20.55241000	4.73671200
166.69999028	0.00000000	20.55241000	4.73671200
166.89999027	0.00000000	20.55241000	4.73671200
167.09999026	0.00000000	20.55241000	4.73671200
167.29999024	0.00000000	20.59547000	4.73671200
167.49999023	0.00000000	20.92766000	4.69365100
167.69999022	0.00000000	21.29675000	4.31840500
167.89999021	0.00000000	20.92766000	3.57406500
168.09999020	0.00000000	20.59547000	3.19881900
168.29999018	0.00000000	20.55241000	3.15575800
168.49999017	0.00000000	20.55241000	3.15575800
168.69999016	0.00000000	20.55241000	3.15575800
168.89999015	0.00000000	20.55241000	3.15575800
169.09999014	0.00000000	20.55241000	3.15575800
169.29999013	0.00000000	20.55241000	3.15575800
169.49999011	0.00000000	20.55241000	3.15575800
169.69999010	0.00000000	20.50935000	3.19881900
169.89999009	0.00000000	20.17716000	3.53100400
170.09999008	0.00000000	19.80807000	3.90009800
170.29999007	0.00000000	20.17716000	3.53100400
170.49999005	0.00000000	20.50935000	3.19881900
170.69999004	0.00000000	20.55241000	3.15575800
170.89999003	0.00000000	20.55241000	3.15575800
171.09999002	0.00000000	20.55241000	3.15575800
171.29999001	0.00000000	20.55241000	3.15575800
171.49998999	0.00000000	20.55241000	3.15575800
171.69998998	0.00000000	20.55241000	3.15575800
171.89998997	0.00000000	20.55241000	3.15575800
172.09998996	0.00000000	20.55241000	3.15575800
172.29998995	0.00000000	20.55241000	3.19881900
172.49998994	0.00000000	20.55241000	3.53100400
172.69998992	0.00000000	20.55241000	3.94315900
172.89998991	0.00000000	20.55241000	3.94931100
173.09998990	0.00000000	20.55241000	4.31840500
173.29998989	0.00000000	20.55241000	4.31840500
173.49998988	0.00000000	20.55241000	3.94931100
173.69998986	0.00000000	20.55241000	3.94315900
173.89998985	0.00000000	20.55241000	3.53100400
174.09998984	0.00000000	20.55241000	3.19881900
174.29998983	0.00000000	20.55241000	3.15575800
174.49998982	0.00000000	20.55241000	3.15575800
174.69998980	0.00000000	20.55241000	3.19881900
174.89998979	0.00000000	20.55241000	3.53100400
175.09998978	0.00000000	20.55241000	3.90009800
175.29998977	0.00000000	20.55241000	3.53100400
175.49998976	0.00000000	20.55241000	3.19881900
175.69998975	0.00000000	20.55241000	3.15575800
175.89998973	0.00000000	20.55241000	3.15575800
176.09998972	0.00000000	20.55241000	3.19881900
176.29998971	0.00000000	20.55241000	3.57406500
176.49998970	0.00000000	20.55241000	4.26919300
176.69998969	0.00000000	20.55241000	4.31840500
176.89998967	0.00000000	20.55241000	3.94931100
177.09998966	-0.15871060	20.55241000	3.94315900
177.29998965	0.00000000	20.55241000	3.53100400
177.49998964	0.00000000	20.55241000	3.19881900
177.69998963	0.00000000	20.55241000	3.19881900
177.89998961	0.00000000	20.55241000	3.53100400
178.09998960	0.00000000	20.55241000	3.94315900
178.29998959	0.00000000	20.55241000	3.94931100
178.49998958	0.00000000	20.55241000	4.36146600
178.69998957	0.00000000	20.55241000	4.69365100
178.89998956	0.00000000	20.55241000	4.73671200
179.09998954	0.00000000	20.55241000	4.69365100
179.29998953	0.00000000	20.55241000	4.31840500
179.49998952	0.00000000	20.55241000	3.57406500
179.69998951	0.00000000	20.55241000	3.19881900
179.89998950	0.00000000	20.55241000	3.15575800
180.09998948	0.00000000	20.55241000	3.15575800
180.29998947	0.00000000	20.55241000	3.15575800
180.49998946	0.00000000	20.50935000	3.15575800
180.69998945	0.00000000	20.17716000	3.19881900
180.89998944	0.00000000	19.80807000	3.53100400
181.09998942	0.00000000	20.17716000	3.94315900
181.29998941	0.00000000	20.50935000	3.94931100
181.49998940	0.00000000	20.55241000	4.36146600
181.69998939	0.00000000	20.55241000	4.64443900
181.89998938	0.00000000	20.55241000	4.36146600
182.09998937	0.00000000	20.55241000	3.94931100
182.29998935	0.00000000	20.55241000	3.94315900
182.49998934	0.00000000	20.55241000	3.53100400
182.69998933	0.00000000	20.55241000	3.19881900
182.89998932	0.00000000	20.55241000	3.15575800
183.09998931	0.00000000	20.55241000	3.15575800
183.29998929	0.00000000	20.55241000	3.15575800
183.49998928	0.00000000	20.50935000	3.15575800
183.69998927	0.00000000	20.17716000	3.19881900
183.89998926	0.00000000	19.76501000	3.53100400
184.09998925	0.00000000	19.75886000	3.94315900
184.29998923	0.00000000	19.38976000	3.94931100
184.49998922	0.00000000	19.43897000	4.36146600
184.69998921	0.00000000	20.13410000	4.69365100
184.89998920	0.00000000	20.50935000	4.73671200
185.09998919	0.00000000	20.55241000	4.69365100
185.29998918	0.00000000	20.55241000	4.31840500
185.49998916	0.00000000	20.55241000	3.57406500
185.69998915	0.00000000	20.55241000	3.19881900
185.89998914	0.00000000	20.55241000	3.15575800
186.09998913	0.00000000	20.55241000	3.15575800
186.29998912	0.00000000	20.55241000	3.15575800
186.49998910	0.00000000	20.55241000	3.15575800
186.69998909	0.00000000	20.50935000	3.15575800
186.89998908	0.00000000	20.13410000	3.19881900
187.09998907	0.00000000	19.38976000	3.57406500
187.29998906	0.00000000	19.01451000	4.31840500
187.49998904	0.00000000	19.01451000	4.69365100
187.69998903	0.00000000	19.38976000	4.73671200
187.89998902	0.00000000	20.08489000	4.69365100
188.09998901	0.00000000	20.13410000	4.31840500
188.29998900	0.00000000	19.80807000	3.57406500
188.49998899	0.00000000	20.17716000	3.19881900
188.69998897	0.00000000	20.50935000	3.15575800
188.89998896	0.00000000	20.55241000	3.15575800
189.09998895	0.00000000	20.55241000	3.15575800
189.29998894	0.00000000	20.55241000	3.15575800
189.49998893	0.00000000	20.55241000	3.15575800
189.69998891	0.00000000	20.50935000	3.19881900
189.89998890	0.00000000	20.13410000	3.57406500
190.09998889	0.00000000	19.38976000	4.31840500
190.29998888	0.00000000	19.01451000	4.69365100
190.49998887	0.00000000	18.97145000	4.73671200
190.69998885	0.00000000	19.01451000	4.73671200
190.89998884	0.00000000	19.38976000	4.69365100
191.09998883	0.00000000	20.13410000	4.31840500
191.29998882	0.00000000	20.50935000	3.57406500
191.49998881	0.00000000	20.55241000	3.19881900
191.69998880	0.00000000	20.55241000	3.15575800
191.89998878	0.00000000	20.55241000	3.15575800
192.09998877	0.00000000	20.55241000	3.15575800
192.29998876	0.00000000	20.55241000	3.15575800
192.49998875	0.00000000	20.55241000	3.15575800
192.69998874	0.00000000	20.50935000	3.15575800
192.89998872	0.00000000	20.13410000	3.15575800
193.09998871	0.00000000	19.43897000	3.15575800
193.29998870	0.00000000	19.38976000	3.15575800
193.49998869	0.00000000	19.75886000	3.19881900
193.69998868	0.00000000	19.76501000	3.57406500
193.89998866	0.00000000	20.17716000	4.31840500
194.09998865	0.00000000	20.50935000	4.64443900
194.29998864	0.00000000	20.55241000	4.31840500
194.49998863	0.00000000	20.55241000	3.62327700
194.69998862	0.00000000	20.55241000	3.57406500
194.89998861	0.00000000	20.50935000	3.90009800
195.09998859	0.00000000	20.17716000	3.53100400
195.29998858	0.00000000	19.76501000	3.19881900
195.49998857	0.00000000	19.75886000	3.15575800
195.69998856	0.00000000	19.34670000	3.15575800
195.89998855	0.00000000	19.01451000	3.15575800
196.09998853	0.00000000	18.97145000	3.15575800
