Time	Channel A	Channel B	Channel C
(us)	(V)	(mV)	(mV)

-4.59999956	0.00000000	34.78716000	11.04823000
-4.39999957	0.00000000	34.78716000	11.04823000
-4.19999958	0.00000000	34.78716000	11.04823000
-3.99999959	0.00000000	34.78716000	11.00517000
-3.79999960	0.00000000	34.78716000	10.67298000
-3.59999962	0.00000000	34.78716000	10.31004000
-3.39999963	0.00000000	34.78716000	10.67298000
-3.19999964	0.00000000	34.78716000	11.00517000
-2.99999965	0.00000000	34.78716000	11.04823000
-2.79999966	0.00000000	34.78716000	11.04823000
-2.59999968	-0.15871060	34.78716000	11.04823000
-2.39999969	0.00000000	34.78716000	11.04823000
-2.19999970	0.00000000	34.78716000	11.00517000
-1.99999971	0.00000000	34.78716000	10.67298000
-1.79999972	0.00000000	34.78716000	10.31004000
-1.59999973	0.00000000	34.78716000	10.67298000
-1.39999975	0.00000000	34.78716000	11.00517000
-1.19999976	0.00000000	34.78716000	11.00517000
-0.99999977	0.00000000	34.78716000	10.67298000
-0.79999978	0.00000000	34.78716000	10.31004000
-0.59999979	0.00000000	34.78716000	10.67298000
-0.39999981	0.00000000	34.78716000	11.00517000
-0.19999982	0.31803640	34.78716000	11.04823000
0.00000017	0.79601380	34.78716000	11.04823000
0.20000016	0.95533960	34.78716000	11.04823000
0.40000015	0.95533960	34.78716000	11.00517000
0.60000013	0.63668800	34.78716000	10.62992000
0.80000012	0.00000000	34.78716000	9.93479300
1.00000011	-0.79601380	34.78716000	9.93479300
1.20000010	-1.91129400	34.78716000	10.62992000
1.40000009	-2.54859700	34.78716000	11.00517000
1.60000008	-2.70792300	34.78716000	11.09129000
1.80000006	-2.22994600	34.78716000	11.42347000
2.00000005	-0.79601380	34.78716000	11.79257000
2.20000004	1.27399100	34.78716000	11.42347000
2.40000003	3.34522600	34.78716000	11.09129000
2.60000002	4.93786900	34.78716000	11.00517000
2.80000000	5.25652100	34.78716000	10.67298000
2.99999999	4.30056600	34.78716000	10.31004000
3.19999998	1.91129400	34.78716000	10.67298000
3.39999997	-1.27399100	34.78716000	10.95595000
3.59999996	-4.61921700	34.78716000	10.67298000
3.79999994	-7.16781500	34.78716000	10.31004000
3.99999993	-7.96444400	34.78716000	10.67298000
4.19999992	-6.84916400	34.78716000	11.00517000
4.39999991	-3.82258900	34.78716000	11.04823000
4.59999990	0.31803640	34.78716000	11.04823000
4.79999989	4.61921700	34.78716000	11.04823000
4.99999987	8.12377000	34.78716000	11.00517000
5.19999986	9.39837600	34.78716000	10.62992000
5.39999985	8.44242100	34.78716000	9.89173200
5.59999984	5.25652100	34.78716000	9.51648500
5.79999983	0.79601380	34.78716000	9.51648500
5.99999981	-3.98191400	34.78716000	9.84867000
6.19999980	-7.64579200	34.78716000	10.25467000
6.39999979	-9.39837600	34.78716000	10.26698000
6.59999978	-8.76107300	34.78716000	10.67298000
6.79999977	-6.05315000	34.78716000	11.00517000
6.99999975	-2.07062000	34.78716000	11.04823000
7.19999974	2.38927200	34.78716000	11.04823000
7.39999973	5.89382400	34.78716000	11.04823000
7.59999972	7.64579200	34.78716000	11.00517000
7.79999971	7.32714100	34.78716000	10.62992000
7.99999970	5.41584600	34.78716000	9.89173200
8.19999968	2.22994600	34.78716000	9.51648500
8.39999967	-0.95533960	34.78716000	9.47342500
8.59999966	-3.66326300	34.78716000	9.47342500
8.79999965	-5.09719500	34.78716000	9.51648500
8.99999964	-5.09719500	34.78716000	9.89173200
9.19999962	-3.82258900	34.78716000	10.62992000
9.39999961	-2.07062000	34.78716000	11.00517000
9.59999960	0.00000000	34.78716000	11.04823000
9.79999959	1.43331700	34.78716000	11.04823000
9.99999958	2.38927200	34.78716000	11.04823000
10.19999956	2.38927200	34.78716000	11.04823000
10.39999955	1.91129400	34.78716000	11.04823000
10.59999954	1.11466500	34.78716000	11.00517000
10.79999953	0.31803640	34.78716000	10.67298000
10.99999952	-0.47736220	34.78716000	10.31004000
11.19999951	-0.79601380	34.78716000	10.67298000
11.39999949	-0.95533960	34.78716000	11.00517000
11.59999948	-0.95533960	34.78716000	11.00517000
11.79999947	-0.63668800	34.78716000	10.67298000
11.99999946	-0.31803640	34.78716000	10.26698000
12.19999945	-0.15871060	34.78716000	10.30389000
12.39999943	-0.15871060	34.74409000	10.21776000
12.59999942	0.00000000	34.41191000	10.30389000
12.79999941	0.00000000	34.04282000	10.26698000
12.99999940	0.00000000	34.41191000	10.67298000
13.19999939	0.00000000	34.74409000	11.00517000
13.39999937	0.00000000	34.78716000	11.04823000
13.59999936	0.00000000	34.78716000	11.04823000
13.79999935	0.00000000	34.78716000	11.04823000
13.99999934	-0.15871060	34.78716000	11.04823000
14.19999933	-0.15871060	34.78716000	11.04823000
14.39999932	-0.15871060	34.78716000	11.04823000
14.59999930	-0.15871060	34.78716000	11.04823000
14.79999929	0.00000000	34.78716000	11.04823000
14.99999928	0.00000000	34.78716000	11.04823000
15.19999927	0.00000000	34.78716000	11.04823000
15.39999926	0.00000000	34.78716000	11.04823000
15.59999924	0.00000000	34.78716000	11.04823000
15.79999923	0.00000000	34.78716000	11.04823000
15.99999922	0.00000000	34.78716000	11.04823000
16.19999921	0.00000000	34.78716000	11.04823000
16.39999920	-0.15871060	34.78716000	11.04823000
16.59999919	-0.15871060	34.78716000	11.04823000
16.79999917	-0.15871060	34.83022000	11.04823000
16.99999916	0.00000000	35.20546000	11.04823000
17.19999915	0.00000000	35.94980000	11.04823000
17.39999914	0.00000000	36.32505000	11.04823000
17.59999913	0.00000000	36.36811000	11.00517000
17.79999911	0.00000000	36.32505000	10.62992000
17.99999910	0.00000000	35.90059000	9.93479300
18.19999909	0.00000000	34.73794000	9.93479300
18.39999908	0.00000000	33.20005000	10.62992000
18.59999907	0.00000000	31.61909000	11.00517000
18.79999905	0.00000000	30.13041000	11.04823000
18.99999904	0.00000000	29.38607000	11.00517000
19.19999903	0.00000000	30.17347000	10.67298000
19.39999902	-0.15871060	32.12967000	10.31004000
19.59999901	0.00000000	35.24852000	10.67298000
19.79999900	0.00000000	39.11171000	11.00517000
19.99999898	0.00000000	42.59965000	11.04823000
20.19999897	0.00000000	45.30019000	11.00517000
20.39999896	0.00000000	46.32751000	10.67298000
20.59999895	0.00000000	44.37131000	10.26698000
20.79999894	0.00000000	39.30241000	10.30389000
20.99999892	0.00000000	32.32037000	10.21776000
21.19999891	0.00000000	24.22490000	10.25467000
21.39999890	0.00000000	17.34129000	9.89173200
21.59999889	0.00000000	13.84719000	9.93479300
21.79999888	0.00000000	14.30856000	10.58686000
21.99999886	0.00000000	19.42667000	10.58686000
22.19999885	0.00000000	29.19537000	9.89173200
22.39999884	0.00000000	41.90453000	9.56569900
22.59999883	0.00000000	54.97047000	9.89173200
22.79999882	0.00000000	64.14247000	10.62992000
22.99999881	0.00000000	66.84301000	11.00517000
23.19999879	0.00000000	62.10014000	11.04823000
23.39999878	0.00000000	50.13533000	11.09129000
23.59999877	0.00000000	33.48917000	11.46653000
23.79999876	0.00000000	16.08022000	12.21087000
23.99999875	0.00000000	1.01501000	12.53691000
24.19999873	0.00000000	-7.69562000	12.16166000
24.39999872	0.00000000	-6.90206700	11.00517000
24.59999871	0.00000000	3.98006900	9.47342500
24.79999870	0.00000000	22.50246000	7.89247000
24.99999869	0.00000000	44.92495000	6.36072800
25.19999867	0.00000000	65.77264000	5.19808000
25.39999866	0.00000000	80.38262000	4.87204700
25.59999865	0.00000000	84.98400000	5.66560000
25.79999864	0.00000000	77.59596000	7.98474400
25.99999863	0.00000000	60.23622000	11.09744000
26.19999862	0.00000000	36.23277000	14.62844000
26.39999860	0.00000000	11.23893000	18.43627000
26.59999859	0.00000000	-8.48302100	21.08760000
26.79999858	0.00000000	-18.15945000	21.46284000
26.99999857	0.00000000	-16.25246000	19.50664000
27.19999856	0.00000000	-3.08809000	15.14518000
27.39999854	0.00000000	18.54700000	8.58759800
27.59999853	0.00000000	43.62696000	0.88582670
27.79999852	0.00000000	66.38164000	-5.62253900
27.99999851	0.00000000	81.08390000	-9.47957600
28.19999850	-0.15871060	84.66412000	-9.38730200
28.39999848	0.00000000	77.35605000	-4.69365100
28.59999847	0.00000000	61.11589000	4.17691900
28.79999846	0.00000000	39.48080000	15.40969000
28.99999845	0.00000000	17.51968000	26.61786000
29.19999844	0.00000000	0.44906490	35.81446000
29.39999843	0.00000000	-8.11392700	39.99754000
29.59999841	0.00000000	-7.41264700	37.67839000
29.79999840	0.00000000	2.22071800	29.49680000
29.99999839	0.00000000	17.99336000	16.30167000
30.19999838	0.00000000	35.85752000	0.55364170
30.39999837	0.00000000	52.51599000	-13.70571000
30.59999835	0.00000000	64.84375000	-23.00074000
30.79999834	0.00000000	69.54355000	-25.69513000
30.99999833	0.00000000	66.19094000	-20.95841000
31.19999832	0.00000000	56.92667000	-8.96899500
31.39999831	0.00000000	43.76230000	7.94168200
31.59999829	0.00000000	29.47835000	25.35679000
31.79999828	0.00000000	17.47047000	39.67765000
31.99999827	0.00000000	10.03322000	48.54207000
32.19999826	0.00000000	8.07701800	49.24335000
32.39999825	0.00000000	11.52190000	41.62155000
32.59999824	0.00000000	19.61737000	27.68824000
32.79999822	0.00000000	30.03814000	10.62992000
32.99999821	0.00000000	40.50812000	-6.74212600
33.19999820	0.00000000	49.02190000	-20.63238000
33.39999819	0.00000000	53.67864000	-27.60827000
33.59999818	0.00000000	53.72170000	-26.85777000
33.79999816	0.00000000	49.48942000	-18.31324000
33.99999815	0.00000000	42.18134000	-3.72170300
34.19999814	0.00000000	33.66756000	13.28125000
34.39999813	0.00000000	25.98425000	28.75861000
34.59999812	0.00000000	20.96457000	39.99754000
34.79999810	0.00000000	20.12795000	44.59892000
34.99999809	0.00000000	22.77928000	41.57849000
35.19999808	0.00000000	27.80512000	31.95743000
35.39999807	0.00000000	34.31963000	18.43627000
35.59999806	0.00000000	40.04675000	3.75861200
35.79999805	0.00000000	43.20866000	-8.92593500
35.99999803	0.00000000	43.62696000	-16.26476000
36.19999802	0.00000000	41.67076000	-16.73228000
36.39999801	0.00000000	37.43848000	-10.96826000
36.59999800	0.00000000	32.08661000	-0.60285430
36.79999799	0.00000000	27.47293000	11.70029000
36.99999797	0.00000000	24.77854000	22.48400000
37.19999796	0.00000000	24.77854000	29.40452000
37.39999795	0.00000000	27.42987000	30.56717000
37.59999794	0.00000000	31.66830000	25.63976000
37.79999793	0.00000000	36.31890000	16.85531000
37.99999791	0.00000000	40.55733000	6.86515700
38.19999790	0.00000000	43.25172000	-1.58710600
38.39999789	0.00000000	43.62696000	-6.13927100
38.59999788	0.00000000	41.71998000	-5.39493100
38.79999787	0.00000000	37.85679000	0.68897630
38.99999786	0.00000000	33.24926000	9.47342500
39.19999784	0.00000000	28.96776000	18.35015000
39.39999783	0.00000000	25.84892000	25.17839000
39.59999782	0.00000000	24.26796000	27.45448000
39.79999781	0.00000000	24.31102000	24.02190000
39.99999780	0.00000000	26.26722000	16.39395000
40.19999778	0.00000000	30.08735000	6.77903500
40.39999777	0.00000000	34.31963000	-2.00541300
40.59999776	0.00000000	37.90600000	-7.43725300
40.79999775	0.00000000	41.01870000	-8.13853400
40.99999774	0.00000000	43.30093000	-3.90625000
41.19999772	0.00000000	43.67618000	4.87204700
41.39999771	0.00000000	42.13828000	14.81299000
41.59999770	0.00000000	39.06250000	22.95152000
41.79999769	0.00000000	35.20546000	27.96506000
41.99999768	0.00000000	31.66830000	28.34030000
42.19999767	-0.15871060	28.54946000	24.15723000
42.39999765	0.00000000	26.26722000	16.85531000
42.59999764	0.00000000	25.89198000	8.35998900
42.79999763	0.00000000	27.34375000	0.68897630
42.99999762	0.00000000	29.66289000	-4.32455700
43.19999761	0.00000000	32.03740000	-5.11195900
43.39999759	0.00000000	34.73794000	-2.14074800
43.59999758	0.00000000	37.02018000	3.24803100
43.79999757	0.00000000	37.85679000	9.42421200
43.99999756	0.00000000	37.94907000	15.23130000
44.19999755	-0.15871060	37.90600000	19.46358000
44.39999753	0.00000000	37.53075000	21.04454000
44.59999752	0.00000000	36.78642000	19.92495000
44.79999751	0.00000000	36.41117000	16.85531000
44.99999750	0.00000000	36.32505000	12.62918000
45.19999749	0.00000000	35.94980000	8.40305000
45.39999748	0.00000000	35.11934000	5.33341500
45.59999746	0.00000000	33.90133000	4.08464600
45.79999745	0.00000000	31.53297000	4.45374000
45.99999744	0.00000000	28.50024000	5.61638700
46.19999743	0.00000000	25.80585000	7.98474400
46.39999742	0.00000000	24.31102000	10.96211000
46.59999740	0.00000000	24.73548000	13.32431000
46.79999739	0.00000000	27.52214000	14.49311000
46.99999738	0.00000000	32.54798000	14.90526000
47.19999737	0.00000000	39.11171000	14.11786000
47.39999736	0.00000000	45.25713000	12.58612000
47.59999734	0.00000000	49.48942000	10.62992000
47.79999733	0.00000000	50.55979000	8.31077700
47.99999732	0.00000000	47.48400000	6.40378900
48.19999731	0.00000000	40.93258000	5.24729300
48.39999730	0.00000000	32.78174000	5.24729300
48.59999729	0.00000000	24.26796000	6.40378900
48.79999727	0.00000000	17.38435000	8.35383800
48.99999726	0.00000000	14.35777000	11.09744000
49.19999725	0.00000000	16.26476000	14.11786000
49.39999724	0.00000000	22.82234000	16.43701000
49.59999723	0.00000000	32.03740000	17.18750000
49.79999721	0.00000000	41.71383000	16.43701000
49.99999720	0.00000000	49.44020000	14.07480000
50.19999719	0.00000000	53.67864000	10.62992000
50.39999718	0.00000000	53.25418000	6.77903500
50.59999717	0.00000000	47.85925000	3.70939900
50.79999715	0.00000000	39.01944000	2.12844500
50.99999714	-0.15871060	29.01082000	2.17150600
51.19999713	0.00000000	20.58932000	4.12770700
51.39999712	0.00000000	16.31397000	7.93553100
51.59999711	0.00000000	17.05217000	12.16166000
51.79999710	0.00000000	22.03494000	15.64960000
51.99999708	0.00000000	30.13041000	17.97490000
52.19999707	0.00000000	38.92716000	18.39321000
52.39999706	0.00000000	45.85999000	17.23056000
52.59999705	0.00000000	48.97884000	14.85605000
52.79999704	0.00000000	47.85925000	11.00517000
52.99999702	0.00000000	43.20866000	6.82209600
53.19999701	0.00000000	35.90059000	3.75246000
53.39999700	0.00000000	27.89739000	2.59596400
53.59999699	0.00000000	22.17027000	3.70939900
53.79999698	-0.15871060	20.54626000	6.36072800
53.99999696	0.00000000	22.82234000	9.42421200
54.19999695	0.00000000	27.80512000	12.11860000
54.39999694	0.00000000	34.36884000	13.65650000
54.59999693	0.00000000	40.46506000	13.69956000
54.79999692	0.00000000	44.37131000	12.58612000
54.99999691	0.00000000	45.12180000	11.04823000
55.19999689	0.00000000	42.79035000	9.47342500
55.39999688	0.00000000	37.43848000	8.02780400
55.59999687	0.00000000	30.96703000	7.65871000
55.79999686	0.00000000	25.94119000	9.14124000
55.99999685	0.00000000	23.19759000	11.00517000
56.19999683	0.00000000	23.24065000	12.58612000
56.39999682	0.00000000	26.26722000	13.69956000
56.59999681	0.00000000	31.24384000	13.65650000
56.79999680	0.00000000	36.27584000	12.11860000
56.99999679	0.00000000	40.55733000	9.42421200
57.19999677	0.00000000	43.20866000	6.36072800
57.39999676	0.00000000	43.25172000	3.70939900
57.59999675	0.00000000	40.97564000	2.59596400
57.79999674	0.00000000	37.48154000	3.75246000
57.99999673	0.00000000	33.24926000	6.82209600
58.19999672	0.00000000	29.42913000	11.09129000
58.39999670	0.00000000	27.47293000	15.69882000
58.59999669	0.00000000	27.42987000	19.54970000
58.79999668	0.00000000	28.96776000	21.37057000
58.99999667	0.00000000	31.61909000	20.20177000
59.19999666	0.00000000	34.31963000	15.60654000
59.39999664	0.00000000	36.27584000	9.47342500
59.59999663	0.00000000	37.43848000	3.29109200
59.79999662	0.00000000	37.43848000	-1.67322800
59.99999661	0.00000000	36.32505000	-3.62942900
60.19999660	-0.15871060	34.78716000	-2.42372000
60.39999658	0.00000000	33.24926000	1.85777500
60.59999657	0.00000000	32.08661000	9.14124000
60.79999656	0.00000000	31.71137000	16.76919000
60.99999655	0.00000000	32.08661000	22.61934000
61.19999654	0.00000000	33.20005000	25.63976000
61.39999653	0.00000000	34.36884000	24.89542000
61.59999651	0.00000000	35.16240000	20.25714000
61.79999650	0.00000000	35.90059000	13.37352000
61.99999649	0.00000000	35.85752000	5.62253900
62.19999648	0.00000000	34.73794000	-0.88582670
62.39999647	0.00000000	33.24926000	-4.78592500
62.59999645	0.00000000	32.03740000	-5.11195900
62.79999644	0.00000000	31.28691000	-1.67322800
62.99999643	0.00000000	30.92396000	4.87204700
63.19999642	0.00000000	31.71137000	12.54306000
63.39999641	0.00000000	33.20005000	19.50664000
63.59999639	0.00000000	34.78716000	24.15723000
63.79999638	0.00000000	36.32505000	25.73203000
63.99999637	0.00000000	37.43848000	24.15723000
64.19999636	0.00000000	37.43848000	19.55585000
64.39999635	0.00000000	36.32505000	13.04749000
64.59999634	0.00000000	34.78716000	6.82209600
64.79999632	0.00000000	33.20005000	1.75319900
64.99999631	0.00000000	31.71137000	-1.72244100
65.19999630	0.00000000	30.92396000	-2.46678100
65.39999629	0.00000000	31.28691000	-0.60285430
65.59999628	0.00000000	32.03740000	3.24803100
65.79999626	0.00000000	33.24926000	7.89247000
65.99999625	0.00000000	34.69488000	12.53691000
66.19999624	0.00000000	35.48228000	16.43701000
66.39999623	0.00000000	35.11934000	18.76845000
66.59999622	0.00000000	34.36884000	19.59892000
66.79999620	0.00000000	33.15699000	18.81152000
66.99999619	-0.15871060	31.66215000	16.90453000
67.19999618	0.00000000	30.54872000	14.16092000
67.39999617	0.00000000	30.59178000	11.04823000
67.59999616	0.00000000	32.12967000	7.89247000
67.79999615	0.00000000	34.78716000	4.77977300
67.99999613	0.00000000	37.43848000	2.08538400
68.19999612	0.00000000	38.97638000	0.55364170
68.39999611	0.00000000	38.97638000	0.51058070
68.59999610	0.00000000	37.43848000	1.75319900
68.79999609	0.00000000	34.69488000	4.50295200
68.99999607	-0.15871060	31.20078000	9.14124000
69.19999606	0.00000000	27.38681000	14.11786000
69.39999605	0.00000000	24.73548000	18.39321000
69.59999604	0.00000000	24.31102000	21.08760000
69.79999603	0.00000000	25.84892000	21.50590000
69.99999601	0.00000000	29.01082000	19.92495000
70.19999600	0.00000000	33.66756000	16.39395000
70.39999599	0.00000000	39.01944000	11.00517000
70.59999598	0.00000000	43.25172000	5.24729300
70.79999597	0.00000000	45.16486000	0.59670270
70.99999596	0.00000000	44.41437000	-2.09153500
71.19999594	0.00000000	40.93258000	-2.09153500
71.39999593	0.00000000	35.90059000	0.59670270
71.59999592	0.00000000	30.08735000	5.19808000
71.79999591	0.00000000	24.73548000	10.58686000
71.99999590	0.00000000	21.61663000	15.23130000
72.19999588	0.00000000	21.19833000	18.35015000
72.39999587	0.00000000	23.15453000	19.50664000
72.59999586	0.00000000	27.42987000	18.35015000
72.79999585	0.00000000	33.20005000	15.32357000
72.99999584	0.00000000	38.97638000	11.51575000
73.19999582	0.00000000	43.25172000	8.40305000
73.39999581	0.00000000	45.20792000	6.44685000
73.59999580	0.00000000	44.83267000	5.66560000
73.79999579	0.00000000	42.09522000	6.40378900
73.99999578	0.00000000	37.48154000	7.89247000
74.19999577	0.00000000	32.08661000	9.42421200
74.39999575	0.00000000	27.47293000	10.58686000
74.59999574	0.00000000	24.73548000	10.95595000
74.79999573	0.00000000	24.36024000	10.58686000
74.99999572	0.00000000	26.22416000	9.47342500
75.19999571	0.00000000	29.66289000	8.35998900
75.39999569	0.00000000	33.15699000	8.02780400
75.59999568	0.00000000	36.27584000	8.82135800
75.79999567	0.00000000	38.55807000	11.09744000
75.99999566	0.00000000	38.97638000	13.74262000
76.19999565	0.00000000	37.90600000	15.69882000
76.39999563	0.00000000	36.36811000	16.85531000
76.59999562	0.00000000	34.83022000	16.81225000
76.79999561	0.00000000	33.66756000	15.18824000
76.99999560	0.00000000	33.24311000	11.74336000
77.19999559	0.00000000	33.20005000	7.14812900
77.39999558	0.00000000	33.20005000	3.29109200
77.59999556	0.00000000	33.20005000	0.59670270
77.79999555	0.00000000	33.20005000	-0.14148620
77.99999554	0.00000000	33.15699000	1.80241100
78.19999553	0.00000000	32.73252000	5.61638700
78.39999552	0.00000000	31.61909000	10.62992000
78.59999550	0.00000000	30.54872000	15.27436000
78.79999549	0.00000000	30.54872000	18.76845000
78.99999548	0.00000000	31.71137000	20.66929000
79.19999547	0.00000000	33.61835000	19.88189000
79.39999546	0.00000000	35.94980000	16.85531000
79.59999544	0.00000000	37.85679000	12.58612000
79.79999543	0.00000000	39.01944000	7.98474400
79.99999542	0.00000000	38.97638000	4.08464600
80.19999541	-0.15871060	37.43848000	1.71013800
80.39999540	0.00000000	34.73794000	0.55364170
80.59999539	0.00000000	31.66830000	0.97194880
80.79999537	0.00000000	28.96776000	3.29109200
80.99999536	0.00000000	27.42987000	6.72982200
81.19999535	0.00000000	27.42987000	10.58686000
81.39999534	0.00000000	28.96776000	13.69956000
81.59999533	0.00000000	31.66830000	15.69882000
81.79999531	0.00000000	34.73794000	16.85531000
81.99999530	0.00000000	37.43848000	16.85531000
82.19999529	0.00000000	38.97638000	15.69882000
82.39999528	0.00000000	38.97638000	13.79183000
82.59999527	0.00000000	37.48154000	11.42347000
82.79999525	0.00000000	35.20546000	9.05511800
82.99999524	0.00000000	33.24926000	6.31151500
83.19999523	0.00000000	31.61909000	3.66633800
83.39999522	0.00000000	30.13041000	2.12844500
83.59999521	0.00000000	29.38607000	2.08538400
83.79999520	0.00000000	30.13041000	3.24803100
83.99999518	0.00000000	31.57603000	5.24729300
84.19999517	0.00000000	32.78174000	8.35998900
84.39999516	0.00000000	33.57529000	12.21087000
84.59999515	0.00000000	34.36884000	15.64960000
84.79999514	0.00000000	34.74409000	18.01796000
84.99999512	0.00000000	34.78716000	18.71924000
85.19999511	0.00000000	34.78716000	17.59966000
85.39999510	0.00000000	34.78716000	14.45005000
85.59999509	0.00000000	34.78716000	10.25467000
85.79999508	0.00000000	34.78716000	5.61638700
85.99999506	0.00000000	34.74409000	2.17765700
86.19999505	0.00000000	34.36884000	0.55364170
86.39999504	0.00000000	33.57529000	0.59670270
86.59999503	0.00000000	32.78174000	2.54675200
86.79999502	0.00000000	31.61909000	6.44685000
86.99999501	0.00000000	30.54872000	11.42347000
87.19999499	0.00000000	30.50566000	16.39395000
87.39999498	0.00000000	31.20078000	19.46358000
87.59999497	0.00000000	31.66215000	19.88189000
87.79999496	0.00000000	32.50492000	17.97490000
87.99999495	0.00000000	34.31963000	14.11786000
88.19999493	0.00000000	35.53149000	9.47342500
88.39999492	0.00000000	35.91289000	4.87204700
88.59999491	0.00000000	36.26968000	1.43946800
88.79999490	0.00000000	35.11319000	0.68897630
88.99999489	0.00000000	33.66756000	2.54675200
89.19999487	0.00000000	32.82480000	6.44685000
89.39999486	0.00000000	31.99434000	11.38041000
89.59999485	0.00000000	31.28691000	15.97564000
89.79999484	0.00000000	30.87475000	18.30093000
89.99999483	0.00000000	31.28691000	18.39321000
90.19999482	0.00000000	32.03740000	16.81225000
90.39999480	0.00000000	33.20005000	13.65650000
90.59999479	0.00000000	34.31963000	9.05511800
90.79999478	0.00000000	34.74409000	4.12770700
90.99999477	0.00000000	34.74409000	1.10728300
91.19999476	0.00000000	34.36884000	1.01501000
91.39999474	-0.15871060	33.61835000	3.33415300
91.59999473	0.00000000	33.29232000	7.19734200
91.79999472	0.00000000	33.61835000	12.21087000
91.99999471	0.00000000	34.36884000	16.72613000
92.19999470	-0.15871060	34.74409000	19.08834000
92.39999468	0.00000000	34.74409000	18.71924000
92.59999467	0.00000000	34.36884000	16.39395000
92.79999466	0.00000000	33.57529000	12.16166000
92.99999465	0.00000000	32.78174000	7.19734200
93.19999464	-0.15871060	31.61909000	3.37721400
93.39999463	0.00000000	30.50566000	1.43331700
93.59999461	0.00000000	30.13041000	2.17765700
93.79999460	0.00000000	30.50566000	4.82283400
93.99999459	0.00000000	31.71137000	8.35998900
94.19999458	0.00000000	33.61835000	12.58612000
94.39999457	0.00000000	35.94980000	16.35089000
94.59999455	0.00000000	37.85679000	17.88263000
94.79999454	0.00000000	39.01944000	16.76919000
94.99999453	0.00000000	38.97638000	13.74262000
95.19999452	0.00000000	37.43848000	9.89173200
95.39999451	0.00000000	34.69488000	6.40378900
95.59999449	0.00000000	31.24384000	3.70939900
95.79999448	0.00000000	27.80512000	2.59596400
95.99999447	0.00000000	25.89198000	3.70939900
96.19999446	0.00000000	25.80585000	6.36072800
96.39999445	0.00000000	27.01156000	9.42421200
96.59999444	0.00000000	29.38607000	12.16781000
96.79999442	0.00000000	33.24926000	14.07480000
96.99999441	0.00000000	37.43848000	14.85605000
97.19999440	0.00000000	40.55733000	14.07480000
97.39999439	0.00000000	42.09522000	12.21087000
97.59999438	0.00000000	41.71998000	9.89173200
97.79999436	0.00000000	39.39468000	7.98474400
97.99999435	0.00000000	35.90059000	6.77903500
98.19999434	0.00000000	31.66830000	6.40378900
98.39999433	0.00000000	27.80512000	6.77903500
98.59999432	0.00000000	25.47367000	7.89247000
98.79999430	0.00000000	24.64321000	9.05511800
98.99999429	0.00000000	25.47367000	9.84867000
99.19999428	0.00000000	27.76206000	10.62992000
99.39999427	0.00000000	31.24384000	11.00517000
99.59999426	0.00000000	34.73794000	11.04823000
99.79999425	0.00000000	37.85679000	11.04823000
99.99999423	0.00000000	40.13902000	11.09129000
100.19999422	0.00000000	40.55733000	11.46653000
100.39999421	0.00000000	39.43774000	12.16166000
100.59999420	0.00000000	37.48154000	12.16166000
100.79999419	0.00000000	34.73794000	11.42347000
100.99999417	0.00000000	31.66830000	10.58686000
101.19999416	0.00000000	28.92470000	9.00590400
101.39999415	0.00000000	27.01156000	6.77903500
101.59999414	0.00000000	26.22416000	5.24729300
101.79999413	0.00000000	27.01156000	4.87204700
101.99999411	0.00000000	28.87549000	5.61638700
102.19999410	0.00000000	31.24384000	7.60949800
102.39999409	0.00000000	33.57529000	10.26698000
102.59999408	0.00000000	35.90059000	13.32431000
102.79999407	0.00000000	37.43848000	15.23130000
102.99999406	0.00000000	37.85679000	15.64960000
103.19999404	0.00000000	37.48154000	14.85605000
103.39999403	0.00000000	36.27584000	12.58612000
103.59999402	0.00000000	34.36884000	9.89173200
103.79999401	0.00000000	32.03740000	7.51722400
103.99999400	0.00000000	30.13041000	5.19808000
104.19999398	0.00000000	28.96776000	3.70939900
104.39999397	0.00000000	28.92470000	3.70939900
104.59999396	0.00000000	29.70595000	5.19808000
104.79999395	0.00000000	30.87475000	7.56643700
104.99999394	0.00000000	32.78174000	10.26698000
105.19999392	0.00000000	34.31963000	13.28125000
105.39999391	0.00000000	35.11934000	14.81299000
105.59999390	0.00000000	35.53149000	14.49311000
105.79999389	0.00000000	35.11934000	13.37352000
105.99999388	0.00000000	34.36884000	11.38041000
106.19999387	0.00000000	33.20005000	9.09817800
106.39999385	0.00000000	32.03740000	6.77903500
106.59999384	0.00000000	31.28691000	5.29035400
106.79999383	0.00000000	30.87475000	5.29035400
106.99999382	0.00000000	31.28691000	6.77903500
107.19999381	0.00000000	32.03740000	9.05511800
107.39999379	0.00000000	33.20005000	10.96211000
107.59999378	0.00000000	34.31963000	12.16166000
107.79999377	0.00000000	34.69488000	12.53691000
107.99999376	0.00000000	34.36884000	12.16166000
108.19999375	0.00000000	33.57529000	11.00517000
108.39999374	0.00000000	32.78174000	9.47342500
108.59999372	0.00000000	31.61909000	7.93553100
108.79999371	0.00000000	30.54872000	6.82209600
108.99999370	0.00000000	30.50566000	6.77903500
109.19999369	0.00000000	31.24384000	7.56028500
109.39999368	0.00000000	32.03740000	8.68602300
109.59999366	0.00000000	33.20005000	10.25467000
109.79999365	0.00000000	34.31963000	11.42347000
109.99999364	0.00000000	34.74409000	12.58612000
110.19999363	0.00000000	34.74409000	13.28125000
110.39999362	0.00000000	34.36884000	12.53691000
110.59999360	0.00000000	33.57529000	11.04823000
110.79999359	0.00000000	32.82480000	9.47342500
110.99999358	0.00000000	31.99434000	7.93553100
111.19999357	0.00000000	31.28691000	6.77903500
111.39999356	0.00000000	30.87475000	6.40378900
111.59999355	0.00000000	31.24384000	6.72982200
111.79999353	0.00000000	31.61909000	7.51722400
111.99999352	0.00000000	32.03740000	8.31077700
112.19999351	0.00000000	32.78174000	9.47342500
112.39999350	0.00000000	33.20005000	10.58686000
112.59999349	0.00000000	33.57529000	11.00517000
112.79999347	0.00000000	33.94439000	11.04823000
112.99999346	0.00000000	33.57529000	11.00517000
113.19999345	0.00000000	33.24311000	10.62992000
113.39999344	0.00000000	33.20005000	9.89173200
113.59999343	0.00000000	33.15699000	9.51648500
113.79999341	0.00000000	32.78174000	9.43036400
113.99999340	0.00000000	32.03740000	9.05511800
114.19999339	0.00000000	31.66215000	8.35998900
114.39999338	0.00000000	31.61909000	8.31077700
114.59999337	0.00000000	31.66215000	8.63681000
114.79999336	0.00000000	32.03740000	8.26771600
114.99999334	0.00000000	32.78174000	7.93553100
115.19999333	0.00000000	33.15699000	7.89247000
115.39999332	0.00000000	33.20005000	7.93553100
115.59999331	0.00000000	33.20005000	8.35998900
115.79999330	0.00000000	33.20005000	9.47342500
115.99999328	0.00000000	33.20005000	10.58686000
116.19999327	0.00000000	33.15699000	11.04823000
116.39999326	0.00000000	32.78174000	11.46653000
116.59999325	0.00000000	32.03740000	12.16166000
116.79999324	0.00000000	31.66215000	12.11860000
116.99999322	0.00000000	31.66215000	11.00517000
117.19999321	0.00000000	32.03740000	9.47342500
117.39999320	0.00000000	32.78174000	7.98474400
117.59999319	0.00000000	33.20005000	7.19734200
117.79999318	0.00000000	33.61835000	7.51722400
117.99999317	0.00000000	34.31963000	7.84940900
118.19999315	0.00000000	34.31963000	7.93553100
118.39999314	0.00000000	33.57529000	8.31077700
118.59999313	0.00000000	32.82480000	9.09817800
118.79999312	0.00000000	31.99434000	9.84867000
118.99999311	0.00000000	31.24384000	10.67298000
119.19999309	0.00000000	30.45644000	11.38041000
119.39999308	0.00000000	30.13041000	11.79257000
119.59999307	0.00000000	30.45644000	11.38041000
119.79999306	0.00000000	31.24384000	10.67298000
119.99999305	0.00000000	32.03740000	9.89173200
120.19999303	0.00000000	33.24926000	9.51648500
120.39999302	0.00000000	34.73794000	9.43036400
120.59999301	0.00000000	35.85752000	9.05511800
120.79999300	0.00000000	35.90059000	8.35998900
120.99999299	0.00000000	35.11934000	8.35998900
121.19999298	0.00000000	33.99360000	9.05511800
121.39999296	0.00000000	32.41265000	9.43036400
121.59999295	0.00000000	31.28691000	9.47342500
121.79999294	0.00000000	30.45644000	9.47342500
121.99999293	0.00000000	30.08120000	9.47342500
122.19999292	0.00000000	30.08120000	9.51648500
122.39999290	0.00000000	30.45644000	9.89173200
122.59999289	0.00000000	31.24384000	10.62992000
122.79999288	0.00000000	32.03740000	11.00517000
122.99999287	0.00000000	33.20005000	11.00517000
123.19999286	0.00000000	34.31963000	10.62992000
123.39999284	0.00000000	34.74409000	9.89173200
123.59999283	0.00000000	34.78716000	9.51648500
123.79999282	0.00000000	34.74409000	9.43036400
123.99999281	0.00000000	34.36884000	9.05511800
124.19999280	0.00000000	33.57529000	8.31077700
124.39999279	0.00000000	32.82480000	7.93553100
124.59999277	0.00000000	31.99434000	7.89247000
124.79999276	0.00000000	31.24384000	7.93553100
124.99999275	0.00000000	30.45644000	8.31077700
125.19999274	0.00000000	30.13041000	9.09817800
125.39999273	0.00000000	30.45644000	9.84867000
125.59999271	0.00000000	31.24384000	10.62992000
125.79999270	0.00000000	32.03740000	11.00517000
125.99999269	0.00000000	33.20005000	11.00517000
126.19999268	0.00000000	34.31963000	10.67298000
126.39999267	0.00000000	34.74409000	10.26698000
126.59999265	0.00000000	34.74409000	10.25467000
126.79999264	0.00000000	34.36884000	9.79945900
126.99999263	0.00000000	33.57529000	9.09817800
127.19999262	0.00000000	32.78174000	8.35998900
127.39999261	0.00000000	31.61909000	8.31077700
127.59999260	0.00000000	30.50566000	8.67987200
127.79999258	0.00000000	30.08120000	8.68602300
127.99999257	0.00000000	30.08120000	9.09817800
128.19999256	0.00000000	30.50566000	9.43036400
128.39999255	0.00000000	31.61909000	9.47342500
128.59999254	0.00000000	32.78174000	9.47342500
128.79999252	0.00000000	33.57529000	9.47342500
128.99999251	0.00000000	34.36884000	9.47342500
129.19999250	0.00000000	34.69488000	9.47342500
129.39999249	0.00000000	34.31963000	9.43036400
129.59999248	0.00000000	33.20005000	9.05511800
129.79999246	0.00000000	32.03740000	8.35998900
129.99999245	0.00000000	31.24384000	8.35998900
130.19999244	0.00000000	30.45644000	9.05511800
130.39999243	0.00000000	30.13041000	9.43036400
130.59999242	0.00000000	30.45644000	9.51648500
130.79999241	0.00000000	31.24384000	9.89173200
130.99999239	0.00000000	31.99434000	10.58686000
131.19999238	0.00000000	32.78174000	10.58686000
131.39999237	0.00000000	33.15699000	9.89173200
131.59999236	0.00000000	33.20005000	9.47342500
131.79999235	0.00000000	33.15699000	9.05511800
131.99999233	0.00000000	32.78174000	8.35998900
132.19999232	0.00000000	32.03740000	8.35998900
132.39999231	0.00000000	31.66215000	9.00590400
132.59999230	0.00000000	31.61909000	9.05511800
132.79999229	0.00000000	31.61909000	8.72908400
132.99999227	0.00000000	31.61909000	9.14124000
133.19999226	0.00000000	31.61909000	9.84867000
133.39999225	0.00000000	31.61909000	10.62992000
133.59999224	0.00000000	31.61909000	11.00517000
133.79999223	0.00000000	31.61909000	11.00517000
133.99999222	0.00000000	31.61909000	10.62992000
134.19999220	0.00000000	31.61909000	9.84867000
134.39999219	0.00000000	31.61909000	9.09817800
134.59999218	0.00000000	31.66215000	8.31077700
134.79999217	0.00000000	32.03740000	7.89247000
134.99999216	0.00000000	32.78174000	7.51722400
135.19999214	0.00000000	33.15699000	7.19734200
135.39999213	0.00000000	33.20005000	7.93553100
135.59999212	0.00000000	33.15699000	9.00590400
135.79999211	0.00000000	32.78174000	9.43036400
135.99999210	0.00000000	32.03740000	9.51648500
136.19999208	0.00000000	31.61909000	9.89173200
136.39999207	0.00000000	31.20078000	10.62992000
136.59999206	0.00000000	30.50566000	10.95595000
136.79999205	0.00000000	30.50566000	10.62992000
136.99999204	0.00000000	31.24384000	9.89173200
137.19999203	0.00000000	31.99434000	9.47342500
137.39999201	0.00000000	32.78174000	9.05511800
137.59999200	0.00000000	33.15699000	8.31077700
137.79999199	0.00000000	33.20005000	7.93553100
137.99999198	0.00000000	33.20005000	7.89247000
138.19999197	0.00000000	33.15699000	7.89247000
138.39999195	0.00000000	32.78174000	7.93553100
138.59999194	0.00000000	31.99434000	8.31077700
138.79999193	0.00000000	31.24384000	9.05511800
138.99999192	0.00000000	30.50566000	9.47342500
139.19999191	0.00000000	30.50566000	9.89173200
139.39999189	0.00000000	31.20078000	10.62992000
139.59999188	0.00000000	31.61909000	11.00517000
139.79999187	0.00000000	32.03740000	11.00517000
139.99999186	0.00000000	32.78174000	10.62992000
140.19999185	0.00000000	33.15699000	9.84867000
140.39999184	0.00000000	33.15699000	9.09817800
140.59999182	0.00000000	32.78174000	8.31077700
140.79999181	0.00000000	32.03740000	7.93553100
140.99999180	0.00000000	31.66215000	7.89247000
141.19999179	0.00000000	31.61909000	7.93553100
141.39999178	0.00000000	31.61909000	8.31077700
141.59999176	0.00000000	31.61909000	9.09817800
141.79999175	0.00000000	31.66215000	9.84867000
141.99999174	0.00000000	31.99434000	10.62992000
142.19999173	0.00000000	32.40649000	11.00517000
142.39999172	0.00000000	32.36959000	11.04823000
142.59999170	0.00000000	32.40649000	11.00517000
142.79999169	0.00000000	31.99434000	10.58686000
142.99999168	0.00000000	31.66215000	9.47342500
143.19999167	0.00000000	31.61909000	8.35998900
143.39999166	0.00000000	31.61909000	7.93553100
143.59999165	0.00000000	31.61909000	7.89247000
143.79999163	0.00000000	31.61909000	7.93553100
143.99999162	0.00000000	31.66215000	8.31077700
144.19999161	0.00000000	32.03740000	9.05511800
144.39999160	0.00000000	32.78174000	9.47342500
144.59999159	0.00000000	33.15699000	9.89173200
144.79999157	0.00000000	33.20005000	10.62992000
144.99999156	0.00000000	33.15699000	11.00517000
145.19999155	0.00000000	32.78174000	11.00517000
145.39999154	0.00000000	32.03740000	10.58686000
145.59999153	0.00000000	31.66215000	9.47342500
145.79999151	0.00000000	31.61909000	8.35998900
145.99999150	0.00000000	31.61909000	7.93553100
146.19999149	0.00000000	31.61909000	7.89247000
146.39999148	0.00000000	31.61909000	7.89247000
146.59999147	0.00000000	31.66215000	7.89247000
146.79999146	0.00000000	31.99434000	7.93553100
146.99999144	0.00000000	32.40649000	8.31077700
147.19999143	0.00000000	32.36959000	9.05511800
147.39999142	0.00000000	32.40649000	9.43036400
147.59999141	0.00000000	31.99434000	9.47342500
147.79999140	0.00000000	31.66215000	9.47342500
147.99999138	0.00000000	31.61909000	9.47342500
148.19999137	0.00000000	31.61909000	9.47342500
148.39999136	0.00000000	31.61909000	9.47342500
148.59999135	0.00000000	31.61909000	9.47342500
148.79999134	0.00000000	31.61909000	9.43036400
148.99999132	0.00000000	31.61909000	9.05511800
149.19999131	0.00000000	31.61909000	8.31077700
149.39999130	0.00000000	31.66215000	7.93553100
149.59999129	0.00000000	32.03740000	7.93553100
149.79999128	0.00000000	32.78174000	8.31077700
149.99999127	0.00000000	33.10777000	9.05511800
150.19999125	0.00000000	32.78174000	9.43036400
150.39999124	0.00000000	32.03740000	9.47342500
150.59999123	0.00000000	31.66215000	9.47342500
150.79999122	0.00000000	31.57603000	9.47342500
150.99999121	0.00000000	31.24384000	9.47342500
151.19999119	0.00000000	30.87475000	9.47342500
151.39999118	0.00000000	31.24384000	9.47342500
151.59999117	0.00000000	31.57603000	9.47342500
151.79999116	0.00000000	31.61909000	9.43036400
151.99999115	0.00000000	31.66215000	9.09817800
152.19999113	0.00000000	31.99434000	8.72908400
152.39999112	0.00000000	32.40649000	9.09817800
152.59999111	0.00000000	32.41265000	9.43036400
152.79999110	0.00000000	32.78174000	9.47342500
152.99999109	0.00000000	32.73252000	9.47342500
153.19999108	0.00000000	32.03740000	9.47342500
153.39999106	0.00000000	31.66215000	9.47342500
153.59999105	0.00000000	31.61909000	9.47342500
153.79999104	0.00000000	31.57603000	9.43036400
153.99999103	0.00000000	31.20078000	9.09817800
154.19999102	0.00000000	30.50566000	8.72908400
154.39999100	0.00000000	30.50566000	9.09817800
154.59999099	0.00000000	31.20078000	9.43036400
154.79999098	0.00000000	31.57603000	9.43036400
154.99999097	0.00000000	31.66215000	9.05511800
155.19999096	0.00000000	32.03740000	8.31077700
155.39999094	0.00000000	32.78174000	7.93553100
155.59999093	0.00000000	33.15699000	7.93553100
155.79999092	0.00000000	33.15699000	8.31077700
155.99999091	0.00000000	32.78174000	9.05511800
156.19999090	0.00000000	32.03740000	9.43036400
156.39999089	0.00000000	31.66215000	9.47342500
156.59999087	0.00000000	31.57603000	9.47342500
156.79999086	0.00000000	31.20078000	9.47342500
156.99999085	0.00000000	30.45644000	9.47342500
157.19999084	0.00000000	30.13041000	9.47342500
157.39999083	0.00000000	30.45644000	9.47342500
157.59999081	0.00000000	31.20078000	9.43036400
157.79999080	0.00000000	31.57603000	9.05511800
157.99999079	0.00000000	31.61909000	8.31077700
158.19999078	0.00000000	31.61909000	7.93553100
158.39999077	0.00000000	31.61909000	7.89247000
158.59999075	0.00000000	31.61909000	7.93553100
158.79999074	0.00000000	31.61909000	8.31077700
158.99999073	0.00000000	31.61909000	9.05511800
159.19999072	0.00000000	31.61909000	9.47342500
159.39999071	0.00000000	31.61909000	9.89173200
159.59999070	0.00000000	31.61909000	10.58686000
159.79999068	0.00000000	31.61909000	10.58686000
159.99999067	0.00000000	31.61909000	9.89173200
160.19999066	0.00000000	31.61909000	9.51648500
160.39999065	0.00000000	31.57603000	9.43036400
160.59999064	0.00000000	31.24384000	9.09817800
160.79999062	0.00000000	30.87475000	8.68602300
160.99999061	0.00000000	31.24384000	8.67987200
161.19999060	0.00000000	31.57603000	8.26771600
161.39999059	0.00000000	31.61909000	7.93553100
161.59999058	0.00000000	31.61909000	7.93553100
161.79999056	0.00000000	31.61909000	8.31077700
161.99999055	0.00000000	31.61909000	9.05511800
162.19999054	0.00000000	31.61909000	9.43036400
162.39999053	0.00000000	31.61909000	9.47342500
162.59999052	0.00000000	31.61909000	9.47342500
162.79999051	0.00000000	31.61909000	9.47342500
162.99999049	0.00000000	31.57603000	9.47342500
163.19999048	0.00000000	31.20078000	9.47342500
163.39999047	0.00000000	30.45644000	9.47342500
163.59999046	0.00000000	30.13041000	9.47342500
163.79999045	0.00000000	30.41338000	9.47342500
163.99999043	0.00000000	30.82554000	9.47342500
164.19999042	0.00000000	30.83169000	9.43036400
164.39999041	0.00000000	31.24384000	9.05511800
164.59999040	0.00000000	31.57603000	8.31077700
164.79999039	0.00000000	31.66215000	7.93553100
164.99999037	0.00000000	31.99434000	7.93553100
165.19999036	0.00000000	32.36343000	8.31077700
165.39999035	0.00000000	31.99434000	9.05511800
165.59999034	0.00000000	31.61909000	9.43036400
165.79999033	0.00000000	31.24384000	9.47342500
165.99999032	0.00000000	30.83169000	9.47342500
166.19999030	0.00000000	30.86860000	9.47342500
166.39999029	0.00000000	30.83169000	9.47342500
166.59999028	0.00000000	31.20078000	9.47342500
166.79999027	0.00000000	31.20078000	9.47342500
166.99999026	0.00000000	30.87475000	9.47342500
167.19999024	0.00000000	31.24384000	9.43036400
167.39999023	0.00000000	31.57603000	9.05511800
167.59999022	0.00000000	31.61909000	8.35998900
167.79999021	0.00000000	31.61909000	8.35998900
167.99999020	0.00000000	31.61909000	9.05511800
168.19999018	0.00000000	31.61909000	9.43036400
168.39999017	0.00000000	31.61909000	9.47342500
168.59999016	0.00000000	31.61909000	9.47342500
168.79999015	0.00000000	31.61909000	9.47342500
168.99999014	0.00000000	31.61909000	9.47342500
169.19999013	0.00000000	31.61909000	9.43036400
169.39999011	0.00000000	31.57603000	9.09817800
169.59999010	0.00000000	31.24384000	8.72908400
169.79999009	0.00000000	30.87475000	9.09817800
169.99999008	0.00000000	31.24384000	9.43036400
170.19999007	0.00000000	31.57603000	9.47342500
170.39999005	0.00000000	31.61909000	9.43036400
170.59999004	0.00000000	31.61909000	9.05511800
170.79999003	0.00000000	31.61909000	8.35998900
170.99999002	0.00000000	31.61909000	8.31077700
171.19999001	0.00000000	31.61909000	8.67987200
171.39998999	0.00000000	31.61909000	8.64296200
171.59998998	0.00000000	31.61909000	8.67987200
171.79998997	0.00000000	31.61909000	8.26771600
171.99998996	0.00000000	31.61909000	7.98474400
172.19998995	0.00000000	31.61909000	8.31077700
172.39998994	0.00000000	31.61909000	9.05511800
172.59998992	0.00000000	31.61909000	9.43036400
172.79998991	0.00000000	31.61909000	9.47342500
172.99998990	0.00000000	31.61909000	9.47342500
173.19998989	0.00000000	31.61909000	9.43036400
173.39998988	0.00000000	31.61909000	9.09817800
173.59998986	0.00000000	31.61909000	8.72908400
173.79998985	0.00000000	31.61909000	9.05511800
173.99998984	0.00000000	31.61909000	9.00590400
174.19998983	0.00000000	31.61909000	8.31077700
174.39998982	0.00000000	31.61909000	7.93553100
174.59998980	0.00000000	31.61909000	7.93553100
174.79998979	0.00000000	31.61909000	8.31077700
174.99998978	0.00000000	31.61909000	9.05511800
175.19998977	0.00000000	31.61909000	9.38115100
175.39998976	0.00000000	31.61909000	9.05511800
175.59998975	0.00000000	31.61909000	8.35998900
175.79998973	0.00000000	31.61909000	8.35998900
175.99998972	0.00000000	31.61909000	9.05511800
176.19998971	0.00000000	31.61909000	9.38115100
176.39998970	0.00000000	31.61909000	9.09817800
176.59998969	0.00000000	31.61909000	8.72908400
176.79998967	-0.15871060	31.57603000	9.05511800
176.99998966	0.00000000	31.24384000	9.00590400
177.19998965	0.00000000	30.87475000	8.35998900
177.39998964	0.00000000	31.20078000	8.31077700
177.59998963	0.00000000	31.20078000	8.63681000
177.79998961	0.00000000	30.87475000	8.31077700
177.99998960	0.00000000	31.24384000	8.35998900
178.19998959	0.00000000	31.57603000	9.05511800
178.39998958	0.00000000	31.61909000	9.43036400
178.59998957	0.00000000	31.61909000	9.47342500
178.79998956	0.00000000	31.61909000	9.47342500
178.99998954	0.00000000	31.61909000	9.47342500
179.19998953	0.00000000	31.61909000	9.43036400
179.39998952	0.00000000	31.61909000	9.05511800
179.59998951	0.00000000	31.61909000	8.31077700
179.79998950	0.00000000	31.61909000	7.93553100
179.99998948	0.00000000	31.61909000	7.89247000
180.19998947	0.00000000	31.61909000	7.89247000
180.39998946	0.00000000	31.57603000	7.89247000
180.59998945	0.00000000	31.24384000	7.93553100
180.79998944	0.00000000	30.87475000	8.31077700
180.99998942	0.00000000	31.24384000	9.05511800
181.19998941	0.00000000	31.52682000	9.43036400
181.39998940	-0.15871060	31.24384000	9.47342500
181.59998939	0.00000000	30.87475000	9.47342500
181.79998938	0.00000000	31.24384000	9.47342500
181.99998937	0.00000000	31.57603000	9.47342500
182.19998935	0.00000000	31.61909000	9.43036400
182.39998934	0.00000000	31.61909000	9.05511800
182.59998933	0.00000000	31.61909000	8.31077700
182.79998932	0.00000000	31.61909000	7.93553100
182.99998931	0.00000000	31.61909000	7.89247000
183.19998929	0.00000000	31.61909000	7.89247000
183.39998928	0.00000000	31.57603000	7.89247000
183.59998927	0.00000000	31.20078000	7.89247000
183.79998926	0.00000000	30.50566000	7.93553100
183.99998925	0.00000000	30.45644000	8.31077700
184.19998923	0.00000000	30.78248000	9.05511800
184.39998922	0.00000000	30.45644000	9.43036400
184.59998921	0.00000000	30.50566000	9.47342500
184.79998920	0.00000000	31.20078000	9.47342500
184.99998919	0.00000000	31.57603000	9.43036400
185.19998918	0.00000000	31.61909000	9.05511800
185.39998916	0.00000000	31.61909000	8.31077700
185.59998915	0.00000000	31.61909000	7.93553100
185.79998914	0.00000000	31.61909000	7.89247000
185.99998913	0.00000000	31.61909000	7.89247000
186.19998912	0.00000000	31.57603000	7.89247000
186.39998910	0.00000000	31.24384000	7.89247000
186.59998909	0.00000000	30.83169000	7.89247000
186.79998908	0.00000000	30.82554000	7.93553100
186.99998907	0.00000000	30.41338000	8.31077700
187.19998906	0.00000000	30.08120000	9.05511800
187.39998904	0.00000000	30.03814000	9.43036400
187.59998903	0.00000000	30.03814000	9.47342500
187.79998902	0.00000000	30.03814000	9.47342500
187.99998901	0.00000000	30.08120000	9.43036400
188.19998900	0.00000000	30.45644000	9.05511800
188.39998899	0.00000000	31.20078000	8.31077700
188.59998897	0.00000000	31.57603000	7.93553100
188.79998896	0.00000000	31.57603000	7.89247000
188.99998895	0.00000000	31.24384000	7.89247000
189.19998894	0.00000000	30.87475000	7.89247000
189.39998893	-0.15871060	31.24384000	7.89247000
189.59998891	0.00000000	31.52682000	7.89247000
189.79998890	0.00000000	31.24384000	7.93553100
189.99998889	0.00000000	30.83169000	8.31077700
190.19998888	0.00000000	30.82554000	9.05511800
190.39998887	0.00000000	30.41338000	9.43036400
190.59998885	0.00000000	30.08120000	9.47342500
190.79998884	0.00000000	30.03814000	9.43036400
190.99998883	0.00000000	30.03814000	9.05511800
191.19998882	0.00000000	30.08120000	8.31077700
191.39998881	0.00000000	30.45644000	7.93553100
191.59998880	0.00000000	31.20078000	7.89247000
191.79998878	0.00000000	31.57603000	7.89247000
191.99998877	0.00000000	31.57603000	7.89247000
192.19998876	0.00000000	31.20078000	7.89247000
192.39998875	0.00000000	30.45644000	7.89247000
192.59998874	0.00000000	30.08120000	7.89247000
192.79998872	0.00000000	30.03814000	7.89247000
192.99998871	0.00000000	30.03814000	7.89247000
193.19998870	0.00000000	30.03814000	7.89247000
193.39998869	0.00000000	30.03814000	7.89247000
193.59998868	0.00000000	30.03814000	7.89247000
193.79998866	0.00000000	30.03814000	7.93553100
193.99998865	0.00000000	30.03814000	8.31077700
194.19998864	0.00000000	30.08120000	9.05511800
194.39998863	0.00000000	30.45644000	9.43036400
194.59998862	0.00000000	31.20078000	9.43036400
194.79998861	0.00000000	31.57603000	9.05511800
194.99998859	0.00000000	31.57603000	8.31077700
195.19998858	0.00000000	31.20078000	7.93553100
195.39998857	0.00000000	30.45644000	7.89247000
195.59998856	0.00000000	30.08120000	7.89247000
195.79998855	0.00000000	30.03814000	7.89247000
195.99998853	0.00000000	30.03814000	7.93553100
