Time	Channel A	Channel B	Channel C
(us)	(V)	(mV)	(mV)

-4.49999956	0.00000000	28.45718000	7.89247000
-4.29999957	0.00000000	28.45718000	7.89247000
-4.09999958	0.00000000	28.45718000	7.89247000
-3.89999959	0.00000000	28.45718000	7.89247000
-3.69999960	0.00000000	28.45718000	7.84940900
-3.49999962	0.00000000	28.45718000	7.51722400
-3.29999963	0.00000000	28.45718000	7.14812900
-3.09999964	0.00000000	28.45718000	7.51722400
-2.89999965	0.00000000	28.45718000	7.84940900
-2.69999966	0.00000000	28.45718000	7.89247000
-2.49999968	0.00000000	28.45718000	7.89247000
-2.29999969	0.00000000	28.45718000	7.89247000
-2.09999970	0.00000000	28.45718000	7.89247000
-1.89999971	0.00000000	28.45718000	7.89247000
-1.69999972	0.00000000	28.45718000	7.89247000
-1.49999973	0.00000000	28.45718000	7.89247000
-1.29999975	0.00000000	28.45718000	7.89247000
-1.09999976	0.00000000	28.45718000	7.89247000
-0.89999977	0.00000000	28.45718000	7.89247000
-0.69999978	0.00000000	28.45718000	7.89247000
-0.49999979	0.00000000	28.45718000	7.89247000
-0.29999981	0.31803640	28.45718000	7.89247000
-0.09999982	0.63668800	28.45718000	7.89247000
0.10000017	0.95533960	28.45718000	7.89247000
0.30000016	0.95533960	28.45718000	7.89247000
0.50000015	0.79601380	28.45718000	7.84940900
0.70000013	0.31803640	28.45718000	7.51722400
0.90000012	-0.47736220	28.45718000	7.14812900
1.10000011	-1.43331700	28.45718000	7.47416300
1.30000010	-2.22994600	28.45718000	7.47416300
1.50000009	-2.86724900	28.45718000	7.14812900
1.70000008	-2.54859700	28.45718000	7.51722400
1.90000006	-1.43331700	28.45718000	7.84940900
2.10000005	0.31803640	28.45718000	7.89247000
2.30000004	2.38927200	28.45718000	7.89247000
2.50000003	4.30056600	28.45718000	7.84940900
2.70000002	5.25652100	28.50024000	7.47416300
2.90000000	4.93786900	28.83243000	6.72982200
3.09999999	3.18590100	29.20152000	6.35457700
3.29999998	0.31803640	28.83243000	6.35457700
3.49999997	-3.18590100	28.50024000	6.72982200
3.69999996	-6.21247500	28.45718000	7.47416300
3.89999994	-7.80511800	28.45718000	7.84940900
4.09999993	-7.64579200	28.45718000	7.89247000
4.29999992	-5.41584600	28.45718000	7.89247000
4.49999991	-1.59264300	28.45718000	7.89247000
4.69999990	2.86724900	28.45718000	7.89247000
4.89999989	6.84916400	28.45718000	7.89247000
5.09999987	9.07972400	28.45718000	7.84940900
5.29999986	9.23905000	28.45718000	7.47416300
5.49999985	7.00848900	28.45718000	6.72982200
5.69999984	2.86724900	28.45718000	6.35457700
5.89999983	-1.91129400	28.45718000	6.31151500
6.09999981	-6.21247500	28.45718000	6.35457700
6.29999980	-8.92039900	28.45718000	6.72982200
6.49999979	-9.39837600	28.45718000	7.47416300
6.69999978	-7.48646600	28.45718000	7.84940900
6.89999977	-3.82258900	28.45718000	7.89247000
7.09999975	0.47736220	28.45718000	7.89247000
7.29999974	4.45989200	28.45718000	7.89247000
7.49999973	7.00848900	28.45718000	7.89247000
7.69999972	7.64579200	28.45718000	7.84940900
7.89999971	6.37180100	28.45718000	7.47416300
8.09999970	3.82258900	28.45718000	6.72982200
8.29999968	0.47736220	28.45718000	6.40378900
8.49999967	-2.54859700	28.45718000	6.72982200
8.69999966	-4.61921700	28.45718000	7.47416300
8.89999965	-5.25652100	28.45718000	7.84940900
9.09999964	-4.61921700	28.45718000	7.89247000
9.29999962	-2.86724900	28.45718000	7.89247000
9.49999961	-0.95533960	28.45718000	7.89247000
9.69999960	0.95533960	28.45718000	7.89247000
9.89999959	2.07062000	28.45718000	7.89247000
10.09999958	2.54859700	28.45718000	7.89247000
10.29999956	2.22994600	28.45718000	7.89247000
10.49999955	1.59264300	28.45718000	7.89247000
10.69999954	0.63668800	28.45718000	7.89247000
10.89999953	-0.15871060	28.45718000	7.89247000
11.09999952	-0.63668800	28.45718000	7.89247000
11.29999951	-0.95533960	28.45718000	7.89247000
11.49999949	-0.95533960	28.45718000	7.89247000
11.69999948	-0.79601380	28.50024000	7.89247000
11.89999947	-0.47736220	28.78937000	7.84940900
12.09999946	-0.15871060	28.82628000	7.51722400
12.29999945	-0.15871060	28.08809000	7.14812900
12.49999943	0.00000000	28.12500000	7.51722400
12.69999942	0.00000000	28.41412000	7.84940900
12.89999941	0.00000000	28.45718000	7.89247000
13.09999940	0.00000000	28.45718000	7.89247000
13.29999939	0.00000000	28.45718000	7.89247000
13.49999937	0.00000000	28.45718000	7.84940900
13.69999936	0.00000000	28.45718000	7.51722400
13.89999935	0.00000000	28.45718000	7.14812900
14.09999934	-0.15871060	28.45718000	7.51722400
14.29999933	-0.15871060	28.45718000	7.84940900
14.49999932	-0.15871060	28.45718000	7.89247000
14.69999930	-0.15871060	28.45718000	7.89247000
14.89999929	0.00000000	28.45718000	7.89247000
15.09999928	0.00000000	28.45718000	7.89247000
15.29999927	0.00000000	28.45718000	7.89247000
15.49999926	0.00000000	28.45718000	7.89247000
15.69999924	0.00000000	28.45718000	7.89247000
15.89999923	0.00000000	28.45718000	7.89247000
16.09999922	0.00000000	28.45718000	7.89247000
16.29999921	0.00000000	28.45718000	7.89247000
16.49999920	-0.15871060	28.45718000	7.89247000
16.69999919	-0.15871060	28.50024000	7.89247000
16.89999917	0.00000000	28.87549000	7.89247000
17.09999916	0.00000000	29.61983000	7.89247000
17.29999915	0.00000000	29.99508000	7.84940900
17.49999914	0.00000000	30.03814000	7.51722400
17.69999913	0.00000000	29.99508000	7.14812900
17.89999911	0.00000000	29.57062000	7.51722400
18.09999910	0.00000000	28.41412000	7.84940900
18.29999909	0.00000000	26.87623000	7.89247000
18.49999908	0.00000000	25.29527000	7.89247000
18.69999907	0.00000000	23.75738000	7.89247000
18.89999905	-0.15871060	22.64394000	7.89247000
19.09999904	0.00000000	22.68701000	7.89247000
19.29999903	0.00000000	24.22490000	7.89247000
19.49999902	0.00000000	26.96850000	7.89247000
19.69999901	0.00000000	30.50566000	7.89247000
19.89999900	0.00000000	34.73794000	7.89247000
20.09999898	0.00000000	38.50886000	7.84940900
20.29999897	0.00000000	40.04675000	7.51722400
20.49999896	0.00000000	38.88410000	7.14812900
20.69999895	0.00000000	35.30389000	7.51722400
20.89999894	0.00000000	29.06619000	7.84940900
21.09999892	0.00000000	21.01993000	7.89247000
21.29999891	0.00000000	13.66880000	7.84940900
21.49999890	0.00000000	8.63681000	7.51722400
21.69999889	0.00000000	6.82824800	7.14812900
21.89999888	0.00000000	10.03322000	7.47416300
22.09999886	0.00000000	18.49778000	7.42495000
22.29999885	0.00000000	30.13041000	6.72982200
22.49999884	0.00000000	42.51353000	6.35457700
22.69999883	0.00000000	53.30339000	6.35457700
22.89999882	0.00000000	59.35654000	6.72982200
23.09999881	0.00000000	58.51377000	7.47416300
23.29999879	0.00000000	49.95694000	7.89247000
23.49999878	0.00000000	35.25467000	8.31077700
23.69999877	0.00000000	17.48277000	9.05511800
23.89999876	0.00000000	0.50442900	9.43036400
24.09999875	0.00000000	-11.36811000	9.43036400
24.29999873	0.00000000	-14.80684000	9.00590400
24.49999872	0.00000000	-8.15698700	7.84940900
24.69999871	0.00000000	7.28961600	6.31151500
24.89999870	0.00000000	28.59252000	4.73671200
25.09999869	0.00000000	50.93504000	3.19881900
25.29999867	0.00000000	69.07603000	2.08538400
25.49999866	0.00000000	78.29724000	2.08538400
25.69999865	-0.15871060	76.33489000	3.29109200
25.89999864	0.00000000	63.12745000	5.66560000
26.09999863	0.00000000	41.16019000	9.51648500
26.29999862	0.00000000	15.71112000	13.74262000
26.49999860	0.00000000	-6.71136800	17.18750000
26.69999859	0.00000000	-21.41363000	19.08834000
26.89999858	0.00000000	-25.22761000	18.25787000
27.09999857	0.00000000	-16.71383000	14.76993000
27.29999856	0.00000000	2.12844500	8.91978400
27.49999854	0.00000000	26.45792000	1.58095500
27.69999853	0.00000000	50.42446000	-5.71481200
27.89999852	0.00000000	68.98991000	-11.10359000
28.09999851	0.00000000	77.87278000	-12.96752000
28.29999850	0.00000000	75.26452000	-10.59301000
28.49999848	0.00000000	62.51845000	-3.58636800
28.69999847	0.00000000	42.83341000	6.86515700
28.89999846	0.00000000	20.41092000	18.81152000
29.09999845	0.00000000	0.72588580	29.58907000
29.29999844	0.00000000	-12.10630000	36.09744000
29.49999843	0.00000000	-15.64345000	36.84178000
29.69999841	0.00000000	-9.87327700	30.98548000
29.89999840	0.00000000	3.61712600	19.37131000
30.09999839	0.00000000	21.71506000	4.31840500
30.29999838	0.00000000	39.53617000	-11.10359000
30.49999837	0.00000000	53.54330000	-23.04995000
30.69999835	0.00000000	61.67569000	-28.85088000
30.89999834	0.00000000	62.10014000	-27.27608000
31.09999833	0.00000000	55.25959000	-18.31324000
31.29999832	0.00000000	43.62696000	-3.25418300
31.49999831	0.00000000	29.71210000	14.81299000
31.69999829	0.00000000	16.12943000	31.07775000
31.89999828	0.00000000	6.07775500	42.32283000
32.09999827	0.00000000	1.01501000	46.91806000
32.29999826	0.00000000	2.12844500	43.02411000
32.49999825	0.00000000	8.63681000	31.49606000
32.69999824	0.00000000	18.31939000	15.23130000
32.89999822	0.00000000	29.52756000	-2.55905500
33.09999821	0.00000000	39.57923000	-18.35630000
33.29999820	0.00000000	46.14296000	-28.43258000
33.49999819	0.00000000	48.13607000	-30.80709000
33.69999818	0.00000000	45.07259000	-25.78740000
33.89999816	0.00000000	38.60113000	-14.12401000
34.09999815	0.00000000	30.45644000	2.04232300
34.29999814	0.00000000	22.73007000	19.00221000
34.49999813	0.00000000	16.91683000	32.52337000
34.69999812	0.00000000	14.17938000	39.95448000
34.89999810	0.00000000	15.00984000	40.32357000
35.09999809	0.00000000	19.16216000	33.76599000
35.29999808	0.00000000	25.66437000	21.41363000
35.49999807	0.00000000	31.44069000	6.44685000
35.69999806	0.00000000	35.76525000	-7.48646600
35.89999805	0.00000000	37.99828000	-17.15059000
36.09999803	0.00000000	36.88484000	-21.05069000
36.29999802	0.00000000	33.06471000	-18.31324000
36.49999801	0.00000000	28.08194000	-9.52263600
36.69999800	0.00000000	23.06225000	2.78051200
36.89999799	0.00000000	19.61737000	15.05290000
37.09999797	0.00000000	18.45472000	24.34178000
37.29999796	0.00000000	19.99262000	28.20497000
37.49999795	0.00000000	23.80659000	26.29798000
37.69999794	0.00000000	28.41412000	19.00221000
37.89999793	0.00000000	32.68946000	8.35998900
38.09999791	0.00000000	35.76525000	-1.58710600
38.29999790	0.00000000	36.92790000	-7.76328700
38.49999789	0.00000000	35.81446000	-8.96899500
38.69999788	0.00000000	33.11393000	-5.11811000
38.89999787	0.00000000	29.57062000	2.50369100
39.09999786	0.00000000	25.33834000	11.74951000
39.29999784	0.00000000	21.48130000	19.70349000
39.49999783	0.00000000	19.14985000	23.96653000
39.69999782	0.00000000	18.36245000	22.77313000
39.89999781	0.00000000	19.52510000	17.08907000
40.09999780	0.00000000	22.22564000	8.18159400
40.29999778	0.00000000	25.71358000	-1.35334600
40.49999777	0.00000000	29.61983000	-9.01205700
40.69999776	0.00000000	33.11393000	-12.03863000
40.89999775	0.00000000	35.81446000	-9.43036400
41.09999774	0.00000000	36.97712000	-2.51599400
41.29999772	0.00000000	36.18971000	6.73597400
41.49999771	0.00000000	33.90133000	16.35089000
41.69999770	0.00000000	30.37032000	23.60359000
41.89999769	0.00000000	26.54404000	26.34104000
42.09999768	0.00000000	23.01919000	24.06496000
42.29999767	0.00000000	20.73080000	17.93184000
42.49999765	0.00000000	19.90034000	9.47342500
42.69999764	0.00000000	20.68774000	1.02116100
42.89999763	0.00000000	22.55167000	-5.16117100
43.09999762	0.00000000	24.92003000	-7.89862200
43.29999761	0.00000000	27.25147000	-6.78518600
43.49999759	0.00000000	29.57062000	-2.55905500
43.69999758	0.00000000	31.06545000	3.57406500
43.89999757	0.00000000	31.20078000	10.11934000
44.09999756	0.00000000	30.83169000	15.14518000
44.29999755	-0.15871060	30.82554000	17.88263000
44.49999753	0.00000000	30.41338000	17.88263000
44.69999752	0.00000000	30.08120000	15.23130000
44.89999751	0.00000000	30.03814000	11.04823000
45.09999750	0.00000000	29.99508000	6.77903500
45.29999749	0.00000000	29.57062000	3.29109200
45.49999748	0.00000000	28.36491000	0.97194880
45.69999746	0.00000000	26.40871000	0.55364170
45.89999745	0.00000000	23.67126000	1.66707700
46.09999744	0.00000000	20.64468000	3.61712600
46.29999743	0.00000000	18.36245000	6.31151500
46.49999742	0.00000000	18.03642000	9.00590400
46.69999740	0.00000000	19.99262000	10.96211000
46.89999739	0.00000000	24.26796000	12.11860000
47.09999738	0.00000000	30.03814000	12.11860000
47.29999737	0.00000000	35.85752000	10.96211000
47.49999736	0.00000000	40.51427000	9.00590400
47.69999734	0.00000000	43.11638000	6.31151500
47.89999733	0.00000000	42.27977000	3.66633800
48.09999732	0.00000000	37.26009000	2.08538400
48.29999731	0.00000000	29.57677000	1.71013800
48.49999730	0.00000000	21.01993000	2.46063000
48.69999729	0.00000000	13.33661000	4.40452700
48.89999727	0.00000000	8.35998900	6.72982200
49.09999726	0.00000000	8.03395600	9.47342500
49.29999725	0.00000000	12.64149000	12.11860000
49.49999724	0.00000000	21.10605000	13.65650000
49.69999723	0.00000000	31.10851000	13.65650000
49.89999721	0.00000000	39.99754000	12.07554000
50.09999720	0.00000000	45.81693000	9.00590400
50.29999719	0.00000000	47.30561000	5.15501900
50.49999718	0.00000000	43.81766000	1.71013800
50.69999717	0.00000000	35.76525000	-0.60285430
50.89999715	0.00000000	25.80585000	-1.02116100
51.09999714	0.00000000	16.91683000	0.13533460
51.29999713	0.00000000	11.10359000	2.50369100
51.49999712	0.00000000	9.56569900	6.35457700
51.69999711	0.00000000	12.64149000	10.53765000
51.89999710	0.00000000	19.56816000	13.65650000
52.09999708	0.00000000	28.37106000	15.18824000
52.29999707	0.00000000	36.46653000	14.81299000
52.49999706	0.00000000	41.44931000	12.49385000
52.69999705	0.00000000	42.27977000	9.05511800
52.89999704	0.00000000	38.79183000	5.19808000
53.09999702	0.00000000	32.32037000	2.12844500
53.29999701	0.00000000	24.60015000	0.55364170
53.49999700	0.00000000	18.07948000	0.55364170
53.69999699	0.00000000	14.22244000	2.08538400
53.89999698	0.00000000	14.26550000	4.77977300
54.09999696	0.00000000	18.45472000	7.75713500
54.29999695	0.00000000	25.29527000	9.75024500
54.49999694	0.00000000	32.18504000	10.17470000
54.69999693	0.00000000	36.88484000	10.16855000
54.89999692	0.00000000	38.84104000	8.96284400
55.09999691	0.00000000	38.04749000	6.77903500
55.29999689	0.00000000	34.18430000	5.24729300
55.49999688	0.00000000	28.45718000	4.82898600
55.69999687	0.00000000	22.68701000	5.24729300
55.89999686	0.00000000	18.45472000	6.77903500
56.09999685	0.00000000	16.91683000	9.00590400
56.29999683	0.00000000	18.41166000	10.49459000
56.49999682	0.00000000	22.22564000	10.53765000
56.69999681	0.00000000	26.87623000	9.38115100
56.89999680	0.00000000	31.53297000	7.38188900
57.09999679	0.00000000	35.30389000	4.31840500
57.29999677	0.00000000	36.46653000	0.92888770
57.49999676	0.00000000	34.65182000	-0.93503930
57.69999675	0.00000000	31.57603000	-0.55979330
57.89999674	0.00000000	28.03888000	2.12844500
58.09999673	0.00000000	24.22490000	6.35457700
58.29999672	0.00000000	21.52436000	11.00517000
58.49999670	0.00000000	20.73080000	15.23130000
58.69999669	0.00000000	21.48130000	17.88263000
58.89999668	0.00000000	23.80659000	17.83957000
59.09999667	0.00000000	26.83317000	14.76993000
59.29999666	0.00000000	29.52756000	9.38115100
59.49999664	0.00000000	31.10851000	3.20497000
59.69999663	0.00000000	31.52682000	-2.55905500
59.89999662	0.00000000	31.10851000	-6.32381900
60.09999661	0.00000000	29.57062000	-6.32381900
60.29999660	0.00000000	27.29453000	-2.55905500
60.49999658	0.00000000	25.43061000	3.24803100
60.69999657	0.00000000	24.60015000	9.84867000
60.89999656	0.00000000	24.96309000	16.39395000
61.09999655	0.00000000	25.71358000	20.95226000
61.29999654	0.00000000	26.87623000	22.10876000
61.49999653	0.00000000	27.98966000	19.37131000
61.69999651	0.00000000	28.41412000	13.23819000
61.89999650	0.00000000	28.41412000	5.15501900
62.09999649	0.00000000	27.98966000	-2.51599400
62.29999648	0.00000000	26.83317000	-7.94783400
62.49999647	0.00000000	25.33834000	-9.85482200
62.69999645	0.00000000	24.18184000	-7.94783400
62.89999644	0.00000000	23.80659000	-2.55905500
63.09999643	0.00000000	24.22490000	4.73671200
63.29999642	0.00000000	25.76279000	12.11860000
63.49999641	0.00000000	27.98966000	18.25787000
63.69999639	0.00000000	29.52756000	21.73966000
63.89999638	0.00000000	29.99508000	21.37057000
64.09999637	0.00000000	29.99508000	17.97490000
64.29999636	0.00000000	29.57062000	12.53691000
64.49999635	0.00000000	28.41412000	6.36072800
64.69999634	0.00000000	26.87623000	0.55364170
64.89999632	0.00000000	25.33834000	-3.67249000
65.09999631	0.00000000	24.22490000	-5.25344500
65.29999630	0.00000000	24.22490000	-4.13385800
65.49999629	0.00000000	25.33834000	-1.07037400
65.69999628	0.00000000	26.83317000	3.15575800
65.89999626	0.00000000	27.98966000	7.47416300
66.09999625	0.00000000	28.41412000	11.38041000
66.29999624	0.00000000	28.41412000	14.81299000
66.49999623	0.00000000	27.98966000	16.39395000
66.69999622	0.00000000	26.83317000	16.06791000
66.89999620	0.00000000	25.38755000	14.90526000
67.09999619	0.00000000	24.55093000	12.53691000
67.29999618	0.00000000	24.58784000	9.47342500
67.49999617	0.00000000	25.01845000	6.31151500
67.69999616	0.00000000	26.96850000	3.15575800
67.89999615	0.00000000	29.57062000	0.09227362
68.09999613	0.00000000	31.52682000	-2.22687000
68.29999612	0.00000000	32.64640000	-2.97736200
68.49999611	0.00000000	32.22810000	-2.22687000
68.69999610	0.00000000	29.90280000	0.13533460
68.89999609	0.00000000	26.45792000	3.66633800
69.09999607	0.00000000	22.60088000	8.31077700
69.29999606	0.00000000	19.52510000	13.28125000
69.49999605	0.00000000	17.98720000	16.76919000
69.69999604	0.00000000	18.36245000	18.35015000
69.89999603	0.00000000	20.73080000	17.92569000
70.09999601	0.00000000	24.60015000	15.18824000
70.29999600	0.00000000	29.66289000	10.53765000
70.49999599	0.00000000	34.60876000	4.77977300
70.69999598	0.00000000	38.09055000	-0.60285430
70.89999597	0.00000000	38.84104000	-4.09079700
71.09999596	0.00000000	36.92790000	-5.25344500
71.29999594	0.00000000	32.64640000	-3.71555100
71.49999593	0.00000000	26.87623000	0.09227362
71.69999592	0.00000000	21.06299000	4.73671200
71.89999591	0.00000000	16.45546000	9.43036400
72.09999590	0.00000000	14.17938000	13.61343000
72.29999588	0.00000000	15.29281000	15.92642000
72.49999587	0.00000000	19.10679000	15.60654000
72.69999586	0.00000000	24.18184000	13.69956000
72.89999585	0.00000000	29.95201000	10.58686000
73.09999584	0.00000000	34.97170000	6.77903500
73.29999582	0.00000000	37.67839000	3.70939900
73.49999581	0.00000000	38.13361000	2.12844500
73.69999580	0.00000000	36.14050000	2.12844500
73.89999579	0.00000000	32.32037000	3.57406500
74.09999578	0.00000000	27.29453000	5.47490100
74.29999577	0.00000000	22.68701000	6.64370100
74.49999575	0.00000000	19.52510000	7.42495000
74.69999574	0.00000000	17.98720000	7.38188900
74.89999573	0.00000000	18.41166000	6.26845500
75.09999572	0.00000000	21.06299000	4.82283400
75.29999571	0.00000000	24.87697000	4.04158400
75.49999569	0.00000000	28.32185000	4.45374000
75.69999568	0.00000000	30.64714000	5.61638700
75.89999567	0.00000000	31.15157000	7.98474400
76.09999566	0.00000000	30.78863000	10.96211000
76.29999565	0.00000000	30.35802000	13.23819000
76.49999563	0.00000000	28.78937000	13.65650000
76.69999562	0.00000000	26.96850000	12.49385000
76.89999561	0.00000000	25.76279000	10.11934000
77.09999560	0.00000000	25.38755000	6.21924200
77.29999559	0.00000000	25.71358000	1.66707700
77.49999558	0.00000000	26.45792000	-2.14074800
77.69999556	0.00000000	26.83317000	-3.67249000
77.89999555	0.00000000	26.83317000	-2.55905500
78.09999554	0.00000000	26.40871000	0.55364170
78.29999553	0.00000000	25.29527000	5.19808000
78.49999552	0.00000000	24.18184000	10.58686000
78.69999550	0.00000000	23.80659000	15.18824000
78.89999549	0.00000000	24.22490000	17.88263000
79.09999548	0.00000000	25.76279000	17.92569000
79.29999547	0.00000000	28.03888000	15.60654000
79.49999546	0.00000000	29.99508000	11.74336000
79.69999544	0.00000000	31.52682000	6.72982200
79.89999543	-0.15871060	32.22810000	2.12844500
80.09999542	0.00000000	31.10851000	-1.02116100
80.29999541	0.00000000	28.78937000	-2.55905500
80.49999540	0.00000000	26.08268000	-2.18380900
80.69999539	0.00000000	23.01919000	0.09227362
80.89999537	0.00000000	21.10605000	3.15575800
81.09999536	0.00000000	20.68774000	6.31151500
81.29999535	0.00000000	21.48130000	9.42421200
81.49999534	0.00000000	23.80659000	12.11860000
81.69999533	0.00000000	26.83317000	13.69956000
81.89999531	0.00000000	29.57062000	14.11786000
82.09999530	0.00000000	31.48376000	13.69956000
82.29999529	0.00000000	32.27116000	12.11860000
82.49999528	0.00000000	31.52682000	9.47342500
82.69999527	0.00000000	29.99508000	6.72982200
82.89999525	0.00000000	28.03888000	4.36146600
83.09999524	0.00000000	25.76279000	1.99311000
83.29999523	0.00000000	24.18184000	0.09227362
83.49999522	0.00000000	23.38214000	-1.02116100
83.69999521	0.00000000	23.01919000	-0.64591530
83.89999520	0.00000000	23.80659000	1.29183100
84.09999518	0.00000000	25.25221000	3.99237200
84.29999517	0.00000000	26.45792000	7.51722400
84.49999516	0.00000000	27.25147000	11.00517000
84.69999515	0.00000000	28.03888000	14.07480000
84.89999514	0.00000000	28.36491000	15.92642000
85.09999512	0.00000000	28.03888000	15.18824000
85.29999511	0.00000000	27.29453000	12.53691000
85.49999510	0.00000000	26.96850000	9.00590400
85.69999509	0.00000000	27.25147000	4.73671200
85.89999508	0.00000000	27.62057000	0.51058070
86.09999506	0.00000000	27.25147000	-2.51599400
86.29999505	0.00000000	26.87623000	-3.29724400
86.49999504	0.00000000	26.45792000	-1.39640700
86.69999503	0.00000000	25.67052000	2.04232300
86.89999502	0.00000000	24.92003000	6.35457700
87.09999501	0.00000000	24.13263000	10.95595000
87.29999499	0.00000000	23.80659000	14.76993000
87.49999498	0.00000000	24.18184000	16.30167000
87.69999497	0.00000000	25.33834000	15.18824000
87.89999496	0.00000000	26.87623000	12.11860000
88.09999495	0.00000000	28.41412000	7.84940900
88.29999493	0.00000000	29.52756000	3.24803100
88.49999492	0.00000000	29.57062000	-0.60285430
88.69999491	0.00000000	28.83243000	-2.50984200
88.89999490	0.00000000	27.98966000	-2.09153500
89.09999489	0.00000000	26.45792000	0.97194880
89.29999487	0.00000000	24.60015000	5.89320800
89.49999486	0.00000000	23.80659000	10.49459000
89.69999485	0.00000000	23.75738000	13.65650000
89.89999484	0.00000000	24.13263000	15.18824000
90.09999483	0.00000000	24.92003000	14.76993000
90.29999482	0.00000000	25.71358000	12.03248000
90.49999480	0.00000000	26.87623000	7.47416300
90.69999479	0.00000000	27.94660000	2.50369100
90.89999478	0.00000000	27.98966000	-0.93503930
91.09999477	0.00000000	27.29453000	-2.13459600
91.29999476	0.00000000	26.91929000	-0.97810030
91.49999474	0.00000000	26.87623000	2.12844500
91.69999473	0.00000000	26.87623000	6.72982200
91.89999472	0.00000000	26.87623000	11.70029000
92.09999471	0.00000000	26.87623000	15.09596000
92.29999470	0.00000000	26.87623000	15.92642000
92.49999468	0.00000000	26.83317000	14.03174000
92.69999467	0.00000000	26.45792000	10.58686000
92.89999466	0.00000000	25.67052000	6.31151500
93.09999465	0.00000000	24.92003000	2.08538400
93.29999464	0.00000000	24.13263000	-0.97810030
93.49999463	0.00000000	23.75738000	-2.09153500
93.69999461	0.00000000	23.75738000	-0.55979330
93.89999460	0.00000000	24.22490000	3.24803100
94.09999459	0.00000000	25.76279000	7.80019600
94.29999458	0.00000000	28.03888000	11.65723000
94.49999457	0.00000000	29.99508000	13.61343000
94.69999455	0.00000000	31.52682000	13.61343000
94.89999454	0.00000000	32.22810000	11.70029000
95.09999453	0.00000000	31.06545000	8.22465500
95.29999452	0.00000000	28.41412000	4.40452700
95.49999451	0.00000000	25.29527000	0.97194880
95.69999449	0.00000000	22.17643000	-0.55979330
95.89999448	0.00000000	19.52510000	0.13533460
96.09999447	0.00000000	18.36245000	2.04232300
96.29999446	0.00000000	19.14985000	4.77977300
96.49999445	0.00000000	21.43824000	7.84940900
96.69999444	0.00000000	24.96309000	10.53765000
96.89999442	0.00000000	28.78937000	12.03248000
97.09999441	0.00000000	32.32037000	11.70029000
97.29999440	0.00000000	34.60876000	9.79945900
97.49999439	0.00000000	35.39616000	7.56643700
97.69999438	0.00000000	34.18430000	5.57332700
97.89999436	0.00000000	31.10851000	4.40452700
98.09999435	0.00000000	26.87623000	3.62327700
98.29999434	0.00000000	22.64394000	3.62327700
98.49999433	0.00000000	19.52510000	4.36146600
98.69999432	0.00000000	17.94414000	5.15501900
98.89999430	0.00000000	17.94414000	6.31151500
99.09999429	0.00000000	19.52510000	7.42495000
99.29999428	0.00000000	22.60088000	7.84940900
99.49999427	0.00000000	26.45792000	7.89247000
99.69999426	0.00000000	29.94586000	7.89247000
99.89999425	0.00000000	32.68946000	7.93553100
100.09999423	0.00000000	34.18430000	8.31077700
100.29999422	0.00000000	33.80905000	9.05511800
100.49999421	0.00000000	31.53297000	9.38115100
100.69999420	0.00000000	28.45718000	9.00590400
100.89999419	0.00000000	25.33834000	7.84940900
101.09999417	0.00000000	22.60088000	6.31151500
101.29999416	0.00000000	20.68774000	4.73671200
101.49999415	0.00000000	19.85728000	3.19881900
101.69999414	0.00000000	20.26944000	2.08538400
101.89999413	0.00000000	21.38902000	2.08538400
102.09999411	0.00000000	23.38214000	3.29109200
102.29999410	0.00000000	25.67052000	5.57332700
102.49999409	0.00000000	28.03888000	8.63681000
102.69999408	0.00000000	29.94586000	10.91289000
102.89999407	0.00000000	31.10851000	12.11860000
103.09999406	0.00000000	31.10851000	12.11860000
103.29999404	0.00000000	29.94586000	10.96211000
103.49999403	0.00000000	28.03888000	9.00590400
103.69999402	0.00000000	25.71358000	6.26845500
103.89999401	0.00000000	23.80659000	3.24803100
104.09999400	0.00000000	22.60088000	0.92888770
104.29999398	0.00000000	22.17643000	0.17839570
104.49999397	0.00000000	22.22564000	0.92888770
104.69999396	0.00000000	23.01919000	3.24803100
104.89999395	0.00000000	24.92003000	6.26845500
105.09999394	0.00000000	26.83317000	9.00590400
105.29999392	0.00000000	28.36491000	10.91289000
105.49999391	0.00000000	29.15231000	11.70029000
105.69999390	0.00000000	28.78937000	10.91289000
105.89999389	0.00000000	28.03888000	9.05511800
106.09999388	0.00000000	26.87623000	6.68676100
106.29999387	0.00000000	25.71358000	4.40452700
106.49999385	0.00000000	24.92003000	2.50369100
106.69999384	0.00000000	24.18184000	2.12844500
106.89999383	0.00000000	24.18184000	3.19881900
107.09999382	0.00000000	24.92003000	4.73671200
107.29999381	0.00000000	25.71358000	6.31151500
107.49999379	0.00000000	26.83317000	7.84940900
107.69999378	0.00000000	27.62057000	9.00590400
107.89999377	0.00000000	27.58366000	9.33809000
108.09999376	0.00000000	27.24532000	8.58759800
108.29999375	0.00000000	26.04577000	6.68676100
108.49999374	0.00000000	24.96309000	4.82283400
108.69999372	0.00000000	24.13263000	3.62327700
108.89999371	0.00000000	23.80659000	3.24803100
109.09999370	0.00000000	24.18184000	3.62327700
109.29999369	0.00000000	25.29527000	4.77977300
109.49999368	0.00000000	26.45792000	6.31151500
109.69999366	0.00000000	27.25147000	7.89247000
109.89999365	0.00000000	28.03888000	9.38115100
110.09999364	0.00000000	28.36491000	10.11934000
110.29999363	0.00000000	28.03888000	9.38115100
110.49999362	0.00000000	27.25147000	7.89247000
110.69999360	0.00000000	26.45792000	6.36072800
110.89999359	0.00000000	25.29527000	5.15501900
111.09999358	0.00000000	24.18184000	4.36146600
111.29999357	0.00000000	23.80659000	3.62327700
111.49999356	0.00000000	24.13263000	3.62327700
111.69999355	0.00000000	24.87697000	4.36146600
111.89999353	0.00000000	25.29527000	5.11195900
112.09999352	0.00000000	25.71358000	5.93626900
112.29999351	0.00000000	26.45792000	6.68676100
112.49999350	0.00000000	26.83317000	7.47416300
112.69999349	0.00000000	26.87623000	7.84940900
112.89999347	0.00000000	26.83317000	7.89247000
113.09999346	0.00000000	26.45792000	7.84940900
113.29999345	0.00000000	25.71358000	7.47416300
113.49999344	0.00000000	25.33834000	6.72982200
113.69999343	0.00000000	25.29527000	6.35457700
113.89999341	0.00000000	25.29527000	6.31151500
114.09999340	0.00000000	25.29527000	6.26845500
114.29999339	0.00000000	25.29527000	5.89320800
114.49999338	0.00000000	25.29527000	5.15501900
114.69999337	0.00000000	25.33834000	4.77977300
114.89999336	0.00000000	25.67052000	4.73671200
115.09999334	0.00000000	26.08268000	4.73671200
115.29999333	0.00000000	26.04577000	4.77977300
115.49999332	0.00000000	26.12574000	5.15501900
115.69999331	0.00000000	26.04577000	5.93626900
115.89999330	0.00000000	26.08268000	6.72982200
116.09999328	0.00000000	25.67052000	7.84940900
116.29999327	0.00000000	25.33834000	8.58759800
116.49999326	0.00000000	25.29527000	8.26771600
116.69999325	0.00000000	25.29527000	7.89247000
116.89999324	0.00000000	25.29527000	7.47416300
117.09999322	0.00000000	25.33834000	6.68676100
117.29999321	0.00000000	25.71358000	5.93626900
117.49999320	0.00000000	26.50098000	5.11195900
117.69999319	0.00000000	27.20841000	4.36146600
117.89999318	0.00000000	27.66363000	3.62327700
118.09999317	0.00000000	27.62672000	3.62327700
118.29999315	0.00000000	27.62057000	4.36146600
118.49999314	0.00000000	26.83317000	5.15501900
118.69999313	0.00000000	25.71358000	6.31151500
118.89999312	0.00000000	24.92003000	7.47416300
119.09999311	0.00000000	24.13263000	8.26771600
119.29999309	0.00000000	23.75738000	9.00590400
119.49999308	0.00000000	23.75738000	9.00590400
119.69999307	0.00000000	24.18184000	8.26771600
119.89999306	0.00000000	25.29527000	7.51722400
120.09999305	0.00000000	26.45792000	6.72982200
120.29999303	0.00000000	27.25147000	6.31151500
120.49999302	0.00000000	28.03888000	5.89320800
120.69999301	0.00000000	28.41412000	5.15501900
120.89999300	0.00000000	28.41412000	4.82898600
121.09999299	0.00000000	27.98966000	5.15501900
121.29999298	0.00000000	26.83317000	5.89320800
121.49999296	0.00000000	25.33834000	6.26845500
121.69999295	0.00000000	24.13263000	6.31151500
121.89999294	0.00000000	23.38214000	6.31151500
122.09999293	0.00000000	22.96998000	6.31151500
122.29999292	0.00000000	23.38214000	6.35457700
122.49999290	0.00000000	24.08957000	6.72982200
122.69999289	0.00000000	24.92003000	7.47416300
122.89999288	0.00000000	25.71358000	7.84940900
123.09999287	0.00000000	26.87623000	7.84940900
123.29999286	0.00000000	27.98966000	7.47416300
123.49999284	0.00000000	28.36491000	6.72982200
123.69999283	0.00000000	28.03888000	6.35457700
123.89999282	0.00000000	27.25147000	6.26845500
124.09999281	0.00000000	26.50098000	5.89320800
124.29999280	0.00000000	25.67052000	5.15501900
124.49999279	0.00000000	24.92003000	4.82898600
124.69999277	0.00000000	24.13263000	5.11195900
124.89999276	0.00000000	23.75738000	5.51796200
125.09999275	0.00000000	23.71432000	5.53026500
125.29999274	0.00000000	23.71432000	5.98548200
125.49999273	0.00000000	23.75738000	6.68676100
125.69999271	0.00000000	24.18184000	7.47416300
125.89999270	0.00000000	25.33834000	7.84940900
126.09999269	0.00000000	26.83317000	7.84940900
126.29999268	0.00000000	27.94660000	7.47416300
126.49999267	0.00000000	27.98966000	6.72982200
126.69999265	0.00000000	27.29453000	6.35457700
126.89999264	0.00000000	26.87623000	6.26845500
127.09999263	0.00000000	26.40871000	5.89320800
127.29999262	0.00000000	25.29527000	5.15501900
127.49999261	0.00000000	24.13263000	4.82898600
127.69999260	0.00000000	23.38214000	5.15501900
127.89999258	0.00000000	22.96998000	5.89320800
128.09999257	0.00000000	23.38214000	6.26845500
128.29999256	0.00000000	24.13263000	6.31151500
128.49999255	0.00000000	25.29527000	6.31151500
128.69999254	0.00000000	26.45792000	6.31151500
128.89999252	0.00000000	27.20841000	6.31151500
129.09999251	0.00000000	27.62057000	6.31151500
129.29999250	0.00000000	27.20841000	6.31151500
129.49999249	0.00000000	26.50098000	6.26845500
129.69999248	0.00000000	25.67052000	5.89320800
129.89999246	0.00000000	24.92003000	5.19808000
130.09999245	0.00000000	24.13263000	5.19808000
130.29999244	0.00000000	23.75738000	5.89320800
130.49999243	0.00000000	23.75738000	6.26845500
130.69999242	0.00000000	24.13263000	6.31151500
130.89999241	0.00000000	24.92003000	6.31151500
131.09999239	0.00000000	25.71358000	6.31151500
131.29999238	0.00000000	26.83317000	6.31151500
131.49999237	0.00000000	27.57136000	6.26845500
131.69999236	0.00000000	27.25147000	5.89320800
131.89999235	0.00000000	26.87623000	5.15501900
132.09999233	0.00000000	26.45792000	4.77977300
132.29999232	0.00000000	25.71358000	4.73671200
132.49999231	0.00000000	25.29527000	4.77977300
132.69999230	0.00000000	24.92003000	5.15501900
132.89999229	0.00000000	24.55093000	5.89320800
133.09999227	0.00000000	24.92003000	6.31151500
133.29999226	0.00000000	25.25221000	6.72982200
133.49999225	0.00000000	25.29527000	7.47416300
133.69999224	0.00000000	25.29527000	7.80019600
133.89999223	0.00000000	25.29527000	7.47416300
134.09999222	0.00000000	25.29527000	6.72982200
134.29999220	0.00000000	25.29527000	6.31151500
134.49999219	0.00000000	25.29527000	5.89320800
134.69999218	0.00000000	25.33834000	5.15501900
134.89999217	0.00000000	25.71358000	4.77977300
135.09999216	0.00000000	26.45792000	4.73671200
135.29999214	0.00000000	26.78395000	4.77977300
135.49999213	0.00000000	26.45792000	5.15501900
135.69999212	0.00000000	25.71358000	5.89320800
135.89999211	0.00000000	25.29527000	6.31151500
136.09999210	0.00000000	24.87697000	6.72982200
136.29999208	0.00000000	24.13263000	7.47416300
136.49999207	0.00000000	23.75738000	7.80019600
136.69999206	0.00000000	23.75738000	7.47416300
136.89999205	0.00000000	24.13263000	6.72982200
137.09999204	0.00000000	24.92003000	6.31151500
137.29999203	0.00000000	25.67052000	5.89320800
137.49999201	0.00000000	26.45792000	5.15501900
137.69999200	0.00000000	26.83317000	4.77977300
137.89999199	0.00000000	26.83317000	4.73671200
138.09999198	0.00000000	26.45792000	4.73671200
138.29999197	0.00000000	25.67052000	4.77977300
138.49999195	0.00000000	24.92003000	5.15501900
138.69999194	0.00000000	24.13263000	5.89320800
138.89999193	0.00000000	23.75738000	6.31151500
139.09999192	0.00000000	23.75738000	6.72982200
139.29999191	0.00000000	24.13263000	7.47416300
139.49999189	0.00000000	24.87697000	7.80019600
139.69999188	0.00000000	25.29527000	7.47416300
139.89999187	0.00000000	25.71358000	6.72982200
140.09999186	0.00000000	26.40871000	6.31151500
140.29999185	0.00000000	26.40871000	5.89320800
140.49999184	0.00000000	25.71358000	5.15501900
140.69999182	0.00000000	25.33834000	4.77977300
140.89999181	0.00000000	25.29527000	4.73671200
141.09999180	0.00000000	25.25221000	4.73671200
141.29999179	0.00000000	24.92003000	4.77977300
141.49999178	0.00000000	24.55093000	5.15501900
141.69999176	0.00000000	24.92003000	5.93626900
141.89999175	0.00000000	25.25221000	6.68676100
142.09999174	0.00000000	25.29527000	7.47416300
142.29999173	0.00000000	25.29527000	7.84940900
142.49999172	0.00000000	25.29527000	7.84940900
142.69999170	0.00000000	25.29527000	7.47416300
142.89999169	0.00000000	25.29527000	6.68676100
143.09999168	0.00000000	25.29527000	5.93626900
143.29999167	0.00000000	25.29527000	5.15501900
143.49999166	0.00000000	25.29527000	4.77977300
143.69999165	0.00000000	25.29527000	4.73671200
143.89999163	0.00000000	25.29527000	4.73671200
144.09999162	0.00000000	25.29527000	4.77977300
144.29999161	0.00000000	25.33834000	5.19808000
144.49999160	0.00000000	25.67052000	6.31151500
144.69999159	0.00000000	26.03961000	7.42495000
144.89999157	0.00000000	25.67052000	7.84940900
145.09999156	0.00000000	25.33834000	7.84940900
145.29999155	0.00000000	25.29527000	7.47416300
145.49999154	0.00000000	25.25221000	6.68676100
145.69999153	0.00000000	24.87697000	5.93626900
145.89999151	0.00000000	24.18184000	5.15501900
146.09999150	0.00000000	24.18184000	4.77977300
146.29999149	0.00000000	24.87697000	4.73671200
146.49999148	0.00000000	25.25221000	4.77977300
146.69999147	0.00000000	25.29527000	5.15501900
146.89999146	0.00000000	25.29527000	5.89320800
147.09999144	0.00000000	25.29527000	6.26845500
147.29999143	0.00000000	25.29527000	6.35457700
147.49999142	0.00000000	25.29527000	6.72982200
147.69999141	0.00000000	25.29527000	7.42495000
147.89999140	0.00000000	25.25221000	7.42495000
148.09999138	0.00000000	24.87697000	6.72982200
148.29999137	0.00000000	24.18184000	6.35457700
148.49999136	0.00000000	24.18184000	6.26845500
148.69999135	0.00000000	24.87697000	5.89320800
148.89999134	0.00000000	25.25221000	5.15501900
149.09999132	0.00000000	25.29527000	4.77977300
149.29999131	0.00000000	25.29527000	4.77977300
149.49999130	0.00000000	25.29527000	5.15501900
149.69999129	0.00000000	25.29527000	5.89320800
149.89999128	0.00000000	25.29527000	6.26845500
150.09999127	0.00000000	25.29527000	6.31151500
150.29999125	0.00000000	25.29527000	6.31151500
150.49999124	0.00000000	25.29527000	6.31151500
150.69999123	0.00000000	25.25221000	6.31151500
150.89999122	0.00000000	24.87697000	6.31151500
151.09999121	0.00000000	24.13263000	6.31151500
151.29999119	0.00000000	23.75738000	6.31151500
151.49999118	0.00000000	23.75738000	6.31151500
151.69999117	0.00000000	24.13263000	6.31151500
151.89999116	0.00000000	24.87697000	6.31151500
152.09999115	0.00000000	25.25221000	6.31151500
152.29999113	0.00000000	25.29527000	6.31151500
152.49999112	0.00000000	25.29527000	6.26845500
152.69999111	0.00000000	25.29527000	5.93626900
152.89999110	0.00000000	25.29527000	5.57332700
153.09999109	0.00000000	25.29527000	5.93626900
153.29999108	0.00000000	25.25221000	6.26845500
153.49999106	0.00000000	24.87697000	6.31151500
153.69999105	0.00000000	24.13263000	6.31151500
153.89999104	0.00000000	23.75738000	6.31151500
154.09999103	0.00000000	23.71432000	6.31151500
154.29999102	0.00000000	23.71432000	6.31151500
154.49999100	0.00000000	23.75738000	6.31151500
154.69999099	0.00000000	24.13263000	6.26845500
154.89999098	0.00000000	24.87697000	5.89320800
155.09999097	0.00000000	25.25221000	5.15501900
155.29999096	0.00000000	25.29527000	4.82898600
155.49999094	0.00000000	25.33834000	5.11195900
155.69999093	0.00000000	25.67052000	5.51796200
155.89999092	0.00000000	26.03961000	5.53026500
156.09999091	0.00000000	25.67052000	5.93626900
156.29999090	0.00000000	25.29527000	6.26845500
156.49999089	0.00000000	24.87697000	6.35457700
156.69999087	0.00000000	24.13263000	6.68676100
156.89999086	0.00000000	23.75738000	7.05585600
157.09999085	0.00000000	23.71432000	6.68676100
157.29999084	0.00000000	23.71432000	6.35457700
157.49999083	0.00000000	23.75738000	6.31151500
157.69999081	0.00000000	24.13263000	6.26845500
157.89999080	0.00000000	24.87697000	5.89320800
158.09999079	0.00000000	25.25221000	5.15501900
158.29999078	0.00000000	25.29527000	4.82898600
158.49999077	0.00000000	25.29527000	5.15501900
158.69999075	0.00000000	25.29527000	5.89320800
158.89999074	0.00000000	25.29527000	6.26845500
159.09999073	0.00000000	25.29527000	6.31151500
159.29999072	0.00000000	25.29527000	6.31151500
159.49999071	0.00000000	25.29527000	6.35457700
159.69999070	0.00000000	25.25221000	6.68676100
159.89999068	0.00000000	24.87697000	7.05585600
160.09999067	0.00000000	24.13263000	6.68676100
160.29999066	0.00000000	23.75738000	6.35457700
160.49999065	0.00000000	23.75738000	6.26845500
160.69999064	0.00000000	24.13263000	5.89320800
160.89999062	0.00000000	24.87697000	5.15501900
161.09999061	0.00000000	25.25221000	4.82898600
161.29999060	0.00000000	25.29527000	5.11195900
161.49999059	0.00000000	25.29527000	5.47490100
161.69999058	0.00000000	25.29527000	5.15501900
161.89999056	0.00000000	25.29527000	5.19808000
162.09999055	0.00000000	25.29527000	5.89320800
162.29999054	0.00000000	25.29527000	6.26845500
162.49999053	0.00000000	25.29527000	6.31151500
162.69999052	0.00000000	25.25221000	6.31151500
162.89999051	0.00000000	24.87697000	6.31151500
163.09999049	0.00000000	24.13263000	6.31151500
163.29999048	0.00000000	23.75738000	6.31151500
163.49999047	0.00000000	23.71432000	6.31151500
163.69999046	0.00000000	23.71432000	6.31151500
163.89999045	0.00000000	23.75738000	6.31151500
164.09999043	0.00000000	24.13263000	6.26845500
164.29999042	0.00000000	24.87697000	5.93626900
164.49999041	0.00000000	25.25221000	5.57332700
164.69999040	0.00000000	25.29527000	5.93626900
164.89999039	0.00000000	25.29527000	6.26845500
165.09999037	0.00000000	25.29527000	6.31151500
165.29999036	0.00000000	25.29527000	6.31151500
165.49999035	0.00000000	25.29527000	6.31151500
165.69999034	0.00000000	25.25221000	6.31151500
165.89999033	0.00000000	24.87697000	6.31151500
166.09999032	0.00000000	24.13263000	6.31151500
166.29999030	0.00000000	23.75738000	6.31151500
166.49999029	0.00000000	23.71432000	6.31151500
166.69999028	0.00000000	23.75738000	6.31151500
166.89999027	0.00000000	24.13263000	6.31151500
167.09999026	0.00000000	24.87697000	6.26845500
167.29999024	0.00000000	25.25221000	5.93626900
167.49999023	0.00000000	25.29527000	5.53026500
167.69999022	0.00000000	25.29527000	5.56717500
167.89999021	0.00000000	25.29527000	5.53026500
168.09999020	0.00000000	25.29527000	5.93626900
168.29999018	0.00000000	25.29527000	6.26845500
168.49999017	0.00000000	25.29527000	6.31151500
168.69999016	0.00000000	25.29527000	6.31151500
168.89999015	0.00000000	25.29527000	6.31151500
169.09999014	0.00000000	25.29527000	6.31151500
169.29999013	0.00000000	25.29527000	6.31151500
169.49999011	0.00000000	25.25221000	6.31151500
169.69999010	0.00000000	24.87697000	6.31151500
169.89999009	0.00000000	24.18184000	6.31151500
170.09999008	0.00000000	24.13263000	6.31151500
170.29999007	0.00000000	24.50172000	6.31151500
170.49999005	0.00000000	24.50787000	6.26845500
170.69999004	0.00000000	24.92003000	5.93626900
170.89999003	0.00000000	25.25221000	5.53026500
171.09999002	0.00000000	25.25221000	5.56717500
171.29999001	0.00000000	24.92003000	5.53026500
171.49998999	0.00000000	24.55093000	5.89320800
171.69998998	0.00000000	24.92003000	5.89320800
171.89998997	0.00000000	25.25221000	5.57332700
172.09998996	0.00000000	25.25221000	5.93626900
172.29998995	0.00000000	24.87697000	6.26845500
172.49998994	0.00000000	24.18184000	6.31151500
172.69998992	0.00000000	24.13263000	6.31151500
172.89998991	0.00000000	24.50172000	6.31151500
173.09998990	0.00000000	24.50787000	6.31151500
173.29998989	0.00000000	24.92003000	6.31151500
173.49998988	0.00000000	25.25221000	6.31151500
173.69998986	0.00000000	25.29527000	6.31151500
173.89998985	0.00000000	25.29527000	6.31151500
174.09998984	0.00000000	25.29527000	6.31151500
174.29998983	0.00000000	25.29527000	6.31151500
174.49998982	0.00000000	25.25221000	6.26845500
174.69998980	0.00000000	24.87697000	5.93626900
174.89998979	0.00000000	24.13263000	5.57332700
175.09998978	0.00000000	23.80659000	5.89320800
175.29998977	0.00000000	24.08957000	5.89320800
175.49998976	0.00000000	24.50172000	5.57332700
175.69998975	0.00000000	24.46481000	5.93626900
175.89998973	0.00000000	24.54478000	6.26845500
176.09998972	0.00000000	24.46481000	6.31151500
176.29998971	0.00000000	24.54478000	6.31151500
176.49998970	0.00000000	24.50787000	6.31151500
176.69998969	0.00000000	24.92003000	6.31151500
176.89998967	0.00000000	25.25221000	6.26845500
177.09998966	0.00000000	25.29527000	5.93626900
177.29998965	0.00000000	25.25221000	5.57332700
177.49998964	0.00000000	24.87697000	5.89320800
177.69998963	0.00000000	24.18184000	5.89320800
177.89998961	0.00000000	24.13263000	5.57332700
178.09998960	0.00000000	24.45866000	5.93626900
178.29998959	0.00000000	24.08957000	6.26845500
178.49998958	0.00000000	23.75738000	6.31151500
178.69998957	0.00000000	23.75738000	6.31151500
178.89998956	0.00000000	24.13263000	6.31151500
179.09998954	0.00000000	24.87697000	6.31151500
179.29998953	0.00000000	25.25221000	6.31151500
179.49998952	0.00000000	25.29527000	6.26845500
179.69998951	0.00000000	25.25221000	5.89320800
179.89998950	0.00000000	24.87697000	5.15501900
180.09998948	0.00000000	24.18184000	4.82898600
180.29998947	0.00000000	24.18184000	5.11195900
180.49998946	0.00000000	24.82775000	5.51796200
180.69998945	0.00000000	24.82775000	5.53026500
180.89998944	0.00000000	24.13263000	5.93626900
181.09998942	0.00000000	23.75738000	6.26845500
181.29998941	0.00000000	23.75738000	6.31151500
181.49998940	0.00000000	24.13263000	6.31151500
181.69998939	0.00000000	24.82775000	6.31151500
181.89998938	0.00000000	24.87697000	6.31151500
182.09998937	0.00000000	24.55093000	6.31151500
182.29998935	0.00000000	24.92003000	6.31151500
182.49998934	0.00000000	25.25221000	6.31151500
182.69998933	0.00000000	25.29527000	6.26845500
182.89998932	0.00000000	25.25221000	5.89320800
183.09998931	0.00000000	24.87697000	5.15501900
183.29998929	0.00000000	24.18184000	4.77977300
183.49998928	0.00000000	24.13263000	4.77977300
183.69998927	0.00000000	24.45866000	5.15501900
183.89998926	0.00000000	24.08957000	5.89320800
184.09998925	0.00000000	23.75738000	6.26845500
184.29998923	0.00000000	23.71432000	6.31151500
184.49998922	0.00000000	23.71432000	6.31151500
184.69998921	0.00000000	23.71432000	6.31151500
184.89998920	0.00000000	23.75738000	6.31151500
185.09998919	0.00000000	24.08957000	6.31151500
185.29998918	0.00000000	24.50172000	6.26845500
185.49998916	0.00000000	24.50787000	5.89320800
185.69998915	0.00000000	24.92003000	5.15501900
185.89998914	0.00000000	25.25221000	4.77977300
186.09998913	0.00000000	25.25221000	4.73671200
186.29998912	0.00000000	24.87697000	4.73671200
186.49998910	0.00000000	24.13263000	4.73671200
186.69998909	0.00000000	23.75738000	4.77977300
186.89998908	0.00000000	23.71432000	5.15501900
187.09998907	0.00000000	23.71432000	5.89320800
187.29998906	0.00000000	23.71432000	6.26845500
187.49998904	0.00000000	23.75738000	6.31151500
187.69998903	0.00000000	24.08957000	6.31151500
187.89998902	0.00000000	24.50172000	6.31151500
188.09998901	0.00000000	24.46481000	6.26845500
188.29998900	0.00000000	24.54478000	5.89320800
188.49998899	0.00000000	24.50787000	5.15501900
188.69998897	0.00000000	24.87697000	4.77977300
188.89998896	0.00000000	24.87697000	4.73671200
189.09998895	0.00000000	24.55093000	4.73671200
189.29998894	0.00000000	24.92003000	4.77977300
189.49998893	0.00000000	25.20300000	5.15501900
189.69998891	0.00000000	24.87697000	5.89320800
189.89998890	0.00000000	24.13263000	6.26845500
190.09998889	0.00000000	23.75738000	6.31151500
190.29998888	0.00000000	23.71432000	6.31151500
190.49998887	0.00000000	23.71432000	6.31151500
190.69998885	0.00000000	23.71432000	6.31151500
190.89998884	0.00000000	23.71432000	6.31151500
191.09998883	0.00000000	23.71432000	6.26845500
191.29998882	0.00000000	23.75738000	5.89320800
191.49998881	0.00000000	24.13263000	5.15501900
191.69998880	0.00000000	24.82775000	4.77977300
191.89998878	0.00000000	24.82775000	4.73671200
192.09998877	0.00000000	24.13263000	4.73671200
192.29998876	0.00000000	23.75738000	4.73671200
192.49998875	0.00000000	23.71432000	4.73671200
192.69998874	0.00000000	23.71432000	4.73671200
192.89998872	0.00000000	23.71432000	4.73671200
193.09998871	0.00000000	23.71432000	4.73671200
193.29998870	0.00000000	23.71432000	4.77977300
193.49998869	0.00000000	23.71432000	5.15501900
193.69998868	0.00000000	23.71432000	5.89320800
193.89998866	0.00000000	23.75738000	6.26845500
194.09998865	0.00000000	24.13263000	6.31151500
194.29998864	0.00000000	24.82775000	6.31151500
194.49998863	0.00000000	24.87697000	6.31151500
194.69998862	0.00000000	24.55093000	6.31151500
194.89998861	0.00000000	24.87697000	6.26845500
195.09998859	0.00000000	24.87697000	5.93626900
195.29998858	0.00000000	24.50787000	5.53026500
195.49998857	0.00000000	24.50172000	5.51796200
195.69998856	0.00000000	24.08957000	5.11195900
195.89998855	0.00000000	23.75738000	4.77977300
196.09998853	0.00000000	23.71432000	4.73671200
