Time	Channel A	Channel B	Channel C
(us)	(V)	(mV)	(mV)

-4.49999956	0.00000000	15.80955000	1.57480300
-4.29999957	0.00000000	15.80955000	1.57480300
-4.09999958	0.00000000	15.80955000	1.61786400
-3.89999959	0.00000000	15.80955000	1.95004900
-3.69999960	0.00000000	15.80955000	2.31914400
-3.49999962	0.00000000	15.80955000	1.95004900
-3.29999963	0.00000000	15.80955000	1.61786400
-3.09999964	0.00000000	15.80955000	1.57480300
-2.89999965	0.00000000	15.80955000	1.57480300
-2.69999966	0.00000000	15.80955000	1.57480300
-2.49999968	0.00000000	15.80955000	1.57480300
-2.29999969	0.00000000	15.80955000	1.57480300
-2.09999970	0.00000000	15.80955000	1.57480300
-1.89999971	0.00000000	15.80955000	1.57480300
-1.69999972	0.00000000	15.80955000	1.57480300
-1.49999973	0.00000000	15.80955000	1.57480300
-1.29999975	0.00000000	15.80955000	1.57480300
-1.09999976	0.00000000	15.80955000	1.57480300
-0.89999977	0.00000000	15.80955000	1.57480300
-0.69999978	0.00000000	15.80955000	1.57480300
-0.49999979	0.00000000	15.80955000	1.57480300
-0.29999981	0.31803640	15.80955000	1.57480300
-0.09999982	0.63668800	15.80955000	1.57480300
0.10000017	0.95533960	15.80955000	1.57480300
0.30000016	0.95533960	15.80955000	1.57480300
0.50000015	0.79601380	15.80955000	1.57480300
0.70000013	0.31803640	15.80955000	1.57480300
0.90000012	-0.47736220	15.80955000	1.57480300
1.10000011	-1.43331700	15.80955000	1.57480300
1.30000010	-2.22994600	15.80955000	1.57480300
1.50000009	-2.86724900	15.80955000	1.61786400
1.70000008	-2.54859700	15.80955000	1.99311000
1.90000006	-1.43331700	15.80955000	2.73745100
2.10000005	0.31803640	15.80955000	3.11269700
2.30000004	2.38927200	15.80955000	3.15575800
2.50000003	4.30056600	15.80955000	3.11269700
2.70000002	5.25652100	15.80955000	2.73745100
2.90000000	4.93786900	15.80955000	1.95004900
3.09999999	3.18590100	15.80955000	1.24877000
3.29999998	0.31803640	15.80955000	0.83661410
3.49999997	-3.18590100	15.80955000	1.19955700
3.69999996	-6.21247500	15.80955000	1.53174200
3.89999994	-7.80511800	15.80955000	1.57480300
4.09999993	-7.64579200	15.80955000	1.61786400
4.29999992	-5.41584600	15.80955000	1.99311000
4.49999991	-1.59264300	15.80955000	2.68823800
4.69999990	2.86724900	15.80955000	2.68823800
4.89999989	6.84916400	15.80955000	1.99311000
5.09999987	9.07972400	15.80955000	1.61786400
5.29999986	9.23905000	15.80955000	1.57480300
5.49999985	7.00848900	15.80955000	1.57480300
5.69999984	2.86724900	15.80955000	1.57480300
5.89999983	-2.07062000	15.80955000	1.57480300
6.09999981	-6.21247500	15.80955000	1.57480300
6.29999980	-8.92039900	15.80955000	1.61786400
6.49999979	-9.39837600	15.80955000	1.99311000
6.69999978	-7.48646600	15.80955000	2.73745100
6.89999977	-3.82258900	15.80955000	3.06348400
7.09999975	0.47736220	15.80955000	2.78051200
7.29999974	4.45989200	15.80955000	2.36835600
7.49999973	7.00848900	15.80955000	2.36220500
7.69999972	7.64579200	15.80955000	1.95004900
7.89999971	6.37180100	15.80955000	1.61786400
8.09999970	3.66326300	15.80955000	1.57480300
8.29999968	0.47736220	15.80955000	1.57480300
8.49999967	-2.54859700	15.80955000	1.57480300
8.69999966	-4.61921700	15.80955000	1.57480300
8.89999965	-5.25652100	15.80955000	1.57480300
9.09999964	-4.45989200	15.80955000	1.57480300
9.29999962	-2.86724900	15.80955000	1.57480300
9.49999961	-0.95533960	15.80955000	1.57480300
9.69999960	0.95533960	15.80955000	1.57480300
9.89999959	2.07062000	15.80955000	1.57480300
10.09999958	2.54859700	15.80955000	1.57480300
10.29999956	2.22994600	15.80955000	1.57480300
10.49999955	1.59264300	15.80955000	1.57480300
10.69999954	0.63668800	15.80955000	1.57480300
10.89999953	-0.15871060	15.80955000	1.57480300
11.09999952	-0.79601380	15.80955000	1.57480300
11.29999951	-0.95533960	15.80955000	1.57480300
11.49999949	-0.95533960	15.80955000	1.57480300
11.69999948	-0.79601380	15.80955000	1.57480300
11.89999947	-0.47736220	15.80955000	1.57480300
12.09999946	-0.15871060	15.80955000	1.57480300
12.29999945	-0.15871060	15.80955000	1.57480300
12.49999943	-0.15871060	15.80955000	1.57480300
12.69999942	0.00000000	15.80955000	1.57480300
12.89999941	0.00000000	15.80955000	1.57480300
13.09999940	0.00000000	15.80955000	1.57480300
13.29999939	0.00000000	15.80955000	1.57480300
13.49999937	0.00000000	15.80955000	1.57480300
13.69999936	0.00000000	15.80955000	1.57480300
13.89999935	-0.15871060	15.80955000	1.57480300
14.09999934	-0.15871060	15.80955000	1.57480300
14.29999933	-0.15871060	15.80955000	1.57480300
14.49999932	-0.15871060	15.80955000	1.57480300
14.69999930	-0.15871060	15.80955000	1.57480300
14.89999929	0.00000000	15.80955000	1.57480300
15.09999928	0.00000000	15.80955000	1.57480300
15.29999927	0.00000000	15.80955000	1.57480300
15.49999926	0.00000000	15.80955000	1.57480300
15.69999924	0.00000000	15.80955000	1.57480300
15.89999923	0.00000000	15.76649000	1.57480300
16.09999922	0.00000000	15.43430000	1.57480300
16.29999921	-0.15871060	15.06521000	1.57480300
16.49999920	-0.15871060	15.47736000	1.61786400
16.69999919	-0.15871060	16.14173000	1.95004900
16.89999917	-0.15871060	16.59695000	2.31914400
17.09999916	0.00000000	16.60310000	1.95004900
17.29999915	0.00000000	17.01525000	1.61786400
17.49999914	0.00000000	17.34744000	1.57480300
17.69999913	0.00000000	17.34744000	1.57480300
17.89999911	0.00000000	16.92298000	1.57480300
18.09999910	0.00000000	15.76649000	1.57480300
18.29999909	0.00000000	14.22859000	1.57480300
18.49999908	0.00000000	12.64764000	1.57480300
18.69999907	-0.15871060	11.10974000	1.57480300
18.89999905	0.00000000	9.99630800	1.57480300
19.09999904	0.00000000	10.03937000	1.57480300
19.29999903	0.00000000	11.57726000	1.57480300
19.49999902	0.00000000	14.32087000	1.57480300
19.69999901	0.00000000	17.85802000	1.57480300
19.89999900	0.00000000	22.09030000	1.57480300
20.09999898	0.00000000	25.85507000	1.57480300
20.29999897	0.00000000	27.39296000	1.57480300
20.49999896	0.00000000	26.23031000	1.57480300
20.69999895	0.00000000	22.69316000	1.57480300
20.89999894	0.00000000	16.83686000	1.57480300
21.09999892	0.00000000	9.48572700	1.57480300
21.29999891	0.00000000	2.17765700	1.57480300
21.49999890	0.00000000	-3.16806100	1.57480300
21.69999889	0.00000000	-4.66289300	1.57480300
21.89999888	0.00000000	-1.50098400	1.57480300
22.09999886	0.00000000	6.31766700	1.57480300
22.29999885	0.00000000	17.90108000	1.57480300
22.49999884	0.00000000	30.64714000	1.57480300
22.69999883	0.00000000	41.40009000	1.57480300
22.89999882	0.00000000	47.49630000	1.61786400
23.09999881	-0.15871060	46.24139000	1.99311000
23.29999879	0.00000000	37.35236000	2.73745100
23.49999878	0.00000000	22.60704000	3.15575800
23.69999877	0.00000000	4.83513700	3.53100400
23.89999876	0.00000000	-12.14321000	3.90009800
24.09999875	0.00000000	-24.01575000	3.48794300
24.29999873	0.00000000	-27.45448000	2.78051200
24.49999872	0.00000000	-20.80462000	1.90698800
24.69999871	0.00000000	-5.30880900	0.73818890
24.89999870	0.00000000	16.32013000	-1.15649600
25.09999869	0.00000000	39.02559000	-2.64517700
25.29999867	0.00000000	56.80363000	-3.11269700
25.49999866	0.00000000	65.69267000	-3.06348400
25.69999865	0.00000000	63.68724000	-2.18380900
25.89999864	0.00000000	50.52288000	0.51058070
26.09999863	0.00000000	28.88779000	4.36146600
26.29999862	-0.15871060	3.80782500	8.22465500
26.49999860	0.00000000	-18.98991000	11.70029000
26.69999859	0.00000000	-34.01820000	13.52116000
26.89999858	0.00000000	-37.88139000	12.72761000
27.09999857	0.00000000	-29.36762000	8.82750900
27.29999856	0.00000000	-10.47613000	2.64517700
27.49999854	0.00000000	14.18553000	-4.69365100
27.69999853	0.00000000	38.51501000	-11.65723000
27.89999852	0.00000000	56.75443000	-16.63386000
28.09999851	0.00000000	65.69267000	-18.53469000
28.29999850	0.00000000	63.73647000	-16.12328000
28.49999848	0.00000000	50.98425000	-9.47957600
28.69999847	0.00000000	30.60408000	0.97194880
28.89999846	0.00000000	7.80634800	13.23819000
29.09999845	0.00000000	-11.92175000	23.64665000
29.29999844	0.00000000	-24.75394000	29.82899000
29.49999843	0.00000000	-28.24803000	30.56717000
29.69999841	0.00000000	-22.14567000	25.04306000
29.89999840	0.00000000	-8.28617100	13.84104000
30.09999839	0.00000000	9.48572700	-1.20570900
30.29999838	0.00000000	27.30684000	-16.25861000
30.49999837	0.00000000	41.67692000	-28.20497000
30.69999835	0.00000000	49.82160000	-34.33194000
30.89999834	0.00000000	50.60900000	-32.38804000
31.09999833	0.00000000	43.72539000	-23.13607000
31.29999832	0.00000000	31.44069000	-8.40920300
31.49999831	0.00000000	17.48277000	8.96284400
31.69999829	0.00000000	4.26919300	25.17839000
31.89999828	0.00000000	-5.77632800	36.74950000
32.09999827	0.00000000	-10.47613000	40.97564000
32.29999826	0.00000000	-9.35654400	36.74950000
32.49999825	0.00000000	-3.21112200	25.17839000
32.69999824	0.00000000	6.45915300	8.96284400
32.89999822	0.00000000	17.25517000	-8.45841400
33.09999821	0.00000000	26.97465000	-23.55438000
33.29999820	0.00000000	33.54453000	-33.58760000
33.49999819	0.00000000	35.86368000	-36.28199000
33.69999818	0.00000000	33.21235000	-30.89936000
33.89999816	0.00000000	26.69783000	-18.95300000
34.09999815	0.00000000	18.59621000	-3.11269700
34.29999814	0.00000000	10.45768000	13.14591000
34.49999813	0.00000000	4.31840500	26.66708000
34.69999812	0.00000000	1.57480300	34.75024000
34.89999810	0.00000000	2.68823800	35.16855000
35.09999809	0.00000000	6.92052100	28.24803000
35.29999808	0.00000000	13.06594000	15.93258000
35.49999807	0.00000000	19.58046000	0.87967510
35.69999806	0.00000000	24.18799000	-12.96752000
35.89999805	0.00000000	25.81201000	-22.67470000
36.09999803	0.00000000	24.64936000	-26.16265000
36.29999802	0.00000000	21.20448000	-23.13607000
36.49999801	0.00000000	16.18479000	-14.63459000
36.69999800	0.00000000	11.24508000	-2.73745100
36.89999799	0.00000000	7.72022600	9.57185000
37.09999797	0.00000000	6.59448800	18.77460000
37.29999796	-0.15871060	7.72022600	22.67470000
37.49999795	0.00000000	11.20202000	20.39862000
37.69999794	0.00000000	15.76649000	13.14591000
37.89999793	0.00000000	20.04183000	3.15575800
38.09999791	0.00000000	23.11762000	-6.78518600
38.29999790	0.00000000	24.32333000	-13.66265000
38.49999789	0.00000000	23.53592000	-15.19439000
38.69999788	0.00000000	21.20448000	-11.06053000
38.89999787	0.00000000	17.29823000	-3.02042300
39.09999786	0.00000000	12.73991000	6.17618100
39.29999784	0.00000000	8.83366100	14.21629000
39.49999783	0.00000000	6.50221400	18.39936000
39.69999782	0.00000000	5.71481200	17.28592000
39.89999781	0.00000000	6.92052100	11.52190000
40.09999780	0.00000000	9.95324800	2.69439000
40.29999778	0.00000000	13.85334000	-6.87746000
40.49999777	0.00000000	17.72268000	-14.16708000
40.69999776	0.00000000	21.24754000	-17.23671000
40.89999775	0.00000000	23.57899000	-15.28666000
41.09999774	0.00000000	24.74163000	-8.36614100
41.29999772	0.00000000	24.32333000	1.53174200
41.49999771	0.00000000	21.99803000	11.14665000
41.69999770	0.00000000	18.55315000	17.74729000
41.89999769	0.00000000	14.64690000	20.44168000
42.09999768	0.00000000	11.15896000	18.49163000
42.29999767	0.00000000	8.45841400	11.98942000
42.49999765	0.00000000	7.29576700	3.20497000
42.69999764	0.00000000	8.04010800	-5.29650500
42.89999763	0.00000000	9.95324800	-11.47884000
43.09999762	0.00000000	12.64764000	-14.21629000
43.29999761	0.00000000	15.39124000	-13.05364000
43.49999759	0.00000000	17.72268000	-8.50147600
43.69999758	0.00000000	19.62352000	-1.95004900
43.89999757	0.00000000	20.04183000	4.55831700
44.09999756	0.00000000	19.34670000	9.61491000
44.29999755	0.00000000	18.59621000	11.94021000
44.49999753	0.00000000	17.80881000	11.65723000
44.69999752	0.00000000	17.43356000	9.33809000
44.89999751	0.00000000	17.39050000	5.85014700
45.09999750	0.00000000	17.34744000	1.62401600
45.29999749	0.00000000	16.92298000	-2.18380900
45.49999748	0.00000000	15.71727000	-4.18307100
45.69999746	0.00000000	13.76107000	-4.60137700
45.89999745	0.00000000	11.06668000	-3.80782500
46.09999744	0.00000000	8.37229300	-1.53174200
46.29999743	0.00000000	6.45915300	1.15649600
46.49999742	0.00000000	5.76402500	3.48179100
46.69999740	0.00000000	7.38804100	5.43184000
46.89999739	0.00000000	11.62032000	6.17618100
47.09999738	0.00000000	17.43356000	5.85014700
47.29999737	0.00000000	23.62205000	4.64443900
47.49999736	0.00000000	28.97392000	2.73745100
47.69999734	0.00000000	31.62524000	0.41830710
47.89999733	0.00000000	30.46260000	-1.53174200
48.09999732	0.00000000	25.76895000	-3.06348400
48.29999731	0.00000000	18.04257000	-3.80782500
48.49999730	0.00000000	8.83366100	-3.02042300
48.69999729	0.00000000	1.10728300	-1.11343500
48.89999727	0.00000000	-3.50024600	1.62401600
49.09999726	0.00000000	-3.86318900	4.68750000
49.29999725	0.00000000	0.73203740	7.33882900
49.49999724	0.00000000	8.45841400	8.54453700
49.69999723	0.00000000	17.80881000	8.13238100
49.89999721	0.00000000	27.34990000	6.58833600
50.09999720	0.00000000	33.86442000	3.43873000
50.29999719	0.00000000	35.07628000	-0.33218500
50.49999718	0.00000000	31.62524000	-3.85088600
50.69999717	0.00000000	24.27411000	-6.13312000
50.89999715	0.00000000	14.64690000	-6.92052100
51.09999714	0.00000000	5.43184000	-5.71481200
51.29999713	0.00000000	-1.07652500	-2.64517700
51.49999712	0.00000000	-2.65748000	1.57480300
51.69999711	0.00000000	0.73203740	5.80093500
51.89999710	0.00000000	7.29576700	8.91978400
52.09999708	0.00000000	15.76649000	10.45152000
52.29999707	0.00000000	23.81275000	10.03322000
52.49999706	0.00000000	28.83858000	7.38188900
52.69999705	0.00000000	30.00123000	3.57406500
52.89999704	0.00000000	26.92544000	0.04306102
53.09999702	0.00000000	20.41708000	-3.06348400
53.29999701	0.00000000	12.78297000	-5.33956700
53.49999700	0.00000000	6.22539300	-5.67175200
53.69999699	0.00000000	2.73745100	-3.85088600
53.89999698	0.00000000	2.73745100	-0.79355310
54.09999696	0.00000000	6.22539300	1.90698800
54.29999695	0.00000000	12.69070000	4.22613100
54.49999694	0.00000000	19.58046000	5.33956700
54.69999693	0.00000000	24.60630000	4.64443900
54.89999692	0.00000000	26.92544000	3.15575800
55.09999691	0.00000000	25.76895000	1.62401600
55.29999689	0.00000000	21.57972000	0.46136810
55.49999688	0.00000000	15.80955000	0.09227362
55.69999687	0.00000000	10.03937000	0.46136810
55.89999686	0.00000000	5.80708600	1.62401600
56.09999685	0.00000000	4.26919300	3.15575800
56.29999683	0.00000000	5.80708600	4.64443900
56.49999682	0.00000000	9.99630800	5.33956700
56.69999681	0.00000000	15.34203000	4.18307100
56.89999680	0.00000000	19.99877000	1.53174200
57.09999679	0.00000000	23.11762000	-1.53174200
57.29999677	0.00000000	24.27411000	-4.22613100
57.49999676	0.00000000	23.11762000	-5.75787400
57.69999675	0.00000000	20.04183000	-5.71481200
57.89999674	0.00000000	15.80955000	-3.71555100
58.09999673	0.00000000	11.62032000	0.51058070
58.29999672	0.00000000	8.87672100	5.85014700
58.49999670	0.00000000	8.08316900	10.45152000
58.69999669	0.00000000	8.83366100	13.10285000
58.89999668	0.00000000	11.15896000	12.72761000
59.09999667	0.00000000	14.18553000	9.25196800
59.29999666	0.00000000	16.92298000	3.85703700
59.49999664	0.00000000	18.83612000	-2.69439000
59.69999663	0.00000000	19.62352000	-8.40920300
59.89999662	0.00000000	18.87918000	-11.52190000
60.09999661	0.00000000	17.34744000	-11.52190000
60.29999660	0.00000000	15.43430000	-8.40920300
60.49999658	0.00000000	13.53346000	-2.60211600
60.69999657	0.00000000	12.78297000	4.69365100
60.89999656	0.00000000	13.11516000	11.61417000
61.09999655	0.00000000	14.22859000	16.16634000
61.29999654	0.00000000	15.39124000	16.95374000
61.49999653	0.00000000	16.18479000	13.52116000
61.69999651	0.00000000	16.92298000	7.38188900
61.89999650	0.00000000	16.87992000	0.00000000
62.09999649	0.00000000	15.80955000	-7.29576700
62.29999648	0.00000000	14.64690000	-12.68455000
62.49999647	0.00000000	13.85334000	-14.59153000
62.69999645	0.00000000	13.06594000	-12.68455000
62.89999644	0.00000000	12.73991000	-7.29576700
63.09999643	0.00000000	13.11516000	0.00000000
63.29999642	0.00000000	14.27165000	7.33882900
63.49999641	0.00000000	15.80955000	13.14591000
63.69999639	0.00000000	17.34744000	16.25861000
63.89999638	0.00000000	18.46087000	16.25861000
64.09999637	0.00000000	18.46087000	13.14591000
64.29999636	0.00000000	17.34744000	7.38188900
64.49999635	0.00000000	15.80955000	0.46751960
64.69999634	0.00000000	14.22859000	-5.71481200
64.89999632	0.00000000	12.73991000	-9.98400600
65.09999631	0.00000000	11.95251000	-11.56496000
65.29999630	0.00000000	12.31545000	-10.45152000
65.49999629	0.00000000	13.06594000	-7.38188900
65.69999628	0.00000000	14.27165000	-3.06963600
65.89999626	0.00000000	15.76649000	1.90698800
66.09999625	0.00000000	16.87992000	6.54527500
66.29999624	0.00000000	16.87992000	9.29502900
66.49999623	0.00000000	15.76649000	10.53765000
66.69999622	0.00000000	14.27165000	10.53765000
66.89999620	0.00000000	13.11516000	9.38115100
67.09999619	0.00000000	12.69070000	7.43110200
67.29999618	0.00000000	12.69070000	4.64443900
67.49999617	0.00000000	13.15822000	1.20570900
67.69999616	0.00000000	14.69611000	-2.31914400
67.89999615	0.00000000	17.01525000	-5.01968500
68.09999613	0.00000000	19.25443000	-7.01279500
68.29999612	0.00000000	20.78617000	-7.71407400
68.49999611	0.00000000	20.32480000	-6.96358300
68.69999610	0.00000000	18.08563000	-4.60137700
68.89999609	0.00000000	14.56078000	-1.11343500
69.09999607	0.00000000	10.73450000	3.20497000
69.29999606	0.00000000	7.25270600	7.80019600
69.49999605	0.00000000	5.38877900	11.61417000
69.69999604	0.00000000	5.76402500	13.18898000
69.89999603	0.00000000	8.50147600	12.40773000
70.09999601	0.00000000	13.11516000	9.70103300
70.29999600	0.00000000	18.50394000	5.01968500
70.49999599	0.00000000	23.11762000	-0.37524600
70.69999598	0.00000000	25.85507000	-5.75787400
70.89999597	0.00000000	26.23031000	-9.56569900
71.09999596	0.00000000	24.27411000	-10.40846000
71.29999594	0.00000000	19.99877000	-8.87057000
71.49999593	0.00000000	14.22859000	-5.38262700
71.69999592	0.00000000	8.45841400	-0.37524600
71.89999591	0.00000000	4.18307100	4.60137700
72.09999590	0.00000000	2.26993100	8.50147600
72.29999588	0.00000000	3.06348400	10.45152000
72.49999587	0.00000000	6.87746000	10.45152000
72.69999586	0.00000000	12.27239000	8.54453700
72.89999585	0.00000000	17.72268000	5.11195900
73.09999584	0.00000000	22.78543000	1.66707700
73.29999582	0.00000000	26.18725000	-1.07037400
73.49999581	0.00000000	26.97465000	-2.60211600
73.69999580	0.00000000	24.64936000	-2.64517700
73.89999579	0.00000000	20.08489000	-1.53174200
74.09999578	0.00000000	14.69611000	-0.04306102
74.29999577	0.00000000	10.03937000	1.11343500
74.49999575	0.00000000	6.92052100	1.53174200
74.69999574	0.00000000	5.71481200	1.48253000
74.89999573	0.00000000	6.50221400	0.73818890
75.09999572	0.00000000	8.79060000	-0.73818890
75.29999571	0.00000000	12.27239000	-1.43946800
75.49999569	0.00000000	15.71727000	-1.06422200
75.69999568	0.00000000	18.46087000	0.51058070
75.89999567	0.00000000	19.99877000	3.15575800
76.09999566	0.00000000	20.04183000	5.85014700
76.29999565	0.00000000	18.92839000	7.75713500
76.49999563	0.00000000	17.39050000	8.50147600
76.69999562	0.00000000	15.85261000	7.29576700
76.89999561	0.00000000	14.69611000	4.22613100
77.09999560	0.00000000	14.27165000	0.00000000
77.29999559	0.00000000	14.22859000	-4.22613100
77.49999558	0.00000000	14.22859000	-7.33882900
77.69999556	0.00000000	14.22859000	-8.87672100
77.89999555	0.00000000	14.18553000	-8.40920300
78.09999554	0.00000000	13.81028000	-5.33956700
78.29999553	0.00000000	13.02288000	-0.37524600
78.49999552	0.00000000	12.31545000	4.64443900
78.69999550	0.00000000	11.95251000	8.91978400
78.89999549	0.00000000	12.73991000	11.61417000
79.09999548	0.00000000	14.27165000	11.98327000
79.29999547	0.00000000	16.22785000	10.07628000
79.49999546	0.00000000	18.50394000	6.21924200
79.69999544	0.00000000	19.99877000	1.62401600
79.89999543	0.00000000	20.04183000	-2.64517700
80.09999542	0.00000000	18.87918000	-5.75787400
80.29999541	0.00000000	16.92298000	-7.33882900
80.49999540	0.00000000	14.22859000	-7.33882900
80.69999539	0.00000000	11.53420000	-5.75787400
80.89999537	0.00000000	9.62106200	-2.69439000
81.09999536	0.00000000	8.83366100	1.11343500
81.29999535	0.00000000	9.62106200	4.26919300
81.49999534	0.00000000	11.53420000	6.60063900
81.69999533	0.00000000	14.27165000	8.16929100
81.89999531	0.00000000	17.29823000	8.17544300
82.09999530	0.00000000	19.62352000	7.47416300
82.29999529	0.00000000	20.37401000	6.22539300
82.49999528	0.00000000	19.66658000	4.26919300
82.69999527	0.00000000	17.72268000	1.58095500
82.89999525	0.00000000	15.43430000	-1.11343500
83.09999524	0.00000000	13.11516000	-3.11269700
83.29999523	0.00000000	11.57726000	-4.68750000
83.49999522	0.00000000	11.10974000	-5.80093500
83.69999521	0.00000000	11.10974000	-5.75787400
83.89999520	0.00000000	11.53420000	-4.22613100
84.09999518	0.00000000	12.69070000	-1.48868100
84.29999517	0.00000000	14.18553000	1.99311000
84.49999516	0.00000000	15.34203000	5.85014700
84.69999515	0.00000000	15.76649000	8.91978400
84.89999514	0.00000000	15.80955000	10.45152000
85.09999512	0.00000000	15.80955000	10.07628000
85.29999511	0.00000000	15.80955000	7.75713500
85.49999510	0.00000000	15.80955000	4.26919300
85.69999509	0.00000000	15.80955000	0.00000000
85.89999508	0.00000000	15.80955000	-4.22613100
86.09999506	0.00000000	15.76649000	-7.29576700
86.29999505	0.00000000	15.39124000	-8.40920300
86.49999504	0.00000000	14.60384000	-6.87746000
86.69999503	0.00000000	13.81028000	-3.06963600
86.89999502	0.00000000	12.64764000	1.53174200
87.09999501	0.00000000	11.57726000	5.80093500
87.29999499	0.00000000	11.57726000	8.91978400
87.49999498	0.00000000	12.64764000	10.45152000
87.69999497	0.00000000	13.81028000	9.98400600
87.89999496	0.00000000	14.64690000	6.92052100
88.09999495	0.00000000	15.80955000	1.99311000
88.29999493	0.00000000	16.92298000	-2.60211600
88.49999492	0.00000000	17.29823000	-5.75787400
88.69999491	0.00000000	16.92298000	-7.29576700
88.89999490	0.00000000	15.76649000	-6.87746000
89.09999489	0.00000000	14.27165000	-4.18307100
89.29999487	0.00000000	13.06594000	0.04306102
89.49999486	0.00000000	12.31545000	4.64443900
89.69999485	0.00000000	11.90330000	8.45226300
89.89999484	0.00000000	12.31545000	9.99015700
90.09999483	0.00000000	13.06594000	8.87057000
90.29999482	0.00000000	14.22859000	5.80093500
90.49999480	0.00000000	15.34203000	1.53174200
90.69999479	0.00000000	15.76649000	-3.02042300
90.89999478	0.00000000	15.80955000	-6.50221400
91.09999477	0.00000000	15.76649000	-7.67101300
91.29999476	0.00000000	15.39124000	-6.87746000
91.49999474	0.00000000	14.64690000	-3.76476400
91.69999473	0.00000000	14.32087000	1.15649600
91.89999472	0.00000000	14.64690000	5.75787400
92.09999471	0.00000000	15.39124000	8.87057000
92.29999470	0.00000000	15.76649000	10.03322000
92.49999468	0.00000000	15.76649000	8.82750900
92.69999467	0.00000000	15.34203000	5.38262700
92.89999466	0.00000000	14.18553000	0.41830710
93.09999465	0.00000000	12.69070000	-4.14000900
93.29999464	0.00000000	11.53420000	-6.87746000
93.49999463	0.00000000	11.15896000	-7.24655500
93.69999461	0.00000000	11.53420000	-5.33956700
93.89999460	0.00000000	12.73991000	-1.48868100
94.09999459	0.00000000	14.64690000	3.06963600
94.29999458	0.00000000	16.97219000	6.92052100
94.49999457	0.00000000	18.87918000	8.87672100
94.69999455	0.00000000	20.04183000	8.87672100
94.89999454	0.00000000	20.04183000	6.92052100
95.09999453	-0.15871060	18.87918000	3.11269700
95.29999452	0.00000000	16.87992000	-1.07037400
95.49999451	0.00000000	13.81028000	-4.18307100
95.69999449	0.00000000	10.37155000	-5.71481200
95.89999448	0.00000000	8.04010800	-5.33956700
96.09999447	0.00000000	6.87746000	-3.06348400
96.29999446	0.00000000	7.29576700	0.00000000
96.49999445	0.00000000	9.62106200	3.11269700
96.69999444	0.00000000	13.06594000	5.75787400
96.89999442	0.00000000	16.97219000	6.92052100
97.09999441	0.00000000	20.41708000	6.17618100
97.29999440	0.00000000	22.74237000	4.31840500
97.49999439	0.00000000	23.11762000	1.99311000
97.69999438	0.00000000	21.57972000	0.04306102
97.89999436	0.00000000	18.50394000	-1.48868100
98.09999435	0.00000000	14.64690000	-2.22687000
98.29999434	0.00000000	11.10974000	-1.53174200
98.49999433	0.00000000	8.04010800	-0.41830710
98.69999432	0.00000000	6.13927100	0.37524600
98.89999430	0.00000000	6.50221400	1.15649600
99.09999429	0.00000000	8.37229300	1.53174200
99.29999428	0.00000000	11.15896000	1.57480300
99.49999427	0.00000000	14.64690000	1.57480300
99.69999426	0.00000000	18.50394000	1.61786400
99.89999425	0.00000000	21.53666000	1.99311000
100.09999423	0.00000000	22.74237000	2.73745100
100.29999422	0.00000000	21.99803000	3.11269700
100.49999421	0.00000000	20.08489000	3.15575800
100.69999420	0.00000000	17.34744000	3.11269700
100.89999419	0.00000000	14.22859000	2.68823800
101.09999417	0.00000000	11.15896000	1.48868100
101.29999416	0.00000000	8.83366100	-0.37524600
101.49999415	0.00000000	8.04010800	-2.27608300
101.69999414	0.00000000	8.37229300	-3.02042300
101.89999413	0.00000000	9.57800100	-2.68823800
102.09999411	0.00000000	11.53420000	-1.48868100
102.29999410	0.00000000	14.18553000	0.41830710
102.49999409	0.00000000	16.50467000	2.78051200
102.69999408	0.00000000	17.76575000	5.06274600
102.89999407	0.00000000	18.92839000	6.96358300
103.09999406	0.00000000	19.62352000	7.29576700
103.29999404	0.00000000	18.83612000	5.80093500
103.49999403	0.00000000	16.97219000	3.11269700
103.69999402	0.00000000	14.64690000	0.04306102
103.89999401	0.00000000	12.69070000	-2.69439000
104.09999400	0.00000000	11.10974000	-4.60137700
104.29999398	0.00000000	9.99630800	-5.33956700
104.49999397	0.00000000	9.99630800	-4.18307100
104.69999396	0.00000000	11.10974000	-1.58095500
104.89999395	0.00000000	12.64764000	1.15649600
105.09999394	0.00000000	14.22859000	3.48179100
105.29999392	0.00000000	15.76649000	5.43184000
105.49999391	0.00000000	16.92298000	6.17618100
105.69999390	0.00000000	17.25517000	5.80093500
105.89999389	0.00000000	16.55389000	4.22613100
106.09999388	0.00000000	15.02214000	1.58095500
106.29999387	0.00000000	13.89641000	-1.07037400
106.49999385	0.00000000	13.06594000	-2.64517700
106.69999384	0.00000000	12.69070000	-3.06348400
106.89999383	0.00000000	12.69070000	-2.64517700
107.09999382	0.00000000	13.11516000	-1.11343500
107.29999381	0.00000000	14.22859000	1.15649600
107.49999379	0.00000000	15.34203000	3.06348400
107.69999378	0.00000000	15.76649000	4.22613100
107.89999377	0.00000000	15.76649000	4.22613100
108.09999376	0.00000000	15.34203000	3.11269700
108.29999375	0.00000000	14.22859000	1.57480300
108.49999374	0.00000000	13.11516000	0.04306102
108.69999372	0.00000000	12.69070000	-1.11343500
108.89999371	0.00000000	12.64764000	-1.48253000
109.09999370	0.00000000	12.69070000	-1.11343500
109.29999369	0.00000000	13.11516000	0.04306102
109.49999368	0.00000000	14.22859000	1.57480300
109.69999366	0.00000000	15.39124000	3.11269700
109.89999365	0.00000000	16.18479000	4.26919300
110.09999364	0.00000000	16.92298000	4.64443900
110.29999363	0.00000000	16.87992000	4.26919300
110.49999362	0.00000000	15.76649000	3.11269700
110.69999360	0.00000000	14.27165000	1.57480300
110.89999359	0.00000000	13.11516000	0.04306102
111.09999358	0.00000000	12.69070000	-1.11343500
111.29999357	0.00000000	12.64764000	-1.53174200
111.49999356	0.00000000	12.69070000	-1.53174200
111.69999355	0.00000000	13.06594000	-1.15649600
111.89999353	0.00000000	13.81028000	-0.37524600
112.09999352	0.00000000	14.22859000	0.41830710
112.29999351	0.00000000	14.64690000	1.57480300
112.49999350	0.00000000	15.34203000	2.68823800
112.69999349	0.00000000	15.34203000	3.11269700
112.89999347	0.00000000	14.64690000	3.11269700
113.09999346	0.00000000	14.27165000	2.73745100
113.29999345	0.00000000	14.22859000	1.99311000
113.49999344	0.00000000	14.22859000	1.61786400
113.69999343	0.00000000	14.18553000	1.53174200
113.89999341	0.00000000	13.81028000	1.15649600
114.09999340	0.00000000	13.11516000	0.41830710
114.29999339	0.00000000	13.11516000	0.04306102
114.49999338	0.00000000	13.81028000	0.00000000
114.69999337	0.00000000	14.18553000	0.00000000
114.89999336	0.00000000	14.18553000	0.00000000
115.09999334	0.00000000	13.85334000	0.00000000
115.29999333	0.00000000	13.48425000	0.04306102
115.49999332	0.00000000	13.85334000	0.41830710
115.69999331	0.00000000	14.18553000	1.15649600
115.89999330	0.00000000	14.22859000	1.57480300
116.09999328	0.00000000	14.22859000	1.99311000
116.29999327	0.00000000	14.22859000	2.73745100
116.49999326	0.00000000	14.18553000	3.11269700
116.69999325	0.00000000	13.85334000	3.11269700
116.89999324	0.00000000	13.48425000	2.68823800
117.09999322	0.00000000	13.89641000	1.57480300
117.29999321	0.00000000	14.60384000	0.46136810
117.49999320	0.00000000	15.39124000	0.00000000
117.69999319	0.00000000	15.76649000	-0.41830710
117.89999318	0.00000000	15.80955000	-1.11343500
118.09999317	0.00000000	15.80955000	-1.11343500
118.29999315	0.00000000	15.76649000	-0.37524600
118.49999314	0.00000000	15.34203000	0.37524600
118.69999313	0.00000000	14.22859000	1.19955700
118.89999312	0.00000000	13.06594000	1.95004900
119.09999311	0.00000000	12.27239000	2.73745100
119.29999309	0.00000000	11.53420000	3.11269700
119.49999308	0.00000000	11.53420000	3.11269700
119.69999307	0.00000000	12.27239000	2.73745100
119.89999306	0.00000000	13.06594000	1.99311000
120.09999305	0.00000000	14.27165000	1.61786400
120.29999303	0.00000000	15.76649000	1.53174200
120.49999302	0.00000000	16.92298000	1.15649600
120.69999301	0.00000000	17.29823000	0.41830710
120.89999300	0.00000000	16.97219000	0.04306102
121.09999299	0.00000000	16.18479000	0.04306102
121.29999298	0.00000000	15.39124000	0.37524600
121.49999296	0.00000000	14.18553000	0.73818890
121.69999295	0.00000000	12.69070000	0.41830710
121.89999294	0.00000000	11.53420000	0.46136810
122.09999293	0.00000000	11.15896000	1.15649600
122.29999292	0.00000000	11.48499000	1.53174200
122.49999290	0.00000000	12.27239000	1.57480300
122.69999289	0.00000000	13.06594000	1.57480300
122.89999288	0.00000000	14.27165000	1.57480300
123.09999287	0.00000000	15.76649000	1.57480300
123.29999286	0.00000000	16.87992000	1.57480300
123.49999284	0.00000000	16.92298000	1.53174200
123.69999283	0.00000000	16.22785000	1.15649600
123.89999282	0.00000000	15.80955000	0.41830710
124.09999281	0.00000000	15.34203000	0.04306102
124.29999280	0.00000000	14.22859000	0.00000000
124.49999279	0.00000000	13.11516000	0.00000000
124.69999277	0.00000000	12.69070000	0.00000000
124.89999276	0.00000000	12.60458000	0.04306102
125.09999275	0.00000000	12.27239000	0.41830710
125.29999274	0.00000000	11.90330000	1.15649600
125.49999273	0.00000000	12.31545000	1.57480300
125.69999271	0.00000000	13.02288000	1.99311000
125.89999270	0.00000000	13.85334000	2.68823800
126.09999269	0.00000000	14.64690000	2.68823800
126.29999268	0.00000000	15.76649000	1.99311000
126.49999267	0.00000000	16.50467000	1.57480300
126.69999265	0.00000000	16.14173000	1.15649600
126.89999264	0.00000000	15.43430000	0.41830710
127.09999263	0.00000000	14.60384000	0.04306102
127.29999262	0.00000000	13.81028000	0.00000000
127.49999261	0.00000000	12.64764000	0.00000000
127.69999260	0.00000000	11.53420000	0.04306102
127.89999258	0.00000000	11.15896000	0.41830710
128.09999257	0.00000000	11.53420000	1.15649600
128.29999256	0.00000000	12.69070000	1.53174200
128.49999255	0.00000000	14.18553000	1.57480300
128.69999254	0.00000000	15.34203000	1.57480300
128.89999252	0.00000000	15.76649000	1.57480300
129.09999251	0.00000000	15.76649000	1.53174200
129.29999250	0.00000000	15.39124000	1.15649600
129.49999249	0.00000000	14.60384000	0.41830710
129.69999248	0.00000000	13.85334000	0.04306102
129.89999246	0.00000000	13.02288000	0.00000000
130.09999245	0.00000000	12.31545000	0.04306102
130.29999244	0.00000000	11.90330000	0.41830710
130.49999243	0.00000000	12.31545000	1.15649600
130.69999242	0.00000000	13.02288000	1.53174200
130.89999241	0.00000000	13.85334000	1.57480300
131.09999239	0.00000000	14.60384000	1.57480300
131.29999238	0.00000000	15.39124000	1.53174200
131.49999237	0.00000000	15.76649000	1.15649600
131.69999236	0.00000000	15.76649000	0.41830710
131.89999235	0.00000000	15.39124000	0.04306102
132.09999233	0.00000000	14.60384000	0.00000000
132.29999232	0.00000000	13.85334000	0.00000000
132.49999231	0.00000000	13.06594000	0.00000000
132.69999230	0.00000000	12.69070000	0.04306102
132.89999229	0.00000000	12.69070000	0.41830710
133.09999227	0.00000000	13.06594000	1.19955700
133.29999226	0.00000000	13.81028000	1.95004900
133.49999225	0.00000000	14.13632000	2.68823800
133.69999224	0.00000000	13.85334000	2.68823800
133.89999223	0.00000000	13.48425000	1.99311000
134.09999222	0.00000000	13.85334000	1.57480300
134.29999220	0.00000000	14.18553000	1.15649600
134.49999219	0.00000000	14.22859000	0.41830710
134.69999218	0.00000000	14.22859000	0.00000000
134.89999217	0.00000000	14.22859000	-0.37524600
135.09999216	0.00000000	14.22859000	-0.73818890
135.29999214	0.00000000	14.22859000	-0.37524600
135.49999213	0.00000000	14.22859000	0.00000000
135.69999212	0.00000000	14.18553000	0.41830710
135.89999211	0.00000000	13.81028000	1.15649600
136.09999210	0.00000000	13.06594000	1.53174200
136.29999208	0.00000000	12.69070000	1.57480300
136.49999207	0.00000000	12.64764000	1.57480300
136.69999206	0.00000000	12.64764000	1.57480300
136.89999205	0.00000000	12.69070000	1.57480300
137.09999204	0.00000000	13.06594000	1.53174200
137.29999203	0.00000000	13.81028000	1.15649600
137.49999201	0.00000000	14.22859000	0.41830710
137.69999200	0.00000000	14.64690000	0.04306102
137.89999199	0.00000000	15.34203000	0.00000000
138.09999198	0.00000000	15.34203000	0.00000000
138.29999197	0.00000000	14.60384000	0.00000000
138.49999195	0.00000000	13.85334000	0.04306102
138.69999194	0.00000000	13.06594000	0.41830710
138.89999193	0.00000000	12.69070000	1.15649600
139.09999192	0.00000000	12.64764000	1.57480300
139.29999191	0.00000000	12.64764000	1.99311000
139.49999189	0.00000000	12.69070000	2.68823800
139.69999188	0.00000000	13.06594000	2.68823800
139.89999187	0.00000000	13.81028000	1.99311000
140.09999186	0.00000000	14.18553000	1.57480300
140.29999185	0.00000000	14.22859000	1.15649600
140.49999184	0.00000000	14.22859000	0.41830710
140.69999182	0.00000000	14.18553000	0.04306102
140.89999181	0.00000000	13.81028000	0.00000000
141.09999180	0.00000000	13.06594000	0.00000000
141.29999179	0.00000000	12.69070000	0.04306102
141.49999178	0.00000000	12.69070000	0.41830710
141.69999176	0.00000000	13.06594000	1.19955700
141.89999175	0.00000000	13.81028000	1.95004900
142.09999174	0.00000000	14.18553000	2.73745100
142.29999173	0.00000000	14.22859000	3.11269700
142.49999172	0.00000000	14.22859000	3.11269700
142.69999170	0.00000000	14.22859000	2.68823800
142.89999169	0.00000000	14.22859000	1.57480300
143.09999168	0.00000000	14.18553000	0.46136810
143.29999167	0.00000000	13.81028000	0.04306102
143.49999166	0.00000000	13.06594000	0.00000000
143.69999165	0.00000000	12.73991000	0.00000000
143.89999163	0.00000000	13.06594000	0.00000000
144.09999162	0.00000000	13.81028000	0.04306102
144.29999161	0.00000000	14.18553000	0.41830710
144.49999160	0.00000000	14.22859000	1.15649600
144.69999159	0.00000000	14.22859000	1.53174200
144.89999157	0.00000000	14.22859000	1.57480300
145.09999156	0.00000000	14.18553000	1.57480300
145.29999155	0.00000000	13.81028000	1.57480300
145.49999154	0.00000000	13.06594000	1.57480300
145.69999153	0.00000000	12.69070000	1.53174200
145.89999151	0.00000000	12.64764000	1.15649600
146.09999150	0.00000000	12.64764000	0.41830710
146.29999149	0.00000000	12.69070000	0.04306102
146.49999148	0.00000000	13.06594000	0.00000000
146.69999147	-0.15871060	13.81028000	0.00000000
146.89999146	0.00000000	14.18553000	0.04306102
147.09999144	0.00000000	14.22859000	0.41830710
147.29999143	0.00000000	14.22859000	1.15649600
147.49999142	0.00000000	14.18553000	1.53174200
147.69999141	0.00000000	13.85334000	1.57480300
147.89999140	0.00000000	13.44119000	1.57480300
148.09999138	0.00000000	13.43504000	1.57480300
148.29999137	0.00000000	13.02288000	1.53174200
148.49999136	0.00000000	12.69070000	1.15649600
148.69999135	0.00000000	12.69070000	0.41830710
148.89999134	0.00000000	13.06594000	0.04306102
149.09999132	0.00000000	13.81028000	0.00000000
149.29999131	0.00000000	14.18553000	0.00000000
149.49999130	0.00000000	14.22859000	0.00000000
149.69999129	0.00000000	14.22859000	0.04306102
149.89999128	0.00000000	14.22859000	0.41830710
150.09999127	0.00000000	14.22859000	1.15649600
150.29999125	-0.15871060	14.18553000	1.53174200
150.49999124	0.00000000	13.81028000	1.57480300
150.69999123	0.00000000	13.06594000	1.57480300
150.89999122	0.00000000	12.69070000	1.57480300
151.09999121	0.00000000	12.64764000	1.57480300
151.29999119	0.00000000	12.64764000	1.53174200
151.49999118	0.00000000	12.69070000	1.15649600
151.69999117	0.00000000	13.06594000	0.41830710
151.89999116	0.00000000	13.81028000	0.04306102
152.09999115	0.00000000	14.18553000	0.00000000
152.29999113	0.00000000	14.22859000	0.00000000
152.49999112	0.00000000	14.22859000	0.04306102
152.69999111	0.00000000	14.22859000	0.41830710
152.89999110	0.00000000	14.22859000	1.15649600
153.09999109	0.00000000	14.22859000	1.53174200
153.29999108	0.00000000	14.18553000	1.57480300
153.49999106	0.00000000	13.81028000	1.57480300
153.69999105	0.00000000	13.06594000	1.57480300
153.89999104	0.00000000	12.69070000	1.57480300
154.09999103	0.00000000	12.64764000	1.57480300
154.29999102	0.00000000	12.64764000	1.57480300
154.49999100	0.00000000	12.69070000	1.57480300
154.69999099	0.00000000	13.02288000	1.53174200
154.89999098	0.00000000	13.43504000	1.15649600
155.09999097	0.00000000	13.44119000	0.41830710
155.29999096	0.00000000	13.85334000	0.04306102
155.49999094	0.00000000	14.18553000	0.00000000
155.69999093	0.00000000	14.22859000	0.00000000
155.89999092	0.00000000	14.22859000	0.04306102
156.09999091	0.00000000	14.18553000	0.41830710
156.29999090	0.00000000	13.81028000	1.15649600
156.49999089	0.00000000	13.06594000	1.53174200
156.69999087	0.00000000	12.69070000	1.57480300
156.89999086	0.00000000	12.64764000	1.57480300
157.09999085	0.00000000	12.64764000	1.57480300
157.29999084	0.00000000	12.64764000	1.57480300
157.49999083	0.00000000	12.64764000	1.53174200
157.69999081	0.00000000	12.69070000	1.15649600
157.89999080	0.00000000	13.06594000	0.41830710
158.09999079	0.00000000	13.81028000	0.04306102
158.29999078	0.00000000	14.18553000	0.00000000
158.49999077	0.00000000	14.22859000	0.00000000
158.69999075	0.00000000	14.22859000	0.04306102
158.89999074	0.00000000	14.22859000	0.41830710
159.09999073	0.00000000	14.18553000	1.15649600
159.29999072	0.00000000	13.81028000	1.53174200
159.49999071	0.00000000	13.06594000	1.57480300
159.69999070	0.00000000	12.69070000	1.57480300
159.89999068	0.00000000	12.64764000	1.57480300
160.09999067	0.00000000	12.64764000	1.57480300
160.29999066	0.00000000	12.64764000	1.57480300
160.49999065	0.00000000	12.64764000	1.57480300
160.69999064	0.00000000	12.64764000	1.53174200
160.89999062	0.00000000	12.64764000	1.15649600
161.09999061	0.00000000	12.69070000	0.41830710
161.29999060	0.00000000	13.06594000	0.04306102
161.49999059	0.00000000	13.81028000	0.00000000
161.69999058	0.00000000	14.18553000	0.00000000
161.89999056	0.00000000	14.22859000	0.04306102
162.09999055	0.00000000	14.22859000	0.41830710
162.29999054	0.00000000	14.22859000	1.15649600
162.49999053	0.00000000	14.22859000	1.53174200
162.69999052	0.00000000	14.18553000	1.57480300
162.89999051	0.00000000	13.81028000	1.57480300
163.09999049	0.00000000	13.06594000	1.57480300
163.29999048	0.00000000	12.69070000	1.53174200
163.49999047	0.00000000	12.64764000	1.15649600
163.69999046	0.00000000	12.64764000	0.41830710
163.89999045	0.00000000	12.64764000	0.04306102
164.09999043	0.00000000	12.64764000	0.00000000
164.29999042	0.00000000	12.69070000	0.00000000
164.49999041	0.00000000	13.02288000	0.04306102
164.69999040	0.00000000	13.43504000	0.37524600
164.89999039	0.00000000	13.44119000	0.73818890
165.09999037	0.00000000	13.85334000	0.37524600
165.29999036	0.00000000	14.18553000	0.04306102
165.49999035	0.00000000	14.18553000	0.04306102
165.69999034	0.00000000	13.81028000	0.41830710
165.89999033	0.00000000	13.06594000	1.15649600
166.09999032	0.00000000	12.69070000	1.48253000
166.29999030	0.00000000	12.60458000	1.15649600
166.49999029	0.00000000	12.27239000	0.46136810
166.69999028	0.00000000	11.90330000	0.41830710
166.89999027	0.00000000	12.31545000	0.73818890
167.09999026	0.00000000	13.02288000	0.37524600
167.29999024	0.00000000	13.81028000	0.04306102
167.49999023	0.00000000	14.18553000	0.00000000
167.69999022	0.00000000	14.18553000	0.00000000
167.89999021	0.00000000	13.85334000	0.00000000
168.09999020	0.00000000	13.48425000	0.00000000
168.29999018	0.00000000	13.81028000	0.04306102
168.49999017	0.00000000	13.81028000	0.41830710
168.69999016	0.00000000	13.44119000	1.11343500
168.89999015	0.00000000	13.43504000	1.11343500
169.09999014	0.00000000	13.02288000	0.41830710
169.29999013	0.00000000	12.69070000	0.04306102
169.49999011	0.00000000	12.64764000	0.00000000
169.69999010	0.00000000	12.64764000	0.00000000
169.89999009	0.00000000	12.64764000	0.04306102
170.09999008	0.00000000	12.64764000	0.37524600
170.29999007	0.00000000	12.64764000	0.73818890
170.49999005	0.00000000	12.69070000	0.37524600
170.69999004	0.00000000	13.06594000	0.04306102
170.89999003	0.00000000	13.81028000	0.00000000
171.09999002	0.00000000	14.13632000	0.00000000
171.29999001	0.00000000	13.81028000	0.00000000
171.49998999	0.00000000	13.06594000	0.00000000
171.69998998	0.00000000	12.69070000	0.00000000
171.89998997	0.00000000	12.64764000	0.00000000
172.09998996	0.00000000	12.64764000	0.00000000
172.29998995	0.00000000	12.64764000	0.00000000
172.49998994	0.00000000	12.64764000	0.00000000
172.69998992	0.00000000	12.64764000	0.04306102
172.89998991	0.00000000	12.64764000	0.37524600
173.09998990	-0.15871060	12.64764000	0.73818890
173.29998989	0.00000000	12.64764000	0.37524600
173.49998988	0.00000000	12.64764000	0.04306102
173.69998986	0.00000000	12.64764000	0.00000000
173.89998985	0.00000000	12.64764000	0.00000000
174.09998984	0.00000000	12.69070000	0.00000000
174.29998983	0.00000000	13.02288000	0.00000000
174.49998982	0.00000000	13.39198000	0.00000000
174.69998980	0.00000000	13.02288000	0.00000000
174.89998979	0.00000000	12.69070000	0.00000000
175.09998978	0.00000000	12.64764000	0.00000000
175.29998977	0.00000000	12.64764000	0.00000000
175.49998976	0.00000000	12.64764000	0.00000000
175.69998975	0.00000000	12.64764000	0.04306102
175.89998973	0.00000000	12.64764000	0.37524600
176.09998972	0.00000000	12.64764000	0.73818890
176.29998971	0.00000000	12.69070000	0.41830710
176.49998970	0.00000000	13.02288000	0.41830710
176.69998969	0.00000000	13.39198000	0.73818890
176.89998967	0.00000000	13.02288000	0.41830710
177.09998966	0.00000000	12.69070000	0.41830710
177.29998965	0.00000000	12.64764000	0.73818890
177.49998964	0.00000000	12.64764000	0.37524600
177.69998963	0.00000000	12.64764000	0.04306102
177.89998961	0.00000000	12.64764000	0.04306102
178.09998960	0.00000000	12.64764000	0.37524600
178.29998959	0.00000000	12.64764000	0.78124990
178.49998958	0.00000000	12.64764000	0.74434050
178.69998957	0.00000000	12.64764000	0.83046260
178.89998956	0.00000000	12.64764000	0.79355310
179.09998954	0.00000000	12.69070000	1.15649600
179.29998953	0.00000000	13.02288000	1.11343500
179.49998952	0.00000000	13.39198000	0.41830710
179.69998951	0.00000000	13.02288000	0.04306102
179.89998950	0.00000000	12.69070000	0.00000000
180.09998948	0.00000000	12.64764000	0.00000000
180.29998947	0.00000000	12.64764000	0.00000000
180.49998946	0.00000000	12.64764000	0.00000000
180.69998945	0.00000000	12.64764000	0.00000000
180.89998944	0.00000000	12.64764000	0.00000000
181.09998942	0.00000000	12.64764000	0.09227362
181.29998941	0.00000000	12.64764000	0.75049200
181.49998940	0.00000000	12.64764000	1.52559000
181.69998939	0.00000000	12.64764000	1.16879900
181.89998938	0.00000000	12.69070000	1.19955700
182.09998937	0.00000000	13.06594000	1.11343500
182.29998935	0.00000000	13.76107000	0.41830710
182.49998934	0.00000000	13.81028000	0.04306102
182.69998933	0.00000000	13.44119000	0.00000000
182.89998932	0.00000000	13.43504000	0.00000000
183.09998931	0.00000000	13.02288000	0.00000000
183.29998929	0.00000000	12.69070000	0.00000000
183.49998928	0.00000000	12.64764000	0.00000000
183.69998927	0.00000000	12.64764000	0.04306102
183.89998926	0.00000000	12.64764000	0.41830710
184.09998925	0.00000000	12.64764000	1.15649600
184.29998923	0.00000000	12.64764000	1.53174200
184.49998922	0.00000000	12.64764000	1.57480300
184.69998921	0.00000000	12.64764000	1.57480300
184.89998920	0.00000000	12.64764000	1.57480300
185.09998919	0.00000000	12.64764000	1.57480300
185.29998918	0.00000000	12.64764000	1.53174200
185.49998916	0.00000000	12.64764000	1.15649600
185.69998915	0.00000000	12.69070000	0.41830710
185.89998914	0.00000000	13.02288000	0.04306102
186.09998913	0.00000000	13.39198000	0.00000000
186.29998912	0.00000000	13.02288000	0.00000000
186.49998910	0.00000000	12.69070000	0.00000000
186.69998909	0.00000000	12.60458000	0.04306102
186.89998908	0.00000000	12.27239000	0.41830710
187.09998907	0.00000000	11.90330000	1.15649600
187.29998906	0.00000000	12.27239000	1.53174200
187.49998904	0.00000000	12.60458000	1.53174200
187.69998903	0.00000000	12.64764000	1.19955700
187.89998902	0.00000000	12.69070000	0.83661410
188.09998901	0.00000000	13.06594000	1.15649600
188.29998900	0.00000000	13.76107000	1.11343500
188.49998899	0.00000000	13.76107000	0.41830710
188.69998897	0.00000000	13.11516000	0.04306102
188.89998896	0.00000000	13.06594000	0.00000000
189.09998895	0.00000000	13.39198000	0.00000000
189.29998894	0.00000000	13.02288000	0.00000000
189.49998893	0.00000000	12.69070000	0.00000000
189.69998891	0.00000000	12.64764000	0.00000000
189.89998890	0.00000000	12.64764000	0.04306102
190.09998889	0.00000000	12.64764000	0.37524600
190.29998888	0.00000000	12.64764000	0.78124990
190.49998887	0.00000000	12.64764000	0.79355310
190.69998885	0.00000000	12.64764000	1.19955700
190.89998884	0.00000000	12.64764000	1.48253000
191.09998883	0.00000000	12.64764000	1.19955700
191.29998882	0.00000000	12.64764000	0.79355310
191.49998881	0.00000000	12.69070000	0.78124990
191.69998880	0.00000000	13.02288000	0.37524600
191.89998878	0.00000000	13.39198000	0.04306102
192.09998877	0.00000000	13.02288000	0.00000000
192.29998876	0.00000000	12.69070000	0.00000000
192.49998875	0.00000000	12.64764000	0.00000000
192.69998874	0.00000000	12.64764000	0.00000000
192.89998872	0.00000000	12.64764000	0.00000000
193.09998871	0.00000000	12.64764000	0.00000000
193.29998870	0.00000000	12.64764000	0.04306102
193.49998869	0.00000000	12.64764000	0.37524600
193.69998868	0.00000000	12.64764000	0.78124990
193.89998866	0.00000000	12.64764000	0.79355310
194.09998865	0.00000000	12.64764000	1.19955700
194.29998864	0.00000000	12.64764000	1.53174200
194.49998863	0.00000000	12.64764000	1.53174200
194.69998862	0.00000000	12.64764000	1.15649600
194.89998861	0.00000000	12.64764000	0.41830710
195.09998859	0.00000000	12.64764000	0.04306102
195.29998858	0.00000000	12.64764000	0.00000000
195.49998857	0.00000000	12.64764000	0.00000000
195.69998856	0.00000000	12.64764000	0.00000000
195.89998855	0.00000000	12.64764000	0.00000000
196.09998853	0.00000000	12.64764000	0.00000000
