Time	Channel A	Channel B	Channel C
(us)	(V)	(mV)	(mV)

-4.59999956	0.00000000	38.73647000	12.62918000
-4.39999957	0.00000000	38.74261000	12.62918000
-4.19999958	0.00000000	39.15477000	12.62918000
-3.99999959	0.00000000	39.48696000	12.62918000
-3.79999960	0.00000000	39.48696000	12.62918000
-3.59999962	0.00000000	39.15477000	12.62918000
-3.39999963	0.00000000	38.78568000	12.62918000
-3.19999964	0.00000000	39.11171000	12.62918000
-2.99999965	0.00000000	39.06250000	12.62918000
-2.79999966	0.00000000	38.41658000	12.62918000
-2.59999968	0.00000000	38.41658000	12.62918000
-2.39999969	0.00000000	39.11171000	12.62918000
-2.19999970	0.00000000	39.48696000	12.62918000
-1.99999971	0.00000000	39.48696000	12.62918000
-1.79999972	0.00000000	39.15477000	12.62918000
-1.59999973	0.00000000	38.74261000	12.62918000
-1.39999975	0.00000000	38.77953000	12.62918000
-1.19999976	0.00000000	38.74261000	12.62918000
-0.99999977	0.00000000	39.15477000	12.62918000
-0.79999978	0.00000000	39.43774000	12.62918000
-0.59999979	0.00000000	39.15477000	12.62918000
-0.39999981	0.00000000	38.74261000	12.62918000
-0.19999982	0.47736220	38.73647000	12.62918000
0.00000017	0.79601380	38.36737000	12.62918000
0.20000016	0.95533960	38.36737000	12.62918000
0.40000015	0.95533960	38.69341000	12.62918000
0.60000013	0.63668800	38.36737000	12.62918000
0.80000012	0.00000000	38.36737000	12.58612000
1.00000011	-0.95533960	38.73647000	12.25394000
1.20000010	-1.91129400	38.74261000	11.88484000
1.40000009	-2.54859700	39.11171000	12.25394000
1.60000008	-2.86724900	39.11171000	12.58612000
1.80000006	-2.22994600	38.78568000	12.62918000
2.00000005	-0.63668800	39.11171000	12.62918000
2.20000004	1.27399100	39.06250000	12.62918000
2.40000003	3.34522600	38.36737000	12.62918000
2.60000002	4.93786900	37.99213000	12.58612000
2.80000000	5.25652100	37.94907000	12.21087000
2.99999999	4.30056600	37.94907000	11.46653000
3.19999998	1.91129400	37.94907000	11.14050000
3.39999997	-1.27399100	37.94907000	11.42347000
3.59999996	-4.61921700	37.94907000	11.79257000
3.79999994	-7.16781500	37.99213000	11.46653000
3.99999993	-7.96444400	38.32431000	11.51575000
4.19999992	-6.84916400	38.73647000	12.21087000
4.39999991	-3.82258900	38.74261000	12.58612000
4.59999990	0.31803640	39.15477000	12.62918000
4.79999989	4.77854300	39.43774000	12.62918000
4.99999987	8.12377000	39.11171000	12.58612000
5.19999986	9.39837600	38.36737000	12.21087000
5.39999985	8.44242100	37.99213000	11.46653000
5.59999984	5.25652100	37.94907000	11.09129000
5.79999983	0.63668800	37.94907000	11.04823000
5.99999981	-4.14124000	37.94907000	11.09129000
6.19999980	-7.80511800	37.99213000	11.46653000
6.39999979	-9.39837600	38.32431000	12.21087000
6.59999978	-8.76107300	38.69341000	12.58612000
6.79999977	-6.05315000	38.36737000	12.62918000
6.99999975	-1.91129400	38.41658000	12.62918000
7.19999974	2.38927200	39.06250000	12.62918000
7.39999973	5.89382400	39.06250000	12.62918000
7.59999972	7.64579200	38.41658000	12.62918000
7.79999971	7.32714100	38.41658000	12.62918000
7.99999970	5.25652100	39.06250000	12.62918000
8.19999968	2.22994600	39.06250000	12.62918000
8.39999967	-0.95533960	38.36737000	12.62918000
8.59999966	-3.66326300	37.99213000	12.62918000
8.79999965	-5.09719500	37.94907000	12.62918000
8.99999964	-5.09719500	37.94907000	12.62918000
9.19999962	-3.82258900	37.99213000	12.62918000
9.39999961	-2.07062000	38.32431000	12.62918000
9.59999960	0.00000000	38.73647000	12.62918000
9.79999959	1.59264300	38.69955000	12.62918000
9.99999958	2.38927200	38.73647000	12.62918000
10.19999956	2.54859700	38.32431000	12.62918000
10.39999955	1.91129400	37.99213000	12.62918000
10.59999954	1.11466500	37.94907000	12.62918000
10.79999953	0.15871060	37.99213000	12.62918000
10.99999952	-0.47736220	38.32431000	12.62918000
11.19999951	-0.79601380	38.69341000	12.62918000
11.39999949	-0.95533960	38.32431000	12.62918000
11.59999948	-0.95533960	37.99213000	12.62918000
11.79999947	-0.63668800	37.94907000	12.62918000
11.99999946	-0.31803640	37.94907000	12.62918000
12.19999945	-0.15871060	37.94907000	12.62918000
12.39999943	-0.15871060	37.94907000	12.62918000
12.59999942	0.00000000	37.94907000	12.62918000
12.79999941	0.00000000	37.94907000	12.62918000
12.99999940	0.00000000	37.94907000	12.62918000
13.19999939	0.00000000	37.94907000	12.62918000
13.39999937	0.00000000	37.94907000	12.62918000
13.59999936	0.00000000	37.94907000	12.62918000
13.79999935	0.00000000	37.94907000	12.62918000
13.99999934	-0.15871060	37.94907000	12.62918000
14.19999933	-0.15871060	37.94907000	12.62918000
14.39999932	-0.15871060	37.94907000	12.62918000
14.59999930	-0.15871060	37.94907000	12.62918000
14.79999929	-0.15871060	37.94907000	12.62918000
14.99999928	0.00000000	37.94907000	12.62918000
15.19999927	0.00000000	37.94907000	12.62918000
15.39999926	0.00000000	37.94907000	12.62918000
15.59999924	0.00000000	37.94907000	12.62918000
15.79999923	0.00000000	37.94907000	12.62918000
15.99999922	0.00000000	37.94907000	12.62918000
16.19999921	-0.15871060	37.94907000	12.62918000
16.39999920	0.00000000	37.99213000	12.62918000
16.59999919	-0.15871060	38.36737000	12.62918000
16.79999917	-0.15871060	39.11171000	12.62918000
16.99999916	0.00000000	39.48696000	12.62918000
17.19999915	0.00000000	39.57308000	12.62918000
17.39999914	0.00000000	39.90526000	12.62918000
17.59999913	0.00000000	40.27436000	12.58612000
17.79999911	0.00000000	39.86220000	12.25394000
17.99999910	0.00000000	39.11171000	11.88484000
18.19999909	0.00000000	37.90600000	12.21087000
18.39999908	0.00000000	36.36811000	12.21087000
18.59999907	0.00000000	34.83022000	11.88484000
18.79999905	-0.15871060	33.66756000	12.25394000
18.99999904	-0.15871060	33.29232000	12.53691000
19.19999903	0.00000000	33.71063000	12.25394000
19.39999902	0.00000000	35.34079000	11.88484000
19.59999901	0.00000000	38.45964000	12.25394000
19.79999900	0.00000000	42.69193000	12.58612000
19.99999898	0.00000000	46.88115000	12.62918000
20.19999897	0.00000000	49.57554000	12.62918000
20.39999896	0.00000000	49.95078000	12.62918000
20.59999895	0.00000000	47.95152000	12.62918000
20.79999894	0.00000000	43.20866000	12.62918000
20.99999892	0.00000000	35.90059000	12.62918000
21.19999891	0.00000000	27.80512000	12.58612000
21.39999890	0.00000000	21.24139000	12.25394000
21.59999889	0.00000000	17.42741000	11.84178000
21.79999888	0.00000000	17.93799000	11.87869000
21.99999886	0.00000000	23.75123000	11.79872000
22.19999885	0.00000000	33.84596000	11.83563000
22.39999884	0.00000000	46.22908000	11.46653000
22.59999883	0.00000000	58.55684000	11.51575000
22.79999882	0.00000000	67.35358000	12.21087000
22.99999881	0.00000000	70.01107000	12.58612000
23.19999879	0.00000000	65.31126000	12.67224000
23.39999878	0.00000000	53.67864000	13.04749000
23.59999877	0.00000000	37.39542000	13.79183000
23.79999876	0.00000000	19.66043000	14.16708000
23.99999875	0.00000000	4.63828700	14.16708000
24.19999873	0.00000000	-3.41412400	13.79183000
24.39999872	0.00000000	-2.57751000	13.00443000
24.59999871	0.00000000	7.97859100	12.21087000
24.79999870	0.00000000	26.87008000	11.00517000
24.99999869	0.00000000	49.62475000	9.47342500
25.19999867	0.00000000	70.47243000	7.93553100
25.39999866	-0.15871060	84.75639000	6.86515700
25.59999865	0.00000000	88.93946000	7.28346400
25.79999864	-0.15871060	81.54527000	9.55954600
25.99999863	0.00000000	63.76722000	12.67224000
26.19999862	0.00000000	39.48080000	16.20325000
26.39999860	0.00000000	14.77608000	20.06029000
26.59999859	0.00000000	-4.53371000	23.04380000
26.79999858	0.00000000	-14.20399000	23.78199000
26.99999857	0.00000000	-11.88484000	21.46284000
27.19999856	0.00000000	1.61171300	16.76919000
27.39999854	0.00000000	23.24680000	10.16855000
27.59999853	0.00000000	47.95152000	2.46063000
27.79999852	0.00000000	70.00491000	-4.04773600
27.99999851	0.00000000	84.70718000	-7.90477300
28.19999850	0.00000000	88.93946000	-7.81250000
28.39999848	0.00000000	81.63754000	-3.11884800
28.59999847	0.00000000	64.69611000	5.80093500
28.79999846	0.00000000	42.69193000	17.32283000
28.99999845	0.00000000	20.68159000	28.51870000
29.19999844	0.00000000	3.66018700	36.65108000
29.39999843	0.00000000	-4.57677100	40.45890000
29.59999841	0.00000000	-3.50639700	38.41658000
29.79999840	-0.15871060	5.80093500	29.91511000
29.99999839	0.00000000	21.61663000	16.76919000
30.19999838	0.00000000	40.13287000	1.66707700
30.39999837	0.00000000	56.79134000	-12.54921000
30.59999835	0.00000000	68.47317000	-22.16412000
30.79999834	0.00000000	73.12376000	-24.48942000
30.99999833	0.00000000	70.14025000	-19.42667000
31.19999832	0.00000000	60.88828000	-7.39419200
31.39999831	0.00000000	48.08686000	9.56569900
31.59999829	0.00000000	33.75369000	27.26993000
31.79999828	0.00000000	21.05684000	41.62155000
31.99999827	0.00000000	13.23819000	49.71087000
32.19999826	-0.15871060	11.23893000	50.12303000
32.39999825	0.00000000	14.73302000	42.41511000
32.59999824	-0.15871060	23.19759000	28.89395000
32.79999822	0.00000000	34.36884000	12.21087000
32.99999821	0.00000000	45.16486000	-4.78592500
33.19999820	0.00000000	53.34645000	-18.26402000
33.39999819	0.00000000	57.30192000	-25.23376000
33.59999818	0.00000000	57.30192000	-24.11417000
33.79999816	0.00000000	53.38951000	-15.61270000
33.99999815	0.00000000	45.71850000	-1.67322800
34.19999814	-0.15871060	36.92175000	15.28051000
34.39999813	0.00000000	29.52141000	31.07775000
34.59999812	0.00000000	24.91388000	41.94759000
34.79999810	0.00000000	24.08341000	46.22293000
34.99999809	0.00000000	27.10384000	43.15945000
35.19999808	0.00000000	32.12967000	33.49532000
35.39999807	0.00000000	38.32431000	19.64198000
35.59999806	0.00000000	44.41437000	4.59522600
35.79999805	0.00000000	47.85925000	-7.72022600
35.99999803	0.00000000	47.95152000	-14.73302000
36.19999802	0.00000000	45.30019000	-15.15133000
36.39999801	0.00000000	41.06791000	-9.38730200
36.59999800	0.00000000	36.41117000	1.02116100
36.79999799	0.00000000	32.17273000	13.69956000
36.99999797	0.00000000	29.52141000	25.17839000
37.19999796	0.00000000	29.52141000	32.10507000
37.39999795	-0.15871060	32.17273000	32.56643000
37.59999794	0.00000000	36.41117000	27.26993000
37.79999793	0.00000000	41.01870000	18.47933000
37.99999791	0.00000000	44.88189000	8.82135800
38.19999790	0.00000000	46.83809000	0.78124990
38.39999789	0.00000000	46.88115000	-3.81397600
38.59999788	0.00000000	45.30019000	-3.03272600
38.79999787	0.00000000	42.18134000	2.63902500
38.99999786	0.00000000	37.94907000	11.09744000
39.19999784	0.00000000	33.71063000	19.88189000
39.39999783	0.00000000	30.59178000	26.38410000
39.59999782	0.00000000	29.01082000	28.29109000
39.79999781	0.00000000	29.01082000	25.22145000
39.99999780	0.00000000	30.63484000	17.92569000
40.19999778	0.00000000	34.08588000	8.35998900
40.39999777	0.00000000	38.68725000	-0.46751960
40.59999776	0.00000000	42.55659000	-6.18848400
40.79999775	0.00000000	45.34325000	-6.96973400
40.99999774	0.00000000	46.88115000	-2.38065900
41.19999772	0.00000000	46.88115000	5.66560000
41.39999771	0.00000000	45.34325000	15.32357000
41.59999770	0.00000000	42.59965000	24.10802000
41.79999769	0.00000000	39.11171000	29.49680000
41.99999768	0.00000000	35.24852000	29.91511000
42.19999767	0.00000000	32.17273000	25.73203000
42.39999765	0.00000000	30.54872000	18.43627000
42.59999764	0.00000000	30.17347000	9.98400600
42.79999763	0.00000000	30.96703000	2.63902500
42.99999762	0.00000000	33.24926000	-2.00541300
43.19999761	0.00000000	35.94980000	-3.16190900
43.39999759	0.00000000	38.32431000	-0.51673230
43.59999758	0.00000000	40.64345000	4.82898600
43.79999757	0.00000000	42.13828000	11.00517000
43.99999756	0.00000000	42.22441000	16.81225000
44.19999755	0.00000000	41.52928000	21.03838000
44.39999753	0.00000000	41.15403000	22.61934000
44.59999752	0.00000000	41.11097000	21.50590000
44.79999751	0.00000000	41.06791000	18.43627000
44.99999750	0.00000000	40.69267000	14.21014000
45.19999749	0.00000000	39.90526000	10.02707000
45.39999748	0.00000000	39.11171000	7.28346400
45.59999746	0.00000000	37.85679000	6.40378900
45.79999745	0.00000000	35.85752000	6.40378900
45.99999744	0.00000000	32.78174000	7.24040300
46.19999743	0.00000000	29.42913000	9.55954600
46.39999742	0.00000000	27.94045000	12.58612000
46.59999740	0.00000000	29.05389000	15.27436000
46.79999739	0.00000000	32.17273000	16.85531000
46.99999738	0.00000000	36.87869000	17.23056000
47.19999737	0.00000000	42.69193000	16.48622000
47.39999736	0.00000000	48.46210000	14.53617000
47.59999734	0.00000000	52.65133000	12.25394000
47.79999733	0.00000000	53.76476000	9.89173200
47.99999732	0.00000000	51.02116000	7.98474400
48.19999731	0.00000000	44.83267000	6.82209600
48.39999730	0.00000000	36.31890000	6.82209600
48.59999729	0.00000000	27.47908000	7.98474400
48.79999727	0.00000000	20.58932000	9.93479300
48.99999726	0.00000000	17.89493000	12.67224000
49.19999725	0.00000000	20.21407000	15.69882000
49.39999724	0.00000000	26.73474000	18.01796000
49.59999723	0.00000000	36.03592000	18.76845000
49.79999721	0.00000000	45.67544000	18.01796000
49.99999720	0.00000000	53.76476000	15.64960000
50.19999719	0.00000000	57.95398000	12.21087000
50.39999718	0.00000000	56.84055000	8.35998900
50.59999717	0.00000000	51.07037000	5.29035400
50.79999715	0.00000000	42.18134000	3.75246000
50.99999714	0.00000000	32.22195000	4.12770700
51.19999713	0.00000000	24.12647000	6.44685000
51.39999712	0.00000000	20.26329000	9.89173200
51.59999711	0.00000000	21.00763000	13.79183000
51.79999710	0.00000000	26.35950000	17.27977000
51.99999708	0.00000000	34.41191000	19.97416000
52.19999707	0.00000000	42.51353000	21.04454000
52.39999706	0.00000000	49.11417000	19.50664000
52.59999705	0.00000000	52.51599000	15.74188000
52.79999704	0.00000000	51.76550000	11.51575000
52.99999702	0.00000000	46.78888000	8.02780400
53.19999701	0.00000000	39.53002000	5.66560000
53.39999700	0.00000000	32.22195000	4.91510800
53.59999699	0.00000000	26.82701000	5.66560000
53.79999698	0.00000000	24.91388000	7.98474400
53.99999696	0.00000000	26.77780000	11.00517000
54.19999695	0.00000000	31.79749000	13.69956000
54.39999694	0.00000000	38.32431000	15.23130000
54.59999693	0.00000000	44.83267000	15.27436000
54.79999692	0.00000000	49.02190000	14.16092000
54.99999691	0.00000000	49.48942000	12.62918000
55.19999689	0.00000000	46.83809000	11.09744000
55.39999688	0.00000000	42.18134000	9.98400600
55.59999687	0.00000000	36.41117000	9.98400600
55.79999686	0.00000000	31.05930000	11.14050000
55.99999685	0.00000000	27.94045000	13.00443000
56.19999683	0.00000000	27.56521000	14.90526000
56.39999682	0.00000000	29.85359000	15.64960000
56.59999681	0.00000000	34.45497000	15.27436000
56.79999680	0.00000000	39.43774000	13.69956000
56.99999679	0.00000000	43.67618000	11.00517000
57.19999677	0.00000000	45.99532000	7.93553100
57.39999676	0.00000000	45.67544000	5.29035400
57.59999675	0.00000000	43.76230000	4.17691900
57.79999674	0.00000000	40.64345000	5.37647600
57.99999673	0.00000000	36.78642000	8.82135800
58.19999672	0.00000000	33.33538000	13.83489000
58.39999670	0.00000000	31.01009000	18.81152000
58.59999669	0.00000000	30.63484000	22.61934000
58.79999668	0.00000000	32.12967000	23.78199000
58.99999667	0.00000000	34.83022000	21.83194000
59.19999666	0.00000000	37.90600000	17.59966000
59.39999664	0.00000000	40.60039000	11.38041000
59.59999663	0.00000000	42.13828000	4.87204700
59.79999662	0.00000000	42.13828000	-0.46751960
59.99999661	0.00000000	40.69267000	-2.74360200
60.19999660	0.00000000	38.78568000	-0.84276570
60.39999658	0.00000000	37.57381000	4.12770700
60.59999657	0.00000000	36.41117000	11.14050000
60.79999656	0.00000000	35.71604000	18.76845000
60.99999655	0.00000000	36.41117000	24.89542000
61.19999654	0.00000000	37.53075000	27.26378000
61.39999653	0.00000000	38.32431000	26.15034000
61.59999651	0.00000000	39.11171000	22.20103000
61.79999650	-0.15871060	39.43774000	15.23130000
61.99999649	0.00000000	39.06250000	6.86515700
62.19999648	0.00000000	37.94907000	-0.04921259
62.39999647	0.00000000	36.78642000	-3.58021600
62.59999645	0.00000000	35.99286000	-3.62942900
62.79999644	0.00000000	35.25467000	-0.46751960
62.99999643	0.00000000	35.29773000	5.70866100
63.19999642	0.00000000	36.41117000	13.74262000
63.39999641	0.00000000	37.94907000	21.03838000
63.59999639	0.00000000	39.48696000	25.73203000
63.79999638	0.00000000	40.64345000	27.26378000
63.99999637	0.00000000	41.06791000	25.35679000
64.19999636	0.00000000	41.01870000	20.34941000
64.39999635	0.00000000	40.22515000	13.83489000
64.59999634	0.00000000	38.32431000	7.24040300
64.79999632	0.00000000	36.46038000	2.22071800
64.99999631	0.00000000	35.20546000	-0.55979330
65.19999630	0.00000000	34.49803000	-0.93503930
65.39999629	0.00000000	34.51033000	0.97194880
65.59999628	0.00000000	36.03592000	4.82898600
65.79999626	0.00000000	37.85679000	9.47342500
65.99999625	0.00000000	39.06250000	14.16708000
66.19999624	0.00000000	39.43774000	18.39321000
66.39999623	0.00000000	39.06250000	21.08760000
66.59999622	0.00000000	37.90600000	21.54897000
66.79999620	0.00000000	36.41117000	20.47859000
66.99999619	0.00000000	35.25467000	18.85458000
67.19999618	0.00000000	34.87943000	16.48622000
67.39999617	0.00000000	35.25467000	13.00443000
67.59999616	0.00000000	36.46038000	9.51648500
67.79999615	0.00000000	38.36737000	6.36072800
67.99999613	0.00000000	40.69267000	3.66633800
68.19999612	0.00000000	42.55659000	2.12844500
68.39999611	0.00000000	43.30093000	2.12844500
68.59999610	0.00000000	42.09522000	3.70939900
68.79999609	0.00000000	39.06250000	6.82209600
68.99999607	0.00000000	35.20546000	11.09129000
69.19999606	0.00000000	31.71137000	15.74188000
69.39999605	0.00000000	29.01082000	19.97416000
69.59999604	0.00000000	27.94045000	22.71161000
69.79999603	0.00000000	29.47835000	23.46210000
69.99999601	0.00000000	33.29232000	22.24409000
70.19999600	0.00000000	37.94907000	18.35015000
70.39999599	0.00000000	42.64886000	12.62918000
70.59999598	0.00000000	46.83809000	6.82209600
70.79999597	0.00000000	49.11417000	2.22071800
70.99999596	0.00000000	48.36983000	-0.14148620
71.19999594	0.00000000	45.30019000	0.22145670
71.39999593	0.00000000	40.60039000	2.54675200
71.59999592	0.00000000	34.83022000	6.82209600
71.79999591	0.00000000	29.43528000	12.16166000
71.99999590	0.00000000	25.94119000	16.81225000
72.19999588	0.00000000	24.82160000	19.92495000
72.39999587	0.00000000	26.73474000	21.08760000
72.59999586	0.00000000	31.33612000	19.92495000
72.79999585	0.00000000	36.74335000	16.90453000
72.99999584	0.00000000	42.22441000	13.09670000
73.19999582	0.00000000	46.78888000	9.98400600
73.39999581	0.00000000	49.11417000	8.02780400
73.59999580	0.00000000	48.36983000	7.24040300
73.79999579	0.00000000	45.30019000	7.98474400
73.99999578	0.00000000	40.69267000	9.47342500
74.19999577	0.00000000	35.66683000	10.96211000
74.39999575	0.00000000	31.79749000	11.74336000
74.59999574	0.00000000	29.42913000	11.42347000
74.79999573	0.00000000	29.05389000	11.04823000
74.99999572	0.00000000	30.54872000	10.58686000
75.19999571	0.00000000	33.24926000	9.51648500
75.39999569	0.00000000	36.36811000	8.82135800
75.59999568	0.00000000	39.43774000	9.60875900
75.79999567	0.00000000	41.76304000	11.51575000
75.99999566	0.00000000	42.55659000	14.21014000
76.19999565	0.00000000	42.18134000	16.85531000
76.39999563	0.00000000	40.64345000	18.39321000
76.59999562	0.00000000	38.41658000	18.35015000
76.79999561	0.00000000	36.87869000	16.39395000
76.99999560	0.00000000	36.46038000	12.53691000
77.19999559	0.00000000	36.74335000	7.98474400
77.39999558	0.00000000	37.15551000	4.08464600
77.59999556	0.00000000	37.11860000	1.80241100
77.79999555	0.00000000	37.15551000	1.39025600
77.99999554	0.00000000	36.70029000	3.37721400
78.19999553	0.00000000	35.99286000	7.19734200
78.39999552	0.00000000	35.20546000	12.25394000
78.59999550	0.00000000	34.83022000	17.23056000
78.79999549	0.00000000	34.87943000	21.13066000
78.99999548	0.00000000	35.67298000	22.99459000
79.19999547	0.00000000	37.57381000	22.24409000
79.39999546	0.00000000	39.48696000	18.81152000
79.59999544	0.00000000	41.06791000	14.21014000
79.79999543	0.00000000	42.18134000	9.56569900
79.99999542	0.00000000	42.13828000	5.66560000
80.19999541	0.00000000	40.60039000	3.33415300
80.39999540	0.00000000	37.94907000	2.50369100
80.59999539	0.00000000	35.20546000	3.33415300
80.79999537	0.00000000	32.91707000	5.61638700
80.99999536	0.00000000	31.34227000	9.09817800
81.19999535	0.00000000	31.37918000	12.58612000
81.39999534	0.00000000	32.50492000	15.69882000
81.59999533	0.00000000	34.87328000	18.01796000
81.79999531	0.00000000	37.90600000	18.85458000
81.99999530	0.00000000	40.60039000	18.85458000
82.19999529	0.00000000	42.18134000	18.06102000
82.39999528	0.00000000	42.55659000	16.11712000
82.59999527	0.00000000	41.76304000	13.79183000
82.79999525	0.00000000	39.48696000	11.04823000
82.99999524	0.00000000	36.83563000	8.35383800
83.19999523	0.00000000	34.87328000	6.40378900
83.39999522	0.00000000	33.66756000	5.19808000
83.59999521	0.00000000	33.29232000	4.87204700
83.79999520	0.00000000	33.66756000	5.66560000
83.99999518	0.00000000	34.83022000	7.98474400
84.19999517	0.00000000	36.32505000	11.09744000
84.39999516	0.00000000	37.48154000	14.58538000
84.59999515	0.00000000	37.90600000	18.06102000
84.79999514	0.00000000	37.94907000	20.34941000
84.99999512	0.00000000	37.94907000	21.13066000
85.19999511	0.00000000	37.94907000	19.92495000
85.39999510	0.00000000	37.94907000	16.85531000
85.59999509	0.00000000	37.94907000	12.58612000
85.79999508	0.00000000	37.94907000	7.98474400
85.99999506	0.00000000	37.94907000	4.12770700
86.19999505	0.00000000	37.90600000	2.22071800
86.39999504	0.00000000	37.53075000	2.54675200
86.59999503	0.00000000	36.74335000	4.91510800
86.79999502	0.00000000	35.99286000	8.77829600
86.99999501	0.00000000	35.20546000	13.79183000
87.19999499	0.00000000	34.83022000	18.35015000
87.39999498	0.00000000	34.83022000	21.08760000
87.59999497	0.00000000	35.29773000	21.46284000
87.79999496	0.00000000	36.78642000	19.50664000
87.99999495	0.00000000	38.64419000	15.32357000
88.19999493	0.00000000	39.43774000	10.35310000
88.39999492	0.00000000	39.53002000	6.44685000
88.59999491	0.00000000	39.48696000	3.70939900
88.79999490	0.00000000	39.06250000	2.63902500
88.99999489	0.00000000	37.90600000	4.17076700
89.19999487	0.00000000	36.41117000	7.98474400
89.39999486	0.00000000	35.25467000	12.58612000
89.59999485	0.00000000	34.83022000	16.85531000
89.79999484	0.00000000	34.83022000	19.88189000
89.99999483	0.00000000	35.25467000	20.66929000
90.19999482	0.00000000	36.36811000	18.71924000
90.39999480	0.00000000	37.48154000	14.90526000
90.59999479	0.00000000	37.90600000	9.89173200
90.79999478	0.00000000	37.94907000	5.33341500
90.99999477	0.00000000	37.94907000	2.63902500
91.19999476	0.00000000	37.94907000	2.59596400
91.39999474	0.00000000	37.94907000	4.91510800
91.59999473	0.00000000	37.94907000	8.77829600
91.79999472	0.00000000	37.94907000	13.79183000
91.99999471	0.00000000	37.94907000	18.30093000
92.19999470	0.00000000	37.94907000	20.66929000
92.39999468	0.00000000	37.94907000	20.30020000
92.59999467	0.00000000	37.90600000	18.01796000
92.79999466	0.00000000	37.48154000	14.07480000
92.99999465	0.00000000	36.36811000	9.19045200
93.19999464	0.00000000	35.20546000	4.92125900
93.39999463	0.00000000	34.45497000	3.05118100
93.59999461	0.00000000	34.08588000	3.34030500
93.79999460	0.00000000	34.87328000	6.12081600
93.99999459	0.00000000	36.36811000	10.26698000
94.19999458	0.00000000	37.99213000	14.90526000
94.39999457	0.00000000	39.90526000	18.30093000
94.59999455	0.00000000	41.80610000	19.55585000
94.79999454	0.00000000	42.55659000	18.71924000
94.99999453	0.00000000	42.18134000	16.06176000
95.19999452	0.00000000	40.60039000	11.84178000
95.39999451	0.00000000	37.90600000	8.02780400
95.59999449	0.00000000	34.83022000	5.29035400
95.79999448	0.00000000	32.08661000	4.17691900
95.99999447	0.00000000	30.17347000	5.29035400
96.19999446	0.00000000	29.42913000	7.93553100
96.39999445	0.00000000	30.63484000	11.04823000
96.59999444	0.00000000	33.66756000	14.11786000
96.79999442	0.00000000	37.53075000	16.39395000
96.99999441	0.00000000	41.06791000	16.81225000
97.19999440	0.00000000	44.18061000	15.69882000
97.39999439	0.00000000	46.37057000	13.79183000
97.59999438	0.00000000	46.03838000	11.46653000
97.79999436	0.00000000	43.39936000	9.55954600
97.99999435	0.00000000	40.27436000	8.35998900
98.19999434	0.00000000	36.31890000	7.98474400
98.39999433	0.00000000	32.12967000	8.35998900
98.59999432	0.00000000	29.05389000	9.51648500
98.79999430	0.00000000	27.89739000	11.00517000
98.99999429	0.00000000	29.01082000	12.16166000
99.19999428	0.00000000	31.71137000	12.58612000
99.39999427	0.00000000	35.20546000	12.62918000
99.59999426	0.00000000	39.06250000	12.62918000
99.79999425	0.00000000	42.18134000	12.62918000
99.99999423	0.00000000	44.13755000	12.67224000
100.19999422	0.00000000	44.92495000	13.04749000
100.39999421	0.00000000	44.13755000	13.79183000
100.59999420	0.00000000	42.18134000	14.11786000
100.79999419	0.00000000	39.06250000	13.74262000
100.99999417	0.00000000	35.24852000	12.58612000
101.19999416	0.00000000	32.17273000	11.04823000
101.39999415	0.00000000	30.54872000	9.47342500
101.59999414	0.00000000	30.17347000	7.98474400
101.79999413	0.00000000	30.92396000	7.24040300
101.99999411	0.00000000	32.87401000	7.98474400
102.19999410	0.00000000	35.16240000	9.51648500
102.39999409	0.00000000	37.53075000	11.51575000
102.59999408	0.00000000	39.43774000	14.21014000
102.79999407	0.00000000	40.69267000	16.85531000
102.99999406	0.00000000	41.39394000	18.35015000
103.19999404	0.00000000	41.38779000	17.97490000
103.39999403	0.00000000	39.86220000	15.69882000
103.59999402	0.00000000	37.99213000	12.62918000
103.79999401	0.00000000	36.36811000	9.51648500
103.99999400	0.00000000	34.83022000	6.82209600
104.19999398	0.00000000	33.66756000	5.29035400
104.39999397	0.00000000	33.29232000	5.29035400
104.59999396	0.00000000	33.66756000	6.82209600
104.79999395	0.00000000	34.83022000	9.47342500
104.99999394	0.00000000	36.36811000	12.21087000
105.19999392	0.00000000	37.90600000	14.53617000
105.39999391	0.00000000	39.06250000	16.43701000
105.59999390	0.00000000	39.43774000	16.76919000
105.79999389	0.00000000	39.06250000	15.32357000
105.99999388	0.00000000	37.94907000	13.00443000
106.19999387	0.00000000	36.78642000	10.67298000
106.39999385	0.00000000	35.99286000	8.35383800
106.59999384	0.00000000	35.20546000	6.90821800
106.79999383	0.00000000	34.87943000	7.24040300
106.99999382	0.00000000	35.25467000	9.09817800
107.19999381	0.00000000	36.36811000	11.00517000
107.39999379	0.00000000	37.48154000	12.58612000
107.59999378	0.00000000	37.90600000	13.74262000
107.79999377	0.00000000	37.94907000	14.11786000
107.99999376	0.00000000	37.90600000	13.74262000
108.19999375	0.00000000	37.48154000	12.58612000
108.39999374	0.00000000	36.36811000	11.04823000
108.59999372	0.00000000	35.25467000	9.55954600
108.79999371	0.00000000	34.83022000	8.72908400
108.99999370	0.00000000	34.83022000	8.76599300
109.19999369	0.00000000	35.20546000	9.14739100
109.39999368	0.00000000	35.99286000	10.72219000
109.59999366	0.00000000	36.78642000	12.53691000
109.79999365	0.00000000	37.94907000	13.79183000
109.99999364	0.00000000	39.06250000	14.53617000
110.19999363	0.00000000	39.43774000	14.90526000
110.39999362	0.00000000	39.06250000	14.11786000
110.59999360	0.00000000	37.94907000	12.62918000
110.79999359	0.00000000	36.78642000	11.04823000
110.99999358	0.00000000	35.99286000	9.51648500
111.19999357	0.00000000	35.20546000	8.35998900
111.39999356	0.00000000	34.87943000	7.98474400
111.59999355	0.00000000	35.20546000	8.31077700
111.79999353	0.00000000	35.94980000	9.09817800
111.99999352	0.00000000	36.36811000	9.89173200
112.19999351	0.00000000	36.78642000	11.04823000
112.39999350	0.00000000	37.53075000	12.16166000
112.59999349	0.00000000	37.90600000	12.58612000
112.79999347	0.00000000	37.94907000	12.62918000
112.99999346	0.00000000	37.90600000	12.62918000
113.19999345	0.00000000	37.53075000	12.58612000
113.39999344	0.00000000	36.78642000	12.21087000
113.59999343	0.00000000	36.41117000	11.46653000
113.79999341	0.00000000	36.36811000	11.09129000
113.99999340	0.00000000	36.36811000	11.04823000
114.19999339	0.00000000	36.36811000	11.00517000
114.39999338	0.00000000	36.36811000	10.62992000
114.59999337	0.00000000	36.36811000	9.89173200
114.79999336	0.00000000	36.36811000	9.51648500
114.99999334	0.00000000	36.36811000	9.51648500
115.19999333	0.00000000	36.41117000	9.89173200
115.39999332	0.00000000	36.74335000	10.67298000
115.59999331	0.00000000	37.15551000	11.42347000
115.79999330	0.00000000	37.11860000	12.21087000
115.99999328	0.00000000	37.15551000	12.58612000
116.19999327	0.00000000	36.74335000	12.62918000
116.39999326	0.00000000	36.36811000	12.62918000
116.59999325	0.00000000	35.99286000	12.62918000
116.79999324	0.00000000	35.62377000	12.58612000
116.99999322	0.00000000	35.99286000	12.21087000
117.19999321	0.00000000	36.36811000	11.42347000
117.39999320	0.00000000	36.78642000	10.62992000
117.59999319	0.00000000	37.53075000	9.47342500
117.79999318	0.00000000	37.90600000	8.40305000
117.99999317	0.00000000	37.94907000	8.35998900
118.19999315	0.00000000	37.94907000	9.09817800
118.39999314	0.00000000	37.90600000	9.89173200
118.59999313	0.00000000	37.48154000	11.04823000
118.79999312	0.00000000	36.36811000	12.16166000
118.99999311	0.00000000	35.25467000	12.58612000
119.19999309	0.00000000	34.83022000	12.62918000
119.39999308	0.00000000	34.78716000	12.62918000
119.59999307	0.00000000	34.83022000	12.62918000
119.79999306	0.00000000	35.25467000	12.58612000
119.99999305	0.00000000	36.41117000	12.21087000
120.19999303	0.00000000	37.90600000	11.42347000
120.39999302	0.00000000	39.11171000	10.72219000
120.59999301	0.00000000	39.81299000	10.31004000
120.79999300	0.00000000	39.89911000	10.67298000
120.99999299	0.00000000	39.11786000	11.00517000
121.19999298	0.00000000	38.73647000	11.04823000
121.39999296	0.00000000	37.85679000	11.04823000
121.59999295	0.00000000	36.36811000	11.04823000
121.79999294	0.00000000	34.83022000	11.09129000
121.99999293	0.00000000	33.71063000	11.46653000
122.19999292	0.00000000	33.66756000	12.21087000
122.39999290	0.00000000	34.41191000	12.58612000
122.59999289	0.00000000	35.20546000	12.62918000
122.79999288	0.00000000	36.36811000	12.62918000
122.99999287	0.00000000	37.53075000	12.62918000
123.19999286	0.00000000	38.32431000	12.62918000
123.39999284	0.00000000	39.11171000	12.58612000
123.59999283	0.00000000	39.43774000	12.21087000
123.79999282	0.00000000	39.11171000	11.46653000
123.99999281	0.00000000	38.32431000	11.04823000
124.19999280	0.00000000	37.57381000	10.62992000
124.39999279	0.00000000	36.74335000	9.93479300
124.59999277	0.00000000	35.99286000	9.89173200
124.79999276	0.00000000	35.20546000	10.25467000
124.99999275	0.00000000	34.83022000	10.31004000
125.19999274	0.00000000	34.78716000	11.09744000
125.39999273	0.00000000	34.83022000	12.16166000
125.59999271	0.00000000	35.20546000	12.58612000
125.79999270	0.00000000	35.99286000	12.62918000
125.99999269	0.00000000	36.74335000	12.62918000
126.19999268	0.00000000	37.57381000	12.58612000
126.39999267	0.00000000	38.28125000	12.21087000
126.59999265	0.00000000	38.69341000	11.46653000
126.79999264	0.00000000	38.28125000	11.09129000
126.99999263	0.00000000	37.53075000	11.00517000
127.19999262	0.00000000	36.36811000	10.67298000
127.39999261	0.00000000	35.20546000	10.26698000
127.59999260	0.00000000	34.45497000	10.30389000
127.79999258	0.00000000	34.04282000	10.26698000
127.99999257	0.00000000	34.45497000	10.67298000
128.19999256	0.00000000	35.16240000	11.00517000
128.39999255	0.00000000	35.99286000	11.04823000
128.59999254	0.00000000	36.74335000	11.04823000
128.79999252	0.00000000	37.53075000	11.04823000
128.99999251	0.00000000	37.90600000	11.04823000
129.19999250	0.00000000	37.90600000	11.04823000
129.39999249	0.00000000	37.53075000	11.04823000
129.59999248	0.00000000	36.74335000	11.04823000
129.79999246	0.00000000	35.99286000	11.04823000
129.99999245	0.00000000	35.20546000	11.00517000
130.19999244	0.00000000	34.83022000	10.67298000
130.39999243	0.00000000	34.78716000	10.31004000
130.59999242	0.00000000	34.83022000	10.72219000
130.79999241	0.00000000	35.25467000	11.42347000
130.99999239	0.00000000	36.36811000	12.16166000
131.19999238	0.00000000	37.48154000	12.16166000
131.39999237	0.00000000	37.90600000	11.46653000
131.59999236	0.00000000	37.90600000	11.09129000
131.79999235	0.00000000	37.53075000	11.00517000
131.99999233	0.00000000	36.78642000	10.62992000
132.19999232	0.00000000	36.41117000	9.93479300
132.39999231	0.00000000	36.36811000	9.93479300
132.59999230	0.00000000	36.36811000	10.62992000
132.79999229	0.00000000	36.36811000	11.00517000
132.99999227	0.00000000	36.36811000	11.09129000
133.19999226	0.00000000	36.36811000	11.46653000
133.39999225	0.00000000	36.36811000	12.21087000
133.59999224	0.00000000	36.36811000	12.58612000
133.79999223	0.00000000	36.36811000	12.62918000
133.99999222	0.00000000	36.36811000	12.58612000
134.19999220	0.00000000	36.36811000	12.21087000
134.39999219	0.00000000	36.36811000	11.42347000
134.59999218	0.00000000	36.36811000	10.67298000
134.79999217	0.00000000	36.41117000	9.89173200
134.99999216	0.00000000	36.78642000	9.56569900
135.19999214	0.00000000	37.53075000	9.84867000
135.39999213	0.00000000	37.85679000	10.25467000
135.59999212	0.00000000	37.53075000	10.31004000
135.79999211	0.00000000	36.78642000	11.09744000
135.99999210	0.00000000	36.36811000	12.16166000
136.19999208	0.00000000	35.94980000	12.58612000
136.39999207	0.00000000	35.20546000	12.62918000
136.59999206	0.00000000	34.87943000	12.62918000
136.79999205	0.00000000	35.20546000	12.58612000
136.99999204	0.00000000	35.94980000	12.21087000
137.19999203	0.00000000	36.36811000	11.46653000
137.39999201	0.00000000	36.78642000	11.04823000
137.59999200	0.00000000	37.53075000	10.62992000
137.79999199	0.00000000	37.90600000	9.89173200
137.99999198	0.00000000	37.90600000	9.51648500
138.19999197	-0.15871060	37.48154000	9.47342500
138.39999195	0.00000000	36.36811000	9.51648500
138.59999194	0.00000000	35.25467000	9.89173200
138.79999193	0.00000000	34.83022000	10.62992000
138.99999192	0.00000000	34.78716000	11.04823000
139.19999191	0.00000000	34.83022000	11.46653000
139.39999189	0.00000000	35.20546000	12.21087000
139.59999188	0.00000000	35.94980000	12.58612000
139.79999187	0.00000000	36.32505000	12.58612000
139.99999186	0.00000000	36.41117000	12.21087000
140.19999185	0.00000000	36.74335000	11.42347000
140.39999184	0.00000000	37.11245000	10.67298000
140.59999182	0.00000000	36.74335000	9.89173200
140.79999181	0.00000000	36.41117000	9.51648500
140.99999180	0.00000000	36.32505000	9.47342500
141.19999179	0.00000000	35.94980000	9.51648500
141.39999178	0.00000000	35.25467000	9.89173200
141.59999176	0.00000000	35.25467000	10.67298000
141.79999175	0.00000000	35.94980000	11.42347000
141.99999174	0.00000000	36.36811000	12.21087000
142.19999173	0.00000000	36.74335000	12.58612000
142.39999172	0.00000000	37.11245000	12.62918000
142.59999170	0.00000000	36.74335000	12.58612000
142.79999169	0.00000000	36.41117000	12.21087000
142.99999168	0.00000000	36.36811000	11.42347000
143.19999167	0.00000000	36.36811000	10.67298000
143.39999166	0.00000000	36.36811000	9.89173200
143.59999165	0.00000000	36.36811000	9.51648500
143.79999163	0.00000000	36.36811000	9.47342500
143.99999162	0.00000000	36.36811000	9.51648500
144.19999161	0.00000000	36.36811000	9.93479300
144.39999160	0.00000000	36.36811000	11.04823000
144.59999159	0.00000000	36.36811000	12.16166000
144.79999157	0.00000000	36.41117000	12.58612000
144.99999156	0.00000000	36.74335000	12.62918000
145.19999155	0.00000000	37.11245000	12.58612000
145.39999154	0.00000000	36.74335000	12.21087000
145.59999153	0.00000000	36.36811000	11.46653000
145.79999151	0.00000000	35.94980000	11.04823000
145.99999150	0.00000000	35.25467000	10.62992000
146.19999149	0.00000000	35.25467000	9.93479300
146.39999148	0.00000000	35.94980000	9.89173200
146.59999147	0.00000000	36.32505000	10.25467000
146.79999146	0.00000000	36.36811000	10.26698000
146.99999144	0.00000000	36.36811000	10.72219000
147.19999143	0.00000000	36.36811000	11.42347000
147.39999142	0.00000000	36.36811000	12.21087000
147.59999141	0.00000000	36.36811000	12.58612000
147.79999140	0.00000000	36.36811000	12.62918000
147.99999138	0.00000000	36.36811000	12.58612000
148.19999137	0.00000000	36.32505000	12.21087000
148.39999136	0.00000000	35.94980000	11.46653000
148.59999135	0.00000000	35.25467000	11.09129000
148.79999134	0.00000000	35.25467000	11.00517000
148.99999132	0.00000000	35.94980000	10.67298000
149.19999131	0.00000000	36.32505000	10.26698000
149.39999130	0.00000000	36.36811000	10.30389000
149.59999129	0.00000000	36.36811000	10.26698000
149.79999128	0.00000000	36.36811000	10.72219000
149.99999127	0.00000000	36.36811000	11.42347000
150.19999125	0.00000000	36.36811000	12.21087000
150.39999124	0.00000000	36.36811000	12.53691000
150.59999123	0.00000000	36.36811000	12.21087000
150.79999122	0.00000000	36.36811000	11.46653000
150.99999121	0.00000000	36.32505000	11.09129000
151.19999119	0.00000000	35.99286000	11.04823000
151.39999118	0.00000000	35.62377000	11.04823000
151.59999117	0.00000000	35.99286000	11.04823000
151.79999116	0.00000000	36.32505000	11.04823000
151.99999115	0.00000000	36.36811000	11.04823000
152.19999113	0.00000000	36.36811000	11.04823000
152.39999112	0.00000000	36.41117000	11.04823000
152.59999111	0.00000000	36.74335000	11.04823000
152.79999110	0.00000000	37.11245000	11.04823000
152.99999109	0.00000000	36.74335000	11.04823000
153.19999108	0.00000000	36.41117000	11.04823000
153.39999106	0.00000000	36.32505000	11.04823000
153.59999105	0.00000000	35.94980000	11.04823000
153.79999104	0.00000000	35.20546000	11.09129000
153.99999103	0.00000000	34.83022000	11.42347000
154.19999102	0.00000000	34.78716000	11.79257000
154.39999100	0.00000000	34.78716000	11.42347000
154.59999099	0.00000000	34.83022000	11.09129000
154.79999098	0.00000000	35.20546000	11.04823000
154.99999097	0.00000000	35.94980000	11.04823000
155.19999096	0.00000000	36.36811000	11.04823000
155.39999094	0.00000000	36.74335000	11.04823000
155.59999093	0.00000000	37.11245000	11.04823000
155.79999092	0.00000000	36.74335000	11.04823000
155.99999091	0.00000000	36.41117000	11.04823000
156.19999090	0.00000000	36.32505000	11.09129000
156.39999089	0.00000000	35.94980000	11.46653000
156.59999087	0.00000000	35.20546000	12.21087000
156.79999086	0.00000000	34.83022000	12.58612000
156.99999085	0.00000000	34.78716000	12.58612000
157.19999084	0.00000000	34.83022000	12.25394000
157.39999083	0.00000000	35.20546000	11.84178000
157.59999081	0.00000000	35.94980000	11.83563000
157.79999080	0.00000000	36.32505000	11.38041000
157.99999079	0.00000000	36.36811000	10.67298000
158.19999078	0.00000000	36.41117000	9.93479300
158.39999077	0.00000000	36.74335000	9.93479300
158.59999075	0.00000000	37.11245000	10.62992000
158.79999074	0.00000000	36.74335000	11.00517000
158.99999073	0.00000000	36.41117000	11.04823000
159.19999072	0.00000000	36.36811000	11.04823000
159.39999071	0.00000000	36.36811000	11.09129000
159.59999070	0.00000000	36.32505000	11.46653000
159.79999068	0.00000000	35.94980000	12.21087000
159.99999067	0.00000000	35.20546000	12.53691000
160.19999066	0.00000000	34.83022000	12.21087000
160.39999065	0.00000000	34.83022000	11.46653000
160.59999064	0.00000000	35.20546000	11.09129000
160.79999062	0.00000000	35.94980000	11.00517000
160.99999061	0.00000000	36.32505000	10.62992000
161.19999060	0.00000000	36.32505000	9.93479300
161.39999059	0.00000000	35.99286000	9.93479300
161.59999058	0.00000000	35.62377000	10.62992000
161.79999056	0.00000000	35.99286000	11.00517000
161.99999055	0.00000000	36.32505000	11.04823000
162.19999054	0.00000000	36.36811000	11.04823000
162.39999053	0.00000000	36.36811000	11.04823000
162.59999052	0.00000000	36.36811000	11.04823000
162.79999051	0.00000000	36.32505000	11.04823000
162.99999049	0.00000000	35.94980000	11.04823000
163.19999048	0.00000000	35.20546000	11.04823000
163.39999047	0.00000000	34.83022000	11.04823000
163.59999046	0.00000000	34.83022000	11.04823000
163.79999045	0.00000000	35.20546000	11.04823000
163.99999043	0.00000000	35.90059000	11.04823000
164.19999042	0.00000000	35.94980000	11.04823000
164.39999041	0.00000000	35.62377000	11.04823000
164.59999040	0.00000000	35.99286000	11.04823000
164.79999039	0.00000000	36.32505000	11.04823000
164.99999037	0.00000000	36.36811000	11.04823000
165.19999036	0.00000000	36.36811000	11.04823000
165.39999035	0.00000000	36.36811000	11.04823000
165.59999034	0.00000000	36.32505000	11.04823000
165.79999033	0.00000000	35.94980000	11.04823000
165.99999032	0.00000000	35.20546000	11.04823000
166.19999030	0.00000000	34.83022000	11.04823000
166.39999029	0.00000000	34.78716000	11.04823000
166.59999028	0.00000000	34.83022000	11.04823000
166.79999027	0.00000000	35.20546000	11.04823000
166.99999026	0.00000000	35.94980000	11.04823000
167.19999024	0.00000000	36.32505000	11.04823000
167.39999023	0.00000000	36.36811000	11.04823000
167.59999022	0.00000000	36.36811000	11.04823000
167.79999021	0.00000000	36.36811000	11.04823000
167.99999020	0.00000000	36.36811000	11.04823000
168.19999018	0.00000000	36.36811000	11.04823000
168.39999017	0.00000000	36.36811000	11.04823000
168.59999016	0.00000000	36.36811000	11.04823000
168.79999015	0.00000000	36.36811000	11.04823000
168.99999014	0.00000000	36.36811000	11.04823000
169.19999013	0.00000000	36.32505000	11.04823000
169.39999011	0.00000000	35.94980000	11.04823000
169.59999010	0.00000000	35.25467000	11.04823000
169.79999009	0.00000000	35.20546000	11.04823000
169.99999008	0.00000000	35.57455000	11.04823000
170.19999007	0.00000000	35.58071000	11.04823000
170.39999005	0.00000000	35.99286000	11.04823000
170.59999004	0.00000000	36.32505000	11.04823000
170.79999003	0.00000000	36.36811000	11.04823000
170.99999002	0.00000000	36.36811000	11.04823000
171.19999001	0.00000000	36.36811000	11.00517000
171.39998999	0.00000000	36.36811000	10.72219000
171.59998998	0.00000000	36.36811000	10.68528000
171.79998997	0.00000000	36.36811000	11.41732000
171.99998996	0.00000000	36.36811000	11.38041000
172.19998995	0.00000000	36.32505000	11.04823000
172.39998994	0.00000000	35.99286000	10.67298000
172.59998992	0.00000000	35.62377000	10.31004000
172.79998991	0.00000000	35.99286000	10.67298000
172.99998990	0.00000000	36.27584000	11.00517000
173.19998989	0.00000000	35.94980000	11.04823000
173.39998988	0.00000000	35.25467000	11.04823000
173.59998986	0.00000000	35.25467000	11.04823000
173.79998985	0.00000000	35.94980000	11.04823000
173.99998984	0.00000000	36.32505000	11.04823000
174.19998983	0.00000000	36.36811000	11.04823000
174.39998982	0.00000000	36.36811000	11.04823000
174.59998980	0.00000000	36.32505000	11.04823000
174.79998979	0.00000000	35.99286000	11.04823000
174.99998978	0.00000000	35.62377000	11.04823000
175.19998977	0.00000000	35.94980000	11.04823000
175.39998976	0.00000000	35.90059000	11.04823000
175.59998975	0.00000000	35.25467000	11.04823000
175.79998973	0.00000000	35.25467000	11.04823000
175.99998972	0.00000000	35.94980000	11.04823000
176.19998971	0.00000000	36.32505000	11.04823000
176.39998970	0.00000000	36.32505000	11.04823000
176.59998969	0.00000000	35.99286000	11.04823000
176.79998967	0.00000000	35.62377000	11.04823000
176.99998966	0.00000000	35.99286000	11.04823000
177.19998965	0.00000000	36.27584000	11.00517000
177.39998964	-0.15871060	35.94980000	10.67298000
177.59998963	0.00000000	35.20546000	10.31004000
177.79998961	0.00000000	34.87943000	10.67298000
177.99998960	0.00000000	35.20546000	11.00517000
178.19998959	0.00000000	35.94980000	11.04823000
178.39998958	0.00000000	36.27584000	11.04823000
178.59998957	0.00000000	35.94980000	11.04823000
178.79998956	0.00000000	35.25467000	11.04823000
178.99998954	0.00000000	35.25467000	11.04823000
179.19998953	0.00000000	35.94980000	11.04823000
179.39998952	0.00000000	36.32505000	11.04823000
179.59998951	0.00000000	36.36811000	11.04823000
179.79998950	0.00000000	36.32505000	11.04823000
179.99998948	0.00000000	35.99286000	11.04823000
180.19998947	0.00000000	35.62377000	11.04823000
180.39998946	0.00000000	35.94980000	11.04823000
180.59998945	0.00000000	35.90059000	11.04823000
180.79998944	0.00000000	35.25467000	11.04823000
180.99998942	0.00000000	35.20546000	11.04823000
181.19998941	0.00000000	35.57455000	11.09129000
181.39998940	0.00000000	35.53765000	11.42347000
181.59998939	0.00000000	35.61762000	11.79257000
181.79998938	0.00000000	35.58071000	11.42347000
181.99998937	0.00000000	35.99286000	11.09129000
182.19998935	0.00000000	36.32505000	11.04823000
182.39998934	0.00000000	36.36811000	11.04823000
182.59998933	0.00000000	36.36811000	11.04823000
182.79998932	0.00000000	36.36811000	11.00517000
182.99998931	0.00000000	36.36811000	10.67298000
183.19998929	0.00000000	36.32505000	10.31004000
183.39998928	0.00000000	35.94980000	10.67298000
183.59998927	0.00000000	35.20546000	11.00517000
183.79998926	0.00000000	34.83022000	11.04823000
183.99998925	0.00000000	34.78716000	11.04823000
184.19998923	0.00000000	34.78716000	11.04823000
184.39998922	0.00000000	34.78716000	11.04823000
184.59998921	0.00000000	34.83022000	11.04823000
184.79998920	0.00000000	35.16240000	11.04823000
184.99998919	0.00000000	35.57455000	11.04823000
185.19998918	0.00000000	35.58071000	11.04823000
185.39998916	0.00000000	35.99286000	11.04823000
185.59998915	0.00000000	36.32505000	11.00517000
185.79998914	0.00000000	36.36811000	10.62992000
185.99998913	0.00000000	36.32505000	9.89173200
186.19998912	0.00000000	35.99286000	9.51648500
186.39998910	0.00000000	35.58071000	9.51648500
186.59998909	0.00000000	35.57455000	9.89173200
186.79998908	0.00000000	35.16240000	10.62992000
186.99998907	0.00000000	34.83022000	11.00517000
187.19998906	0.00000000	34.78716000	11.04823000
187.39998904	0.00000000	34.78716000	11.09129000
187.59998903	0.00000000	34.78716000	11.42347000
187.79998902	0.00000000	34.78716000	11.79257000
187.99998901	0.00000000	34.83022000	11.42347000
188.19998900	0.00000000	35.16240000	11.09129000
188.39998899	0.00000000	35.57455000	11.00517000
188.59998897	0.00000000	35.53765000	10.62992000
188.79998896	0.00000000	35.61762000	9.89173200
188.99998895	0.00000000	35.53765000	9.56569900
189.19998894	0.00000000	35.61762000	9.89173200
189.39998893	0.00000000	35.58071000	10.62992000
189.59998891	0.00000000	35.94980000	11.00517000
189.79998890	0.00000000	35.90059000	11.04823000
189.99998889	0.00000000	35.20546000	11.04823000
190.19998888	0.00000000	34.83022000	11.04823000
190.39998887	0.00000000	34.78716000	11.04823000
190.59998885	0.00000000	34.78716000	11.04823000
190.79998884	0.00000000	34.78716000	11.04823000
190.99998883	0.00000000	34.78716000	11.04823000
191.19998882	0.00000000	34.83022000	11.00517000
191.39998881	0.00000000	35.20546000	10.62992000
191.59998880	0.00000000	35.94980000	9.89173200
191.79998878	0.00000000	36.32505000	9.56569900
191.99998877	0.00000000	36.36811000	9.89173200
192.19998876	0.00000000	36.32505000	10.58686000
192.39998875	0.00000000	35.94980000	10.58686000
192.59998874	0.00000000	35.20546000	9.93479300
192.79998872	0.00000000	34.83022000	9.93479300
192.99998871	0.00000000	34.78716000	10.62992000
193.19998870	0.00000000	34.78716000	11.00517000
193.39998869	0.00000000	34.78716000	11.04823000
193.59998868	0.00000000	34.83022000	11.04823000
193.79998866	0.00000000	35.16240000	11.04823000
193.99998865	0.00000000	35.57455000	11.04823000
194.19998864	0.00000000	35.58071000	11.04823000
194.39998863	0.00000000	35.99286000	11.04823000
194.59998862	0.00000000	36.32505000	11.04823000
194.79998861	0.00000000	36.36811000	11.04823000
194.99998859	0.00000000	36.32505000	11.04823000
195.19998858	0.00000000	35.94980000	11.04823000
195.39998857	0.00000000	35.20546000	11.04823000
195.59998856	0.00000000	34.83022000	11.04823000
195.79998855	0.00000000	34.78716000	11.04823000
195.99998853	0.00000000	34.78716000	11.04823000
