Time	Channel A	Channel B	Channel C
(us)	(V)	(mV)	(mV)

-4.49999956	0.00000000	41.48622000	14.21014000
-4.29999957	0.00000000	41.15403000	14.21014000
-4.09999958	0.00000000	41.11097000	14.21014000
-3.89999959	0.00000000	41.11097000	14.21014000
-3.69999960	0.00000000	41.11097000	14.21014000
-3.49999962	0.00000000	41.15403000	14.21014000
-3.29999963	0.00000000	41.48622000	14.21014000
-3.09999964	0.00000000	41.85531000	14.21014000
-2.89999965	0.00000000	41.48622000	14.21014000
-2.69999966	0.00000000	41.15403000	14.21014000
-2.49999968	0.00000000	41.11097000	14.21014000
-2.29999969	0.00000000	41.11097000	14.21014000
-2.09999970	0.00000000	41.11097000	14.21014000
-1.89999971	0.00000000	41.11097000	14.21014000
-1.69999972	0.00000000	41.11097000	14.21014000
-1.49999973	0.00000000	41.11097000	14.21014000
-1.29999975	0.00000000	41.11097000	14.21014000
-1.09999976	0.00000000	41.11097000	14.21014000
-0.89999977	0.00000000	41.11097000	14.21014000
-0.69999978	0.00000000	41.11097000	14.21014000
-0.49999979	0.00000000	41.11097000	14.21014000
-0.29999981	0.15871060	41.15403000	14.21014000
-0.09999982	0.63668800	41.48622000	14.21014000
0.10000017	0.95533960	41.85531000	14.21014000
0.30000016	0.95533960	41.48622000	14.21014000
0.50000015	0.95533960	41.15403000	14.21014000
0.70000013	0.47736220	41.11097000	14.21014000
0.90000012	-0.31803640	41.11097000	14.21014000
1.10000011	-1.27399100	41.11097000	14.21014000
1.30000010	-2.22994600	41.11097000	14.21014000
1.50000009	-2.70792300	41.15403000	14.25320000
1.70000008	-2.54859700	41.52928000	14.62844000
1.90000006	-1.59264300	42.22441000	15.32357000
2.10000005	0.00000000	42.22441000	15.32357000
2.30000004	2.22994600	41.52928000	14.62844000
2.50000003	4.14124000	41.15403000	14.25320000
2.70000002	5.25652100	41.11097000	14.21014000
2.90000000	5.09719500	41.11097000	14.21014000
3.09999999	3.50393700	41.11097000	14.21014000
3.29999998	0.63668800	41.11097000	14.21014000
3.49999997	-2.70792300	41.11097000	14.21014000
3.69999996	-5.89382400	41.11097000	14.21014000
3.89999994	-7.64579200	41.15403000	14.25320000
4.09999993	-7.80511800	41.52928000	14.62844000
4.29999992	-5.73449800	42.27362000	15.36663000
4.49999991	-2.22994600	42.59965000	15.74188000
4.69999990	2.22994600	42.27362000	15.78494000
4.89999989	6.37180100	41.52928000	15.74188000
5.09999987	8.92039900	41.15403000	15.36663000
5.29999986	9.39837600	41.11097000	14.58538000
5.49999985	7.48646600	41.11097000	13.83489000
5.69999984	3.50393700	41.11097000	13.04749000
5.89999983	-1.27399100	41.11097000	12.72146000
6.09999981	-5.73449800	41.11097000	13.04749000
6.29999980	-8.60174700	41.11097000	13.79183000
6.49999979	-9.55770200	41.11097000	14.16708000
6.69999978	-7.80511800	41.11097000	14.21014000
6.89999977	-4.45989200	41.11097000	14.21014000
7.09999975	0.00000000	41.11097000	14.21014000
7.29999974	3.98191400	41.11097000	14.21014000
7.49999973	6.84916400	41.11097000	14.16708000
7.69999972	7.80511800	41.11097000	13.83489000
7.89999971	6.69045300	41.11097000	13.46580000
8.09999970	4.14124000	41.11097000	13.83489000
8.29999968	0.95533960	41.11097000	14.16708000
8.49999967	-2.22994600	41.11097000	14.21014000
8.69999966	-4.30056600	41.11097000	14.21014000
8.89999965	-5.25652100	41.11097000	14.21014000
9.09999964	-4.61921700	41.11097000	14.21014000
9.29999962	-3.18590100	41.11097000	14.21014000
9.49999961	-1.11466500	41.11097000	14.21014000
9.69999960	0.63668800	41.11097000	14.21014000
9.89999959	2.07062000	41.11097000	14.21014000
10.09999958	2.54859700	41.11097000	14.21014000
10.29999956	2.38927200	41.11097000	14.21014000
10.49999955	1.59264300	41.11097000	14.21014000
10.69999954	0.79601380	41.11097000	14.21014000
10.89999953	0.00000000	41.11097000	14.21014000
11.09999952	-0.63668800	41.11097000	14.21014000
11.29999951	-0.95533960	41.11097000	14.21014000
11.49999949	-0.95533960	41.11097000	14.21014000
11.69999948	-0.79601380	41.11097000	14.21014000
11.89999947	-0.47736220	41.11097000	14.21014000
12.09999946	-0.15871060	41.11097000	14.21014000
12.29999945	-0.15871060	41.11097000	14.21014000
12.49999943	-0.15871060	41.11097000	14.21014000
12.69999942	0.00000000	41.11097000	14.21014000
12.89999941	0.00000000	41.11097000	14.21014000
13.09999940	0.00000000	41.11097000	14.21014000
13.29999939	0.00000000	41.11097000	14.21014000
13.49999937	0.00000000	41.11097000	14.21014000
13.69999936	0.00000000	41.11097000	14.21014000
13.89999935	0.00000000	41.11097000	14.21014000
14.09999934	-0.15871060	41.11097000	14.21014000
14.29999933	-0.15871060	41.11097000	14.21014000
14.49999932	-0.15871060	41.15403000	14.21014000
14.69999930	0.00000000	41.48622000	14.21014000
14.89999929	0.00000000	41.85531000	14.21014000
15.09999928	0.00000000	41.48622000	14.21014000
15.29999927	0.00000000	41.15403000	14.21014000
15.49999926	0.00000000	41.11097000	14.25320000
15.69999924	0.00000000	41.11097000	14.58538000
15.89999923	0.00000000	41.06791000	14.94833000
16.09999922	0.00000000	40.73573000	14.53617000
16.29999921	0.00000000	40.36663000	13.87795000
16.49999920	0.00000000	40.73573000	13.46580000
16.69999919	0.00000000	41.11097000	13.83489000
16.89999917	-0.15871060	41.52928000	14.16708000
17.09999916	0.00000000	42.27362000	14.21014000
17.29999915	0.00000000	42.64886000	14.21014000
17.49999914	0.00000000	42.69193000	14.21014000
17.69999913	0.00000000	42.69193000	14.16708000
17.89999911	0.00000000	42.64886000	13.83489000
18.09999910	0.00000000	42.22441000	13.46580000
18.29999909	0.00000000	41.06791000	13.83489000
18.49999908	0.00000000	39.53002000	14.16708000
18.69999907	0.00000000	37.99213000	14.21014000
18.89999905	0.00000000	36.83563000	14.21014000
19.09999904	0.00000000	36.46038000	14.21014000
19.29999903	0.00000000	36.92175000	14.21014000
19.49999902	0.00000000	38.87795000	14.21014000
19.69999901	0.00000000	42.35974000	14.21014000
19.89999900	0.00000000	46.22908000	14.21014000
20.09999898	0.00000000	50.08612000	14.21014000
20.29999897	0.00000000	52.69439000	14.21014000
20.49999896	0.00000000	52.65133000	14.21014000
20.69999895	0.00000000	49.57554000	14.21014000
20.89999894	0.00000000	44.13755000	14.21014000
21.09999892	0.00000000	37.48154000	14.21014000
21.29999891	0.00000000	30.13041000	14.21014000
21.49999890	0.00000000	23.66511000	14.21014000
21.69999889	0.00000000	20.68159000	14.21014000
21.89999888	0.00000000	22.63779000	14.21014000
22.09999886	0.00000000	29.61368000	14.21014000
22.29999885	0.00000000	40.08366000	14.21014000
22.49999884	0.00000000	52.08538000	14.21014000
22.69999883	0.00000000	63.29971000	14.21014000
22.89999882	0.00000000	70.93381000	14.21014000
23.09999881	0.00000000	72.74852000	14.25320000
23.29999879	0.00000000	66.84301000	14.62844000
23.49999878	0.00000000	53.72170000	15.36663000
23.69999877	0.00000000	36.36811000	15.74188000
23.89999876	0.00000000	18.96531000	15.78494000
24.09999875	0.00000000	5.46875000	15.78494000
24.29999873	0.00000000	-1.03961600	15.69267000
24.49999872	0.00000000	1.79010800	14.94833000
24.69999871	0.00000000	14.16708000	13.42274000
24.89999870	0.00000000	33.88902000	12.25394000
25.09999869	0.00000000	56.27460000	11.00517000
25.29999867	0.00000000	76.32874000	9.55954600
25.49999866	0.00000000	89.03174000	8.82135800
25.69999865	-0.15871060	90.94487000	9.60875900
25.89999864	0.00000000	81.63754000	11.55881000
26.09999863	0.00000000	62.65378000	14.72072000
26.29999862	0.00000000	37.99213000	18.90379000
26.49999860	0.00000000	13.70571000	22.75467000
26.69999859	0.00000000	-4.06619100	25.03691000
26.89999858	0.00000000	-11.46038000	25.40600000
27.09999857	0.00000000	-7.22810000	23.03765000
27.29999856	0.00000000	7.46801100	18.35015000
27.49999854	0.00000000	29.52141000	11.74951000
27.69999853	-0.15871060	54.23228000	4.04158400
27.89999852	0.00000000	75.81815000	-2.46678100
28.09999851	0.00000000	88.98868000	-6.27460600
28.29999850	0.00000000	90.98794000	-5.81323800
28.49999848	0.00000000	82.14198000	-0.38139760
28.69999847	0.00000000	64.78838000	8.87057000
28.89999846	0.00000000	43.15329000	20.15256000
29.09999845	0.00000000	22.21949000	31.30536000
29.29999844	0.00000000	5.93626900	40.13287000
29.49999843	0.00000000	-2.57751000	43.57775000
29.69999841	0.00000000	-1.41486200	40.83415000
29.89999840	0.00000000	8.91978400	32.23425000
30.09999839	0.00000000	25.47367000	18.30093000
30.29999838	0.00000000	43.62696000	2.12844500
30.49999837	0.00000000	59.67027000	-12.50615000
30.69999835	0.00000000	71.26599000	-22.07185000
30.89999834	0.00000000	76.65477000	-23.65280000
31.09999833	0.00000000	73.59129000	-17.10753000
31.29999832	0.00000000	63.67495000	-4.27534400
31.49999831	0.00000000	50.08612000	13.13976000
31.69999829	0.00000000	35.38385000	31.58834000
31.89999828	0.00000000	22.59473000	46.27214000
32.09999827	0.00000000	14.44390000	54.02928000
32.29999826	0.00000000	12.08169000	53.65403000
32.49999825	0.00000000	15.93873000	45.10950000
32.69999824	0.00000000	24.77854000	30.05044000
32.89999822	0.00000000	36.41117000	11.51575000
33.09999821	0.00000000	48.36983000	-6.23154500
33.29999820	0.00000000	58.04626000	-19.42667000
33.49999819	0.00000000	63.07209000	-25.60285000
33.69999818	0.00000000	62.73991000	-23.65280000
33.89999816	0.00000000	57.34498000	-13.61959000
34.09999815	0.00000000	48.54823000	2.13459600
34.29999814	0.00000000	38.87795000	19.50664000
34.49999813	0.00000000	30.77633000	34.65182000
34.69999812	0.00000000	25.70743000	45.15256000
34.89999810	0.00000000	24.95694000	49.33562000
35.09999809	0.00000000	28.35876000	45.84769000
35.29999808	0.00000000	34.87328000	35.07013000
35.49999807	0.00000000	42.18134000	20.10950000
35.69999806	0.00000000	48.36983000	4.63828700
35.89999805	0.00000000	52.22687000	-7.67716500
36.09999803	0.00000000	52.60211000	-14.31471000
36.29999802	0.00000000	49.62475000	-13.94562000
36.49999801	0.00000000	44.60506000	-7.43725300
36.69999800	0.00000000	39.19783000	3.75246000
36.89999799	0.00000000	34.17815000	16.76919000
37.09999797	0.00000000	31.14542000	27.91584000
37.29999796	0.00000000	31.10236000	34.14124000
37.49999795	0.00000000	33.75369000	34.55955000
37.69999794	0.00000000	38.03519000	29.58907000
37.89999793	0.00000000	43.02411000	20.39247000
38.09999791	0.00000000	47.61934000	10.07013000
38.29999790	0.00000000	49.95078000	1.61786400
38.49999789	0.00000000	50.04306000	-2.60826800
38.69999788	0.00000000	48.46210000	-1.45177200
38.89999787	0.00000000	45.34325000	4.63828700
39.09999786	0.00000000	41.11097000	13.79183000
39.29999784	0.00000000	36.87869000	22.61934000
39.49999783	0.00000000	33.75369000	28.75861000
39.69999782	0.00000000	32.17273000	30.61023000
39.89999781	0.00000000	32.21579000	26.80241000
40.09999780	0.00000000	34.12894000	18.76845000
40.29999778	0.00000000	37.57381000	9.19045200
40.49999777	0.00000000	41.06791000	0.36909450
40.69999776	0.00000000	44.22982000	-4.60752900
40.89999775	0.00000000	46.92421000	-4.60752900
41.09999774	0.00000000	48.50517000	0.41215550
41.29999772	0.00000000	48.88041000	9.60875900
41.49999771	0.00000000	48.08686000	19.93110000
41.69999770	0.00000000	45.71850000	28.42643000
41.89999769	0.00000000	42.31668000	33.07701000
42.09999768	0.00000000	38.78568000	33.07701000
42.29999767	0.00000000	36.07898000	28.47564000
42.49999765	0.00000000	34.08588000	20.39247000
42.69999764	0.00000000	33.33538000	11.14050000
42.89999763	0.00000000	33.71063000	2.68208600
43.09999762	0.00000000	35.29773000	-2.65748000
43.29999761	0.00000000	37.94907000	-3.11884800
43.49999759	0.00000000	40.64345000	0.63976370
43.69999758	0.00000000	42.59965000	6.82209600
43.89999757	0.00000000	43.80536000	14.11786000
44.09999756	0.00000000	44.22982000	20.66929000
44.29999755	0.00000000	44.27288000	24.57554000
44.49999753	0.00000000	44.27288000	25.78125000
44.69999752	0.00000000	44.27288000	24.24335000
44.89999751	0.00000000	44.22982000	20.43553000
45.09999750	0.00000000	43.85457000	15.83415000
45.29999749	0.00000000	43.06717000	11.55881000
45.49999748	0.00000000	42.22441000	8.44611200
45.69999746	0.00000000	40.60039000	6.86515700
45.89999745	0.00000000	37.90600000	6.86515700
46.09999744	0.00000000	34.83022000	8.40305000
46.29999743	0.00000000	32.17273000	11.09744000
46.49999742	0.00000000	31.05930000	14.16092000
46.69999740	0.00000000	32.22195000	16.90453000
46.89999739	0.00000000	35.34079000	18.81152000
47.09999738	0.00000000	40.04060000	19.59892000
47.29999737	0.00000000	45.85384000	18.81152000
47.49999736	0.00000000	51.62401000	16.94759000
47.69999734	0.00000000	55.76402000	14.58538000
47.89999733	0.00000000	56.55142000	12.25394000
48.09999732	0.00000000	53.44488000	9.93479300
48.29999731	0.00000000	47.61934000	8.40305000
48.49999730	0.00000000	39.48080000	8.02780400
48.69999729	0.00000000	31.05930000	8.82135800
48.89999727	0.00000000	24.87082000	11.14050000
49.09999726	0.00000000	22.17027000	14.21014000
49.29999725	0.00000000	23.75123000	17.32283000
49.49999724	0.00000000	29.52141000	20.01722000
49.69999723	0.00000000	38.03519000	21.50590000
49.89999721	0.00000000	47.29946000	21.13066000
50.09999720	0.00000000	55.34571000	18.81152000
50.29999719	0.00000000	59.57800000	15.32357000
50.49999718	0.00000000	58.83981000	11.09129000
50.69999717	0.00000000	53.80782000	7.28346400
50.89999715	0.00000000	45.34325000	5.33341500
51.09999714	0.00000000	35.75910000	5.33341500
51.29999713	0.00000000	28.03272000	7.28346400
51.49999712	0.00000000	23.75123000	11.14050000
51.69999711	0.00000000	23.79429000	15.69882000
51.89999710	0.00000000	28.35876000	19.59892000
52.09999708	0.00000000	36.03592000	21.92421000
52.29999707	0.00000000	44.09449000	22.66240000
52.49999706	0.00000000	50.69513000	21.08760000
52.69999705	0.00000000	54.14001000	17.32283000
52.89999704	0.00000000	53.76476000	13.09670000
53.09999702	0.00000000	49.53248000	9.60875900
53.29999701	0.00000000	42.64886000	7.28346400
53.49999700	0.00000000	35.38385000	6.90821800
53.69999699	0.00000000	29.98893000	8.40305000
53.89999698	0.00000000	28.07579000	11.09744000
54.09999696	0.00000000	29.93971000	14.16092000
54.29999695	0.00000000	34.92249000	16.81225000
54.49999694	0.00000000	41.01870000	17.97490000
54.69999693	0.00000000	46.46284000	17.23056000
54.89999692	0.00000000	49.95078000	15.36663000
55.09999691	0.00000000	51.07037000	13.04749000
55.29999689	0.00000000	49.15723000	11.18356000
55.49999688	0.00000000	44.55585000	10.40231000
55.69999687	0.00000000	39.19783000	11.18356000
55.89999686	0.00000000	34.17815000	13.09055000
56.09999685	0.00000000	31.10236000	15.78494000
56.29999683	0.00000000	30.68405000	18.43627000
56.49999682	0.00000000	32.59719000	19.93110000
56.69999681	0.00000000	36.45423000	19.50664000
56.89999680	0.00000000	41.06791000	16.81225000
57.09999679	0.00000000	45.30019000	12.62918000
57.29999677	0.00000000	47.99458000	8.35998900
57.49999676	0.00000000	48.41904000	4.95816900
57.69999675	0.00000000	46.88115000	3.47564000
57.89999674	0.00000000	43.80536000	5.42568800
58.09999673	0.00000000	39.99754000	9.98400600
58.29999672	0.00000000	36.92175000	15.74188000
58.49999670	0.00000000	35.34079000	21.17372000
58.69999669	0.00000000	35.29773000	25.03691000
58.89999668	0.00000000	36.46038000	26.93774000
59.09999667	0.00000000	38.36737000	25.68897000
59.29999666	0.00000000	40.64345000	21.08760000
59.49999664	0.00000000	42.18134000	14.16092000
59.69999663	0.00000000	42.64886000	6.86515700
59.89999662	0.00000000	42.64886000	1.10728300
60.09999661	0.00000000	42.22441000	-1.53789400
60.29999660	0.00000000	41.11097000	-0.00615157
60.49999658	0.00000000	39.99754000	5.33341500
60.69999657	0.00000000	39.62229000	12.67840000
60.89999656	0.00000000	39.94832000	20.39247000
61.09999655	0.00000000	40.73573000	26.89468000
61.29999654	0.00000000	41.48622000	29.95817000
61.49999653	0.00000000	42.27362000	28.84473000
61.69999651	0.00000000	42.59965000	24.24335000
61.89999650	0.00000000	42.22441000	17.27977000
62.09999649	0.00000000	41.06791000	9.55954600
62.29999648	0.00000000	39.53002000	2.59596400
62.49999647	0.00000000	37.99213000	-1.96235200
62.69999645	0.00000000	36.83563000	-2.74360200
62.89999644	0.00000000	36.46038000	0.68897630
63.09999643	0.00000000	36.87869000	6.82209600
63.29999642	0.00000000	38.41658000	14.21014000
63.49999641	0.00000000	40.73573000	21.50590000
63.69999639	0.00000000	43.02411000	26.89468000
63.89999638	0.00000000	44.92495000	28.84473000
64.09999637	0.00000000	45.30019000	27.35605000
64.29999636	0.00000000	44.22982000	23.08686000
64.49999635	0.00000000	42.64886000	16.90453000
64.69999634	0.00000000	40.69267000	10.02707000
64.89999632	0.00000000	38.41658000	4.59522600
65.09999631	0.00000000	36.87869000	1.84547200
65.29999630	0.00000000	36.46038000	1.39025600
65.49999629	0.00000000	36.83563000	3.33415300
65.69999628	0.00000000	38.04134000	6.77903500
65.89999626	0.00000000	39.90526000	11.09129000
66.09999625	0.00000000	41.85531000	15.69882000
66.29999624	0.00000000	42.97490000	19.59892000
66.49999623	0.00000000	43.38705000	21.92421000
66.69999622	0.00000000	42.55659000	22.75467000
66.89999620	0.00000000	40.69267000	22.01649000
67.09999619	0.00000000	38.41658000	20.47859000
67.29999618	0.00000000	36.92175000	18.47933000
67.49999617	0.00000000	36.87869000	15.74188000
67.69999616	0.00000000	38.04134000	12.62918000
67.89999615	0.00000000	39.99754000	9.47342500
68.09999613	0.00000000	42.69193000	6.40378900
68.29999612	0.00000000	45.30019000	4.12770700
68.49999611	0.00000000	46.46284000	3.75246000
68.69999610	0.00000000	45.67544000	5.29035400
68.89999609	0.00000000	43.34399000	8.40305000
69.09999607	0.00000000	39.48696000	12.67224000
69.29999606	0.00000000	35.29773000	17.32283000
69.49999605	0.00000000	32.17273000	21.54897000
69.69999604	0.00000000	30.63484000	24.24335000
69.89999603	0.00000000	31.10236000	24.66781000
70.09999601	0.00000000	34.17815000	23.12992000
70.29999600	0.00000000	39.19783000	19.97416000
70.49999599	0.00000000	44.60506000	15.32357000
70.69999598	0.00000000	49.62475000	9.93479300
70.89999597	0.00000000	52.65133000	5.33341500
71.09999596	0.00000000	52.69439000	2.63902500
71.29999594	0.00000000	49.95078000	2.59596400
71.49999593	0.00000000	44.92495000	4.91510800
71.69999592	0.00000000	38.36737000	8.77829600
71.89999591	0.00000000	32.22195000	13.79183000
72.09999590	0.00000000	27.94045000	18.35015000
72.29999588	0.00000000	26.40256000	21.08760000
72.49999587	0.00000000	27.94045000	21.54897000
72.69999586	0.00000000	32.17273000	20.43553000
72.89999585	0.00000000	37.99213000	18.47933000
73.09999584	0.00000000	44.18061000	15.78494000
73.29999582	0.00000000	49.57554000	13.13976000
73.49999581	0.00000000	52.65133000	11.55881000
73.69999580	0.00000000	52.65133000	11.14050000
73.89999579	0.00000000	49.62475000	11.51575000
74.09999578	0.00000000	44.64813000	12.67224000
74.29999577	0.00000000	39.57308000	14.11786000
74.49999575	0.00000000	34.87328000	14.85605000
74.69999574	0.00000000	31.05930000	14.07480000
74.89999573	0.00000000	29.56447000	12.25394000
75.09999572	0.00000000	31.01624000	10.31004000
75.29999571	0.00000000	34.45497000	9.19045200
75.49999569	0.00000000	38.28125000	8.82135800
75.69999568	0.00000000	41.80610000	10.02707000
75.89999567	0.00000000	44.13755000	12.72146000
76.09999566	0.00000000	45.34325000	16.16018000
76.29999565	0.00000000	45.34325000	19.64198000
76.49999563	0.00000000	44.18061000	21.88115000
76.69999562	0.00000000	42.31668000	22.24409000
76.89999561	0.00000000	40.41584000	19.92495000
77.09999560	0.00000000	39.62229000	15.69882000
77.29999559	0.00000000	39.53002000	10.67298000
77.49999558	0.00000000	39.53002000	5.66560000
77.69999556	0.00000000	39.53002000	2.22071800
77.89999555	0.00000000	39.48696000	1.05807100
78.09999554	0.00000000	39.11171000	2.63902500
78.29999553	0.00000000	38.36737000	6.90821800
78.49999552	0.00000000	37.99213000	13.04749000
78.69999550	0.00000000	37.94907000	19.59892000
78.89999549	0.00000000	37.99213000	24.57554000
79.09999548	0.00000000	38.45964000	26.93774000
79.29999547	0.00000000	39.99754000	26.19955000
79.49999546	0.00000000	42.27362000	23.12992000
79.69999544	0.00000000	44.13755000	18.43627000
79.89999543	0.00000000	44.96801000	12.67224000
80.09999542	0.00000000	44.55585000	7.28346400
80.29999541	0.00000000	43.38705000	3.79552100
80.49999540	0.00000000	41.06791000	2.59596400
80.69999539	0.00000000	38.36737000	3.70939900
80.89999537	0.00000000	36.03592000	6.40378900
81.09999536	0.00000000	34.12894000	9.93479300
81.29999535	0.00000000	33.80290000	14.21014000
81.49999534	0.00000000	35.29773000	18.43627000
81.69999533	0.00000000	37.99213000	21.54897000
81.89999531	0.00000000	41.06791000	23.12992000
82.09999530	0.00000000	43.76230000	23.12992000
82.29999529	0.00000000	45.30019000	21.59203000
82.49999528	0.00000000	45.34325000	18.89764000
82.69999527	0.00000000	44.18061000	15.78494000
82.89999525	0.00000000	42.27362000	12.62918000
83.09999524	0.00000000	39.94832000	9.51648500
83.29999523	0.00000000	38.04134000	6.82209600
83.49999522	0.00000000	36.83563000	5.24729300
83.69999521	0.00000000	36.46038000	4.87204700
83.89999520	0.00000000	36.83563000	5.70866100
84.09999518	0.00000000	37.99213000	8.40305000
84.29999517	0.00000000	39.48696000	12.25394000
84.49999516	0.00000000	40.64345000	16.16018000
84.69999515	0.00000000	41.06791000	19.97416000
84.89999514	0.00000000	41.06791000	22.29331000
85.09999512	0.00000000	40.69267000	22.34252000
85.29999511	0.00000000	39.94832000	21.17372000
85.49999510	0.00000000	39.62229000	18.39321000
85.69999509	0.00000000	39.94832000	14.21014000
85.89999508	0.00000000	40.69267000	9.93479300
86.09999506	0.00000000	41.06791000	6.40378900
86.29999505	0.00000000	41.06791000	3.75246000
86.49999504	0.00000000	40.69267000	3.01427100
86.69999503	0.00000000	39.90526000	4.95816900
86.89999502	0.00000000	39.11171000	8.77829600
87.09999501	0.00000000	37.94907000	13.79183000
87.29999499	0.00000000	36.87869000	18.39321000
87.49999498	0.00000000	36.83563000	21.50590000
87.69999497	0.00000000	37.57381000	22.66240000
87.89999496	0.00000000	38.36737000	21.50590000
88.09999495	0.00000000	39.57308000	18.43627000
88.29999493	0.00000000	41.06791000	14.16708000
88.49999492	0.00000000	42.27362000	9.60875900
88.69999491	0.00000000	42.97490000	6.12696800
88.89999490	0.00000000	42.96875000	4.95816900
89.09999489	0.00000000	41.44316000	5.70866100
89.29999487	0.00000000	39.57308000	8.44611200
89.49999486	0.00000000	37.99213000	12.62918000
89.69999485	0.00000000	36.83563000	16.90453000
89.89999484	0.00000000	36.46038000	20.34941000
90.09999483	0.00000000	36.83563000	22.24409000
90.29999482	0.00000000	37.94907000	21.46284000
90.49999480	0.00000000	39.11171000	18.43627000
90.69999479	0.00000000	39.90526000	14.21014000
90.89999478	0.00000000	40.69267000	9.98400600
91.09999477	0.00000000	41.06791000	6.91437000
91.29999476	0.00000000	41.11097000	5.75172200
91.49999474	0.00000000	41.11097000	6.91437000
91.69999473	0.00000000	41.06791000	9.98400600
91.89999472	0.00000000	40.69267000	14.21014000
92.09999471	0.00000000	39.94832000	18.43627000
92.29999470	0.00000000	39.57308000	21.46284000
92.49999468	0.00000000	39.53002000	22.24409000
92.69999467	0.00000000	39.48696000	20.30020000
92.89999466	0.00000000	39.11171000	16.52928000
93.09999465	0.00000000	38.36737000	11.88484000
93.29999464	0.00000000	37.99213000	8.07086500
93.49999463	0.00000000	37.94907000	5.70866100
93.69999461	0.00000000	37.94907000	5.37647600
93.89999460	0.00000000	38.04134000	7.28346400
94.09999459	0.00000000	38.78568000	11.14050000
94.29999458	0.00000000	40.36048000	15.69882000
94.49999457	0.00000000	41.90453000	19.54970000
94.69999455	0.00000000	43.80536000	21.46284000
94.89999454	0.00000000	44.92495000	21.08760000
95.09999453	0.00000000	44.55585000	18.39321000
95.29999452	0.00000000	43.38705000	14.21014000
95.49999451	0.00000000	41.01870000	9.98400600
95.69999449	0.00000000	37.99213000	6.91437000
95.89999448	0.00000000	35.24852000	5.75172200
96.09999447	0.00000000	33.33538000	6.86515700
96.29999446	0.00000000	32.54798000	9.51648500
96.49999445	0.00000000	33.37844000	12.62918000
96.69999444	0.00000000	35.71604000	15.74188000
96.89999442	0.00000000	39.53002000	18.39321000
97.09999441	0.00000000	43.38705000	19.55585000
97.29999440	0.00000000	46.13681000	18.76845000
97.49999439	0.00000000	48.08686000	16.52928000
97.69999438	0.00000000	48.41904000	13.46580000
97.89999436	0.00000000	46.88115000	11.18356000
98.09999435	0.00000000	43.76230000	9.93479300
98.29999434	0.00000000	39.53002000	9.60875900
98.49999433	0.00000000	35.29773000	10.31004000
98.69999432	0.00000000	32.17273000	11.83563000
98.89999430	0.00000000	30.63484000	13.00443000
99.09999429	0.00000000	31.01009000	14.16092000
99.29999428	0.00000000	33.33538000	14.90526000
99.49999427	0.00000000	36.78642000	14.58538000
99.69999426	0.00000000	40.69267000	14.25320000
99.89999425	0.00000000	44.13755000	14.21014000
100.09999423	0.00000000	46.50590000	14.21014000
100.29999422	0.00000000	47.25640000	14.25320000
100.49999421	0.00000000	46.54896000	14.62844000
100.69999420	0.00000000	44.55585000	15.36663000
100.89999419	0.00000000	41.89838000	15.69267000
101.09999417	0.00000000	38.78568000	15.32357000
101.29999416	0.00000000	36.46038000	14.11786000
101.49999415	0.00000000	34.83022000	12.25394000
101.69999414	0.00000000	33.71063000	10.31004000
101.89999413	0.00000000	33.71063000	9.19045200
102.09999411	0.00000000	34.87328000	8.82135800
102.29999410	0.00000000	36.83563000	10.02707000
102.49999409	0.00000000	39.53002000	12.67224000
102.69999408	0.00000000	42.18134000	15.74188000
102.89999407	0.00000000	43.76230000	18.43627000
103.09999406	0.00000000	44.18061000	19.97416000
103.29999404	0.00000000	43.80536000	19.97416000
103.49999403	0.00000000	42.64886000	18.43627000
103.69999402	0.00000000	41.11097000	15.74188000
103.89999401	0.00000000	39.53002000	12.62918000
104.09999400	0.00000000	37.94907000	9.55954600
104.29999398	0.00000000	36.46038000	7.28346400
104.49999397	0.00000000	35.67298000	6.86515700
104.69999396	0.00000000	36.03592000	8.02780400
104.89999395	0.00000000	36.78642000	10.35310000
105.09999394	0.00000000	37.99213000	13.79183000
105.29999392	0.00000000	39.53002000	16.81225000
105.49999391	0.00000000	41.01870000	18.43627000
105.69999390	0.00000000	41.80610000	18.85458000
105.89999389	0.00000000	41.48622000	18.43627000
106.09999388	0.00000000	41.11097000	16.85531000
106.29999387	0.00000000	40.64345000	14.21014000
106.49999385	0.00000000	39.53002000	11.55881000
106.69999384	0.00000000	38.41658000	9.98400600
106.89999383	0.00000000	38.04134000	9.56569900
107.09999382	0.00000000	38.36737000	9.98400600
107.29999381	0.00000000	39.15477000	11.51575000
107.49999379	0.00000000	39.90526000	13.74262000
107.69999378	0.00000000	40.69267000	15.27436000
107.89999377	0.00000000	41.01870000	15.69267000
108.09999376	0.00000000	40.69267000	15.32357000
108.29999375	0.00000000	39.90526000	14.21014000
108.49999374	0.00000000	39.11171000	13.04749000
108.69999372	0.00000000	37.94907000	12.21087000
108.89999371	0.00000000	36.83563000	11.09744000
109.09999370	0.00000000	36.46038000	10.40231000
109.29999369	0.00000000	36.83563000	11.14050000
109.49999368	0.00000000	37.99213000	12.62918000
109.69999366	0.00000000	39.53002000	14.16092000
109.89999365	0.00000000	41.06791000	15.32357000
110.09999364	0.00000000	42.22441000	15.74188000
110.29999363	0.00000000	42.59965000	15.74188000
110.49999362	0.00000000	42.22441000	15.32357000
110.69999360	0.00000000	41.06791000	14.16092000
110.89999359	0.00000000	39.53002000	12.62918000
111.09999358	0.00000000	37.99213000	11.09744000
111.29999357	0.00000000	36.87869000	9.98400600
111.49999356	0.00000000	36.83563000	9.93479300
111.69999355	0.00000000	37.57381000	10.67298000
111.89999353	0.00000000	38.32431000	11.46653000
112.09999352	0.00000000	39.15477000	12.62918000
112.29999351	0.00000000	39.94832000	13.79183000
112.49999350	0.00000000	41.06791000	14.53617000
112.69999349	0.00000000	41.80610000	14.94833000
112.89999347	0.00000000	41.44316000	14.58538000
113.09999346	0.00000000	40.73573000	14.25320000
113.29999345	0.00000000	39.90526000	14.16708000
113.49999344	0.00000000	39.15477000	13.79183000
113.69999343	0.00000000	38.36737000	13.09670000
113.89999341	0.00000000	37.99213000	13.04749000
114.09999340	0.00000000	37.94907000	13.37352000
114.29999339	0.00000000	37.94907000	13.00443000
114.49999338	0.00000000	37.99213000	12.67224000
114.69999337	0.00000000	38.36737000	12.62918000
114.89999336	0.00000000	39.15477000	12.58612000
115.09999334	0.00000000	39.90526000	12.25394000
115.29999333	0.00000000	40.69267000	11.88484000
115.49999332	0.00000000	41.01870000	12.25394000
115.69999331	0.00000000	40.69267000	12.62918000
115.89999330	0.00000000	39.94832000	13.04749000
116.09999328	0.00000000	39.53002000	13.83489000
116.29999327	0.00000000	39.11171000	14.58538000
116.49999326	0.00000000	38.36737000	15.36663000
116.69999325	0.00000000	37.99213000	15.69267000
116.89999324	0.00000000	37.99213000	15.36663000
117.09999322	0.00000000	38.36737000	14.58538000
117.29999321	0.00000000	39.15477000	13.79183000
117.49999320	0.00000000	39.90526000	12.62918000
117.69999319	0.00000000	40.69267000	11.51575000
117.89999318	0.00000000	41.06791000	11.09129000
118.09999317	0.00000000	41.11097000	11.04823000
118.29999315	0.00000000	41.06791000	11.09129000
118.49999314	0.00000000	40.69267000	11.51575000
118.69999313	0.00000000	39.90526000	12.62918000
118.89999312	0.00000000	39.11171000	13.74262000
119.09999311	0.00000000	37.94907000	14.16708000
119.29999309	0.00000000	36.83563000	14.21014000
119.49999308	0.00000000	36.46038000	14.21014000
119.69999307	0.00000000	36.83563000	14.21014000
119.89999306	0.00000000	37.99213000	14.21014000
120.09999305	0.00000000	39.53002000	14.21014000
120.29999303	0.00000000	41.06791000	14.16708000
120.49999302	0.00000000	42.22441000	13.79183000
120.69999301	0.00000000	42.59965000	13.04749000
120.89999300	0.00000000	42.27362000	12.67224000
121.09999299	0.00000000	41.48622000	12.62918000
121.29999298	0.00000000	40.69267000	12.58612000
121.49999296	0.00000000	39.48696000	12.21087000
121.69999295	0.00000000	37.99213000	11.51575000
121.89999294	0.00000000	36.83563000	11.51575000
122.09999293	0.00000000	36.41117000	12.25394000
122.29999292	0.00000000	36.41117000	13.00443000
122.49999290	0.00000000	36.83563000	13.79183000
122.69999289	0.00000000	37.94907000	14.21014000
122.89999288	0.00000000	39.11171000	14.58538000
123.09999287	0.00000000	39.90526000	14.94833000
123.29999286	0.00000000	40.69267000	14.58538000
123.49999284	0.00000000	41.06791000	14.21014000
123.69999283	0.00000000	41.11097000	13.79183000
123.89999282	0.00000000	41.06791000	13.04749000
124.09999281	0.00000000	40.69267000	12.62918000
124.29999280	0.00000000	39.90526000	12.21087000
124.49999279	0.00000000	39.15477000	11.51575000
124.69999277	0.00000000	38.32431000	11.51575000
124.89999276	0.00000000	37.57381000	12.21087000
125.09999275	0.00000000	36.83563000	12.62918000
125.29999274	0.00000000	36.83563000	13.04749000
125.49999273	0.00000000	37.53075000	13.79183000
125.69999271	0.00000000	37.94907000	14.16708000
125.89999270	0.00000000	38.36737000	14.21014000
126.09999269	0.00000000	39.15477000	14.21014000
126.29999268	0.00000000	39.90526000	14.21014000
126.49999267	0.00000000	40.69267000	14.16708000
126.69999265	0.00000000	41.06791000	13.79183000
126.89999264	0.00000000	41.06791000	13.04749000
127.09999263	0.00000000	40.64345000	12.67224000
127.29999262	0.00000000	39.53002000	12.62918000
127.49999261	0.00000000	38.41658000	12.67224000
127.69999260	0.00000000	37.94907000	13.00443000
127.89999258	0.00000000	37.57381000	13.37352000
128.09999257	0.00000000	37.20472000	13.00443000
128.29999256	0.00000000	37.61687000	12.67224000
128.49999255	0.00000000	38.32431000	12.67224000
128.69999254	0.00000000	39.15477000	13.00443000
128.89999252	0.00000000	39.90526000	13.41658000
129.09999251	0.00000000	40.69267000	13.37967000
129.29999250	0.00000000	41.01870000	13.41658000
129.49999249	0.00000000	40.64345000	13.00443000
129.69999248	0.00000000	39.53002000	12.67224000
129.89999246	0.00000000	38.36737000	12.62918000
130.09999245	0.00000000	37.57381000	12.67224000
130.29999244	0.00000000	36.78642000	13.00443000
130.49999243	0.00000000	36.46038000	13.41658000
130.69999242	0.00000000	36.83563000	13.42274000
130.89999241	0.00000000	37.94907000	13.83489000
131.09999239	0.00000000	39.11171000	14.16708000
131.29999238	0.00000000	39.90526000	14.16708000
131.49999237	0.00000000	40.69267000	13.79183000
131.69999236	0.00000000	41.01870000	13.04749000
131.89999235	0.00000000	40.69267000	12.62918000
132.09999233	0.00000000	39.90526000	12.21087000
132.29999232	0.00000000	39.15477000	11.46653000
132.49999231	0.00000000	38.36737000	11.14050000
132.69999230	0.00000000	37.99213000	11.46653000
132.89999229	0.00000000	37.99213000	12.25394000
133.09999227	0.00000000	38.36737000	13.00443000
133.29999226	0.00000000	39.11171000	13.79183000
133.49999225	0.00000000	39.48696000	14.16708000
133.69999224	0.00000000	39.53002000	14.21014000
133.89999223	0.00000000	39.53002000	14.21014000
134.09999222	0.00000000	39.53002000	14.16708000
134.29999220	0.00000000	39.53002000	13.79183000
134.49999219	0.00000000	39.53002000	13.00443000
134.69999218	0.00000000	39.53002000	12.25394000
134.89999217	0.00000000	39.53002000	11.46653000
135.09999216	0.00000000	39.53002000	11.09129000
135.29999214	0.00000000	39.53002000	11.09129000
135.49999213	0.00000000	39.53002000	11.46653000
135.69999212	0.00000000	39.53002000	12.25394000
135.89999211	0.00000000	39.48696000	13.00443000
136.09999210	0.00000000	39.11171000	13.79183000
136.29999208	0.00000000	38.36737000	14.16708000
136.49999207	0.00000000	37.99213000	14.21014000
136.69999206	0.00000000	37.94907000	14.21014000
136.89999205	0.00000000	37.94907000	14.16708000
137.09999204	0.00000000	37.99213000	13.79183000
137.29999203	0.00000000	38.36737000	13.04749000
137.49999201	0.00000000	39.11171000	12.62918000
137.69999200	0.00000000	39.53002000	12.21087000
137.89999199	0.00000000	39.90526000	11.46653000
138.09999198	0.00000000	40.27436000	11.09129000
138.29999197	0.00000000	39.90526000	11.09129000
138.49999195	0.00000000	39.53002000	11.46653000
138.69999194	0.00000000	39.11171000	12.21087000
138.89999193	0.00000000	38.36737000	12.62918000
139.09999192	0.00000000	37.94907000	13.04749000
139.29999191	0.00000000	37.57381000	13.79183000
139.49999189	0.00000000	37.20472000	14.16708000
139.69999188	0.00000000	37.61687000	14.21014000
139.89999187	0.00000000	38.32431000	14.21014000
140.09999186	0.00000000	39.15477000	14.21014000
140.29999185	0.00000000	39.86220000	14.16708000
140.49999184	0.00000000	40.27436000	13.74262000
140.69999182	0.00000000	39.90526000	12.62918000
140.89999181	0.00000000	39.57308000	11.51575000
141.09999180	0.00000000	39.48696000	11.04823000
141.29999179	0.00000000	39.11171000	10.67298000
141.49999178	0.00000000	38.36737000	10.40231000
141.69999176	0.00000000	37.99213000	11.51575000
141.89999175	0.00000000	37.94907000	13.32431000
142.09999174	0.00000000	37.99213000	14.11786000
142.29999173	0.00000000	38.36737000	14.25320000
142.49999172	0.00000000	39.11171000	14.58538000
142.69999170	0.00000000	39.48696000	14.94833000
142.89999169	0.00000000	39.53002000	14.53617000
143.09999168	0.00000000	39.53002000	13.83489000
143.29999167	0.00000000	39.48696000	13.00443000
143.49999166	0.00000000	39.11171000	12.25394000
143.69999165	0.00000000	38.41658000	11.51575000
143.89999163	0.00000000	38.41658000	11.51575000
144.09999162	0.00000000	39.06250000	12.21087000
144.29999161	0.00000000	39.11171000	12.62918000
144.49999160	0.00000000	38.78568000	13.04749000
144.69999159	0.00000000	39.15477000	13.79183000
144.89999157	0.00000000	39.48696000	14.16708000
145.09999156	0.00000000	39.53002000	14.21014000
145.29999155	0.00000000	39.48696000	14.16708000
145.49999154	0.00000000	39.11171000	13.79183000
145.69999153	0.00000000	38.36737000	13.04749000
145.89999151	0.00000000	37.99213000	12.62918000
146.09999150	0.00000000	37.94907000	12.21087000
146.29999149	0.00000000	37.94907000	11.51575000
146.49999148	0.00000000	37.99213000	11.51575000
146.69999147	0.00000000	38.36737000	12.21087000
146.89999146	0.00000000	39.11171000	12.58612000
147.09999144	0.00000000	39.48696000	12.62918000
147.29999143	0.00000000	39.53002000	12.67224000
147.49999142	0.00000000	39.53002000	13.04749000
147.69999141	0.00000000	39.48696000	13.79183000
147.89999140	0.00000000	39.11171000	14.16708000
148.09999138	0.00000000	38.36737000	14.16708000
148.29999137	0.00000000	37.99213000	13.83489000
148.49999136	0.00000000	37.94907000	13.42274000
148.69999135	0.00000000	37.94907000	13.41658000
148.89999134	0.00000000	37.99213000	13.00443000
149.09999132	0.00000000	38.36737000	12.67224000
149.29999131	0.00000000	39.11171000	12.62918000
149.49999130	0.00000000	39.48696000	12.62918000
149.69999129	0.00000000	39.53002000	12.62918000
149.89999128	0.00000000	39.53002000	12.62918000
150.09999127	0.00000000	39.53002000	12.62918000
150.29999125	0.00000000	39.48696000	12.67224000
150.49999124	0.00000000	39.11171000	13.04749000
150.69999123	0.00000000	38.36737000	13.79183000
150.89999122	0.00000000	37.99213000	14.16708000
151.09999121	0.00000000	37.94907000	14.16708000
151.29999119	0.00000000	37.94907000	13.79183000
151.49999118	0.00000000	37.94907000	13.04749000
151.69999117	0.00000000	37.99213000	12.67224000
151.89999116	0.00000000	38.36737000	12.62918000
152.09999115	0.00000000	39.11171000	12.62918000
152.29999113	0.00000000	39.48696000	12.62918000
152.49999112	0.00000000	39.53002000	12.62918000
152.69999111	0.00000000	39.57308000	12.67224000
152.89999110	0.00000000	39.86220000	13.00443000
153.09999109	0.00000000	39.89911000	13.37352000
153.29999108	0.00000000	39.16092000	13.00443000
153.49999106	0.00000000	39.15477000	12.67224000
153.69999105	0.00000000	39.06250000	12.67224000
153.89999104	0.00000000	38.36737000	13.04749000
154.09999103	0.00000000	37.99213000	13.79183000
154.29999102	0.00000000	37.94907000	14.16708000
154.49999100	0.00000000	37.94907000	14.16708000
154.69999099	0.00000000	37.94907000	13.79183000
154.89999098	0.00000000	37.99213000	13.04749000
155.09999097	0.00000000	38.36737000	12.67224000
155.29999096	0.00000000	39.11171000	12.62918000
155.49999094	0.00000000	39.48696000	12.62918000
155.69999093	0.00000000	39.53002000	12.58612000
155.89999092	0.00000000	39.53002000	12.21087000
156.09999091	0.00000000	39.48696000	11.51575000
156.29999090	0.00000000	39.11171000	11.51575000
156.49999089	0.00000000	38.36737000	12.21087000
156.69999087	0.00000000	37.99213000	12.58612000
156.89999086	0.00000000	37.94907000	12.67224000
157.09999085	0.00000000	37.94907000	13.04749000
157.29999084	0.00000000	37.94907000	13.74262000
157.49999083	0.00000000	37.94907000	13.74262000
157.69999081	0.00000000	37.94907000	13.04749000
157.89999080	0.00000000	37.99213000	12.67224000
158.09999079	0.00000000	38.36737000	12.62918000
158.29999078	0.00000000	39.11171000	12.62918000
158.49999077	0.00000000	39.48696000	12.62918000
158.69999075	0.00000000	39.53002000	12.62918000
158.89999074	0.00000000	39.53002000	12.62918000
159.09999073	0.00000000	39.53002000	12.62918000
159.29999072	0.00000000	39.48696000	12.67224000
159.49999071	0.00000000	39.11171000	13.04749000
159.69999070	0.00000000	38.36737000	13.79183000
159.89999068	0.00000000	37.99213000	14.16708000
160.09999067	0.00000000	37.94907000	14.21014000
160.29999066	0.00000000	37.94907000	14.21014000
160.49999065	0.00000000	37.94907000	14.16708000
160.69999064	0.00000000	37.94907000	13.79183000
160.89999062	0.00000000	37.94907000	13.04749000
161.09999061	0.00000000	37.94907000	12.67224000
161.29999060	0.00000000	37.99213000	12.62918000
161.49999059	0.00000000	38.36737000	12.62918000
161.69999058	0.00000000	39.11171000	12.62918000
161.89999056	0.00000000	39.48696000	12.67224000
162.09999055	0.00000000	39.53002000	13.04749000
162.29999054	0.00000000	39.53002000	13.79183000
162.49999053	0.00000000	39.53002000	14.16708000
162.69999052	0.00000000	39.48696000	14.21014000
162.89999051	0.00000000	39.11171000	14.21014000
163.09999049	0.00000000	38.36737000	14.16708000
163.29999048	0.00000000	37.99213000	13.83489000
163.49999047	0.00000000	37.94907000	13.42274000
163.69999046	0.00000000	37.94907000	13.41658000
163.89999045	0.00000000	37.94907000	13.00443000
164.09999043	0.00000000	37.94907000	12.67224000
164.29999042	0.00000000	37.94907000	12.62918000
164.49999041	0.00000000	37.94907000	12.62918000
164.69999040	0.00000000	37.99213000	12.62918000
164.89999039	0.00000000	38.36737000	12.62918000
165.09999037	0.00000000	39.11171000	12.62918000
165.29999036	0.00000000	39.48696000	12.62918000
165.49999035	0.00000000	39.48696000	12.62918000
165.69999034	0.00000000	39.11171000	12.62918000
165.89999033	0.00000000	38.36737000	12.62918000
166.09999032	0.00000000	37.99213000	12.62918000
166.29999030	0.00000000	37.94907000	12.62918000
166.49999029	0.00000000	37.94907000	12.62918000
166.69999028	0.00000000	37.94907000	12.62918000
166.89999027	0.00000000	37.94907000	12.62918000
167.09999026	0.00000000	37.94907000	12.62918000
167.29999024	0.00000000	37.94907000	12.62918000
167.49999023	0.00000000	37.94907000	12.62918000
167.69999022	0.00000000	37.94907000	12.62918000
167.89999021	0.00000000	37.94907000	12.62918000
168.09999020	0.00000000	37.99213000	12.62918000
168.29999018	0.00000000	38.32431000	12.62918000
168.49999017	0.00000000	38.69341000	12.62918000
168.69999016	0.00000000	38.32431000	12.62918000
168.89999015	0.00000000	37.99213000	12.62918000
169.09999014	0.00000000	37.94907000	12.62918000
169.29999013	0.00000000	37.90600000	12.62918000
169.49999011	0.00000000	37.57381000	12.62918000
169.69999010	0.00000000	37.20472000	12.62918000
169.89999009	0.00000000	37.57381000	12.62918000
170.09999008	0.00000000	37.90600000	12.62918000
170.29999007	0.00000000	37.94907000	12.62918000
170.49999005	0.00000000	37.94907000	12.62918000
170.69999004	0.00000000	37.94907000	12.62918000
170.89999003	0.00000000	37.99213000	12.62918000
171.09999002	0.00000000	38.32431000	12.62918000
171.29999001	0.00000000	38.73647000	12.62918000
171.49998999	0.00000000	38.69955000	12.62918000
171.69998998	0.00000000	38.73647000	12.62918000
171.89998997	0.00000000	38.32431000	12.62918000
172.09998996	0.00000000	37.99213000	12.62918000
172.29998995	0.00000000	37.94907000	12.62918000
172.49998994	0.00000000	37.94907000	12.62918000
172.69998992	0.00000000	37.94907000	12.62918000
172.89998991	0.00000000	37.94907000	12.67224000
173.09998990	0.00000000	37.94907000	13.00443000
173.29998989	0.00000000	37.94907000	13.41658000
173.49998988	0.00000000	37.94907000	13.37967000
173.69998986	0.00000000	37.94907000	13.41658000
173.89998985	0.00000000	37.94907000	13.00443000
174.09998984	0.00000000	37.94907000	12.67224000
174.29998983	0.00000000	37.94907000	12.62918000
174.49998982	0.00000000	37.94907000	12.62918000
174.69998980	0.00000000	37.94907000	12.62918000
174.89998979	0.00000000	37.94907000	12.62918000
175.09998978	0.00000000	37.94907000	12.62918000
175.29998977	0.00000000	37.94907000	12.62918000
175.49998976	0.00000000	37.94907000	12.62918000
175.69998975	0.00000000	37.94907000	12.67224000
175.89998973	0.00000000	37.94907000	13.00443000
176.09998972	0.00000000	37.94907000	13.37352000
176.29998971	0.00000000	37.99213000	13.00443000
176.49998970	0.00000000	38.32431000	12.67224000
176.69998969	0.00000000	38.69341000	12.62918000
176.89998967	0.00000000	38.32431000	12.62918000
177.09998966	0.00000000	37.99213000	12.62918000
177.29998965	0.00000000	37.94907000	12.62918000
177.49998964	0.00000000	37.94907000	12.62918000
177.69998963	0.00000000	37.94907000	12.58612000
177.89998961	0.00000000	37.94907000	12.25394000
178.09998960	0.00000000	37.94907000	11.88484000
178.29998959	0.00000000	37.94907000	12.25394000
178.49998958	0.00000000	37.94907000	12.58612000
178.69998957	0.00000000	37.94907000	12.62918000
178.89998956	0.00000000	37.94907000	12.62918000
179.09998954	0.00000000	37.94907000	12.62918000
179.29998953	0.00000000	37.94907000	12.62918000
179.49998952	0.00000000	37.94907000	12.62918000
179.69998951	0.00000000	37.94907000	12.62918000
179.89998950	0.00000000	37.94907000	12.62918000
180.09998948	0.00000000	37.94907000	12.62918000
180.29998947	0.00000000	37.94907000	12.62918000
180.49998946	0.00000000	37.94907000	12.58612000
180.69998945	0.00000000	37.94907000	12.25394000
180.89998944	0.00000000	37.94907000	11.88484000
181.09998942	0.00000000	37.94907000	12.25394000
181.29998941	0.00000000	37.94907000	12.58612000
181.49998940	0.00000000	37.94907000	12.62918000
181.69998939	0.00000000	37.94907000	12.62918000
181.89998938	0.00000000	37.94907000	12.62918000
182.09998937	0.00000000	37.94907000	12.67224000
182.29998935	0.00000000	37.94907000	13.00443000
182.49998934	0.00000000	37.94907000	13.37352000
182.69998933	0.00000000	37.94907000	12.96137000
182.89998932	0.00000000	37.94907000	12.29700000
183.09998931	0.00000000	37.94907000	11.84178000
183.29998929	0.00000000	37.94907000	11.87869000
183.49998928	0.00000000	37.94907000	11.84178000
183.69998927	0.00000000	37.94907000	12.25394000
183.89998926	0.00000000	37.94907000	12.58612000
184.09998925	0.00000000	37.94907000	12.62918000
184.29998923	0.00000000	37.94907000	12.67224000
184.49998922	0.00000000	37.94907000	13.04749000
184.69998921	0.00000000	37.94907000	13.79183000
184.89998920	0.00000000	37.94907000	14.11786000
185.09998919	0.00000000	37.94907000	13.83489000
185.29998918	0.00000000	37.99213000	13.42274000
185.49998916	0.00000000	38.32431000	13.41658000
185.69998915	0.00000000	38.69341000	13.00443000
185.89998914	0.00000000	38.32431000	12.67224000
186.09998913	0.00000000	37.99213000	12.58612000
186.29998912	0.00000000	37.94907000	12.21087000
186.49998910	0.00000000	37.94907000	11.51575000
186.69998909	0.00000000	37.94907000	11.51575000
186.89998908	0.00000000	37.94907000	12.21087000
187.09998907	0.00000000	37.94907000	12.58612000
187.29998906	0.00000000	37.94907000	12.62918000
187.49998904	0.00000000	37.94907000	12.62918000
187.69998903	0.00000000	37.94907000	12.67224000
187.89998902	0.00000000	37.94907000	13.04749000
188.09998901	0.00000000	37.94907000	13.79183000
188.29998900	0.00000000	37.94907000	14.11786000
188.49998899	0.00000000	37.94907000	13.79183000
188.69998897	0.00000000	37.94907000	13.04749000
188.89998896	0.00000000	37.94907000	12.67224000
189.09998895	0.00000000	37.94907000	12.58612000
189.29998894	0.00000000	37.94907000	12.21087000
189.49998893	0.00000000	37.94907000	11.46653000
189.69998891	0.00000000	37.90600000	11.14050000
189.89998890	0.00000000	37.57381000	11.46653000
190.09998889	0.00000000	37.20472000	12.21087000
190.29998888	0.00000000	37.57381000	12.58612000
190.49998887	0.00000000	37.90600000	12.62918000
190.69998885	0.00000000	37.94907000	12.67224000
190.89998884	0.00000000	37.94907000	13.00443000
191.09998883	0.00000000	37.94907000	13.37352000
191.29998882	0.00000000	37.94907000	13.00443000
191.49998881	0.00000000	37.94907000	12.67224000
191.69998880	0.00000000	37.94907000	12.62918000
191.89998878	0.00000000	37.94907000	12.62918000
192.09998877	0.00000000	37.94907000	12.62918000
192.29998876	0.00000000	37.94907000	12.62918000
192.49998875	0.00000000	37.94907000	12.62918000
192.69998874	0.00000000	37.94907000	12.58612000
192.89998872	0.00000000	37.94907000	12.25394000
193.09998871	0.00000000	37.94907000	11.88484000
193.29998870	0.00000000	37.94907000	12.25394000
193.49998869	0.00000000	37.94907000	12.58612000
193.69998868	0.00000000	37.94907000	12.62918000
193.89998866	0.00000000	37.94907000	12.62918000
194.09998865	0.00000000	37.94907000	12.62918000
194.29998864	0.00000000	37.94907000	12.62918000
194.49998863	0.00000000	37.94907000	12.62918000
194.69998862	0.00000000	37.94907000	12.62918000
194.89998861	0.00000000	37.94907000	12.62918000
195.09998859	0.00000000	37.94907000	12.62918000
195.29998858	0.00000000	37.94907000	12.62918000
195.49998857	0.00000000	37.94907000	12.62918000
195.69998856	0.00000000	37.94907000	12.62918000
195.89998855	0.00000000	37.94907000	12.62918000
196.09998853	0.00000000	37.94907000	12.62918000
