Time	Channel A	Channel B	Channel C
(us)	(V)	(mV)	(mV)

-4.59999956	0.00000000	-55.33957000	-26.83932000
-4.39999957	0.00000000	-55.33957000	-26.83932000
-4.19999958	0.00000000	-55.33957000	-26.83932000
-3.99999959	0.00000000	-55.33957000	-26.83932000
-3.79999960	0.00000000	-55.33957000	-26.83932000
-3.59999962	0.00000000	-55.33957000	-26.83932000
-3.39999963	0.00000000	-55.33957000	-26.83932000
-3.19999964	0.00000000	-55.33957000	-26.83932000
-2.99999965	0.00000000	-55.33957000	-26.88238000
-2.79999966	0.00000000	-55.33957000	-27.21457000
-2.59999968	0.00000000	-55.33957000	-27.62672000
-2.39999969	0.00000000	-55.33957000	-27.58981000
-2.19999970	0.00000000	-55.33957000	-27.62672000
-1.99999971	0.00000000	-55.33957000	-27.21457000
-1.79999972	0.00000000	-55.33957000	-26.88238000
-1.59999973	0.00000000	-55.33957000	-26.83932000
-1.39999975	0.00000000	-55.33957000	-26.83932000
-1.19999976	0.00000000	-55.33957000	-26.83932000
-0.99999977	0.00000000	-55.33957000	-26.83932000
-0.79999978	0.00000000	-55.33957000	-26.83932000
-0.59999979	0.00000000	-55.33957000	-26.83932000
-0.39999981	0.00000000	-55.33957000	-26.83932000
-0.19999982	0.31803640	-55.33957000	-26.83932000
0.00000017	0.79601380	-55.33957000	-26.83932000
0.20000016	0.95533960	-55.33957000	-26.83932000
0.40000015	0.95533960	-55.33957000	-26.83932000
0.60000013	0.79601380	-55.33957000	-26.83932000
0.80000012	0.15871060	-55.33957000	-26.83932000
1.00000011	-0.79601380	-55.33957000	-26.83932000
1.20000010	-1.75196900	-55.33957000	-26.79626000
1.40000009	-2.54859700	-55.33957000	-26.46407000
1.60000008	-2.70792300	-55.33957000	-26.10113000
1.80000006	-2.22994600	-55.33957000	-26.46407000
2.00000005	-0.95533960	-55.29650000	-26.74705000
2.20000004	0.95533960	-54.92125000	-26.46407000
2.40000003	3.18590100	-54.22613000	-26.10113000
2.60000002	4.77854300	-54.22613000	-26.46407000
2.80000000	5.41584600	-54.92125000	-26.79626000
2.99999999	4.45989200	-55.29650000	-26.83932000
3.19999998	2.38927200	-55.33957000	-26.83932000
3.39999997	-0.95533960	-55.33957000	-26.83932000
3.59999996	-4.30056600	-55.33957000	-26.83932000
3.79999994	-7.00848900	-55.33957000	-26.83932000
3.99999993	-7.96444400	-55.33957000	-26.83932000
4.19999992	-7.16781500	-55.33957000	-26.83932000
4.39999991	-4.14124000	-55.33957000	-26.83932000
4.59999990	0.00000000	-55.33957000	-26.83932000
4.79999989	4.45989200	-55.33957000	-26.83932000
4.99999987	7.80511800	-55.33957000	-26.88238000
5.19999986	9.39837600	-55.33957000	-27.25763000
5.39999985	8.76107300	-55.33957000	-28.00197000
5.59999984	5.73449800	-55.33957000	-28.37721000
5.79999983	1.27399100	-55.33957000	-28.42027000
5.99999981	-3.50393700	-55.33957000	-28.37721000
6.19999980	-7.32714100	-55.33957000	-28.00197000
6.39999979	-9.39837600	-55.33957000	-27.25763000
6.59999978	-8.92039900	-55.33957000	-26.88238000
6.79999977	-6.37180100	-55.33957000	-26.83932000
6.99999975	-2.38927200	-55.33957000	-26.83932000
7.19999974	1.91129400	-55.33957000	-26.88238000
7.39999973	5.57517200	-55.33957000	-27.25763000
7.59999972	7.48646600	-55.33957000	-28.00197000
7.79999971	7.48646600	-55.33957000	-28.37721000
7.99999970	5.73449800	-55.33957000	-28.42027000
8.19999968	2.70792300	-55.33957000	-28.42027000
8.39999967	-0.63668800	-55.33957000	-28.42027000
8.59999966	-3.34522600	-55.33957000	-28.42027000
8.79999965	-4.93786900	-55.33957000	-28.42027000
8.99999964	-5.09719500	-55.33957000	-28.42027000
9.19999962	-3.98191400	-55.33957000	-28.42027000
9.39999961	-2.22994600	-55.33957000	-28.37721000
9.59999960	-0.15871060	-55.33957000	-28.00197000
9.79999959	1.43331700	-55.33957000	-27.30684000
9.99999958	2.38927200	-55.33957000	-27.25763000
10.19999956	2.54859700	-55.33957000	-27.58366000
10.39999955	2.07062000	-55.33957000	-27.21457000
10.59999954	1.27399100	-55.38263000	-26.93159000
10.79999953	0.31803640	-55.75787000	-27.25763000
10.99999952	-0.31803640	-56.45300000	-27.95275000
11.19999951	-0.79601380	-56.45300000	-27.95275000
11.39999949	-0.95533960	-55.75787000	-27.25763000
11.59999948	-0.95533960	-55.38263000	-26.88238000
11.79999947	-0.63668800	-55.33957000	-26.83932000
11.99999946	-0.31803640	-55.33957000	-26.83932000
12.19999945	-0.15871060	-55.33957000	-26.83932000
12.39999943	-0.15871060	-55.33957000	-26.88238000
12.59999942	0.00000000	-55.33957000	-27.21457000
12.79999941	0.00000000	-55.33957000	-27.58366000
12.99999940	0.00000000	-55.33957000	-27.21457000
13.19999939	0.00000000	-55.33957000	-26.88238000
13.39999937	0.00000000	-55.33957000	-26.83932000
13.59999936	0.00000000	-55.33957000	-26.83932000
13.79999935	0.00000000	-55.33957000	-26.83932000
13.99999934	0.00000000	-55.33957000	-26.83932000
14.19999933	-0.15871060	-55.33957000	-26.83932000
14.39999932	-0.15871060	-55.33957000	-26.83932000
14.59999930	-0.15871060	-55.33957000	-26.83932000
14.79999929	0.00000000	-55.33957000	-26.83932000
14.99999928	0.00000000	-55.33957000	-26.83932000
15.19999927	0.00000000	-55.33957000	-26.83932000
15.39999926	0.00000000	-55.33957000	-26.83932000
15.59999924	0.15871060	-55.33957000	-26.83932000
15.79999923	0.00000000	-55.33957000	-26.83932000
15.99999922	0.00000000	-55.33957000	-26.83932000
16.19999921	0.00000000	-55.33957000	-26.83932000
16.39999920	0.00000000	-55.33957000	-26.83932000
16.59999919	-0.15871060	-55.33957000	-26.83932000
16.79999917	-0.15871060	-55.33957000	-26.83932000
16.99999916	0.00000000	-55.29650000	-26.83932000
17.19999915	0.00000000	-54.92125000	-26.83932000
17.39999914	0.00000000	-54.17691000	-26.83932000
17.59999913	0.00000000	-53.80167000	-26.83932000
17.79999911	0.00000000	-53.80167000	-26.83932000
17.99999910	0.00000000	-54.22613000	-26.83932000
18.19999909	0.00000000	-55.38263000	-26.83932000
18.39999908	0.00000000	-56.92052000	-26.83932000
18.59999907	0.00000000	-58.50147000	-26.83932000
18.79999905	0.00000000	-60.03937000	-26.83932000
18.99999904	0.00000000	-61.15280000	-26.83932000
19.19999903	0.00000000	-61.10974000	-26.83932000
19.39999902	0.00000000	-59.52879000	-26.83932000
19.59999901	0.00000000	-56.45300000	-26.88238000
19.79999900	0.00000000	-52.59596000	-27.25763000
19.99999898	0.00000000	-49.10802000	-28.00197000
20.19999897	0.00000000	-46.36442000	-28.37721000
20.39999896	0.00000000	-44.91880000	-28.42027000
20.59999895	0.00000000	-45.80462000	-28.42027000
20.79999894	0.00000000	-50.07997000	-28.42027000
20.99999892	0.00000000	-57.01279000	-28.42027000
21.19999891	0.00000000	-64.73917000	-28.42027000
21.39999890	0.00000000	-71.71505000	-28.42027000
21.59999889	0.00000000	-76.27953000	-28.42027000
21.79999888	0.00000000	-76.97465000	-28.42027000
21.99999886	0.00000000	-72.60703000	-28.42027000
22.19999885	0.00000000	-63.34276000	-28.42027000
22.39999884	0.00000000	-50.97194000	-28.42027000
22.59999883	0.00000000	-38.63804000	-28.42027000
22.79999882	0.00000000	-28.96161000	-28.37721000
22.99999881	0.00000000	-24.44020000	-28.00197000
23.19999879	0.00000000	-26.86393000	-27.25763000
23.39999878	0.00000000	-36.95866000	-26.88238000
23.59999877	0.00000000	-52.78051000	-26.79626000
23.79999876	0.00000000	-70.60162000	-26.46407000
23.99999875	0.00000000	-86.79256000	-26.10113000
24.19999873	0.00000000	-97.49630000	-26.51329000
24.39999872	0.00000000	-98.94193000	-27.21457000
24.59999871	0.00000000	-90.05289000	-28.08809000
24.79999870	0.00000000	-72.65009000	-29.25689000
24.99999869	0.00000000	-50.63976000	-31.15772000
25.19999867	0.00000000	-29.00467000	-32.64640000
25.39999866	0.00000000	-12.81373000	-33.06471000
25.59999865	0.00000000	-5.93011800	-32.64640000
25.79999864	0.00000000	-10.58071000	-31.02239000
25.99999863	0.00000000	-26.02116000	-27.95275000
26.19999862	0.00000000	-48.45595000	-24.10187000
26.39999860	0.00000000	-73.20374000	-20.61393000
26.59999859	0.00000000	-94.79577000	-17.87647000
26.79999858	0.00000000	-107.87400000	-16.43085000
26.99999857	0.00000000	-109.03670000	-17.26747000
27.19999856	0.00000000	-97.91460000	-21.16757000
27.39999854	0.00000000	-77.86047000	-27.34990000
27.59999853	0.00000000	-53.85088000	-34.68873000
27.79999852	0.00000000	-30.67790000	-41.61540000
27.99999851	0.00000000	-13.65034000	-46.21678000
28.19999850	0.00000000	-6.66830600	-47.33021000
28.39999848	0.00000000	-10.48843000	-44.17446000
28.59999847	0.00000000	-24.39714000	-36.78642000
28.79999846	0.00000000	-44.82652000	-26.32874000
28.99999845	0.00000000	-66.83685000	-14.76378000
29.19999844	0.00000000	-85.44537000	-4.77362200
29.39999843	0.00000000	-96.70890000	0.98425190
29.59999841	0.00000000	-99.07726000	0.94119090
29.79999840	0.00000000	-92.14443000	-5.32726300
29.99999839	0.00000000	-77.94660000	-17.31053000
30.19999838	0.00000000	-60.54995000	-32.73868000
30.39999837	0.00000000	-43.84227000	-47.74852000
30.59999835	0.00000000	-30.63484000	-58.99360000
30.79999834	0.00000000	-23.27756000	-63.92716000
30.99999833	0.00000000	-23.23450000	-61.22047000
31.19999832	0.00000000	-30.12426000	-50.77510000
31.39999831	0.00000000	-41.75689000	-35.34079000
31.59999829	0.00000000	-55.67175000	-17.87647000
31.79999828	0.00000000	-69.20522000	-1.70398600
31.99999827	0.00000000	-78.88779000	9.44266700
32.19999826	0.00000000	-83.25540000	12.55536000
32.39999825	0.00000000	-82.09276000	7.16658400
32.59999824	0.00000000	-75.90427000	-5.19192900
32.79999822	0.00000000	-65.89567000	-22.19488000
32.99999821	0.00000000	-54.68750000	-39.99138000
33.19999820	0.00000000	-44.96186000	-55.09350000
33.39999819	0.00000000	-37.98597000	-64.70840000
33.59999818	0.00000000	-35.33464000	-66.24015000
33.79999816	0.00000000	-37.98597000	-59.36885000
33.99999815	0.00000000	-44.86958000	-46.25984000
34.19999814	0.00000000	-53.71555000	-30.00123000
34.39999813	0.00000000	-62.27239000	-13.73647000
34.59999812	0.00000000	-68.83612000	-0.63976370
34.79999810	0.00000000	-72.32407000	6.32997000
34.99999809	0.00000000	-71.53666000	5.58562900
35.19999808	0.00000000	-67.01525000	-2.12844500
35.39999807	0.00000000	-60.45767000	-15.22515000
35.59999806	0.00000000	-53.89394000	-30.64714000
35.79999805	0.00000000	-48.49901000	-44.50664000
35.99999803	0.00000000	-45.80462000	-53.83858000
36.19999802	0.00000000	-46.54281000	-56.53912000
36.39999801	0.00000000	-49.98769000	-52.71899000
36.59999800	0.00000000	-55.33957000	-43.10408000
36.79999799	0.00000000	-60.73450000	-30.46260000
36.99999797	0.00000000	-64.60383000	-18.52239000
37.19999796	0.00000000	-66.55389000	-10.02092000
37.39999795	0.00000000	-65.76033000	-6.90821800
37.59999794	0.00000000	-62.69069000	-9.59645700
37.79999793	0.00000000	-58.08316000	-17.22441000
37.99999791	0.00000000	-53.10654000	-27.58366000
38.19999790	0.00000000	-49.61245000	-37.16166000
38.39999789	0.00000000	-48.03149000	-43.66388000
38.59999788	0.00000000	-48.40674000	-44.82652000
38.79999787	0.00000000	-50.73204000	-40.27436000
38.99999786	0.00000000	-54.22613000	-32.27731000
39.19999784	0.00000000	-58.50147000	-23.07455000
39.39999783	0.00000000	-62.73376000	-15.77879000
39.59999782	0.00000000	-65.80955000	-12.29085000
39.79999781	0.00000000	-66.97219000	-13.08440000
39.99999780	0.00000000	-65.85260000	-18.51624000
40.19999778	0.00000000	-63.15207000	-27.34990000
40.39999777	0.00000000	-59.66412000	-37.24778000
40.59999776	0.00000000	-55.71481000	-44.86958000
40.79999775	0.00000000	-51.89468000	-47.19488000
40.99999774	0.00000000	-48.78198000	-44.17446000
41.19999772	0.00000000	-47.61319000	-36.87869000
41.39999771	0.00000000	-47.98843000	-27.25763000
41.59999770	0.00000000	-49.94463000	-18.05487000
41.79999769	0.00000000	-53.42642000	-11.46038000
41.99999768	0.00000000	-57.29576000	-9.17814900
42.19999767	0.00000000	-61.19586000	-11.46038000
42.39999765	0.00000000	-64.27164000	-18.01181000
42.59999764	0.00000000	-65.80955000	-26.79626000
42.79999763	0.00000000	-65.47736000	-35.29773000
42.99999762	0.00000000	-63.57652000	-41.43085000
43.19999761	0.00000000	-61.24508000	-43.79921000
43.39999759	0.00000000	-58.50147000	-41.89838000
43.59999758	0.00000000	-55.80708000	-36.96481000
43.79999757	0.00000000	-53.85088000	-30.41954000
43.99999756	0.00000000	-52.68823000	-24.23720000
44.19999755	0.00000000	-52.64517000	-19.58661000
44.39999753	0.00000000	-53.34030000	-17.26747000
44.59999752	0.00000000	-53.71555000	-17.96260000
44.79999751	0.00000000	-53.80167000	-20.61393000
44.99999750	0.00000000	-54.17691000	-24.10187000
45.19999749	0.00000000	-54.96432000	-27.95275000
45.39999748	0.00000000	-55.80708000	-31.06545000
45.59999746	0.00000000	-57.38804000	-33.02165000
45.79999745	0.00000000	-59.70718000	-33.80905000
45.99999744	0.00000000	-62.03863000	-33.02165000
46.19999743	0.00000000	-64.35777000	-31.11466000
46.39999742	0.00000000	-65.85260000	-28.42027000
46.59999740	0.00000000	-65.85260000	-25.77510000
46.79999739	0.00000000	-64.22859000	-24.15108000
46.99999738	0.00000000	-60.69144000	-23.35138000
47.19999737	0.00000000	-55.24729000	-23.03149000
47.39999736	0.00000000	-49.15108000	-24.19414000
47.59999734	0.00000000	-44.13140000	-26.42101000
47.79999733	0.00000000	-41.89222000	-28.37721000
47.99999732	0.00000000	-43.06102000	-30.00123000
48.19999731	0.00000000	-48.08071000	-31.53297000
48.39999730	0.00000000	-55.43184000	-32.60334000
48.59999729	0.00000000	-63.57652000	-32.22810000
48.79999727	0.00000000	-71.25368000	-30.32726000
48.99999726	0.00000000	-75.81815000	-28.00197000
49.19999725	0.00000000	-75.86122000	-25.26452000
49.39999724	0.00000000	-71.57972000	-22.61319000
49.59999723	0.00000000	-63.85334000	-21.08145000
49.79999721	0.00000000	-54.22613000	-21.08145000
49.99999720	0.00000000	-45.38017000	-22.65625000
50.19999719	0.00000000	-39.60999000	-25.72589000
50.39999718	0.00000000	-38.45349000	-29.58292000
50.59999717	0.00000000	-42.26747000	-33.06471000
50.79999715	0.00000000	-49.56939000	-35.75910000
50.99999714	0.00000000	-58.45841000	-36.87254000
51.19999713	0.00000000	-66.92913000	-35.71604000
51.39999712	0.00000000	-72.69930000	-32.64640000
51.59999711	0.00000000	-74.28026000	-28.42027000
51.79999710	0.00000000	-71.57972000	-24.19414000
51.99999708	0.00000000	-65.39124000	-21.12451000
52.19999707	0.00000000	-56.96358000	-19.91880000
52.39999706	0.00000000	-48.96653000	-20.66314000
52.59999705	0.00000000	-44.30979000	-22.65625000
52.79999704	0.00000000	-43.84842000	-26.14419000
52.99999702	0.00000000	-46.91806000	-30.69636000
53.19999701	0.00000000	-52.68823000	-34.13509000
53.39999700	0.00000000	-59.61491000	-35.75910000
53.59999699	0.00000000	-65.76648000	-35.71604000
53.79999698	0.00000000	-69.62352000	-33.80905000
53.99999696	0.00000000	-69.99876000	-30.41954000
54.19999695	0.00000000	-66.92913000	-27.34990000
54.39999694	0.00000000	-61.20201000	-25.39985000
54.59999693	0.00000000	-54.68750000	-24.61245000
54.79999692	0.00000000	-49.70472000	-25.35064000
54.99999691	0.00000000	-47.33637000	-26.83932000
55.19999689	0.00000000	-48.12377000	-28.42027000
55.39999688	0.00000000	-51.56865000	-29.95201000
55.59999687	0.00000000	-56.92052000	-31.02239000
55.79999686	0.00000000	-62.27239000	-30.64714000
55.99999685	0.00000000	-65.80955000	-28.74631000
56.19999683	0.00000000	-67.34743000	-26.51329000
56.39999682	0.00000000	-66.55389000	-24.61245000
56.59999681	0.00000000	-63.10900000	-24.23720000
56.79999680	0.00000000	-58.54454000	-25.39985000
56.99999679	0.00000000	-54.26919000	-27.72515000
57.19999677	0.00000000	-51.19340000	-31.20078000
57.39999676	0.00000000	-50.03691000	-34.60261000
57.59999675	0.00000000	-51.15034000	-36.87869000
57.79999674	0.00000000	-53.80167000	-36.78642000
57.99999673	0.00000000	-56.92052000	-33.76599000
58.19999672	0.00000000	-60.03937000	-28.75246000
58.39999670	0.00000000	-62.69069000	-23.35138000
58.59999669	0.00000000	-63.85334000	-18.38706000
58.79999668	0.00000000	-63.15207000	-15.73573000
58.99999667	0.00000000	-61.62032000	-16.47392000
59.19999666	0.00000000	-59.66412000	-19.96186000
59.39999664	0.00000000	-57.38804000	-25.77510000
59.59999663	0.00000000	-55.85014000	-32.64640000
59.79999662	0.00000000	-55.43184000	-38.45349000
59.99999661	0.00000000	-55.80708000	-41.89838000
60.19999660	0.00000000	-56.92052000	-42.26747000
60.39999658	0.00000000	-58.08316000	-38.74261000
60.59999657	0.00000000	-58.83366000	-32.22810000
60.79999656	0.00000000	-59.24582000	-24.19414000
60.99999655	0.00000000	-58.83366000	-17.22441000
61.19999654	0.00000000	-58.12622000	-12.94291000
61.39999653	0.00000000	-57.33883000	-11.46038000
61.59999651	0.00000000	-56.96358000	-14.20399000
61.79999650	0.00000000	-56.96358000	-20.66314000
61.99999649	0.00000000	-57.38804000	-28.42027000
62.19999648	0.00000000	-58.50147000	-36.13435000
62.39999647	0.00000000	-59.66412000	-42.26747000
62.59999645	0.00000000	-60.45767000	-44.54970000
62.79999644	0.00000000	-61.19586000	-42.68578000
62.99999643	0.00000000	-61.15280000	-37.29700000
63.19999642	0.00000000	-60.03937000	-30.00123000
63.39999641	0.00000000	-58.50147000	-22.61319000
63.59999639	0.00000000	-56.92052000	-16.43085000
63.79999638	0.00000000	-55.38263000	-12.62303000
63.99999637	0.00000000	-54.26919000	-12.62303000
64.19999636	0.00000000	-54.26919000	-16.38164000
64.39999635	0.00000000	-55.38263000	-22.19488000
64.59999634	0.00000000	-56.96358000	-28.79552000
64.79999632	0.00000000	-58.91978000	-35.34079000
64.99999631	0.00000000	-61.19586000	-39.94832000
65.19999630	0.00000000	-62.69069000	-41.57234000
65.39999629	0.00000000	-62.73376000	-40.40969000
65.59999628	0.00000000	-61.57111000	-36.96481000
65.79999626	0.00000000	-59.66412000	-31.95128000
65.99999625	0.00000000	-57.33883000	-26.93159000
66.19999624	0.00000000	-55.51796000	-22.61319000
66.39999623	0.00000000	-55.06274000	-19.50049000
66.59999622	0.00000000	-56.21309000	-17.96260000
66.79999620	0.00000000	-57.71407000	-18.29478000
66.99999619	0.00000000	-59.66412000	-20.19562000
67.19999618	0.00000000	-61.15280000	-22.52091000
67.39999617	0.00000000	-61.57111000	-25.35064000
67.59999616	0.00000000	-61.15280000	-28.79552000
67.79999615	0.00000000	-59.57185000	-32.32037000
67.99999613	0.00000000	-56.92052000	-35.06397000
68.19999612	0.00000000	-54.26919000	-37.38312000
68.39999611	0.00000000	-52.73130000	-38.50270000
68.59999610	0.00000000	-52.77436000	-37.71530000
68.79999609	0.00000000	-54.68750000	-35.43307000
68.99999607	0.00000000	-58.16929000	-31.90822000
69.19999606	0.00000000	-62.03863000	-28.00197000
69.39999605	0.00000000	-65.89567000	-23.72662000
69.59999604	0.00000000	-68.51008000	-19.91880000
69.79999603	0.00000000	-68.55315000	-17.96260000
69.99999601	0.00000000	-66.22785000	-17.96260000
70.19999600	0.00000000	-62.35851000	-19.96186000
70.39999599	0.00000000	-57.29576000	-24.19414000
70.59999598	0.00000000	-52.31299000	-29.58292000
70.79999597	0.00000000	-48.45595000	-34.60261000
70.99999596	0.00000000	-46.96112000	-38.45964000
71.19999594	0.00000000	-48.49901000	-39.99138000
71.39999593	0.00000000	-52.73130000	-38.87795000
71.59999592	0.00000000	-58.54454000	-35.80217000
71.79999591	0.00000000	-64.68996000	-31.53297000
71.99999590	0.00000000	-69.71580000	-26.88238000
72.19999588	0.00000000	-72.04723000	-22.65625000
72.39999587	0.00000000	-71.67200000	-19.96186000
72.59999586	0.00000000	-68.55315000	-19.54355000
72.79999585	0.00000000	-63.20127000	-21.08145000
72.99999584	0.00000000	-57.38804000	-24.10187000
73.19999582	0.00000000	-52.31299000	-27.54060000
73.39999581	0.00000000	-48.45595000	-29.86589000
73.59999580	0.00000000	-46.96112000	-31.11466000
73.79999579	0.00000000	-48.45595000	-31.44069000
73.99999578	0.00000000	-52.26993000	-30.73942000
74.19999577	0.00000000	-56.92052000	-29.21383000
74.39999575	0.00000000	-61.57111000	-28.08809000
74.59999574	0.00000000	-65.43430000	-27.30684000
74.79999573	0.00000000	-67.43970000	-27.39296000
74.99999572	0.00000000	-67.76575000	-28.83858000
75.19999571	0.00000000	-66.22169000	-30.69636000
75.39999569	0.00000000	-62.41388000	-31.44069000
75.59999568	0.00000000	-58.63681000	-31.06545000
75.79999567	0.00000000	-55.85014000	-29.49065000
75.99999566	0.00000000	-54.26919000	-26.79626000
76.19999565	0.00000000	-53.85088000	-23.72662000
76.39999563	0.00000000	-54.22613000	-21.08145000
76.59999562	0.00000000	-55.38263000	-19.91880000
76.79999561	0.00000000	-56.92052000	-20.74926000
76.99999560	0.00000000	-58.45841000	-23.49901000
77.19999559	0.00000000	-59.57185000	-28.46333000
77.39999558	0.00000000	-59.61491000	-33.80905000
77.59999556	0.00000000	-58.96899000	-37.71530000
77.79999555	0.00000000	-58.96899000	-39.99138000
77.99999554	0.00000000	-59.66412000	-39.57308000
78.19999553	0.00000000	-60.08243000	-36.13435000
78.39999552	0.00000000	-60.50073000	-31.15772000
78.59999550	0.00000000	-61.24508000	-25.68282000
78.79999549	0.00000000	-61.57111000	-20.70620000
78.99999548	0.00000000	-61.19586000	-17.22441000
79.19999547	0.00000000	-59.99015000	-16.47392000
79.39999546	0.00000000	-58.08316000	-18.33784000
79.59999544	0.00000000	-55.80708000	-22.23794000
79.79999543	0.00000000	-54.31225000	-27.21457000
79.99999542	0.00000000	-54.22613000	-32.27116000
80.19999541	0.00000000	-55.00738000	-36.13435000
80.39999540	0.00000000	-56.22539000	-38.50270000
80.59999539	0.00000000	-58.59375000	-38.87795000
80.79999537	0.00000000	-61.57111000	-37.34006000
80.99999536	0.00000000	-63.89641000	-34.22736000
81.19999535	0.00000000	-64.68996000	-30.04429000
81.39999534	0.00000000	-64.31471000	-26.14419000
81.59999533	0.00000000	-62.73376000	-23.35753000
81.79999531	0.00000000	-60.08243000	-21.03838000
81.99999530	0.00000000	-57.38804000	-19.96801000
82.19999529	0.00000000	-55.43184000	-21.03838000
82.39999528	0.00000000	-54.26919000	-23.30832000
82.59999527	0.00000000	-54.26919000	-25.68282000
82.79999525	0.00000000	-55.43184000	-28.46333000
82.99999524	0.00000000	-57.33883000	-31.53297000
83.19999523	0.00000000	-59.66412000	-34.27042000
83.39999522	0.00000000	-61.57111000	-36.22662000
83.59999521	0.00000000	-62.73376000	-37.34006000
83.79999520	0.00000000	-62.73376000	-36.92175000
83.99999518	0.00000000	-61.66338000	-34.64567000
84.19999517	0.00000000	-60.50073000	-31.53297000
84.39999516	0.00000000	-59.70718000	-28.00197000
84.59999515	0.00000000	-58.91978000	-24.15108000
84.79999514	0.00000000	-58.54454000	-21.08145000
84.99999512	0.00000000	-58.50147000	-19.54355000
85.19999511	0.00000000	-58.50147000	-19.91880000
85.39999510	0.00000000	-58.50147000	-22.23794000
85.59999509	0.00000000	-58.50147000	-25.72589000
85.79999508	0.00000000	-58.45841000	-30.00123000
85.99999506	0.00000000	-58.12622000	-34.22736000
86.19999505	0.00000000	-57.75713000	-37.34006000
86.39999504	0.00000000	-58.16929000	-38.82874000
86.59999503	0.00000000	-58.91978000	-38.03519000
86.79999502	0.00000000	-60.12549000	-34.60261000
86.99999501	0.00000000	-61.62032000	-30.00123000
87.19999499	0.00000000	-62.77681000	-25.35679000
87.39999498	0.00000000	-63.15207000	-21.49975000
87.59999497	0.00000000	-62.77681000	-19.54355000
87.79999496	0.00000000	-61.62032000	-19.59276000
87.99999495	0.00000000	-60.08243000	-21.91806000
88.19999493	0.00000000	-58.50147000	-26.51329000
88.39999492	0.00000000	-56.96358000	-31.44069000
88.59999491	0.00000000	-55.85014000	-35.34079000
88.79999490	0.00000000	-55.85014000	-37.29700000
88.99999489	0.00000000	-56.96358000	-37.29700000
89.19999487	0.00000000	-58.50147000	-35.34079000
89.39999486	0.00000000	-60.08243000	-31.48376000
89.59999485	0.00000000	-61.62032000	-26.88238000
89.79999484	0.00000000	-62.73376000	-22.65625000
89.99999483	0.00000000	-62.73376000	-19.96186000
90.19999482	0.00000000	-61.66338000	-19.59276000
90.39999480	0.00000000	-60.50073000	-21.54281000
90.59999479	0.00000000	-59.66412000	-25.77510000
90.79999478	0.00000000	-58.50147000	-31.11466000
90.99999477	0.00000000	-57.43110000	-35.67298000
91.19999476	0.00000000	-57.38804000	-37.99213000
91.39999474	0.00000000	-58.08316000	-37.25394000
91.59999473	0.00000000	-58.45841000	-34.22736000
91.79999472	0.00000000	-58.54454000	-29.95817000
91.99999471	0.00000000	-58.87672000	-25.35679000
92.19999470	0.00000000	-59.24582000	-21.49975000
92.39999468	0.00000000	-58.91978000	-19.59276000
92.59999467	0.00000000	-58.96899000	-19.96186000
92.79999466	0.00000000	-59.70718000	-22.65625000
92.99999465	0.00000000	-60.45767000	-26.88238000
93.19999464	0.00000000	-61.28814000	-31.48376000
93.39999463	0.00000000	-61.99557000	-35.29773000
93.59999461	0.00000000	-62.40772000	-36.82948000
93.79999460	0.00000000	-61.99557000	-35.71604000
93.99999459	0.00000000	-61.24508000	-32.64640000
94.19999458	0.00000000	-59.99015000	-28.42027000
94.39999457	0.00000000	-58.08316000	-24.23720000
94.59999455	0.00000000	-55.80708000	-21.54281000
94.79999454	0.00000000	-54.31225000	-21.12451000
94.99999453	0.00000000	-54.26919000	-22.65625000
95.19999452	0.00000000	-55.43184000	-25.72589000
95.39999451	0.00000000	-57.38804000	-29.53371000
95.59999449	0.00000000	-60.12549000	-32.64640000
95.79999448	0.00000000	-63.20127000	-34.60261000
95.99999447	0.00000000	-65.89567000	-35.34079000
96.19999446	0.00000000	-67.39050000	-34.13509000
96.39999445	0.00000000	-67.01525000	-31.11466000
96.59999444	0.00000000	-64.73917000	-27.34990000
96.79999442	0.00000000	-61.62032000	-24.65551000
96.99999441	0.00000000	-58.12622000	-23.81890000
97.19999440	0.00000000	-54.64444000	-24.15108000
97.39999439	0.00000000	-52.35605000	-25.35064000
97.59999438	0.00000000	-51.52559000	-27.25763000
97.79999436	0.00000000	-52.35605000	-29.58292000
97.99999435	0.00000000	-54.64444000	-31.44069000
98.19999434	0.00000000	-58.16929000	-32.27116000
98.39999433	0.00000000	-61.99557000	-31.90822000
98.59999432	0.00000000	-65.52657000	-31.20078000
98.79999430	0.00000000	-67.81496000	-30.37647000
98.99999429	0.00000000	-68.60236000	-29.62598000
99.19999428	0.00000000	-67.39050000	-28.83858000
99.39999427	0.00000000	-64.36392000	-28.46333000
99.59999426	0.00000000	-60.50073000	-28.42027000
99.79999425	0.00000000	-57.01279000	-28.42027000
99.99999423	0.00000000	-54.26919000	-28.37721000
100.19999422	0.00000000	-52.73130000	-28.00197000
100.39999421	0.00000000	-52.73130000	-27.25763000
100.59999420	0.00000000	-54.26919000	-26.88238000
100.79999419	0.00000000	-56.96358000	-26.88238000
100.99999417	0.00000000	-60.08243000	-27.30684000
101.19999416	0.00000000	-63.15207000	-28.46333000
101.39999415	0.00000000	-65.47736000	-30.00123000
101.59999414	0.00000000	-66.31397000	-31.57603000
101.79999413	0.00000000	-66.31397000	-33.06471000
101.99999411	0.00000000	-65.52042000	-33.80905000
102.19999410	0.00000000	-63.57652000	-33.02165000
102.39999409	0.00000000	-61.28814000	-31.11466000
102.59999408	0.00000000	-58.91978000	-28.42027000
102.79999407	0.00000000	-57.01279000	-25.72589000
102.99999406	0.00000000	-55.80708000	-23.77584000
103.19999404	0.00000000	-55.47490000	-22.65625000
103.39999403	0.00000000	-56.22539000	-23.07455000
103.59999402	0.00000000	-58.12622000	-25.35064000
103.79999401	0.00000000	-60.03937000	-28.42027000
103.99999400	0.00000000	-61.66338000	-31.53297000
104.19999398	0.00000000	-63.20127000	-34.18430000
104.39999397	0.00000000	-64.31471000	-35.34079000
104.59999396	0.00000000	-64.31471000	-34.60261000
104.79999395	0.00000000	-63.20127000	-32.69562000
104.99999394	0.00000000	-61.66338000	-30.00123000
105.19999392	0.00000000	-60.12549000	-27.30684000
105.39999391	0.00000000	-58.91978000	-25.35064000
105.59999390	0.00000000	-58.16929000	-24.19414000
105.79999389	0.00000000	-57.80634000	-24.19414000
105.99999388	0.00000000	-58.59375000	-25.35064000
106.19999387	0.00000000	-60.03937000	-27.25763000
106.39999385	0.00000000	-61.19586000	-29.58292000
106.59999384	0.00000000	-61.66338000	-31.48991000
106.79999383	0.00000000	-62.03863000	-32.64640000
106.99999382	0.00000000	-62.40772000	-32.60334000
107.19999381	0.00000000	-61.94635000	-31.11466000
107.39999379	0.00000000	-60.86983000	-28.83858000
107.59999378	0.00000000	-59.33809000	-26.93159000
107.79999377	0.00000000	-58.59375000	-25.72589000
107.99999376	0.00000000	-58.54454000	-25.39985000
108.19999375	0.00000000	-58.96899000	-26.10113000
108.39999374	0.00000000	-60.12549000	-27.66978000
108.59999372	0.00000000	-61.62032000	-29.17077000
108.79999371	0.00000000	-62.77681000	-30.73942000
108.99999370	0.00000000	-63.15207000	-31.48376000
109.19999369	0.00000000	-62.77681000	-31.48376000
109.39999368	0.00000000	-61.62032000	-30.69636000
109.59999366	0.00000000	-60.12549000	-28.79552000
109.79999365	0.00000000	-58.91978000	-26.93159000
109.99999364	0.00000000	-58.16929000	-25.72589000
110.19999363	0.00000000	-57.75713000	-25.35679000
110.39999362	0.00000000	-58.16929000	-25.72589000
110.59999360	0.00000000	-58.91978000	-26.88853000
110.79999359	0.00000000	-60.12549000	-28.42027000
110.99999358	0.00000000	-61.57111000	-29.95201000
111.19999357	0.00000000	-62.40772000	-31.15772000
111.39999356	0.00000000	-62.41388000	-31.90822000
111.59999355	0.00000000	-62.45079000	-32.27116000
111.79999353	0.00000000	-61.99557000	-31.48991000
111.99999352	0.00000000	-61.28814000	-30.04429000
112.19999351	0.00000000	-60.50073000	-28.88779000
112.39999350	0.00000000	-60.08243000	-28.42027000
112.59999349	0.00000000	-59.70718000	-28.04503000
112.79999347	0.00000000	-59.33809000	-27.67593000
112.99999346	0.00000000	-59.75024000	-28.04503000
113.19999345	0.00000000	-60.45767000	-28.37721000
113.39999344	0.00000000	-61.24508000	-28.46333000
113.59999343	0.00000000	-61.62032000	-28.83858000
113.79999341	0.00000000	-61.66338000	-29.58292000
113.99999340	0.00000000	-61.66338000	-29.95817000
114.19999339	0.00000000	-61.66338000	-30.00123000
114.39999338	0.00000000	-61.66338000	-30.04429000
114.59999337	0.00000000	-61.66338000	-30.41954000
114.79999336	0.00000000	-61.62032000	-31.15772000
114.99999334	0.00000000	-61.24508000	-31.48376000
115.19999333	0.00000000	-60.50073000	-31.15772000
115.39999332	0.00000000	-60.17470000	-30.41954000
115.59999331	0.00000000	-60.50073000	-30.00123000
115.79999330	0.00000000	-61.24508000	-29.58292000
115.99999328	0.00000000	-61.62032000	-28.83858000
116.19999327	0.00000000	-61.66338000	-28.42027000
116.39999326	0.00000000	-61.66338000	-28.00197000
116.59999325	0.00000000	-61.66338000	-27.30684000
116.79999324	0.00000000	-61.66338000	-27.30684000
116.99999322	0.00000000	-61.66338000	-28.00197000
117.19999321	0.00000000	-61.62032000	-28.46333000
117.39999320	0.00000000	-61.24508000	-29.25689000
117.59999319	0.00000000	-60.50073000	-30.78248000
117.79999318	0.00000000	-60.08243000	-31.85900000
117.99999317	0.00000000	-59.70718000	-32.32037000
118.19999315	0.00000000	-59.33809000	-31.90822000
118.39999314	0.00000000	-59.75024000	-31.20078000
118.59999313	0.00000000	-60.45767000	-30.37647000
118.79999312	0.00000000	-61.28814000	-29.62598000
118.99999311	0.00000000	-62.03863000	-28.83858000
119.19999309	0.00000000	-62.86909000	-28.46333000
119.39999308	0.00000000	-63.57652000	-28.37721000
119.59999307	0.00000000	-63.93946000	-28.04503000
119.79999306	0.00000000	-63.20127000	-27.67593000
119.99999305	0.00000000	-62.08169000	-28.08809000
120.19999303	0.00000000	-61.24508000	-28.75246000
120.39999302	0.00000000	-60.08243000	-29.20767000
120.59999301	0.00000000	-58.96899000	-29.21383000
120.79999300	0.00000000	-58.54454000	-29.62598000
120.99999299	0.00000000	-58.54454000	-29.95817000
121.19999298	0.00000000	-58.96899000	-30.00123000
121.39999296	0.00000000	-60.12549000	-30.00123000
121.59999295	0.00000000	-61.62032000	-30.00123000
121.79999294	0.00000000	-62.82603000	-29.95817000
121.99999293	0.00000000	-63.57652000	-29.58292000
122.19999292	0.00000000	-63.98867000	-28.79552000
122.39999290	0.00000000	-63.57652000	-28.04503000
122.59999289	0.00000000	-62.86909000	-27.25763000
122.79999288	0.00000000	-62.03863000	-26.88238000
122.99999287	0.00000000	-61.28814000	-26.83932000
123.19999286	0.00000000	-60.45767000	-26.88238000
123.39999284	0.00000000	-59.70718000	-27.25763000
123.59999283	0.00000000	-58.91978000	-28.00197000
123.79999282	0.00000000	-58.59375000	-28.42027000
123.99999281	0.00000000	-58.91978000	-28.83858000
124.19999280	0.00000000	-59.70718000	-29.58292000
124.39999279	0.00000000	-60.45767000	-29.95817000
124.59999277	0.00000000	-61.28814000	-30.00123000
124.79999276	0.00000000	-62.03863000	-29.95817000
124.99999275	0.00000000	-62.82603000	-29.58292000
125.19999274	0.00000000	-63.20127000	-28.83858000
125.39999273	0.00000000	-63.20127000	-28.46333000
125.59999271	0.00000000	-62.82603000	-28.42027000
125.79999270	0.00000000	-62.03863000	-28.37721000
125.99999269	0.00000000	-61.28814000	-28.04503000
126.19999268	0.00000000	-60.45767000	-27.67593000
126.39999267	0.00000000	-59.70718000	-28.04503000
126.59999265	0.00000000	-58.96899000	-28.42027000
126.79999264	0.00000000	-58.96899000	-28.83858000
126.99999263	0.00000000	-59.70718000	-29.58292000
127.19999262	0.00000000	-60.50073000	-29.95817000
127.39999261	0.00000000	-61.66338000	-30.00123000
127.59999260	0.00000000	-62.82603000	-30.00123000
127.79999258	0.00000000	-63.57652000	-30.00123000
127.99999257	0.00000000	-63.98867000	-30.00123000
128.19999256	0.00000000	-63.57652000	-30.00123000
128.39999255	0.00000000	-62.86909000	-30.00123000
128.59999254	0.00000000	-62.03863000	-29.95817000
128.79999252	0.00000000	-61.28814000	-29.62598000
128.99999251	0.00000000	-60.50073000	-29.25689000
129.19999250	0.00000000	-60.12549000	-29.62598000
129.39999249	0.00000000	-60.12549000	-29.95817000
129.59999248	0.00000000	-60.54995000	-30.00123000
129.79999246	0.00000000	-61.66338000	-30.00123000
129.99999245	0.00000000	-62.82603000	-30.04429000
130.19999244	0.00000000	-63.57652000	-30.37647000
130.39999243	0.00000000	-63.98867000	-30.73942000
130.59999242	0.00000000	-63.61958000	-30.32726000
130.79999241	0.00000000	-63.24434000	-29.62598000
130.99999239	0.00000000	-62.82603000	-28.88779000
131.19999238	0.00000000	-62.03863000	-28.83858000
131.39999237	0.00000000	-61.28814000	-29.20767000
131.59999236	0.00000000	-60.50073000	-29.21383000
131.79999235	0.00000000	-60.17470000	-29.66904000
131.99999233	0.00000000	-60.50073000	-30.37647000
132.19999232	0.00000000	-61.28814000	-31.15772000
132.39999231	0.00000000	-62.03863000	-31.53297000
132.59999230	0.00000000	-62.82603000	-31.53297000
132.79999229	0.00000000	-63.20127000	-31.11466000
132.99999227	0.00000000	-63.20127000	-30.00123000
133.19999226	0.00000000	-62.82603000	-28.88779000
133.39999225	0.00000000	-62.08169000	-28.42027000
133.59999224	0.00000000	-61.70644000	-28.04503000
133.79999223	0.00000000	-61.66338000	-27.67593000
133.99999222	0.00000000	-61.66338000	-28.04503000
134.19999220	0.00000000	-61.70644000	-28.42027000
134.39999219	0.00000000	-62.03863000	-28.88779000
134.59999218	0.00000000	-62.40772000	-30.00123000
134.79999217	0.00000000	-62.03863000	-31.11466000
134.99999216	0.00000000	-61.66338000	-31.48376000
135.19999214	0.00000000	-61.28814000	-31.15772000
135.39999213	0.00000000	-60.87598000	-30.41954000
135.59999212	0.00000000	-60.91289000	-30.00123000
135.79999211	0.00000000	-60.87598000	-29.58292000
135.99999210	0.00000000	-61.33120000	-28.83858000
136.19999208	0.00000000	-62.03863000	-28.42027000
136.39999207	0.00000000	-62.82603000	-28.00197000
136.59999206	0.00000000	-63.20127000	-27.30684000
136.79999205	0.00000000	-63.24434000	-27.30684000
136.99999204	0.00000000	-63.20127000	-28.04503000
137.19999203	0.00000000	-62.82603000	-28.79552000
137.39999201	0.00000000	-62.03863000	-29.53371000
137.59999200	0.00000000	-61.28814000	-29.58292000
137.79999199	0.00000000	-60.50073000	-29.30610000
137.99999198	0.00000000	-60.12549000	-30.04429000
138.19999197	0.00000000	-60.12549000	-31.06545000
138.39999195	0.00000000	-60.50073000	-31.11466000
138.59999194	0.00000000	-61.28814000	-30.41954000
138.79999193	0.00000000	-62.03863000	-30.00123000
138.99999192	0.00000000	-62.86909000	-29.58292000
139.19999191	0.00000000	-63.57652000	-28.79552000
139.39999189	0.00000000	-63.93946000	-28.04503000
139.59999188	0.00000000	-63.20127000	-27.30684000
139.79999187	0.00000000	-62.13090000	-27.30684000
139.99999186	0.00000000	-61.70644000	-28.04503000
140.19999185	0.00000000	-61.62032000	-28.79552000
140.39999184	0.00000000	-61.28814000	-29.58292000
140.59999182	0.00000000	-60.91904000	-30.00123000
140.79999181	0.00000000	-61.28814000	-30.41954000
140.99999180	0.00000000	-61.66338000	-31.15772000
141.19999179	0.00000000	-62.08169000	-31.48376000
141.39999178	0.00000000	-62.82603000	-31.15772000
141.59999176	0.00000000	-63.20127000	-30.37647000
141.79999175	0.00000000	-63.20127000	-29.62598000
141.99999174	0.00000000	-62.82603000	-28.79552000
142.19999173	0.00000000	-62.08169000	-28.04503000
142.39999172	0.00000000	-61.70644000	-27.30684000
142.59999170	0.00000000	-61.66338000	-27.30684000
142.79999169	0.00000000	-61.66338000	-28.04503000
142.99999168	0.00000000	-61.70644000	-28.83858000
143.19999167	0.00000000	-62.08169000	-30.00123000
143.39999166	0.00000000	-62.82603000	-31.11466000
143.59999165	0.00000000	-63.20127000	-31.53297000
143.79999163	0.00000000	-63.24434000	-31.57603000
143.99999162	0.00000000	-63.24434000	-31.53297000
144.19999161	0.00000000	-63.20127000	-31.15772000
144.39999160	0.00000000	-62.82603000	-30.37647000
144.59999159	0.00000000	-62.08169000	-29.62598000
144.79999157	0.00000000	-61.70644000	-28.83858000
144.99999156	0.00000000	-61.66338000	-28.46333000
145.19999155	0.00000000	-61.66338000	-28.42027000
145.39999154	0.00000000	-61.70644000	-28.46333000
145.59999153	0.00000000	-62.08169000	-28.83858000
145.79999151	0.00000000	-62.82603000	-29.58292000
145.99999150	0.00000000	-63.20127000	-30.00123000
146.19999149	0.00000000	-63.24434000	-30.41954000
146.39999148	0.00000000	-63.24434000	-31.15772000
146.59999147	0.00000000	-63.24434000	-31.48376000
146.79999146	0.00000000	-63.20127000	-31.15772000
146.99999144	0.00000000	-62.82603000	-30.41954000
147.19999143	0.00000000	-62.08169000	-30.04429000
147.39999142	0.00000000	-61.70644000	-29.95817000
147.59999141	0.00000000	-61.70644000	-29.58292000
147.79999140	0.00000000	-62.08169000	-28.83858000
147.99999138	0.00000000	-62.82603000	-28.46333000
148.19999137	0.00000000	-63.20127000	-28.42027000
148.39999136	0.00000000	-63.24434000	-28.46333000
148.59999135	0.00000000	-63.24434000	-28.83858000
148.79999134	0.00000000	-63.24434000	-29.58292000
148.99999132	0.00000000	-63.24434000	-29.95817000
149.19999131	0.00000000	-63.20127000	-30.00123000
149.39999130	0.00000000	-62.82603000	-30.00123000
149.59999129	0.00000000	-62.08169000	-30.00123000
149.79999128	0.00000000	-61.70644000	-30.00123000
149.99999127	0.00000000	-61.66338000	-29.95817000
150.19999125	0.00000000	-61.66338000	-29.58292000
150.39999124	0.00000000	-61.70644000	-28.83858000
150.59999123	0.00000000	-62.08169000	-28.46333000
150.79999122	0.00000000	-62.82603000	-28.42027000
150.99999121	0.00000000	-63.20127000	-28.42027000
151.19999119	0.00000000	-63.24434000	-28.46333000
151.39999118	0.00000000	-63.24434000	-28.83858000
151.59999117	0.00000000	-63.24434000	-29.58292000
151.79999116	0.00000000	-63.24434000	-29.95817000
151.99999115	0.00000000	-63.24434000	-30.00123000
152.19999113	0.00000000	-63.20127000	-30.00123000
152.39999112	0.00000000	-62.82603000	-30.00123000
152.59999111	0.00000000	-62.08169000	-30.00123000
152.79999110	0.00000000	-61.70644000	-30.00123000
152.99999109	0.00000000	-61.66338000	-30.00123000
153.19999108	0.00000000	-61.66338000	-29.95817000
153.39999106	0.00000000	-61.70644000	-29.58292000
153.59999105	0.00000000	-62.08169000	-28.83858000
153.79999104	0.00000000	-62.82603000	-28.46333000
153.99999103	0.00000000	-63.20127000	-28.42027000
154.19999102	0.00000000	-63.24434000	-28.42027000
154.39999100	0.00000000	-63.24434000	-28.42027000
154.59999099	0.00000000	-63.24434000	-28.42027000
154.79999098	0.00000000	-63.24434000	-28.42027000
154.99999097	0.00000000	-63.20127000	-28.46333000
155.19999096	0.00000000	-62.82603000	-28.83858000
155.39999094	0.00000000	-62.08169000	-29.58292000
155.59999093	0.00000000	-61.70644000	-29.95817000
155.79999092	0.00000000	-61.66338000	-29.95817000
155.99999091	0.00000000	-61.66338000	-29.62598000
156.19999090	0.00000000	-61.70644000	-29.21383000
156.39999089	0.00000000	-62.08169000	-29.20767000
156.59999087	0.00000000	-62.82603000	-28.79552000
156.79999086	0.00000000	-63.20127000	-28.46333000
156.99999085	0.00000000	-63.24434000	-28.42027000
157.19999084	0.00000000	-63.28740000	-28.46333000
157.39999083	0.00000000	-63.61958000	-28.79552000
157.59999081	0.00000000	-63.98867000	-29.20767000
157.79999080	0.00000000	-63.61958000	-29.21383000
157.99999079	0.00000000	-63.28740000	-29.62598000
158.19999078	0.00000000	-63.20127000	-29.95817000
158.39999077	0.00000000	-62.82603000	-30.00123000
158.59999075	0.00000000	-62.08169000	-30.00123000
158.79999074	0.00000000	-61.75566000	-30.00123000
158.99999073	0.00000000	-62.03863000	-30.00123000
159.19999072	0.00000000	-62.45079000	-29.95817000
159.39999071	0.00000000	-62.45694000	-29.58292000
159.59999070	0.00000000	-62.86909000	-28.83858000
159.79999068	0.00000000	-63.20127000	-28.46333000
159.99999067	0.00000000	-63.24434000	-28.42027000
160.19999066	0.00000000	-63.24434000	-28.46333000
160.39999065	0.00000000	-63.24434000	-28.83858000
160.59999064	0.00000000	-63.24434000	-29.58292000
160.79999062	0.00000000	-63.24434000	-29.95817000
160.99999061	0.00000000	-63.24434000	-30.04429000
161.19999060	0.00000000	-63.24434000	-30.41954000
161.39999059	0.00000000	-63.24434000	-31.11466000
161.59999058	0.00000000	-63.24434000	-31.11466000
161.79999056	0.00000000	-63.24434000	-30.41954000
161.99999055	0.00000000	-63.20127000	-30.04429000
162.19999054	0.00000000	-62.82603000	-30.00123000
162.39999053	0.00000000	-62.13090000	-30.00123000
162.59999052	0.00000000	-62.13090000	-30.00123000
162.79999051	0.00000000	-62.82603000	-30.00123000
162.99999049	0.00000000	-63.20127000	-29.95817000
163.19999048	0.00000000	-63.28740000	-29.62598000
163.39999047	0.00000000	-63.66264000	-29.25689000
163.59999046	0.00000000	-64.40699000	-29.62598000
163.79999045	0.00000000	-64.78223000	-29.95817000
163.99999043	0.00000000	-64.78223000	-30.00123000
164.19999042	0.00000000	-64.40699000	-30.00123000
164.39999041	0.00000000	-63.66264000	-30.00123000
164.59999040	0.00000000	-63.28740000	-30.00123000
164.79999039	0.00000000	-63.24434000	-30.00123000
164.99999037	0.00000000	-63.20127000	-30.00123000
165.19999036	0.00000000	-62.86909000	-30.00123000
165.39999035	0.00000000	-62.50000000	-30.00123000
165.59999034	0.00000000	-62.86909000	-30.00123000
165.79999033	0.00000000	-63.20127000	-30.00123000
165.99999032	0.00000000	-63.28740000	-30.00123000
166.19999030	0.00000000	-63.66264000	-30.00123000
166.39999029	0.00000000	-64.40699000	-30.00123000
166.59999028	0.00000000	-64.73302000	-30.00123000
166.79999027	0.00000000	-64.40699000	-30.00123000
166.99999026	0.00000000	-63.66264000	-30.00123000
167.19999024	0.00000000	-63.28740000	-30.00123000
167.39999023	0.00000000	-63.24434000	-30.00123000
167.59999022	0.00000000	-63.24434000	-30.00123000
167.79999021	0.00000000	-63.24434000	-29.95817000
167.99999020	0.00000000	-63.24434000	-29.62598000
168.19999018	0.00000000	-63.24434000	-29.25689000
168.39999017	0.00000000	-63.24434000	-29.62598000
168.59999016	0.00000000	-63.24434000	-29.95817000
168.79999015	0.00000000	-63.24434000	-30.00123000
168.99999014	0.00000000	-63.24434000	-30.00123000
169.19999013	0.00000000	-63.24434000	-30.00123000
169.39999011	0.00000000	-63.24434000	-30.00123000
169.59999010	0.00000000	-63.24434000	-30.00123000
169.79999009	0.00000000	-63.24434000	-30.00123000
169.99999008	0.00000000	-63.24434000	-30.00123000
170.19999007	0.00000000	-63.24434000	-30.00123000
170.39999005	0.00000000	-63.24434000	-30.00123000
170.59999004	0.00000000	-63.24434000	-30.00123000
170.79999003	0.00000000	-63.24434000	-30.00123000
170.99999002	0.00000000	-63.20127000	-30.00123000
171.19999001	0.00000000	-62.82603000	-30.00123000
171.39998999	0.00000000	-62.13090000	-30.00123000
171.59998998	0.00000000	-62.13090000	-30.00123000
171.79998997	0.00000000	-62.82603000	-30.00123000
171.99998996	0.00000000	-63.20127000	-30.00123000
172.19998995	0.00000000	-63.24434000	-30.00123000
172.39998994	0.00000000	-63.28740000	-30.00123000
172.59998992	0.00000000	-63.61958000	-30.00123000
172.79998991	0.00000000	-63.98867000	-30.00123000
172.99998990	0.00000000	-63.61958000	-30.00123000
173.19998989	0.00000000	-63.28740000	-30.00123000
173.39998988	0.00000000	-63.24434000	-30.00123000
173.59998986	0.00000000	-63.24434000	-30.00123000
173.79998985	0.00000000	-63.24434000	-30.00123000
173.99998984	0.00000000	-63.24434000	-30.00123000
174.19998983	0.00000000	-63.24434000	-30.00123000
174.39998982	0.00000000	-63.24434000	-30.00123000
174.59998980	0.00000000	-63.24434000	-30.00123000
174.79998979	0.00000000	-63.28740000	-30.00123000
174.99998978	0.00000000	-63.61958000	-30.00123000
175.19998977	0.00000000	-63.98867000	-30.00123000
175.39998976	0.00000000	-63.61958000	-30.00123000
175.59998975	0.00000000	-63.28740000	-30.00123000
175.79998973	0.00000000	-63.24434000	-30.00123000
175.99998972	0.00000000	-63.24434000	-30.00123000
176.19998971	0.00000000	-63.24434000	-30.00123000
176.39998970	0.00000000	-63.24434000	-30.00123000
176.59998969	0.00000000	-63.24434000	-30.00123000
176.79998967	0.00000000	-63.28740000	-30.00123000
176.99998966	0.00000000	-63.66264000	-30.00123000
177.19998965	0.00000000	-64.35777000	-30.04429000
177.39998964	0.00000000	-64.35777000	-30.41954000
177.59998963	0.00000000	-63.71186000	-31.11466000
177.79998961	0.00000000	-63.71186000	-31.11466000
177.99998960	0.00000000	-64.40699000	-30.41954000
178.19998959	0.00000000	-64.73302000	-30.04429000
178.39998958	0.00000000	-64.45004000	-30.00123000
178.59998957	0.00000000	-64.03790000	-30.00123000
178.79998956	0.00000000	-64.07480000	-30.00123000
178.99998954	0.00000000	-63.99483000	-30.00123000
179.19998953	0.00000000	-64.03174000	-30.00123000
179.39998952	0.00000000	-63.61958000	-30.00123000
179.59998951	0.00000000	-63.28740000	-30.00123000
179.79998950	0.00000000	-63.28740000	-30.00123000
179.99998948	0.00000000	-63.61958000	-30.00123000
180.19998947	0.00000000	-64.03174000	-30.00123000
180.39998946	0.00000000	-64.03790000	-30.00123000
180.59998945	0.00000000	-64.45004000	-30.00123000
180.79998944	0.00000000	-64.73302000	-30.00123000
180.99998942	0.00000000	-64.45004000	-30.00123000
181.19998941	0.00000000	-64.08095000	-30.00123000
181.39998940	0.00000000	-64.45004000	-30.00123000
181.59998939	0.00000000	-64.78223000	-30.00123000
181.79998938	0.00000000	-64.78223000	-30.00123000
181.99998937	0.00000000	-64.45004000	-30.00123000
182.19998935	0.00000000	-64.03790000	-30.00123000
182.39998934	0.00000000	-64.03174000	-30.00123000
182.59998933	0.00000000	-63.61958000	-30.00123000
182.79998932	0.00000000	-63.28740000	-30.00123000
182.99998931	0.00000000	-63.24434000	-30.00123000
183.19998929	0.00000000	-63.24434000	-30.00123000
183.39998928	0.00000000	-63.24434000	-30.00123000
183.59998927	0.00000000	-63.24434000	-30.00123000
183.79998926	0.00000000	-63.28740000	-30.00123000
183.99998925	0.00000000	-63.66264000	-30.00123000
184.19998923	0.00000000	-64.35777000	-29.95817000
184.39998922	0.00000000	-64.40699000	-29.58292000
184.59998921	0.00000000	-64.08095000	-28.88779000
184.79998920	0.00000000	-64.40699000	-28.83858000
184.99998919	0.00000000	-64.40699000	-29.16461000
185.19998918	0.00000000	-64.03790000	-28.83858000
185.39998916	0.00000000	-64.03174000	-28.88779000
185.59998915	0.00000000	-63.61958000	-29.58292000
185.79998914	0.00000000	-63.28740000	-29.95817000
185.99998913	0.00000000	-63.24434000	-30.04429000
186.19998912	0.00000000	-63.24434000	-30.37647000
186.39998910	0.00000000	-63.24434000	-30.73942000
186.59998909	0.00000000	-63.28740000	-30.37647000
186.79998908	0.00000000	-63.66264000	-30.04429000
186.99998907	0.00000000	-64.40699000	-30.00123000
187.19998906	0.00000000	-64.78223000	-30.00123000
187.39998904	0.00000000	-64.82529000	-29.95817000
187.59998903	0.00000000	-64.82529000	-29.62598000
187.79998902	0.00000000	-64.82529000	-29.21383000
187.99998901	0.00000000	-64.82529000	-29.25074000
188.19998900	0.00000000	-64.82529000	-29.21383000
188.39998899	0.00000000	-64.78223000	-29.62598000
188.59998897	0.00000000	-64.40699000	-29.95817000
188.79998896	0.00000000	-63.66264000	-30.04429000
188.99998895	0.00000000	-63.28740000	-30.41954000
189.19998894	0.00000000	-63.24434000	-31.15772000
189.39998893	0.00000000	-63.28740000	-31.53297000
189.59998891	0.00000000	-63.66264000	-31.53297000
189.79998890	0.00000000	-64.40699000	-31.15772000
189.99998889	0.00000000	-64.78223000	-30.41954000
190.19998888	0.00000000	-64.82529000	-30.04429000
190.39998887	0.00000000	-64.82529000	-30.00123000
190.59998885	0.00000000	-64.82529000	-30.00123000
190.79998884	0.00000000	-64.82529000	-30.00123000
190.99998883	0.00000000	-64.82529000	-30.00123000
191.19998882	0.00000000	-64.82529000	-30.00123000
191.39998881	0.00000000	-64.82529000	-30.00123000
191.59998880	0.00000000	-64.82529000	-30.04429000
191.79998878	0.00000000	-64.82529000	-30.37647000
191.99998877	0.00000000	-64.78223000	-30.73942000
192.19998876	0.00000000	-64.45004000	-30.41954000
192.39998875	0.00000000	-64.08095000	-30.46260000
192.59998874	0.00000000	-64.45004000	-31.11466000
192.79998872	0.00000000	-64.78223000	-31.15772000
192.99998871	0.00000000	-64.82529000	-30.79478000
193.19998870	0.00000000	-64.82529000	-30.78248000
193.39998869	0.00000000	-64.82529000	-30.37647000
193.59998868	0.00000000	-64.82529000	-30.04429000
193.79998866	0.00000000	-64.82529000	-30.00123000
193.99998865	0.00000000	-64.82529000	-30.00123000
194.19998864	0.00000000	-64.78223000	-29.95817000
194.39998863	0.00000000	-64.45004000	-29.62598000
194.59998862	0.00000000	-64.08095000	-29.25689000
194.79998861	0.00000000	-64.45004000	-29.62598000
194.99998859	0.00000000	-64.78223000	-29.95817000
195.19998858	0.00000000	-64.82529000	-30.00123000
195.39998857	0.00000000	-64.82529000	-30.00123000
195.59998856	0.00000000	-64.82529000	-30.04429000
195.79998855	0.00000000	-64.82529000	-30.37647000
195.99998853	0.00000000	-64.82529000	-30.73942000
