Time	Channel A	Channel B	Channel C
(us)	(V)	(mV)	(mV)

-4.49999956	0.00000000	-48.64050000	-24.84621000
-4.29999957	0.00000000	-48.92347000	-25.22145000
-4.09999958	0.00000000	-48.59744000	-25.26452000
-3.89999959	0.00000000	-47.85310000	-25.26452000
-3.69999960	0.00000000	-47.52707000	-25.26452000
-3.49999962	0.00000000	-47.81004000	-25.26452000
-3.29999963	0.00000000	-48.17913000	-25.22145000
-3.09999964	0.00000000	-47.85310000	-24.88927000
-2.89999965	0.00000000	-47.90231000	-24.52018000
-2.69999966	0.00000000	-48.54823000	-24.88927000
-2.49999968	0.00000000	-48.59744000	-25.22145000
-2.29999969	0.00000000	-48.27140000	-25.26452000
-2.09999970	0.00000000	-48.64050000	-25.26452000
-1.89999971	0.00000000	-48.97269000	-25.26452000
-1.69999972	0.00000000	-49.01575000	-25.26452000
-1.49999973	0.00000000	-49.01575000	-25.26452000
-1.29999975	0.00000000	-49.01575000	-25.26452000
-1.09999976	0.00000000	-49.01575000	-25.26452000
-0.89999977	0.00000000	-48.97269000	-25.22145000
-0.69999978	0.00000000	-48.64050000	-24.88927000
-0.49999979	0.00000000	-48.27140000	-24.52018000
-0.29999981	0.31803640	-48.64050000	-24.88927000
-0.09999982	0.63668800	-48.92347000	-25.17224000
0.10000017	0.95533960	-48.64050000	-24.88927000
0.30000016	1.11466500	-48.27140000	-24.52018000
0.50000015	0.79601380	-48.64050000	-24.88927000
0.70000013	0.15871060	-48.97269000	-25.22145000
0.90000012	-0.63668800	-49.01575000	-25.26452000
1.10000011	-1.59264300	-49.01575000	-25.26452000
1.30000010	-2.38927200	-49.01575000	-25.22145000
1.50000009	-2.86724900	-49.01575000	-24.84621000
1.70000008	-2.38927200	-48.97269000	-24.10187000
1.90000006	-1.11466500	-48.59744000	-23.72662000
2.10000005	0.79601380	-47.85310000	-23.68356000
2.30000004	2.86724900	-47.52707000	-23.72662000
2.50000003	4.61921700	-47.85310000	-24.10187000
2.70000002	5.41584600	-48.59744000	-24.84621000
2.90000000	4.77854300	-48.97269000	-25.22145000
3.09999999	2.70792300	-49.01575000	-25.26452000
3.29999998	-0.31803640	-49.01575000	-25.26452000
3.49999997	-3.82258900	-49.01575000	-25.26452000
3.69999996	-6.69045300	-49.01575000	-25.22145000
3.89999994	-7.96444400	-49.01575000	-24.84621000
4.09999993	-7.32714100	-48.97269000	-24.10187000
4.29999992	-4.77854300	-48.64050000	-23.72662000
4.49999991	-0.63668800	-48.27140000	-23.68356000
4.69999990	3.82258900	-48.64050000	-23.72662000
4.89999989	7.48646600	-48.97269000	-24.10187000
5.09999987	9.39837600	-49.01575000	-24.84621000
5.29999986	8.92039900	-49.01575000	-25.22145000
5.49999985	6.21247500	-49.01575000	-25.26452000
5.69999984	1.91129400	-49.01575000	-25.26452000
5.89999983	-2.86724900	-49.01575000	-25.26452000
6.09999981	-6.84916400	-49.01575000	-25.26452000
6.29999980	-9.23905000	-49.01575000	-25.26452000
6.49999979	-9.23905000	-49.01575000	-25.26452000
6.69999978	-6.84916400	-49.01575000	-25.26452000
6.89999977	-3.02657500	-49.01575000	-25.26452000
7.09999975	1.43331700	-48.97269000	-25.26452000
7.29999974	5.09719500	-48.64050000	-25.26452000
7.49999973	7.32714100	-48.27140000	-25.26452000
7.69999972	7.64579200	-48.64050000	-25.30758000
7.89999971	6.05315000	-48.97269000	-25.68282000
8.09999970	3.18590100	-49.01575000	-26.37795000
8.29999968	-0.15871060	-49.01575000	-26.37795000
8.49999967	-3.02657500	-49.01575000	-25.68282000
8.69999966	-4.77854300	-49.01575000	-25.35679000
8.89999965	-5.09719500	-49.01575000	-25.63976000
9.09999964	-4.30056600	-49.01575000	-25.95964000
9.29999962	-2.54859700	-49.01575000	-25.26452000
9.49999961	-0.47736220	-49.01575000	-24.56939000
9.69999960	1.27399100	-49.01575000	-24.88927000
9.89999959	2.22994600	-49.01575000	-25.22145000
10.09999958	2.54859700	-49.01575000	-25.26452000
10.29999956	2.22994600	-49.01575000	-25.26452000
10.49999955	1.27399100	-49.01575000	-25.26452000
10.69999954	0.47736220	-49.01575000	-25.26452000
10.89999953	-0.31803640	-49.01575000	-25.26452000
11.09999952	-0.79601380	-49.01575000	-25.26452000
11.29999951	-0.95533960	-49.01575000	-25.26452000
11.49999949	-0.95533960	-49.01575000	-25.26452000
11.69999948	-0.63668800	-49.01575000	-25.26452000
11.89999947	-0.31803640	-49.01575000	-25.26452000
12.09999946	-0.15871060	-49.01575000	-25.26452000
12.29999945	-0.15871060	-49.01575000	-25.26452000
12.49999943	-0.15871060	-49.01575000	-25.26452000
12.69999942	0.00000000	-49.01575000	-25.26452000
12.89999941	0.00000000	-49.01575000	-25.22145000
13.09999940	0.00000000	-49.01575000	-24.88927000
13.29999939	0.00000000	-49.01575000	-24.52018000
13.49999937	0.00000000	-49.01575000	-24.88927000
13.69999936	0.00000000	-49.01575000	-25.22145000
13.89999935	0.00000000	-49.01575000	-25.26452000
14.09999934	-0.15871060	-49.01575000	-25.26452000
14.29999933	-0.15871060	-49.01575000	-25.26452000
14.49999932	-0.15871060	-49.01575000	-25.22145000
14.69999930	0.00000000	-49.01575000	-24.88927000
14.89999929	0.00000000	-49.01575000	-24.52018000
15.09999928	0.00000000	-49.01575000	-24.88927000
15.29999927	0.00000000	-49.01575000	-25.17224000
15.49999926	0.00000000	-49.05881000	-24.88927000
15.69999924	0.00000000	-49.39099000	-24.52018000
15.89999923	0.00000000	-49.76009000	-24.88927000
16.09999922	0.00000000	-49.39099000	-25.22145000
16.29999921	-0.15871060	-49.05881000	-25.22145000
16.49999920	-0.15871060	-49.01575000	-24.88927000
16.69999919	0.00000000	-48.97269000	-24.52018000
16.89999917	-0.15871060	-48.59744000	-24.88927000
17.09999916	0.00000000	-47.85310000	-25.22145000
17.29999915	0.00000000	-47.47785000	-25.26452000
17.49999914	0.00000000	-47.43479000	-25.26452000
17.69999913	0.00000000	-47.47785000	-25.26452000
17.89999911	0.00000000	-47.90231000	-25.26452000
18.09999910	0.00000000	-49.05881000	-25.26452000
18.29999909	0.00000000	-50.59670000	-25.26452000
18.49999908	0.00000000	-52.17765000	-25.26452000
18.69999907	0.00000000	-53.71555000	-25.26452000
18.89999905	0.00000000	-54.82898000	-25.26452000
19.09999904	0.00000000	-54.78592000	-25.26452000
19.29999903	0.00000000	-53.24803000	-25.26452000
19.49999902	0.00000000	-50.50443000	-25.26452000
19.69999901	0.00000000	-47.01648000	-25.26452000
19.89999900	0.00000000	-43.15945000	-25.26452000
20.09999898	0.00000000	-40.08366000	-25.26452000
20.29999897	0.00000000	-38.59498000	-25.26452000
20.49999896	0.00000000	-39.43159000	-25.26452000
20.69999895	0.00000000	-43.33784000	-25.26452000
20.89999894	0.00000000	-49.52633000	-25.26452000
21.09999892	0.00000000	-56.92052000	-25.26452000
21.29999891	0.00000000	-64.22859000	-25.26452000
21.49999890	0.00000000	-69.53740000	-25.26452000
21.69999889	0.00000000	-70.65083000	-25.26452000
21.89999888	0.00000000	-66.75073000	-25.26452000
22.09999886	0.00000000	-58.55684000	-25.30758000
22.29999885	0.00000000	-46.92421000	-25.68282000
22.49999884	0.00000000	-34.22121000	-26.37795000
22.69999883	0.00000000	-23.79429000	-26.32874000
22.89999882	0.00000000	-18.11639000	-25.30758000
23.09999881	0.00000000	-19.37746000	-24.52018000
23.29999879	0.00000000	-28.67864000	-24.47096000
23.49999878	0.00000000	-43.75615000	-24.05881000
23.69999877	0.00000000	-61.57726000	-23.72662000
23.89999876	0.00000000	-78.51254000	-23.68356000
24.09999875	0.00000000	-90.00368000	-23.72662000
24.29999873	0.00000000	-92.66116000	-24.15108000
24.49999872	0.00000000	-85.26082000	-25.30758000
24.69999871	0.00000000	-69.02682000	-26.83932000
24.89999870	0.00000000	-47.39173000	-28.42027000
25.09999869	0.00000000	-25.38140000	-29.95201000
25.29999867	0.00000000	-8.02780400	-31.06545000
25.49999866	0.00000000	0.39370070	-31.02239000
25.69999865	0.00000000	-2.71899600	-29.49065000
25.89999864	0.00000000	-17.00295000	-26.75320000
26.09999863	0.00000000	-39.01329000	-23.26525000
26.29999862	0.00000000	-63.76107000	-19.36516000
26.49999860	0.00000000	-85.77140000	-15.96334000
26.69999859	0.00000000	-100.05540000	-14.06865000
26.89999858	0.00000000	-103.08810000	-14.89911000
27.09999857	0.00000000	-93.86687000	-18.38706000
27.29999856	0.00000000	-74.60629000	-24.23720000
27.49999854	0.00000000	-50.63976000	-31.53297000
27.69999853	0.00000000	-27.00541000	-38.50270000
27.89999852	0.00000000	-8.53223400	-43.47933000
28.09999851	0.00000000	-0.02460630	-45.33095000
28.29999850	0.00000000	-3.37106300	-42.59350000
28.49999848	0.00000000	-16.44931000	-35.58071000
28.69999847	0.00000000	-35.80217000	-25.49212000
28.89999846	0.00000000	-57.48647000	-13.51501000
29.09999845	0.00000000	-76.79625000	-2.81742100
29.29999844	0.00000000	-89.58538000	3.72170300
29.49999843	0.00000000	-93.12254000	4.09694900
29.69999841	0.00000000	-87.40157000	-1.75319900
29.89999840	0.00000000	-74.28026000	-12.99828000
30.09999839	0.00000000	-56.92052000	-28.04503000
30.29999838	0.00000000	-39.47465000	-43.10408000
30.49999837	0.00000000	-25.46752000	-55.05044000
30.69999835	0.00000000	-16.95374000	-61.17741000
30.89999834	0.00000000	-15.74803000	-59.23351000
31.09999833	0.00000000	-21.88730000	-49.98154000
31.29999832	0.00000000	-33.05856000	-35.24852000
31.49999831	0.00000000	-47.01648000	-17.87647000
31.69999829	0.00000000	-60.51304000	-1.61786400
31.89999828	0.00000000	-70.65083000	10.27928000
32.09999827	0.00000000	-75.76894000	14.91757000
32.29999826	0.00000000	-75.76894000	10.65453000
32.49999825	0.00000000	-70.69389000	-0.87967510
32.69999824	0.00000000	-61.06668000	-17.54429000
32.89999822	0.00000000	-49.52633000	-35.62377000
33.09999821	0.00000000	-39.09941000	-51.13803000
33.29999820	0.00000000	-32.08046000	-60.80831000
33.49999819	0.00000000	-29.69980000	-63.17667000
33.69999818	0.00000000	-31.61294000	-57.73868000
33.89999816	0.00000000	-37.43233000	-45.79847000
34.09999815	0.00000000	-45.89690000	-29.90895000
34.29999814	0.00000000	-54.74286000	-13.31816000
34.49999813	0.00000000	-61.71259000	0.56594490
34.69999812	0.00000000	-65.20669000	8.28001900
34.89999810	0.00000000	-64.87450000	8.37229300
35.09999809	0.00000000	-61.01746000	1.40255900
35.29999808	0.00000000	-54.87204000	-10.95595000
35.49999807	0.00000000	-47.94537000	-26.32874000
35.69999806	0.00000000	-42.21825000	-40.59424000
35.89999805	0.00000000	-39.48080000	-50.30758000
36.09999803	0.00000000	-40.21899000	-54.20767000
36.29999802	0.00000000	-43.62082000	-51.47023000
36.49999801	0.00000000	-48.64050000	-42.63656000
36.69999800	0.00000000	-53.62328000	-30.00123000
36.89999799	0.00000000	-57.52953000	-17.31053000
37.09999797	0.00000000	-59.43651000	-8.06471300
37.29999796	0.00000000	-59.06127000	-4.16461600
37.49999795	0.00000000	-56.36687000	-6.44069800
37.69999794	0.00000000	-52.13459000	-13.69340000
37.89999793	0.00000000	-47.47785000	-23.68356000
38.09999791	0.00000000	-43.28863000	-33.63066000
38.29999790	0.00000000	-40.96949000	-40.55118000
38.49999789	0.00000000	-41.33858000	-42.45817000
38.69999788	0.00000000	-43.62082000	-39.06250000
38.89999787	0.00000000	-47.52707000	-31.39763000
39.09999786	0.00000000	-52.13459000	-22.23794000
39.29999784	0.00000000	-56.36687000	-14.15477000
39.49999783	0.00000000	-59.11048000	-9.59645700
39.69999782	0.00000000	-59.94709000	-9.97170200
39.89999781	0.00000000	-59.52879000	-15.36048000
40.09999780	0.00000000	-57.57259000	-24.19414000
40.29999778	0.00000000	-54.09079000	-34.14124000
40.49999777	0.00000000	-50.22145000	-42.13213000
40.69999776	0.00000000	-46.32135000	-45.24483000
40.89999775	0.00000000	-43.24557000	-42.96875000
41.09999774	0.00000000	-41.66461000	-36.41117000
41.29999772	0.00000000	-41.66461000	-26.79626000
41.49999771	0.00000000	-43.24557000	-16.84916000
41.69999770	0.00000000	-46.36442000	-9.55339400
41.89999769	0.00000000	-50.59670000	-6.81594400
42.09999768	0.00000000	-54.82898000	-9.09202700
42.29999767	0.00000000	-57.94783000	-15.22515000
42.49999765	0.00000000	-59.52879000	-23.68356000
42.69999764	0.00000000	-59.52879000	-32.14198000
42.89999763	0.00000000	-57.99089000	-38.31816000
43.09999762	0.00000000	-55.29650000	-41.06176000
43.29999761	0.00000000	-52.22071000	-39.89911000
43.49999759	0.00000000	-49.48326000	-35.34079000
43.69999758	0.00000000	-47.52707000	-28.83858000
43.89999757	0.00000000	-46.32135000	-22.65625000
44.09999756	0.00000000	-45.94611000	-17.96260000
44.29999755	0.00000000	-46.27214000	-15.27436000
44.49999753	0.00000000	-47.05954000	-15.22515000
44.69999752	0.00000000	-47.81004000	-17.50123000
44.89999751	0.00000000	-48.59744000	-20.94611000
45.09999750	0.00000000	-49.01575000	-24.84621000
45.29999749	0.00000000	-49.48326000	-28.28494000
45.49999748	0.00000000	-50.68897000	-30.64714000
45.69999746	0.00000000	-52.64517000	-31.39763000
45.89999745	0.00000000	-55.33957000	-30.69636000
46.09999744	0.00000000	-58.03395000	-28.74631000
46.29999743	0.00000000	-59.90403000	-26.46407000
46.49999742	0.00000000	-60.26698000	-24.10187000
46.69999740	0.00000000	-58.27386000	-22.19488000
46.89999739	0.00000000	-54.41068000	-21.03838000
47.09999738	0.00000000	-48.92347000	-21.03838000
47.29999737	0.00000000	-42.82726000	-22.15182000
47.49999736	0.00000000	-37.80758000	-23.72662000
47.69999734	0.00000000	-35.51919000	-25.68282000
47.89999733	0.00000000	-36.31890000	-27.95891000
48.09999732	0.00000000	-40.63730000	-29.49065000
48.29999731	0.00000000	-47.94537000	-29.95817000
48.49999730	0.00000000	-56.40993000	-29.90895000
48.69999729	0.00000000	-63.76107000	-29.02928000
48.89999727	0.00000000	-68.37475000	-26.37795000
49.09999726	0.00000000	-69.11294000	-22.98843000
49.29999725	0.00000000	-65.25590000	-20.66314000
49.49999724	0.00000000	-57.94783000	-19.45743000
49.69999723	0.00000000	-49.01575000	-19.45743000
49.89999721	0.00000000	-40.16978000	-20.66314000
50.09999720	0.00000000	-33.66142000	-22.98843000
50.29999719	0.00000000	-31.74827000	-26.51329000
50.49999718	0.00000000	-34.77485000	-30.28420000
50.69999717	0.00000000	-41.70767000	-33.39075000
50.89999715	0.00000000	-50.59670000	-34.51033000
51.09999714	0.00000000	-59.44266000	-33.71678000
51.29999713	0.00000000	-65.95103000	-30.64714000
51.49999712	0.00000000	-67.90723000	-26.10113000
51.69999711	0.00000000	-65.29897000	-22.23794000
51.89999710	0.00000000	-59.48573000	-19.40822000
52.09999708	0.00000000	-51.80241000	-17.54429000
52.29999707	0.00000000	-44.08833000	-17.22441000
52.49999706	0.00000000	-38.73031000	-19.54355000
52.69999705	0.00000000	-36.78026000	-23.68356000
52.89999704	0.00000000	-39.10556000	-27.90969000
53.09999702	0.00000000	-44.82652000	-31.02239000
53.29999701	0.00000000	-52.13459000	-32.60334000
53.49999700	0.00000000	-59.01821000	-32.60334000
53.69999699	0.00000000	-63.25048000	-31.06545000
53.89999698	0.00000000	-63.66880000	-28.42027000
54.09999696	0.00000000	-60.64222000	-25.72589000
54.29999695	0.00000000	-55.24729000	-23.77584000
54.49999694	0.00000000	-49.10802000	-22.65625000
54.69999693	0.00000000	-43.75615000	-23.03149000
54.89999692	0.00000000	-41.06176000	-24.88927000
55.09999691	0.00000000	-41.75689000	-26.79626000
55.29999689	0.00000000	-44.82652000	-28.32800000
55.49999688	0.00000000	-49.48326000	-29.07234000
55.69999687	0.00000000	-54.82898000	-28.28494000
55.89999686	0.00000000	-59.06127000	-26.42101000
56.09999685	0.00000000	-61.01746000	-24.10187000
56.29999683	0.00000000	-60.64222000	-22.23794000
56.49999682	0.00000000	-57.94783000	-21.49975000
56.69999681	0.00000000	-53.71555000	-22.65625000
56.89999680	0.00000000	-49.10802000	-25.30758000
57.09999679	0.00000000	-45.29404000	-28.42027000
57.29999677	0.00000000	-43.71309000	-31.48991000
57.49999676	0.00000000	-44.40821000	-33.76599000
57.69999675	0.00000000	-46.36442000	-34.04897000
57.89999674	0.00000000	-49.43405000	-31.76673000
58.09999673	0.00000000	-52.87278000	-27.12229000
58.29999672	0.00000000	-55.20423000	-21.77042000
58.49999670	0.00000000	-56.40993000	-16.75689000
58.69999669	0.00000000	-56.36687000	-13.73647000
58.89999668	0.00000000	-54.87204000	-13.73647000
59.09999667	0.00000000	-52.59596000	-16.80610000
59.29999666	0.00000000	-50.63976000	-22.23794000
59.49999664	0.00000000	-49.10802000	-28.74631000
59.69999663	0.00000000	-48.32062000	-34.92249000
59.89999662	0.00000000	-48.68356000	-38.74261000
60.09999661	0.00000000	-49.43405000	-39.53002000
60.29999660	0.00000000	-50.59670000	-36.78642000
60.49999658	0.00000000	-51.71013000	-30.97933000
60.69999657	0.00000000	-52.08538000	-23.30832000
60.89999656	0.00000000	-51.75935000	-15.64960000
61.09999655	0.00000000	-51.01501000	-10.62377000
61.29999654	0.00000000	-50.59670000	-9.04896600
61.49999653	0.00000000	-50.22145000	-11.04208000
61.69999651	0.00000000	-49.85236000	-16.80610000
61.89999650	0.00000000	-50.26451000	-24.88927000
62.09999649	0.00000000	-51.01501000	-32.97859000
62.29999648	0.00000000	-52.22071000	-39.53002000
62.49999647	0.00000000	-53.71555000	-42.59350000
62.69999645	0.00000000	-54.82898000	-41.48006000
62.89999644	0.00000000	-54.82898000	-36.82948000
63.09999643	0.00000000	-53.71555000	-29.53371000
63.29999642	0.00000000	-52.17765000	-21.45669000
63.49999641	0.00000000	-50.59670000	-14.89911000
63.69999639	0.00000000	-49.05881000	-10.99901000
63.89999638	0.00000000	-47.94537000	-10.62377000
64.09999637	0.00000000	-47.94537000	-13.65034000
64.29999636	0.00000000	-49.05881000	-19.08218000
64.49999635	0.00000000	-50.63976000	-25.63976000
64.69999634	0.00000000	-52.55290000	-32.22810000
64.89999632	0.00000000	-54.50295000	-37.20472000
65.09999631	0.00000000	-55.62254000	-39.57308000
65.29999630	0.00000000	-56.03469000	-38.82874000
65.49999629	0.00000000	-55.20423000	-35.80217000
65.69999628	0.00000000	-53.34030000	-31.53297000
65.89999626	0.00000000	-51.06422000	-26.88238000
66.09999625	0.00000000	-49.52633000	-22.57013000
66.29999624	0.00000000	-49.10802000	-19.08218000
66.49999623	0.00000000	-49.48326000	-16.75689000
66.69999622	0.00000000	-50.68897000	-16.38164000
66.89999620	0.00000000	-52.55290000	-17.83341000
67.09999619	0.00000000	-54.45374000	-20.19562000
67.29999618	0.00000000	-55.20423000	-22.93922000
67.49999617	0.00000000	-54.82898000	-26.46407000
67.69999616	0.00000000	-53.24803000	-29.90895000
67.89999615	0.00000000	-50.59670000	-32.69562000
68.09999613	0.00000000	-47.94537000	-34.64567000
68.29999612	0.00000000	-46.40748000	-35.75910000
68.49999611	0.00000000	-46.40748000	-35.34079000
68.69999610	0.00000000	-47.98843000	-33.02165000
68.89999609	0.00000000	-51.06422000	-29.53371000
69.09999607	0.00000000	-54.92125000	-25.26452000
69.29999606	0.00000000	-58.40920000	-20.98917000
69.49999605	0.00000000	-61.10974000	-17.50123000
69.69999604	0.00000000	-62.18011000	-15.22515000
69.89999603	0.00000000	-60.64222000	-15.27436000
70.09999601	0.00000000	-56.78519000	-17.91953000
70.29999600	0.00000000	-51.75935000	-22.14567000
70.49999599	0.00000000	-46.36442000	-26.83932000
70.69999598	0.00000000	-42.17519000	-31.48376000
70.89999597	0.00000000	-40.59424000	-35.34079000
71.09999596	0.00000000	-41.75689000	-37.24778000
71.29999594	0.00000000	-45.24483000	-36.87869000
71.49999593	0.00000000	-50.68897000	-34.18430000
71.69999592	0.00000000	-56.82825000	-29.95817000
71.89999591	0.00000000	-62.22318000	-25.30758000
72.09999590	0.00000000	-65.29897000	-21.08145000
72.29999588	0.00000000	-65.34202000	-18.38706000
72.49999587	0.00000000	-62.64764000	-17.96260000
72.69999586	0.00000000	-57.99089000	-19.45743000
72.89999585	0.00000000	-52.17765000	-22.15182000
73.09999584	0.00000000	-46.40748000	-25.21530000
73.29999582	0.00000000	-42.17519000	-27.90969000
73.49999581	0.00000000	-40.59424000	-29.44759000
73.69999580	0.00000000	-41.75689000	-29.53371000
73.89999579	0.00000000	-45.20177000	-28.75246000
74.09999578	0.00000000	-50.22145000	-27.62672000
74.29999577	0.00000000	-55.20423000	-26.10113000
74.49999575	0.00000000	-59.11048000	-25.39985000
74.69999574	0.00000000	-61.06668000	-25.72589000
74.89999573	0.00000000	-61.10974000	-26.88853000
75.09999572	0.00000000	-59.52879000	-28.32800000
75.29999571	0.00000000	-56.45300000	-29.11540000
75.49999569	0.00000000	-52.64517000	-28.70325000
75.69999568	0.00000000	-49.56939000	-27.54060000
75.89999567	0.00000000	-47.94537000	-25.17224000
76.09999566	0.00000000	-47.52707000	-22.15182000
76.29999565	0.00000000	-47.90231000	-19.45743000
76.49999563	0.00000000	-49.05881000	-17.96260000
76.69999562	0.00000000	-50.59670000	-18.38706000
76.89999561	0.00000000	-52.13459000	-21.08145000
77.09999560	0.00000000	-53.24803000	-25.30758000
77.29999559	0.00000000	-53.29109000	-29.95817000
77.49999558	0.00000000	-52.64517000	-34.18430000
77.69999556	0.00000000	-52.64517000	-36.82948000
77.89999555	0.00000000	-53.34030000	-36.82948000
78.09999554	0.00000000	-53.75861000	-34.14124000
78.29999553	0.00000000	-54.17691000	-29.49065000
78.49999552	0.00000000	-54.92125000	-23.72662000
78.69999550	0.00000000	-55.24729000	-18.33784000
78.89999549	0.00000000	-54.87204000	-14.84990000
79.09999548	0.00000000	-53.71555000	-13.69340000
79.29999547	0.00000000	-52.13459000	-15.22515000
79.49999546	0.00000000	-50.22145000	-19.03912000
79.69999544	0.00000000	-48.32062000	-23.72662000
79.89999543	0.00000000	-47.57013000	-28.79552000
80.09999542	0.00000000	-47.94537000	-33.76599000
80.29999541	0.00000000	-49.52633000	-36.82948000
80.49999540	0.00000000	-52.22071000	-37.24778000
80.69999539	0.00000000	-55.24729000	-35.38385000
80.89999537	0.00000000	-57.57259000	-31.90822000
81.09999536	0.00000000	-58.36614000	-28.04503000
81.29999535	0.00000000	-57.99089000	-24.15108000
81.49999534	0.00000000	-56.40993000	-21.03838000
81.69999533	0.00000000	-53.75861000	-19.03912000
81.89999531	0.00000000	-51.06422000	-17.91953000
82.09999530	0.00000000	-49.10802000	-18.29478000
82.29999529	0.00000000	-47.94537000	-20.23868000
82.49999528	0.00000000	-47.94537000	-22.89616000
82.69999527	0.00000000	-49.10802000	-26.04577000
82.89999525	0.00000000	-51.01501000	-28.79552000
83.09999524	0.00000000	-53.29109000	-31.53297000
83.29999523	0.00000000	-54.87204000	-33.80905000
83.49999522	0.00000000	-55.67175000	-34.60261000
83.69999521	0.00000000	-56.03469000	-34.22736000
83.89999520	0.00000000	-55.29650000	-32.64640000
84.09999518	0.00000000	-54.22613000	-29.90895000
84.29999517	0.00000000	-53.75861000	-26.42101000
84.49999516	0.00000000	-53.34030000	-22.57013000
84.69999515	0.00000000	-52.59596000	-19.50049000
84.89999514	0.00000000	-52.26993000	-17.91953000
85.09999512	0.00000000	-52.55290000	-17.91953000
85.29999511	0.00000000	-52.92200000	-19.50049000
85.49999510	0.00000000	-52.55290000	-22.61319000
85.69999509	0.00000000	-52.17765000	-26.88238000
85.89999508	0.00000000	-51.80241000	-31.48376000
86.09999506	0.00000000	-51.43332000	-35.29773000
86.29999505	0.00000000	-51.84547000	-36.82948000
86.49999504	0.00000000	-52.59596000	-35.71604000
86.69999503	0.00000000	-53.80167000	-32.64640000
86.89999502	0.00000000	-55.29650000	-28.37721000
87.09999501	0.00000000	-56.45300000	-23.72662000
87.29999499	0.00000000	-56.82825000	-19.50049000
87.49999498	0.00000000	-56.45300000	-16.84916000
87.69999497	0.00000000	-55.29650000	-16.84916000
87.89999496	0.00000000	-53.75861000	-19.50049000
88.09999495	0.00000000	-52.17765000	-23.72662000
88.29999493	0.00000000	-50.63976000	-28.37721000
88.49999492	0.00000000	-49.52633000	-32.60334000
88.69999491	0.00000000	-49.52633000	-35.29773000
88.89999490	0.00000000	-50.68897000	-35.67298000
89.09999489	0.00000000	-52.55290000	-33.76599000
89.29999487	0.00000000	-54.50295000	-29.90895000
89.49999486	0.00000000	-55.67175000	-25.30758000
89.69999485	0.00000000	-56.45300000	-21.03838000
89.89999484	0.00000000	-56.40993000	-18.01181000
90.09999483	0.00000000	-55.33957000	-17.22441000
90.29999482	0.00000000	-54.17691000	-19.16830000
90.49999480	0.00000000	-53.38336000	-22.98843000
90.69999479	0.00000000	-52.55290000	-27.95275000
90.89999478	0.00000000	-51.84547000	-32.18504000
91.09999477	0.00000000	-51.43332000	-34.51033000
91.29999476	0.00000000	-51.80241000	-34.87943000
91.49999474	0.00000000	-52.13459000	-32.56028000
91.69999473	0.00000000	-52.22071000	-28.37721000
91.89999472	0.00000000	-52.55290000	-23.72662000
92.09999471	0.00000000	-52.96506000	-19.50049000
92.29999470	0.00000000	-52.97121000	-16.84916000
92.49999468	0.00000000	-53.38336000	-16.84916000
92.69999467	0.00000000	-53.75861000	-19.54355000
92.89999466	0.00000000	-54.17691000	-24.15108000
93.09999465	0.00000000	-54.96432000	-29.49065000
93.29999464	0.00000000	-55.71481000	-33.67372000
93.49999463	0.00000000	-56.45300000	-35.25467000
93.69999461	0.00000000	-56.40993000	-34.13509000
93.89999460	0.00000000	-55.29650000	-31.06545000
94.09999459	0.00000000	-53.71555000	-26.83932000
94.29999458	0.00000000	-51.80241000	-22.61319000
94.49999457	0.00000000	-49.85236000	-19.54355000
94.69999455	0.00000000	-48.68356000	-18.38706000
94.89999454	0.00000000	-47.94537000	-19.54355000
95.09999453	0.00000000	-48.40674000	-22.61319000
95.29999452	0.00000000	-50.68897000	-26.79626000
95.49999451	0.00000000	-53.71555000	-30.64714000
95.69999449	0.00000000	-56.50221000	-32.97859000
95.89999448	0.00000000	-58.83366000	-33.76599000
96.09999447	0.00000000	-60.73450000	-32.56028000
96.29999446	0.00000000	-61.06668000	-29.53371000
96.49999445	0.00000000	-59.52879000	-25.72589000
96.69999444	0.00000000	-56.45300000	-22.65625000
96.89999442	0.00000000	-52.59596000	-21.08145000
97.09999441	0.00000000	-49.10802000	-21.03838000
97.29999440	0.00000000	-46.40748000	-22.23794000
97.49999439	0.00000000	-45.24483000	-24.52018000
97.69999438	0.00000000	-45.98917000	-27.54060000
97.89999436	0.00000000	-47.94537000	-29.44759000
98.09999435	0.00000000	-51.10728000	-29.95817000
98.29999434	0.00000000	-55.29650000	-29.95817000
98.49999433	0.00000000	-59.15354000	-29.53371000
98.69999432	0.00000000	-61.48499000	-28.42027000
98.89999430	0.00000000	-62.22318000	-27.30684000
99.09999429	0.00000000	-60.73450000	-26.83932000
99.29999428	0.00000000	-57.71407000	-26.46407000
99.49999427	0.00000000	-54.96432000	-26.05807000
99.69999426	0.00000000	-52.13459000	-26.04577000
99.89999425	0.00000000	-49.10802000	-25.63976000
100.09999423	0.00000000	-46.82579000	-25.26452000
100.29999422	0.00000000	-46.45054000	-24.84621000
100.49999421	0.00000000	-47.90231000	-24.15108000
100.69999420	0.00000000	-50.26451000	-24.15108000
100.89999419	0.00000000	-52.97121000	-24.93233000
101.09999417	0.00000000	-56.08390000	-26.10113000
101.29999416	0.00000000	-58.40920000	-28.04503000
101.49999415	0.00000000	-59.99015000	-29.90895000
101.69999414	0.00000000	-60.69144000	-31.11466000
101.89999413	0.00000000	-59.57185000	-31.48376000
102.09999411	0.00000000	-57.29576000	-31.06545000
102.29999410	0.00000000	-54.92125000	-29.49065000
102.49999409	0.00000000	-52.22071000	-26.79626000
102.69999408	0.00000000	-49.94463000	-23.72662000
102.89999407	0.00000000	-49.10802000	-21.08145000
103.09999406	0.00000000	-49.05881000	-19.91880000
103.29999404	0.00000000	-49.52633000	-20.66314000
103.49999403	0.00000000	-51.06422000	-22.57013000
103.69999402	0.00000000	-53.34030000	-25.30758000
103.89999401	0.00000000	-55.29650000	-28.37721000
104.09999400	0.00000000	-56.87746000	-31.06545000
104.29999398	0.00000000	-57.99089000	-32.60334000
104.49999397	0.00000000	-57.99089000	-32.60334000
104.69999396	0.00000000	-56.87746000	-31.06545000
104.89999395	0.00000000	-55.33957000	-28.37721000
105.09999394	0.00000000	-53.80167000	-25.30758000
105.29999392	0.00000000	-52.64517000	-22.61319000
105.49999391	0.00000000	-52.22071000	-21.08145000
105.69999390	0.00000000	-52.22071000	-21.03838000
105.89999389	0.00000000	-52.59596000	-22.19488000
106.09999388	0.00000000	-53.38336000	-24.14493000
106.29999387	0.00000000	-54.13385000	-26.79626000
106.49999385	0.00000000	-54.92125000	-29.07234000
106.69999384	0.00000000	-55.29650000	-29.86589000
106.89999383	0.00000000	-55.29650000	-29.53371000
107.09999382	0.00000000	-54.87204000	-28.37721000
107.29999381	0.00000000	-53.75861000	-26.83932000
107.49999379	0.00000000	-52.64517000	-25.30758000
107.69999378	0.00000000	-52.22071000	-24.15108000
107.89999377	0.00000000	-52.22071000	-23.77584000
108.09999376	0.00000000	-52.64517000	-24.15108000
108.29999375	0.00000000	-53.80167000	-25.30758000
108.49999374	0.00000000	-55.29650000	-26.83932000
108.69999372	0.00000000	-56.40993000	-28.37721000
108.89999371	0.00000000	-56.45300000	-29.49065000
109.09999370	0.00000000	-55.71481000	-29.49065000
109.29999369	0.00000000	-54.96432000	-28.37721000
109.49999368	0.00000000	-54.13385000	-26.83932000
109.69999366	0.00000000	-53.38336000	-25.26452000
109.89999365	0.00000000	-52.59596000	-23.77584000
110.09999364	0.00000000	-52.22071000	-22.98843000
110.29999363	0.00000000	-52.22071000	-23.35138000
110.49999362	0.00000000	-52.64517000	-24.10187000
110.69999360	0.00000000	-53.75861000	-25.30758000
110.89999359	0.00000000	-54.92125000	-26.83932000
111.09999358	0.00000000	-55.71481000	-28.37721000
111.29999357	0.00000000	-56.45300000	-29.53371000
111.49999356	0.00000000	-56.45300000	-29.90895000
111.69999355	0.00000000	-55.71481000	-29.53371000
111.89999353	0.00000000	-54.96432000	-28.42027000
112.09999352	0.00000000	-54.17691000	-27.25763000
112.29999351	0.00000000	-53.80167000	-26.46407000
112.49999350	0.00000000	-53.75861000	-25.68282000
112.69999349	0.00000000	-53.75861000	-25.30758000
112.89999347	0.00000000	-53.75861000	-25.30758000
113.09999346	0.00000000	-53.80167000	-25.68282000
113.29999345	0.00000000	-54.17691000	-26.46407000
113.49999344	0.00000000	-54.92125000	-27.17150000
113.69999343	0.00000000	-55.29650000	-27.58366000
113.89999341	0.00000000	-55.33957000	-27.25763000
114.09999340	0.00000000	-55.33957000	-27.30684000
114.29999339	0.00000000	-55.29650000	-28.00197000
114.49999338	0.00000000	-54.92125000	-28.37721000
114.69999337	0.00000000	-54.17691000	-28.42027000
114.89999336	0.00000000	-53.80167000	-28.42027000
115.09999334	0.00000000	-53.75861000	-28.42027000
115.29999333	0.00000000	-53.80167000	-28.42027000
115.49999332	0.00000000	-54.17691000	-28.42027000
115.69999331	0.00000000	-54.92125000	-28.37721000
115.89999330	0.00000000	-55.29650000	-27.95275000
116.09999328	0.00000000	-55.33957000	-26.83932000
116.29999327	0.00000000	-55.33957000	-25.72589000
116.49999326	0.00000000	-55.33957000	-25.30758000
116.69999325	0.00000000	-55.33957000	-25.26452000
116.89999324	0.00000000	-55.33957000	-25.30758000
117.09999322	0.00000000	-55.29650000	-25.72589000
117.29999321	0.00000000	-54.92125000	-26.83932000
117.49999320	0.00000000	-54.17691000	-28.00197000
117.69999319	0.00000000	-53.80167000	-28.79552000
117.89999318	0.00000000	-53.75861000	-29.53371000
118.09999317	0.00000000	-53.75861000	-29.53371000
118.29999315	0.00000000	-53.80167000	-28.79552000
118.49999314	0.00000000	-54.17691000	-28.04503000
118.69999313	0.00000000	-54.96432000	-27.21457000
118.89999312	0.00000000	-55.75787000	-26.46407000
119.09999311	0.00000000	-56.92052000	-25.68282000
119.29999309	0.00000000	-57.99089000	-25.30758000
119.49999308	0.00000000	-57.99089000	-25.26452000
119.69999307	0.00000000	-56.92052000	-25.30758000
119.89999306	0.00000000	-55.75787000	-25.68282000
120.09999305	0.00000000	-54.92125000	-26.42101000
120.29999303	0.00000000	-53.75861000	-26.79626000
120.49999302	0.00000000	-52.64517000	-26.88238000
120.69999301	0.00000000	-52.22071000	-27.25763000
120.89999300	0.00000000	-52.22071000	-28.00197000
121.09999299	0.00000000	-52.64517000	-28.37721000
121.29999298	0.00000000	-53.80167000	-28.37721000
121.49999296	0.00000000	-55.29650000	-28.00197000
121.69999295	0.00000000	-56.50221000	-27.25763000
121.89999294	0.00000000	-57.29576000	-26.88238000
122.09999293	0.00000000	-58.03395000	-26.79626000
122.29999292	0.00000000	-58.03395000	-26.42101000
122.49999290	0.00000000	-57.25270000	-25.68282000
122.69999289	0.00000000	-56.12696000	-25.30758000
122.89999288	0.00000000	-54.55216000	-25.26452000
123.09999287	0.00000000	-53.42642000	-25.30758000
123.29999286	0.00000000	-52.59596000	-25.68282000
123.49999284	0.00000000	-52.22071000	-26.42101000
123.69999283	0.00000000	-52.22071000	-26.83932000
123.89999282	0.00000000	-52.59596000	-27.25763000
124.09999281	0.00000000	-53.38336000	-28.00197000
124.29999280	0.00000000	-54.13385000	-28.37721000
124.49999279	0.00000000	-54.96432000	-28.37721000
124.69999277	0.00000000	-55.71481000	-28.00197000
124.89999276	0.00000000	-56.50221000	-27.25763000
125.09999275	0.00000000	-56.87746000	-26.88238000
125.29999274	0.00000000	-56.92052000	-26.79626000
125.49999273	0.00000000	-56.87746000	-26.42101000
125.69999271	0.00000000	-56.50221000	-25.68282000
125.89999270	0.00000000	-55.71481000	-25.30758000
126.09999269	0.00000000	-54.92125000	-25.30758000
126.29999268	0.00000000	-53.75861000	-25.68282000
126.49999267	0.00000000	-52.64517000	-26.42101000
126.69999265	0.00000000	-52.26993000	-26.79626000
126.89999264	0.00000000	-52.64517000	-26.83932000
127.09999263	0.00000000	-53.80167000	-26.88238000
127.29999262	0.00000000	-55.29650000	-27.25763000
127.49999261	0.00000000	-56.45300000	-28.00197000
127.69999260	0.00000000	-56.87746000	-28.32800000
127.89999258	0.00000000	-56.92052000	-28.00197000
128.09999257	0.00000000	-56.87746000	-27.25763000
128.29999256	0.00000000	-56.50221000	-26.88238000
128.49999255	0.00000000	-55.71481000	-26.83932000
128.69999254	0.00000000	-54.96432000	-26.83932000
128.89999252	0.00000000	-54.17691000	-26.83932000
129.09999251	0.00000000	-53.80167000	-26.83932000
129.29999250	0.00000000	-53.80167000	-26.88238000
129.49999249	0.00000000	-54.22613000	-27.25763000
129.69999248	0.00000000	-55.33957000	-28.00197000
129.89999246	0.00000000	-56.45300000	-28.37721000
130.09999245	0.00000000	-56.87746000	-28.42027000
130.29999244	0.00000000	-56.92052000	-28.37721000
130.49999243	0.00000000	-56.87746000	-28.00197000
130.69999242	0.00000000	-56.50221000	-27.25763000
130.89999241	0.00000000	-55.71481000	-26.88238000
131.09999239	0.00000000	-55.00738000	-26.83932000
131.29999238	0.00000000	-54.55216000	-26.83932000
131.49999237	0.00000000	-54.54601000	-26.88238000
131.69999236	0.00000000	-54.17691000	-27.25763000
131.89999235	0.00000000	-54.22613000	-28.00197000
132.09999233	0.00000000	-54.96432000	-28.37721000
132.29999232	0.00000000	-55.71481000	-28.42027000
132.49999231	0.00000000	-56.50221000	-28.42027000
132.69999230	0.00000000	-56.87746000	-28.37721000
132.89999229	0.00000000	-56.92052000	-28.00197000
133.09999227	0.00000000	-56.87746000	-27.25763000
133.29999226	0.00000000	-56.50221000	-26.83932000
133.49999225	0.00000000	-55.75787000	-26.42101000
133.69999224	0.00000000	-55.38263000	-25.72589000
133.89999223	0.00000000	-55.33957000	-25.72589000
134.09999222	0.00000000	-55.33957000	-26.46407000
134.29999220	0.00000000	-55.33957000	-27.21457000
134.49999219	0.00000000	-55.33957000	-28.00197000
134.69999218	0.00000000	-55.33957000	-28.42027000
134.89999217	0.00000000	-55.33957000	-28.79552000
135.09999216	0.00000000	-55.33957000	-29.16461000
135.29999214	0.00000000	-55.33957000	-28.79552000
135.49999213	0.00000000	-55.33957000	-28.42027000
135.69999212	0.00000000	-55.33957000	-28.00197000
135.89999211	0.00000000	-55.38263000	-27.21457000
136.09999210	0.00000000	-55.75787000	-26.46407000
136.29999208	0.00000000	-56.50221000	-25.68282000
136.49999207	0.00000000	-56.87746000	-25.30758000
136.69999206	0.00000000	-56.92052000	-25.30758000
136.89999205	0.00000000	-56.87746000	-25.68282000
137.09999204	0.00000000	-56.50221000	-26.42101000
137.29999203	0.00000000	-55.71481000	-26.79626000
137.49999201	0.00000000	-54.96432000	-26.88238000
137.69999200	0.00000000	-54.17691000	-27.25763000
137.89999199	0.00000000	-53.80167000	-28.00197000
138.09999198	0.00000000	-53.80167000	-28.37721000
138.29999197	0.00000000	-54.17691000	-28.42027000
138.49999195	0.00000000	-54.96432000	-28.42027000
138.69999194	0.00000000	-55.71481000	-28.37721000
138.89999193	0.00000000	-56.50221000	-28.00197000
139.09999192	0.00000000	-56.87746000	-27.21457000
139.29999191	0.00000000	-56.92052000	-26.46407000
139.49999189	0.00000000	-56.87746000	-25.68282000
139.69999188	0.00000000	-56.50221000	-25.30758000
139.89999187	0.00000000	-55.75787000	-25.30758000
140.09999186	0.00000000	-55.33957000	-25.72589000
140.29999185	0.00000000	-54.96432000	-26.83932000
140.49999184	0.00000000	-54.59522000	-27.95275000
140.69999182	0.00000000	-54.96432000	-28.42027000
140.89999181	0.00000000	-55.33957000	-28.79552000
141.09999180	0.00000000	-55.75787000	-29.16461000
141.29999179	0.00000000	-56.50221000	-28.75246000
141.49999178	0.00000000	-56.87746000	-28.04503000
141.69999176	0.00000000	-56.92052000	-27.21457000
141.89999175	0.00000000	-56.87746000	-26.46407000
142.09999174	0.00000000	-56.50221000	-25.68282000
142.29999173	0.00000000	-55.75787000	-25.30758000
142.49999172	0.00000000	-55.38263000	-25.26452000
142.69999170	0.00000000	-55.33957000	-25.30758000
142.89999169	0.00000000	-55.33957000	-25.72589000
143.09999168	0.00000000	-55.33957000	-26.83932000
143.29999167	0.00000000	-55.38263000	-28.00197000
143.49999166	0.00000000	-55.75787000	-28.79552000
143.69999165	0.00000000	-56.50221000	-29.53371000
143.89999163	0.00000000	-56.82825000	-29.53371000
144.09999162	0.00000000	-56.50221000	-28.79552000
144.29999161	0.00000000	-55.75787000	-28.04503000
144.49999160	0.00000000	-55.38263000	-27.21457000
144.69999159	0.00000000	-55.33957000	-26.46407000
144.89999157	0.00000000	-55.33957000	-25.72589000
145.09999156	0.00000000	-55.33957000	-25.72589000
145.29999155	0.00000000	-55.38263000	-26.42101000
145.49999154	0.00000000	-55.75787000	-26.83932000
145.69999153	0.00000000	-56.50221000	-27.25763000
145.89999151	0.00000000	-56.87746000	-28.00197000
146.09999150	0.00000000	-56.92052000	-28.42027000
146.29999149	0.00000000	-56.92052000	-28.79552000
146.49999148	0.00000000	-56.87746000	-29.16461000
146.69999147	0.00000000	-56.50221000	-28.79552000
146.89999146	0.00000000	-55.75787000	-28.46333000
147.09999144	0.00000000	-55.38263000	-28.42027000
147.29999143	0.00000000	-55.38263000	-28.42027000
147.49999142	0.00000000	-55.71481000	-28.37721000
147.69999141	0.00000000	-56.12696000	-28.00197000
147.89999140	0.00000000	-56.13312000	-27.25763000
148.09999138	0.00000000	-56.54527000	-26.88238000
148.29999137	0.00000000	-56.87746000	-26.88238000
148.49999136	0.00000000	-56.92052000	-27.25763000
148.69999135	0.00000000	-56.92052000	-28.00197000
148.89999134	0.00000000	-56.92052000	-28.37721000
149.09999132	0.00000000	-56.87746000	-28.42027000
149.29999131	0.00000000	-56.50221000	-28.42027000
149.49999130	0.00000000	-55.75787000	-28.42027000
149.69999129	0.00000000	-55.38263000	-28.42027000
149.89999128	0.00000000	-55.33957000	-28.37721000
150.09999127	0.00000000	-55.33957000	-28.00197000
150.29999125	0.00000000	-55.38263000	-27.25763000
150.49999124	0.00000000	-55.75787000	-26.88238000
150.69999123	0.00000000	-56.50221000	-26.83932000
150.89999122	0.00000000	-56.87746000	-26.83932000
151.09999121	0.00000000	-56.92052000	-26.83932000
151.29999119	0.00000000	-56.92052000	-26.83932000
151.49999118	0.00000000	-56.92052000	-26.83932000
151.69999117	0.00000000	-56.92052000	-26.88238000
151.89999116	0.00000000	-56.92052000	-27.25763000
152.09999115	0.00000000	-56.87746000	-27.95275000
152.29999113	0.00000000	-56.50221000	-28.00197000
152.49999112	0.00000000	-55.75787000	-27.67593000
152.69999111	0.00000000	-55.38263000	-28.00197000
152.89999110	0.00000000	-55.33957000	-27.95275000
153.09999109	0.00000000	-55.33957000	-27.25763000
153.29999108	0.00000000	-55.38263000	-26.88238000
153.49999106	0.00000000	-55.75787000	-26.83932000
153.69999105	0.00000000	-56.50221000	-26.83932000
153.89999104	0.00000000	-56.87746000	-26.83932000
154.09999103	0.00000000	-56.92052000	-26.83932000
154.29999102	0.00000000	-56.92052000	-26.83932000
154.49999100	0.00000000	-56.92052000	-26.83932000
154.69999099	0.00000000	-56.92052000	-26.83932000
154.89999098	0.00000000	-56.87746000	-26.83932000
155.09999097	0.00000000	-56.50221000	-26.88238000
155.29999096	0.00000000	-55.75787000	-27.21457000
155.49999094	0.00000000	-55.38263000	-27.58366000
155.69999093	0.00000000	-55.33957000	-27.21457000
155.89999092	0.00000000	-55.38263000	-26.88238000
156.09999091	0.00000000	-55.75787000	-26.83932000
156.29999090	0.00000000	-56.50221000	-26.83932000
156.49999089	0.00000000	-56.87746000	-26.83932000
156.69999087	0.00000000	-56.92052000	-26.83932000
156.89999086	0.00000000	-56.92052000	-26.83932000
157.09999085	0.00000000	-56.92052000	-26.83932000
157.29999084	0.00000000	-56.92052000	-26.83932000
157.49999083	0.00000000	-56.92052000	-26.83932000
157.69999081	0.00000000	-56.92052000	-26.88238000
157.89999080	0.00000000	-56.92052000	-27.25763000
158.09999079	0.00000000	-56.87746000	-28.00197000
158.29999078	0.00000000	-56.50221000	-28.37721000
158.49999077	0.00000000	-55.75787000	-28.42027000
158.69999075	0.00000000	-55.43184000	-28.42027000
158.89999074	0.00000000	-55.75787000	-28.42027000
159.09999073	0.00000000	-56.50221000	-28.37721000
159.29999072	0.00000000	-56.87746000	-28.00197000
159.49999071	0.00000000	-56.92052000	-27.25763000
159.69999070	0.00000000	-56.96358000	-26.88238000
159.89999068	0.00000000	-57.29576000	-26.83932000
160.09999067	0.00000000	-57.66486000	-26.88238000
160.29999066	0.00000000	-57.29576000	-27.25763000
160.49999065	0.00000000	-56.96358000	-28.00197000
160.69999064	0.00000000	-56.92052000	-28.37721000
160.89999062	0.00000000	-56.92052000	-28.42027000
161.09999061	0.00000000	-56.92052000	-28.42027000
161.29999060	0.00000000	-56.92052000	-28.42027000
161.49999059	0.00000000	-56.92052000	-28.42027000
161.69999058	0.00000000	-56.92052000	-28.42027000
161.89999056	0.00000000	-56.92052000	-28.42027000
162.09999055	0.00000000	-56.92052000	-28.42027000
162.29999054	0.00000000	-56.92052000	-28.42027000
162.49999053	0.00000000	-56.92052000	-28.37721000
162.69999052	0.00000000	-56.92052000	-28.04503000
162.89999051	0.00000000	-56.96358000	-27.63287000
163.09999049	0.00000000	-57.33883000	-27.66978000
163.29999048	0.00000000	-58.03395000	-27.58981000
163.49999047	0.00000000	-58.03395000	-27.66978000
163.69999046	0.00000000	-57.38804000	-27.63287000
163.89999045	0.00000000	-57.38804000	-28.04503000
164.09999043	0.00000000	-58.03395000	-28.37721000
164.29999042	0.00000000	-58.03395000	-28.42027000
164.49999041	0.00000000	-57.33883000	-28.42027000
164.69999040	0.00000000	-56.96358000	-28.42027000
164.89999039	0.00000000	-56.92052000	-28.42027000
165.09999037	0.00000000	-56.92052000	-28.42027000
165.29999036	0.00000000	-56.92052000	-28.37721000
165.49999035	0.00000000	-56.92052000	-28.04503000
165.69999034	0.00000000	-56.92052000	-27.63287000
165.89999033	0.00000000	-56.96358000	-27.62672000
166.09999032	0.00000000	-57.33883000	-27.21457000
166.29999030	0.00000000	-58.03395000	-26.88238000
166.49999029	0.00000000	-58.03395000	-26.83932000
166.69999028	0.00000000	-57.33883000	-26.88238000
166.89999027	0.00000000	-56.96358000	-27.21457000
167.09999026	0.00000000	-56.92052000	-27.62672000
167.29999024	0.00000000	-56.92052000	-27.58981000
167.49999023	0.00000000	-56.92052000	-27.62672000
167.69999022	0.00000000	-56.92052000	-27.25763000
167.89999021	0.00000000	-56.92052000	-27.25763000
168.09999020	0.00000000	-56.92052000	-27.58366000
168.29999018	0.00000000	-56.92052000	-27.21457000
168.49999017	0.00000000	-56.92052000	-26.88238000
168.69999016	0.00000000	-56.92052000	-26.83932000
168.89999015	0.00000000	-56.92052000	-26.83932000
169.09999014	0.00000000	-56.92052000	-26.83932000
169.29999013	0.00000000	-56.92052000	-26.83932000
169.49999011	0.00000000	-56.92052000	-26.83932000
169.69999010	0.00000000	-56.92052000	-26.83932000
169.89999009	0.00000000	-56.92052000	-26.83932000
170.09999008	0.00000000	-56.92052000	-26.83932000
170.29999007	0.00000000	-56.92052000	-26.83932000
170.49999005	0.00000000	-56.92052000	-26.88238000
170.69999004	0.00000000	-56.92052000	-27.21457000
170.89999003	0.00000000	-56.92052000	-27.58366000
171.09999002	0.00000000	-56.92052000	-27.25763000
171.29999001	0.00000000	-56.92052000	-27.30684000
171.49998999	0.00000000	-56.92052000	-28.00197000
171.69998998	0.00000000	-56.92052000	-28.37721000
171.89998997	0.00000000	-56.92052000	-28.42027000
172.09998996	0.00000000	-56.92052000	-28.42027000
172.29998995	0.00000000	-56.92052000	-28.42027000
172.49998994	0.00000000	-56.92052000	-28.42027000
172.69998992	0.00000000	-56.92052000	-28.42027000
172.89998991	0.00000000	-56.92052000	-28.37721000
173.09998990	0.00000000	-56.92052000	-28.04503000
173.29998989	0.00000000	-56.96358000	-27.67593000
173.49998988	0.00000000	-57.29576000	-28.04503000
173.69998986	0.00000000	-57.66486000	-28.37721000
173.89998985	0.00000000	-57.29576000	-28.42027000
174.09998984	0.00000000	-56.96358000	-28.42027000
174.29998983	0.00000000	-56.92052000	-28.42027000
174.49998982	0.00000000	-56.96358000	-28.42027000
174.69998980	0.00000000	-57.33883000	-28.42027000
174.89998979	0.00000000	-58.08316000	-28.42027000
175.09998978	0.00000000	-58.45841000	-28.42027000
175.29998977	0.00000000	-58.50147000	-28.42027000
175.49998976	0.00000000	-58.50147000	-28.42027000
175.69998975	0.00000000	-58.50147000	-28.42027000
175.89998973	0.00000000	-58.45841000	-28.42027000
176.09998972	0.00000000	-58.08316000	-28.42027000
176.29998971	0.00000000	-57.38804000	-28.42027000
176.49998970	0.00000000	-57.33883000	-28.42027000
176.69998969	0.00000000	-57.66486000	-28.42027000
176.89998967	0.00000000	-57.33883000	-28.42027000
177.09998966	0.00000000	-57.38804000	-28.42027000
177.29998965	0.00000000	-58.08316000	-28.42027000
177.49998964	0.00000000	-58.45841000	-28.42027000
177.69998963	0.00000000	-58.50147000	-28.42027000
177.89998961	0.00000000	-58.50147000	-28.42027000
178.09998960	0.00000000	-58.50147000	-28.42027000
178.29998959	0.00000000	-58.50147000	-28.42027000
178.49998958	0.00000000	-58.50147000	-28.42027000
178.69998957	0.00000000	-58.50147000	-28.42027000
178.89998956	0.00000000	-58.45841000	-28.42027000
179.09998954	0.00000000	-58.08316000	-28.42027000
179.29998953	0.00000000	-57.38804000	-28.42027000
179.49998952	0.00000000	-57.38804000	-28.42027000
179.69998951	0.00000000	-58.03395000	-28.42027000
179.89998950	0.00000000	-58.08316000	-28.46333000
180.09998948	0.00000000	-57.75713000	-28.79552000
180.29998947	0.00000000	-58.12622000	-29.16461000
180.49998946	0.00000000	-58.45841000	-28.79552000
180.69998945	0.00000000	-58.50147000	-28.46333000
180.89998944	0.00000000	-58.50147000	-28.42027000
181.09998942	0.00000000	-58.50147000	-28.42027000
181.29998941	0.00000000	-58.50147000	-28.37721000
181.49998940	0.00000000	-58.50147000	-28.00197000
181.69998939	0.00000000	-58.50147000	-27.25763000
181.89998938	0.00000000	-58.50147000	-26.88238000
182.09998937	0.00000000	-58.45841000	-26.83932000
182.29998935	0.00000000	-58.08316000	-26.88238000
182.49998934	0.00000000	-57.38804000	-27.25763000
182.69998933	0.00000000	-57.33883000	-28.00197000
182.89998932	0.00000000	-57.66486000	-28.37721000
183.09998931	0.00000000	-57.33883000	-28.42027000
183.29998929	0.00000000	-57.38804000	-28.42027000
183.49998928	0.00000000	-58.08316000	-28.42027000
183.69998927	0.00000000	-58.45841000	-28.42027000
183.89998926	0.00000000	-58.50147000	-28.42027000
184.09998925	0.00000000	-58.50147000	-28.37721000
184.29998923	0.00000000	-58.50147000	-28.00197000
184.49998922	0.00000000	-58.50147000	-27.25763000
184.69998921	0.00000000	-58.50147000	-26.88238000
184.89998920	0.00000000	-58.45841000	-26.83932000
185.09998919	0.00000000	-58.12622000	-26.83932000
185.29998918	0.00000000	-57.75713000	-26.88238000
185.49998916	0.00000000	-58.12622000	-27.25763000
185.69998915	0.00000000	-58.40920000	-28.00197000
185.89998914	0.00000000	-58.08316000	-28.37721000
186.09998913	0.00000000	-57.38804000	-28.42027000
186.29998912	0.00000000	-57.38804000	-28.42027000
186.49998910	0.00000000	-58.08316000	-28.42027000
186.69998909	0.00000000	-58.40920000	-28.42027000
186.89998908	0.00000000	-58.12622000	-28.37721000
187.09998907	0.00000000	-57.75713000	-28.00197000
187.29998906	0.00000000	-58.12622000	-27.25763000
187.49998904	0.00000000	-58.45841000	-26.88238000
187.69998903	0.00000000	-58.50147000	-26.83932000
187.89998902	0.00000000	-58.50147000	-26.83932000
188.09998901	0.00000000	-58.50147000	-26.88238000
188.29998900	0.00000000	-58.50147000	-27.25763000
188.49998899	0.00000000	-58.50147000	-28.00197000
188.69998897	0.00000000	-58.50147000	-28.37721000
188.89998896	0.00000000	-58.50147000	-28.42027000
189.09998895	0.00000000	-58.50147000	-28.42027000
189.29998894	0.00000000	-58.50147000	-28.46333000
189.49998893	0.00000000	-58.50147000	-28.79552000
189.69998891	0.00000000	-58.50147000	-29.16461000
189.89998890	0.00000000	-58.50147000	-28.79552000
190.09998889	0.00000000	-58.50147000	-28.46333000
190.29998888	0.00000000	-58.50147000	-28.42027000
190.49998887	0.00000000	-58.50147000	-28.42027000
190.69998885	0.00000000	-58.50147000	-28.42027000
190.89998884	0.00000000	-58.50147000	-28.42027000
191.09998883	0.00000000	-58.50147000	-28.42027000
191.29998882	0.00000000	-58.50147000	-28.42027000
191.49998881	0.00000000	-58.50147000	-28.42027000
191.69998880	0.00000000	-58.50147000	-28.42027000
191.89998878	0.00000000	-58.50147000	-28.42027000
192.09998877	0.00000000	-58.50147000	-28.46333000
192.29998876	0.00000000	-58.50147000	-28.79552000
192.49998875	0.00000000	-58.50147000	-29.20767000
192.69998874	0.00000000	-58.50147000	-29.17077000
192.89998872	0.00000000	-58.54454000	-29.20767000
193.09998871	0.00000000	-58.91978000	-28.79552000
193.29998870	0.00000000	-59.61491000	-28.46333000
193.49998869	0.00000000	-59.61491000	-28.42027000
193.69998868	0.00000000	-58.91978000	-28.42027000
193.89998866	0.00000000	-58.54454000	-28.42027000
194.09998865	0.00000000	-58.50147000	-28.42027000
194.29998864	0.00000000	-58.50147000	-28.42027000
194.49998863	0.00000000	-58.50147000	-28.42027000
194.69998862	0.00000000	-58.50147000	-28.42027000
194.89998861	0.00000000	-58.50147000	-28.42027000
195.09998859	0.00000000	-58.50147000	-28.42027000
195.29998858	0.00000000	-58.50147000	-28.42027000
195.49998857	0.00000000	-58.50147000	-28.42027000
195.69998856	0.00000000	-58.50147000	-28.42027000
195.89998855	0.00000000	-58.54454000	-28.42027000
196.09998853	0.00000000	-58.91978000	-28.42027000
