Time	Channel A	Channel B
(us)	(V)	(mV)

-4.59999956	0.00000000	50.22145000
-4.39999957	0.00000000	50.22145000
-4.19999958	0.00000000	50.22145000
-3.99999959	-0.17531990	50.22145000
-3.79999960	0.00000000	50.27066000
-3.59999962	0.00000000	50.68282000
-3.39999963	0.00000000	51.43946000
-3.19999964	0.00000000	51.43946000
-2.99999965	0.00000000	50.73204000
-2.79999966	0.00000000	50.73204000
-2.59999968	0.00000000	51.48868000
-2.39999969	0.00000000	51.90083000
-2.19999970	0.00000000	51.95005000
-1.99999971	0.00000000	51.95005000
-1.79999972	0.00000000	51.95005000
-1.59999973	0.00000000	51.95005000
-1.39999975	0.00000000	51.95005000
-1.19999976	0.00000000	51.95005000
-0.99999977	0.00000000	51.95005000
-0.79999978	0.00000000	51.95005000
-0.59999979	0.00000000	51.99926000
-0.39999981	0.35125490	52.36220000
-0.19999982	0.70250980	52.81126000
0.00000017	0.87844490	52.77436000
0.20000016	1.05376500	52.81126000
0.40000015	0.87844490	52.36220000
0.60000013	0.35125490	51.99926000
0.80000012	-0.52657480	51.95005000
1.00000011	-1.58095500	51.99926000
1.20000010	-2.45940000	52.36220000
1.40000009	-2.81127000	52.81126000
1.60000008	-2.45940000	52.82357000
1.80000006	-1.22970000	53.27264000
2.00000005	0.52657480	53.58636000
2.20000004	2.63533500	53.22342000
2.40000003	4.39283900	52.41142000
2.60000002	5.27128500	51.95005000
2.80000000	4.74409400	51.48868000
2.99999999	2.81127000	50.68282000
3.19999998	-0.17531990	50.27066000
3.39999997	-3.51377900	50.22145000
3.59999996	-6.50098400	50.27066000
3.79999994	-7.90661900	50.73204000
3.99999993	-7.37942900	51.90083000
4.19999992	-4.91941500	52.71284000
4.39999991	-1.05376500	52.36220000
4.59999990	3.33846000	51.95005000
4.79999989	7.20410900	51.43946000
4.99999987	9.31225400	50.22145000
5.19999986	8.96099900	48.94808000
5.39999985	6.50098400	48.07455000
5.59999984	2.28408000	47.26870000
5.79999983	-2.45940000	47.31791000
5.99999981	-6.67691900	48.48671000
6.19999980	-9.13693400	49.71087000
6.39999979	-9.13693400	50.17224000
6.59999978	-7.02817400	50.22145000
6.79999977	-3.16252500	50.22145000
6.99999975	1.22970000	50.22145000
7.19999974	4.91941500	50.22145000
7.39999973	7.20410900	50.17224000
7.59999972	7.55536400	49.76009000
7.79999971	5.97379400	48.94808000
7.99999970	3.16252500	48.48671000
8.19999968	-0.17531990	48.07455000
8.39999967	-2.98659000	47.67470000
8.59999966	-4.74409400	48.12377000
8.79999965	-5.09534900	48.89886000
8.99999964	-4.21690500	49.76009000
9.19999962	-2.45940000	50.17224000
9.39999961	-0.35125490	50.22145000
9.59999960	1.22970000	50.17224000
9.79999959	2.28408000	49.80930000
9.99999958	2.45940000	49.40945000
10.19999956	2.10814500	49.80930000
10.39999955	1.22970000	50.17224000
10.59999954	0.35125490	50.22145000
10.79999953	-0.52657480	50.22145000
10.99999952	-0.87844490	50.22145000
11.19999951	-1.05376500	50.22145000
11.39999949	-0.87844490	50.27066000
11.59999948	-0.52657480	50.63361000
11.79999947	-0.17531990	51.03346000
11.99999946	0.00000000	50.63361000
12.19999945	0.00000000	50.31988000
12.39999943	-0.17531990	50.68282000
12.59999942	0.00000000	51.48868000
12.79999941	-0.17531990	51.90083000
12.99999940	-0.17531990	51.90083000
13.19999939	-0.17531990	51.53789000
13.39999937	0.00000000	51.13803000
13.59999936	0.00000000	51.53789000
13.79999935	0.00000000	51.90083000
13.99999934	0.00000000	51.95005000
14.19999933	0.00000000	51.85162000
14.39999932	0.00000000	51.13189000
14.59999930	0.00000000	50.37524000
14.79999929	0.00000000	51.53789000
14.99999928	0.00000000	52.66363000
15.19999927	0.00000000	52.36220000
15.39999926	0.00000000	51.99926000
15.59999924	0.00000000	51.99926000
15.79999923	0.00000000	52.41142000
15.99999922	-0.17531990	53.22342000
16.19999921	0.00000000	53.63558000
16.39999920	0.00000000	53.63558000
16.59999919	0.00000000	53.22342000
16.79999917	0.00000000	52.41142000
16.99999916	0.00000000	51.99926000
17.19999915	0.00000000	51.95005000
17.39999914	0.00000000	51.95005000
17.59999913	0.00000000	51.95005000
17.79999911	0.00000000	51.95005000
17.99999910	0.00000000	51.95005000
18.19999909	0.00000000	51.95005000
18.39999908	0.00000000	51.95005000
18.59999907	0.00000000	51.95005000
18.79999905	0.00000000	51.95005000
18.99999904	0.00000000	51.90083000
19.19999903	0.00000000	51.53789000
19.39999902	0.00000000	51.08883000
19.59999901	0.00000000	51.08268000
19.79999900	0.00000000	50.63361000
19.99999898	0.00000000	50.27066000
20.19999897	0.00000000	50.27066000
20.39999896	0.00000000	50.63361000
20.59999895	0.00000000	51.03346000
20.79999894	0.00000000	50.63361000
20.99999892	0.00000000	50.27066000
21.19999891	0.00000000	50.22145000
21.39999890	0.00000000	50.22145000
21.59999889	0.00000000	50.17224000
21.79999888	0.00000000	49.80930000
21.99999886	0.00000000	49.40945000
22.19999885	0.00000000	49.80930000
22.39999884	0.00000000	50.12303000
22.59999883	0.00000000	49.76009000
22.79999882	0.00000000	48.94808000
22.99999881	0.00000000	48.53592000
23.19999879	0.00000000	48.48671000
23.39999878	0.00000000	48.43750000
23.59999877	0.00000000	48.07455000
23.79999876	0.00000000	47.67470000
23.99999875	0.00000000	48.07455000
24.19999873	0.00000000	48.53592000
24.39999872	0.00000000	49.45251000
24.59999871	0.00000000	51.43946000
24.79999870	0.00000000	52.71284000
24.99999869	0.00000000	52.77436000
25.19999867	0.00000000	52.81126000
25.39999866	0.00000000	52.31299000
25.59999865	0.00000000	51.43946000
25.79999864	0.00000000	49.66166000
25.99999863	0.00000000	46.75812000
26.19999862	0.00000000	43.85457000
26.39999860	0.00000000	42.21825000
26.59999859	0.00000000	42.67347000
26.79999858	0.00000000	45.63238000
26.99999857	0.00000000	50.31988000
27.19999856	0.00000000	55.87475000
27.39999854	0.00000000	61.78026000
27.59999853	0.00000000	66.36934000
27.79999852	0.00000000	68.00565000
27.99999851	0.00000000	65.81570000
28.19999850	0.00000000	59.39345000
28.39999848	0.00000000	49.71087000
28.59999847	0.00000000	39.16092000
28.79999846	0.00000000	30.65330000
28.99999845	0.00000000	25.70128000
29.19999844	0.00000000	26.21801000
29.39999843	0.00000000	33.90133000
29.59999841	0.00000000	46.54896000
29.79999840	0.00000000	61.87869000
29.99999839	0.00000000	76.61786000
30.19999838	0.00000000	87.11244000
30.39999837	0.00000000	90.02214000
30.59999835	0.00000000	84.11048000
30.79999834	0.00000000	70.90919000
30.99999833	0.00000000	52.66363000
31.19999832	0.00000000	32.79404000
31.39999831	0.00000000	16.43085000
31.59999829	0.00000000	7.97859100
31.79999828	0.00000000	10.11319000
31.99999827	0.00000000	21.93651000
32.19999826	0.00000000	41.09252000
32.39999825	0.00000000	63.92716000
32.59999824	0.00000000	85.42691000
32.79999822	0.00000000	99.80315000
32.99999821	0.00000000	103.62940000
33.19999820	0.00000000	96.33981000
33.39999819	0.00000000	78.54945000
33.59999818	0.00000000	54.09695000
33.79999816	0.00000000	29.57677000
33.99999815	0.00000000	10.42077000
34.19999814	0.00000000	0.32603340
34.39999813	0.00000000	1.61171300
34.59999812	0.00000000	14.74532000
34.79999810	0.00000000	36.25738000
34.99999809	0.00000000	61.22662000
35.19999808	0.00000000	83.59990000
35.39999807	0.00000000	98.01919000
35.59999806	0.00000000	101.38410000
35.79999805	0.00000000	92.97490000
35.99999803	0.00000000	74.83390000
36.19999802	0.00000000	51.99926000
36.39999801	0.00000000	29.52756000
36.59999800	0.00000000	12.25394000
36.79999799	0.00000000	4.61368100
36.99999797	0.00000000	8.32923100
37.19999796	0.00000000	21.37672000
37.39999795	0.00000000	40.38509000
37.59999794	0.00000000	60.66682000
37.79999793	0.00000000	77.13459000
37.99999791	0.00000000	86.04823000
38.19999790	0.00000000	85.23006000
38.39999789	0.00000000	75.59670000
38.59999788	0.00000000	60.05167000
38.79999787	0.00000000	43.13484000
38.99999786	0.00000000	29.26919000
39.19999784	0.00000000	21.58587000
39.39999783	0.00000000	22.39173000
39.59999782	0.00000000	29.84129000
39.79999781	0.00000000	41.65846000
39.99999780	0.00000000	54.29995000
40.19999778	0.00000000	64.44389000
40.39999777	0.00000000	69.93725000
40.59999776	0.00000000	69.13139000
40.79999775	0.00000000	62.96136000
40.99999774	0.00000000	54.14616000
41.19999772	0.00000000	45.68159000
41.39999771	0.00000000	39.30856000
41.59999770	0.00000000	36.35580000
41.79999769	0.00000000	37.57997000
41.99999768	0.00000000	42.21825000
42.19999767	0.00000000	48.89886000
42.39999765	0.00000000	55.57332000
42.59999764	0.00000000	59.44881000
42.79999763	0.00000000	60.41461000
42.99999762	0.00000000	59.54724000
43.19999761	0.00000000	56.58833000
43.39999759	0.00000000	52.36220000
43.59999758	0.00000000	48.32062000
43.79999757	0.00000000	46.19833000
43.99999756	0.00000000	47.71776000
44.19999755	0.00000000	49.66166000
44.39999753	0.00000000	50.63361000
44.59999752	0.00000000	51.48868000
44.79999751	0.00000000	51.90083000
44.99999750	0.00000000	51.90083000
45.19999749	0.00000000	51.48868000
45.39999748	0.00000000	50.73204000
45.59999746	0.00000000	50.83046000
45.79999745	0.00000000	52.46062000
45.99999744	0.00000000	54.95201000
46.19999743	0.00000000	57.04970000
46.39999742	0.00000000	58.31693000
46.59999740	0.00000000	58.31693000
46.79999739	0.00000000	57.04970000
46.99999738	0.00000000	54.90280000
47.19999737	0.00000000	51.90083000
47.39999736	0.00000000	48.53592000
47.59999734	0.00000000	45.63238000
47.79999733	0.00000000	44.40821000
47.99999732	0.00000000	45.63238000
48.19999731	0.00000000	48.53592000
48.39999730	0.00000000	51.95005000
48.59999729	0.00000000	55.36417000
48.79999727	0.00000000	58.26771000
48.99999726	0.00000000	59.59030000
49.19999725	0.00000000	59.14124000
49.39999724	0.00000000	57.49876000
49.59999723	0.00000000	54.50295000
49.79999721	0.00000000	51.58710000
49.99999720	0.00000000	48.94808000
50.19999719	0.00000000	46.85654000
50.39999718	-0.17531990	45.58317000
50.59999717	0.00000000	45.53395000
50.79999715	0.00000000	46.34596000
50.99999714	0.00000000	47.21949000
51.19999713	0.00000000	48.58514000
51.39999712	0.00000000	50.63361000
51.59999711	0.00000000	52.76820000
51.79999710	0.00000000	54.04773000
51.99999708	0.00000000	54.95201000
52.19999707	0.00000000	55.31496000
52.39999706	0.00000000	54.85359000
52.59999705	0.00000000	53.17421000
52.79999704	0.00000000	50.63361000
52.99999702	0.00000000	48.07455000
53.19999701	0.00000000	45.53395000
53.39999700	0.00000000	43.90379000
53.59999699	0.00000000	43.85457000
53.79999698	0.00000000	45.07259000
53.99999696	0.00000000	46.75812000
54.19999695	0.00000000	48.58514000
54.39999694	0.00000000	51.08883000
54.59999693	0.00000000	53.93700000
54.79999692	0.00000000	54.80438000
54.99999691	0.00000000	54.09695000
55.19999689	0.00000000	53.17421000
55.39999688	0.00000000	51.39025000
55.59999687	0.00000000	48.48671000
55.79999686	0.00000000	45.63238000
55.99999685	0.00000000	44.35900000
56.19999683	0.00000000	45.17101000
56.39999682	0.00000000	47.21949000
56.59999681	0.00000000	49.80930000
56.79999680	0.00000000	52.36220000
56.99999679	0.00000000	54.90280000
57.19999677	0.00000000	56.48991000
57.39999676	0.00000000	56.13312000
57.59999675	0.00000000	54.04773000
57.79999674	0.00000000	51.48868000
57.99999673	0.00000000	48.53592000
58.19999672	0.00000000	46.03838000
58.39999670	0.00000000	45.17101000
58.59999669	0.00000000	45.63238000
58.79999668	0.00000000	47.77313000
58.99999667	0.00000000	51.53789000
59.19999666	0.00000000	55.31496000
59.39999664	0.00000000	58.31693000
59.59999663	0.00000000	59.95324000
59.79999662	0.00000000	59.54724000
59.99999661	0.00000000	57.04970000
60.19999660	0.00000000	53.68479000
60.39999658	0.00000000	50.27066000
60.59999657	0.00000000	47.31791000
60.79999656	0.00000000	45.68159000
60.99999655	0.00000000	46.08759000
61.19999654	0.00000000	48.58514000
61.39999653	0.00000000	51.95005000
61.59999651	0.00000000	55.36417000
61.79999650	0.00000000	58.31693000
61.99999649	0.00000000	60.05167000
62.19999648	0.00000000	60.46383000
62.39999647	0.00000000	59.59645000
62.59999645	0.00000000	57.09892000
62.79999644	0.00000000	54.19537000
62.99999643	0.00000000	51.99926000
63.19999642	0.00000000	50.31988000
63.39999641	0.00000000	49.45866000
63.59999639	0.00000000	49.80930000
63.79999638	0.00000000	50.27066000
63.99999637	0.00000000	51.13803000
64.19999636	0.00000000	52.76820000
64.39999635	0.00000000	53.63558000
64.59999634	0.00000000	54.19537000
64.79999632	0.00000000	55.36417000
64.99999631	0.00000000	56.17618000
65.19999630	0.00000000	55.82554000
65.39999629	0.00000000	55.36417000
65.59999628	0.00000000	54.39837000
65.79999626	0.00000000	51.90083000
65.99999625	0.00000000	48.94808000
66.19999624	0.00000000	46.34596000
66.39999623	0.00000000	43.85457000
66.59999622	0.00000000	42.63041000
66.79999620	0.00000000	43.44242000
66.99999619	0.00000000	45.58317000
67.19999618	0.00000000	48.99729000
67.39999617	0.00000000	53.17421000
67.59999616	0.00000000	56.58833000
67.79999615	0.00000000	58.72908000
67.99999613	0.00000000	59.54109000
68.19999612	0.00000000	58.26771000
68.39999611	0.00000000	55.26574000
68.59999610	0.00000000	51.03346000
68.79999609	0.00000000	45.98917000
68.99999607	0.00000000	42.21825000
69.19999606	0.00000000	40.53888000
69.39999605	0.00000000	41.30782000
69.59999604	0.00000000	44.25443000
69.79999603	0.00000000	47.67470000
69.99999601	0.00000000	51.99926000
70.19999600	0.00000000	56.58833000
70.39999599	0.00000000	59.95324000
70.59999598	0.00000000	61.27583000
70.79999597	0.00000000	60.41461000
70.99999596	0.00000000	57.86171000
71.19999594	0.00000000	53.63558000
71.39999593	0.00000000	49.04650000
71.59999592	0.00000000	45.58317000
71.79999591	0.00000000	43.44242000
71.99999590	0.00000000	42.63041000
72.19999588	0.00000000	43.90379000
72.39999587	0.00000000	46.85654000
72.59999586	0.00000000	50.68282000
72.79999585	0.00000000	54.85359000
72.99999584	0.00000000	57.81250000
73.19999582	0.00000000	58.72908000
73.39999581	0.00000000	58.31693000
73.59999580	0.00000000	56.58833000
73.79999579	0.00000000	53.63558000
73.99999578	0.00000000	50.22145000
74.19999577	0.00000000	46.85654000
74.39999575	0.00000000	44.35900000
74.59999574	0.00000000	44.00221000
74.79999573	0.00000000	46.04453000
74.99999572	0.00000000	49.80930000
75.19999571	0.00000000	53.63558000
75.39999569	0.00000000	57.04970000
75.59999568	0.00000000	59.59645000
75.79999567	0.00000000	60.41461000
75.99999566	0.00000000	59.54724000
76.19999565	0.00000000	56.58833000
76.39999563	0.00000000	52.41142000
76.59999562	0.00000000	48.63435000
76.79999561	0.00000000	46.03838000
76.99999560	0.00000000	45.22022000
77.19999559	0.00000000	46.08759000
77.39999558	0.00000000	49.09572000
77.59999556	0.00000000	53.68479000
77.79999555	0.00000000	58.36614000
77.99999554	0.00000000	62.14320000
78.19999553	0.00000000	64.22859000
78.39999552	0.00000000	63.36737000
78.59999550	0.00000000	60.05167000
78.79999549	0.00000000	55.36417000
78.99999548	0.00000000	50.27066000
79.19999547	0.00000000	45.58317000
79.39999546	0.00000000	42.26747000
79.59999544	0.00000000	41.45546000
79.79999543	0.00000000	43.95300000
79.99999542	0.00000000	48.58514000
80.19999541	0.00000000	54.09695000
80.39999540	0.00000000	59.59645000
80.59999539	0.00000000	63.41658000
80.79999537	0.00000000	65.14517000
80.99999536	0.00000000	64.64074000
81.19999535	0.00000000	61.22662000
81.39999534	0.00000000	55.36417000
81.59999533	0.00000000	48.99729000
81.79999531	0.00000000	43.49163000
81.99999530	0.00000000	39.67150000
82.19999529	0.00000000	38.80413000
82.39999528	0.00000000	40.44045000
82.59999527	0.00000000	43.90379000
82.79999525	0.00000000	48.99729000
82.99999524	0.00000000	54.90280000
83.19999523	0.00000000	59.95324000
83.39999522	0.00000000	62.96136000
83.59999521	0.00000000	63.41658000
83.79999520	0.00000000	61.73105000
83.99999518	0.00000000	58.26771000
84.19999517	0.00000000	53.22342000
84.39999516	0.00000000	47.67470000
84.59999515	0.00000000	42.98105000
84.79999514	0.00000000	39.16092000
84.99999512	0.00000000	37.53075000
85.19999511	0.00000000	38.75492000
85.39999510	0.00000000	42.16904000
85.59999509	0.00000000	47.21949000
85.79999508	0.00000000	52.76820000
85.99999506	0.00000000	57.46186000
86.19999505	0.00000000	61.27583000
86.39999504	0.00000000	62.85679000
86.59999503	0.00000000	61.27583000
86.79999502	0.00000000	57.46186000
86.99999501	0.00000000	52.81742000
87.19999499	0.00000000	47.62549000
87.39999498	0.00000000	43.03026000
87.59999497	0.00000000	39.57308000
87.79999496	0.00000000	38.39198000
87.99999495	0.00000000	39.62229000
88.19999493	0.00000000	43.44242000
88.39999492	0.00000000	48.43750000
88.59999491	0.00000000	53.22342000
88.79999490	0.00000000	57.51107000
88.99999489	0.00000000	61.27583000
89.19999487	0.00000000	62.90600000
89.39999486	0.00000000	61.73105000
89.59999485	0.00000000	58.77829000
89.79999484	0.00000000	54.85359000
89.99999483	0.00000000	49.85851000
90.19999482	0.00000000	45.28174000
90.39999480	0.00000000	43.54084000
90.59999479	0.00000000	43.85457000
90.79999478	0.00000000	45.58317000
90.99999477	0.00000000	48.53592000
91.19999476	0.00000000	51.95005000
91.39999474	0.00000000	55.36417000
91.59999473	0.00000000	58.31693000
91.79999472	0.00000000	60.00246000
91.99999471	0.00000000	60.05167000
92.19999470	0.00000000	58.82750000
92.39999468	0.00000000	57.09892000
92.59999467	0.00000000	54.95201000
92.79999466	0.00000000	52.41142000
92.99999465	0.00000000	50.36909000
93.19999464	0.00000000	49.45866000
93.39999463	0.00000000	49.85851000
93.59999461	0.00000000	50.68282000
93.79999460	0.00000000	51.99926000
93.99999459	0.00000000	53.63558000
94.19999458	0.00000000	54.95201000
94.39999457	0.00000000	55.77633000
94.59999455	0.00000000	56.22539000
94.79999454	0.00000000	55.82554000
94.99999453	0.00000000	55.41338000
95.19999452	0.00000000	54.90280000
95.39999451	0.00000000	53.73400000
95.59999449	0.00000000	52.87278000
95.79999448	0.00000000	52.81126000
95.99999447	0.00000000	52.31299000
96.19999446	0.00000000	51.53789000
96.39999445	0.00000000	50.68282000
96.59999444	0.00000000	50.27066000
96.79999442	0.00000000	50.22145000
96.99999441	0.00000000	50.22145000
97.19999440	0.00000000	50.27066000
97.39999439	0.00000000	50.68282000
97.59999438	0.00000000	51.48868000
97.79999436	0.00000000	51.95005000
97.99999435	0.00000000	52.36220000
98.19999434	0.00000000	52.76205000
98.39999433	0.00000000	52.31299000
98.59999432	0.00000000	51.53789000
98.79999430	0.00000000	50.58440000
98.99999429	0.00000000	49.40330000
99.19999428	0.00000000	48.08686000
99.39999427	0.00000000	47.71776000
99.59999426	0.00000000	47.67470000
99.79999425	0.00000000	48.53592000
99.99999423	0.00000000	49.76009000
100.19999422	0.00000000	50.63361000
100.39999421	0.00000000	51.48868000
100.59999420	0.00000000	51.95005000
100.79999419	0.00000000	52.36220000
100.99999417	0.00000000	52.71284000
101.19999416	0.00000000	51.90083000
101.39999415	0.00000000	50.73204000
101.59999414	0.00000000	50.22145000
101.79999413	0.00000000	49.76009000
101.99999411	0.00000000	48.94808000
102.19999410	0.00000000	48.58514000
102.39999409	0.00000000	48.99729000
102.59999408	0.00000000	50.22145000
102.79999407	0.00000000	51.48868000
102.99999406	0.00000000	52.36220000
103.19999404	0.00000000	53.22342000
103.39999403	0.00000000	53.68479000
103.59999402	0.00000000	54.04773000
103.79999401	0.00000000	54.03543000
103.99999400	0.00000000	52.76820000
104.19999398	0.00000000	51.63632000
104.39999397	0.00000000	51.08883000
104.59999396	0.00000000	51.08268000
104.79999395	0.00000000	50.68282000
104.99999394	0.00000000	50.78125000
105.19999392	0.00000000	51.95005000
105.39999391	0.00000000	53.22342000
105.59999390	0.00000000	54.14616000
105.79999389	0.00000000	55.41338000
105.99999388	0.00000000	56.63754000
106.19999387	0.00000000	57.09892000
106.39999385	0.00000000	57.04970000
106.59999384	0.00000000	56.23154000
106.79999383	0.00000000	54.55216000
106.99999382	0.00000000	53.32185000
107.19999381	0.00000000	52.36220000
107.39999379	0.00000000	51.53789000
107.59999378	0.00000000	50.73204000
107.79999377	0.00000000	50.83046000
107.99999376	0.00000000	52.41142000
108.19999375	0.00000000	54.49680000
108.39999374	0.00000000	55.72711000
108.59999372	0.00000000	56.22539000
108.79999371	0.00000000	55.77633000
108.99999370	0.00000000	55.00122000
109.19999369	0.00000000	54.09695000
109.39999368	0.00000000	53.22342000
109.59999366	0.00000000	51.95005000
109.79999365	0.00000000	50.73204000
109.99999364	0.00000000	50.31988000
110.19999363	0.00000000	50.73204000
110.39999362	0.00000000	51.99926000
110.59999360	0.00000000	53.68479000
110.79999359	0.00000000	55.36417000
110.99999358	0.00000000	56.68676000
111.19999357	0.00000000	57.51107000
111.39999356	0.00000000	57.91092000
111.59999355	0.00000000	57.00049000
111.79999353	0.00000000	54.95201000
111.99999352	0.00000000	52.41142000
112.19999351	0.00000000	50.31988000
112.39999350	0.00000000	48.99729000
112.59999349	0.00000000	48.58514000
112.79999347	0.00000000	48.99729000
112.99999346	0.00000000	50.27066000
113.19999345	0.00000000	51.99926000
113.39999344	0.00000000	54.09695000
113.59999343	0.00000000	56.18233000
113.79999341	0.00000000	57.00049000
113.99999340	0.00000000	56.63754000
114.19999339	0.00000000	55.36417000
114.39999338	0.00000000	53.63558000
114.59999337	0.00000000	51.53789000
114.79999336	0.00000000	49.35408000
114.99999334	0.00000000	47.71776000
115.19999333	0.00000000	46.45054000
115.39999332	0.00000000	46.95497000
115.59999331	0.00000000	48.94808000
115.79999330	0.00000000	51.48868000
115.99999328	0.00000000	53.58636000
116.19999327	0.00000000	54.90280000
116.39999326	0.00000000	55.21653000
116.59999325	0.00000000	54.03543000
116.79999324	0.00000000	51.55019000
116.99999322	0.00000000	49.90772000
117.19999321	0.00000000	48.94808000
117.39999320	0.00000000	48.48671000
117.59999319	0.00000000	48.07455000
117.79999318	0.00000000	47.72391000
117.99999317	0.00000000	48.58514000
118.19999315	0.00000000	50.22145000
118.39999314	0.00000000	51.90083000
118.59999313	0.00000000	53.17421000
118.79999312	0.00000000	53.63558000
118.99999311	0.00000000	53.63558000
119.19999309	0.00000000	53.17421000
119.39999308	0.00000000	51.95005000
119.59999307	0.00000000	50.73204000
119.79999306	0.00000000	50.27066000
119.99999305	0.00000000	50.27066000
120.19999303	0.00000000	50.68282000
120.39999302	0.00000000	51.53789000
120.59999301	0.00000000	52.41142000
120.79999300	0.00000000	53.68479000
120.99999299	0.00000000	54.90280000
121.19999298	0.00000000	55.36417000
121.39999296	0.00000000	55.41338000
121.59999295	0.00000000	55.36417000
121.79999294	0.00000000	54.95201000
121.99999293	0.00000000	54.19537000
122.19999292	0.00000000	54.14616000
122.39999290	0.00000000	54.54601000
122.59999289	0.00000000	54.55216000
122.79999288	0.00000000	55.00122000
122.99999287	0.00000000	55.36417000
123.19999286	0.00000000	55.46260000
123.39999284	0.00000000	55.87475000
123.59999283	0.00000000	56.63754000
123.79999282	0.00000000	56.63754000
123.99999281	0.00000000	55.87475000
124.19999280	0.00000000	55.41338000
124.39999279	0.00000000	54.95201000
124.59999277	0.00000000	54.14616000
124.79999276	0.00000000	53.73400000
124.99999275	0.00000000	53.68479000
125.19999274	0.00000000	53.73400000
125.39999273	0.00000000	54.14616000
125.59999271	0.00000000	54.95201000
125.79999270	0.00000000	55.36417000
125.99999269	0.00000000	55.41338000
126.19999268	0.00000000	55.41338000
126.39999267	0.00000000	55.36417000
126.59999265	0.00000000	54.95201000
126.79999264	0.00000000	54.09695000
126.99999263	0.00000000	53.27264000
127.19999262	0.00000000	52.36220000
127.39999261	0.00000000	51.58710000
127.59999260	0.00000000	51.13803000
127.79999258	0.00000000	51.58710000
127.99999257	0.00000000	52.36220000
128.19999256	0.00000000	53.22342000
128.39999255	0.00000000	53.63558000
128.59999254	0.00000000	53.68479000
128.79999252	0.00000000	53.63558000
128.99999251	0.00000000	53.22342000
129.19999250	0.00000000	52.36220000
129.39999249	0.00000000	51.48868000
129.59999248	0.00000000	50.22145000
129.79999246	0.00000000	48.99729000
129.99999245	0.00000000	48.58514000
130.19999244	0.00000000	48.94808000
130.39999243	0.00000000	49.80930000
130.59999242	0.00000000	50.63361000
130.79999241	0.00000000	51.53789000
130.99999239	0.00000000	52.26377000
131.19999238	0.00000000	52.30684000
131.39999237	0.00000000	51.13803000
131.59999236	0.00000000	50.73204000
131.79999235	0.00000000	50.98425000
131.99999233	0.00000000	50.22145000
132.19999232	0.00000000	49.45866000
132.39999231	0.00000000	49.80930000
132.59999230	0.00000000	50.22145000
132.79999229	0.00000000	50.68282000
132.99999227	0.00000000	51.53789000
133.19999226	0.00000000	52.31299000
133.39999225	0.00000000	52.76205000
133.59999224	0.00000000	52.36220000
133.79999223	0.00000000	51.99926000
133.99999222	0.00000000	51.95005000
134.19999220	0.00000000	51.95005000
134.39999219	0.00000000	51.95005000
134.59999218	0.00000000	51.99926000
134.79999217	0.00000000	52.41142000
134.99999216	0.00000000	53.22342000
135.19999214	0.00000000	53.68479000
135.39999213	0.00000000	54.14616000
135.59999212	0.00000000	54.95201000
135.79999211	0.00000000	55.36417000
135.99999210	0.00000000	55.36417000
136.19999208	0.00000000	54.90280000
136.39999207	0.00000000	53.68479000
136.59999206	0.00000000	52.46062000
136.79999205	0.00000000	52.04847000
136.99999204	0.00000000	52.41142000
137.19999203	0.00000000	53.22342000
137.39999201	0.00000000	53.68479000
137.59999200	0.00000000	54.19537000
137.79999199	0.00000000	55.41338000
137.99999198	0.00000000	56.63754000
138.19999197	0.00000000	57.09892000
138.39999195	0.00000000	57.09892000
138.59999194	0.00000000	56.68676000
138.79999193	0.00000000	55.82554000
138.99999192	0.00000000	55.00122000
139.19999191	0.00000000	54.14616000
139.39999189	0.00000000	53.73400000
139.59999188	0.00000000	53.68479000
139.79999187	0.00000000	53.68479000
139.99999186	0.00000000	53.73400000
140.19999185	0.00000000	54.19537000
140.39999184	0.00000000	55.36417000
140.59999182	0.00000000	56.17618000
140.79999181	0.00000000	55.82554000
140.99999180	0.00000000	55.46260000
141.19999179	0.00000000	55.36417000
141.39999178	0.00000000	54.95201000
141.59999176	0.00000000	54.09695000
141.79999175	0.00000000	53.27264000
141.99999174	0.00000000	52.41142000
142.19999173	0.00000000	51.99926000
142.39999172	0.00000000	51.90083000
142.59999170	0.00000000	51.53789000
142.79999169	0.00000000	51.13803000
142.99999168	0.00000000	51.53789000
143.19999167	0.00000000	51.95005000
143.39999166	0.00000000	52.41142000
143.59999165	0.00000000	53.22342000
143.79999163	0.00000000	53.63558000
143.99999162	0.00000000	53.63558000
144.19999161	0.00000000	53.22342000
144.39999160	0.00000000	52.41142000
144.59999159	0.00000000	51.95005000
144.79999157	0.00000000	51.48868000
144.99999156	0.00000000	50.68282000
145.19999155	0.00000000	50.27066000
145.39999154	0.00000000	50.22145000
145.59999153	0.00000000	50.22145000
145.79999151	0.00000000	50.17224000
145.99999150	0.00000000	49.85851000
146.19999149	0.00000000	49.91388000
146.39999148	0.00000000	51.48868000
146.59999147	0.00000000	52.71284000
146.79999146	0.00000000	52.77436000
146.99999144	0.00000000	52.81126000
147.19999143	0.00000000	52.36220000
147.39999142	0.00000000	51.99926000
147.59999141	0.00000000	51.90083000
147.79999140	0.00000000	51.48868000
147.99999138	0.00000000	50.68282000
148.19999137	0.00000000	50.27066000
148.39999136	0.00000000	50.22145000
148.59999135	0.00000000	50.27066000
148.79999134	0.00000000	50.73204000
148.99999132	0.00000000	51.95005000
149.19999131	0.00000000	53.17421000
149.39999130	0.00000000	53.68479000
149.59999129	0.00000000	54.09695000
149.79999128	0.00000000	54.49680000
149.99999127	0.00000000	54.09695000
150.19999125	0.00000000	53.73400000
150.39999124	0.00000000	53.68479000
150.59999123	0.00000000	53.63558000
150.79999122	0.00000000	53.22342000
150.99999121	0.00000000	52.46062000
151.19999119	0.00000000	52.46062000
151.39999118	0.00000000	53.27264000
151.59999117	0.00000000	54.09695000
151.79999116	0.00000000	55.00122000
151.99999115	0.00000000	55.82554000
152.19999113	0.00000000	56.63754000
152.39999112	0.00000000	56.63754000
152.59999111	0.00000000	55.87475000
152.79999110	0.00000000	55.46260000
152.99999109	0.00000000	55.41338000
153.19999108	0.00000000	55.46260000
153.39999106	0.00000000	55.87475000
153.59999105	0.00000000	56.68676000
153.79999104	0.00000000	57.09892000
153.99999103	0.00000000	57.09892000
154.19999102	0.00000000	56.78519000
154.39999100	0.00000000	56.74212000
154.59999099	0.00000000	57.44955000
154.79999098	0.00000000	56.58833000
154.99999097	0.00000000	54.65059000
155.19999096	0.00000000	53.78321000
155.39999094	0.00000000	53.68479000
155.59999093	0.00000000	53.68479000
155.79999092	0.00000000	53.73400000
155.99999091	0.00000000	54.09695000
156.19999090	0.00000000	54.49680000
156.39999089	0.00000000	54.14616000
156.59999087	0.00000000	54.14616000
156.79999086	0.00000000	54.49680000
156.99999085	0.00000000	54.09695000
157.19999084	0.00000000	53.73400000
157.39999083	0.00000000	53.68479000
157.59999081	0.00000000	53.68479000
157.79999080	0.00000000	53.73400000
157.99999079	0.00000000	54.09695000
158.19999078	0.00000000	54.49680000
158.39999077	0.00000000	54.09695000
158.59999075	0.00000000	53.78321000
158.79999074	0.00000000	54.09695000
158.99999073	0.00000000	54.49680000
159.19999072	0.00000000	54.09695000
159.39999071	0.00000000	53.73400000
159.59999070	0.00000000	53.68479000
159.79999068	0.00000000	53.63558000
159.99999067	0.00000000	53.22342000
160.19999066	0.00000000	52.41142000
160.39999065	0.00000000	52.04847000
160.59999064	0.00000000	52.41142000
160.79999062	0.00000000	53.22342000
160.99999061	0.00000000	53.63558000
161.19999060	0.00000000	53.68479000
161.39999059	0.00000000	53.68479000
161.59999058	0.00000000	53.68479000
161.79999056	0.00000000	53.68479000
161.99999055	0.00000000	53.63558000
162.19999054	0.00000000	53.22342000
162.39999053	0.00000000	52.41142000
162.59999052	0.00000000	51.99926000
162.79999051	0.00000000	51.95005000
162.99999049	0.00000000	51.95005000
163.19999048	0.00000000	51.95005000
163.39999047	0.00000000	51.99926000
163.59999046	0.00000000	52.41142000
163.79999045	0.00000000	53.22342000
163.99999043	0.00000000	53.58636000
164.19999042	0.00000000	53.27264000
164.39999041	0.00000000	52.82357000
164.59999040	0.00000000	52.81126000
164.79999039	0.00000000	52.36220000
164.99999037	0.00000000	52.04847000
165.19999036	0.00000000	52.36220000
165.39999035	0.00000000	52.76205000
165.59999034	0.00000000	52.41142000
165.79999033	0.00000000	52.46062000
165.99999032	0.00000000	53.22342000
166.19999030	0.00000000	53.63558000
166.39999029	0.00000000	53.68479000
166.59999028	0.00000000	53.68479000
166.79999027	0.00000000	53.68479000
166.99999026	0.00000000	53.68479000
167.19999024	0.00000000	53.68479000
167.39999023	0.00000000	53.68479000
167.59999022	0.00000000	53.73400000
167.79999021	0.00000000	54.14616000
167.99999020	0.00000000	54.95201000
168.19999018	0.00000000	55.41338000
168.39999017	0.00000000	55.82554000
168.59999016	0.00000000	56.22539000
168.79999015	0.00000000	55.82554000
168.99999014	0.00000000	55.46260000
169.19999013	0.00000000	55.41338000
169.39999011	0.00000000	55.41338000
169.59999010	0.00000000	55.41338000
169.79999009	0.00000000	55.41338000
169.99999008	0.00000000	55.41338000
170.19999007	0.00000000	55.41338000
170.39999005	0.00000000	55.41338000
170.59999004	0.00000000	55.46260000
170.79999003	0.00000000	55.87475000
170.99999002	0.00000000	56.68676000
171.19999001	0.00000000	57.04970000
171.39998999	0.00000000	56.73597000
171.59998998	0.00000000	56.33612000
171.79998997	0.00000000	56.63754000
171.99998996	0.00000000	56.18233000
172.19998995	0.00000000	54.65059000
172.39998994	0.00000000	54.24458000
172.59998992	0.00000000	54.95201000
172.79998991	0.00000000	55.36417000
172.99998990	0.00000000	55.41338000
173.19998989	0.00000000	55.36417000
173.39998988	0.00000000	54.95201000
173.59998986	0.00000000	54.14616000
173.79998985	0.00000000	53.73400000
173.99998984	0.00000000	53.68479000
174.19998983	0.00000000	53.68479000
174.39998982	0.00000000	53.68479000
174.59998980	0.00000000	53.73400000
174.79998979	0.00000000	54.09695000
174.99998978	0.00000000	54.49680000
175.19998977	0.00000000	54.09695000
175.39998976	0.00000000	53.68479000
175.59998975	0.00000000	53.22342000
175.79998973	0.00000000	52.41142000
175.99998972	0.00000000	51.99926000
176.19998971	0.00000000	51.95005000
176.39998970	0.00000000	51.95005000
176.59998969	0.00000000	51.95005000
176.79998967	0.00000000	51.99926000
176.99998966	0.00000000	52.36220000
177.19998965	0.00000000	52.76205000
177.39998964	0.00000000	52.36220000
177.59998963	0.00000000	51.99926000
177.79998961	0.00000000	51.95005000
177.99998960	0.00000000	51.95005000
178.19998959	0.00000000	51.95005000
178.39998958	0.00000000	51.95005000
178.59998957	0.00000000	51.95005000
178.79998956	0.00000000	51.95005000
178.99998954	0.00000000	51.95005000
179.19998953	0.00000000	51.99926000
179.39998952	0.00000000	52.41142000
179.59998951	0.00000000	53.22342000
179.79998950	0.00000000	53.63558000
179.99998948	0.00000000	53.68479000
180.19998947	0.00000000	53.68479000
180.39998946	0.00000000	53.68479000
180.59998945	0.00000000	53.68479000
180.79998944	0.00000000	53.68479000
180.99998942	0.00000000	53.68479000
181.19998941	0.00000000	53.68479000
181.39998940	0.00000000	53.73400000
181.59998939	0.00000000	54.14616000
181.79998938	0.00000000	54.95201000
181.99998937	0.00000000	55.36417000
182.19998935	0.00000000	55.41338000
182.39998934	0.00000000	55.41338000
182.59998933	0.00000000	55.46260000
182.79998932	0.00000000	55.87475000
182.99998931	0.00000000	56.68676000
183.19998929	0.00000000	57.04970000
183.39998928	0.00000000	56.73597000
183.59998927	0.00000000	56.33612000
183.79998926	0.00000000	56.78519000
183.99998925	0.00000000	57.51107000
184.19998923	0.00000000	57.96013000
184.39998922	0.00000000	57.51107000
184.59998921	0.00000000	56.78519000
184.79998920	0.00000000	56.33612000
184.99998919	0.00000000	56.73597000
185.19998918	0.00000000	57.04970000
185.39998916	0.00000000	56.73597000
185.59998915	0.00000000	56.33612000
185.79998914	0.00000000	56.73597000
185.99998913	0.00000000	57.09892000
186.19998912	0.00000000	57.14812000
186.39998910	0.00000000	57.09892000
186.59998909	0.00000000	56.73597000
186.79998908	0.00000000	56.33612000
186.99998907	0.00000000	56.73597000
187.19998906	0.00000000	57.04970000
187.39998904	0.00000000	56.68676000
187.59998903	0.00000000	55.87475000
187.79998902	0.00000000	55.46260000
187.99998901	0.00000000	55.41338000
188.19998900	0.00000000	55.36417000
188.39998899	0.00000000	54.95201000
188.59998897	0.00000000	54.19537000
188.79998896	0.00000000	54.19537000
188.99998895	0.00000000	54.95201000
189.19998894	0.00000000	55.36417000
189.39998893	0.00000000	55.36417000
189.59998891	0.00000000	55.00122000
189.79998890	0.00000000	54.60138000
189.99998889	0.00000000	54.90280000
190.19998888	0.00000000	54.49680000
190.39998887	0.00000000	53.27879000
190.59998885	0.00000000	52.90969000
190.79998884	0.00000000	52.77436000
190.99998883	0.00000000	52.81126000
191.19998882	0.00000000	52.36220000
191.39998881	0.00000000	52.04847000
191.59998880	0.00000000	52.41142000
191.79998878	0.00000000	53.22342000
191.99998877	0.00000000	53.63558000
192.19998876	0.00000000	53.68479000
192.39998875	0.00000000	53.68479000
192.59998874	0.00000000	53.63558000
192.79998872	0.00000000	53.22342000
192.99998871	0.00000000	52.41142000
193.19998870	0.00000000	51.99926000
193.39998869	0.00000000	51.95005000
193.59998868	0.00000000	51.95005000
193.79998866	0.00000000	51.95005000
193.99998865	0.00000000	51.99926000
194.19998864	0.00000000	52.41142000
194.39998863	0.00000000	53.22342000
194.59998862	0.00000000	53.63558000
194.79998861	0.00000000	53.68479000
194.99998859	0.00000000	53.73400000
195.19998858	0.00000000	54.14616000
195.39998857	0.00000000	54.90280000
195.59998856	0.00000000	54.95201000
195.79998855	0.00000000	54.60138000
195.99998853	0.00000000	55.00122000
