Time	Channel A	Channel B	Channel C
(us)	(V)	(mV)	(mV)

-4.49999956	0.00000000	-13.76107000	-1.57480300
-4.29999957	0.00000000	-13.81028000	-1.57480300
-4.09999958	0.00000000	-13.48425000	-1.61786400
-3.89999959	0.00000000	-13.81028000	-1.95004900
-3.69999960	0.00000000	-13.81028000	-2.36220500
-3.49999962	0.00000000	-13.48425000	-2.36835600
-3.29999963	0.00000000	-13.81028000	-2.78051200
-3.09999964	0.00000000	-13.76107000	-3.11269700
-2.89999965	0.00000000	-13.06594000	-3.11269700
-2.69999966	0.00000000	-12.73991000	-2.78051200
-2.49999968	0.00000000	-13.02288000	-2.41141700
-2.29999969	0.00000000	-13.43504000	-2.73745100
-2.09999970	0.00000000	-13.39813000	-2.68823800
-1.89999971	0.00000000	-13.43504000	-1.99311000
-1.69999972	0.00000000	-13.02288000	-1.61786400
-1.49999973	0.00000000	-12.69070000	-1.61786400
-1.29999975	0.00000000	-12.69070000	-1.95004900
-1.09999976	0.00000000	-13.06594000	-2.31914400
-0.89999977	0.00000000	-13.81028000	-1.99311000
-0.69999978	0.00000000	-14.18553000	-1.99311000
-0.49999979	0.00000000	-14.18553000	-2.31914400
-0.29999981	0.15871060	-13.81028000	-1.95004900
-0.09999982	0.63668800	-13.11516000	-1.66707700
0.10000017	0.95533960	-13.06594000	-1.95004900
0.30000016	0.95533960	-13.39198000	-2.36220500
0.50000015	0.95533960	-13.02288000	-2.36835600
0.70000013	0.47736220	-12.69070000	-2.73745100
0.90000012	-0.31803640	-12.64764000	-2.73745100
1.10000011	-1.27399100	-12.64764000	-2.36835600
1.30000010	-2.22994600	-12.64764000	-2.36220500
1.50000009	-2.70792300	-12.64764000	-1.95004900
1.70000008	-2.54859700	-12.64764000	-1.61786400
1.90000006	-1.59264300	-12.64764000	-1.57480300
2.10000005	0.15871060	-12.64764000	-1.57480300
2.30000004	2.22994600	-12.69070000	-1.61786400
2.50000003	4.14124000	-13.06594000	-1.99311000
2.70000002	5.25652100	-13.81028000	-2.73745100
2.90000000	5.09719500	-14.13632000	-3.11269700
3.09999999	3.34522600	-13.85334000	-3.15575800
3.29999998	0.63668800	-13.44119000	-3.15575800
3.49999997	-2.86724900	-13.43504000	-3.15575800
3.69999996	-5.89382400	-13.02288000	-3.11269700
3.89999994	-7.80511800	-12.69070000	-2.73745100
4.09999993	-7.64579200	-12.64764000	-1.99311000
4.29999992	-5.73449800	-12.64764000	-1.61786400
4.49999991	-1.91129400	-12.64764000	-1.57480300
4.69999990	2.38927200	-12.64764000	-1.57480300
4.89999989	6.53112700	-12.64764000	-1.61786400
5.09999987	8.92039900	-12.69070000	-1.99311000
5.29999986	9.23905000	-13.02288000	-2.73745100
5.49999985	7.16781500	-13.43504000	-3.11269700
5.69999984	3.34522600	-13.44119000	-3.15575800
5.89999983	-1.43331700	-13.81028000	-3.15575800
6.09999981	-5.89382400	-13.76107000	-3.11269700
6.29999980	-8.76107300	-13.06594000	-2.73745100
6.49999979	-9.39837600	-12.69070000	-1.99311000
6.69999978	-7.80511800	-12.64764000	-1.61786400
6.89999977	-4.30056600	-12.64764000	-1.57480300
7.09999975	0.00000000	-12.64764000	-1.57480300
7.29999974	4.14124000	-12.64764000	-1.57480300
7.49999973	6.84916400	-12.69070000	-1.61786400
7.69999972	7.80511800	-13.02288000	-1.99311000
7.89999971	6.69045300	-13.39198000	-2.73745100
8.09999970	3.98191400	-13.06594000	-3.11269700
8.29999968	0.79601380	-13.06594000	-3.11269700
8.49999967	-2.22994600	-13.39198000	-2.73745100
8.69999966	-4.45989200	-13.02288000	-1.99311000
8.89999965	-5.25652100	-12.69070000	-1.61786400
9.09999964	-4.61921700	-12.64764000	-1.57480300
9.29999962	-3.02657500	-12.64764000	-1.57480300
9.49999961	-1.11466500	-12.64764000	-1.57480300
9.69999960	0.79601380	-12.64764000	-1.57480300
9.89999959	2.07062000	-12.64764000	-1.57480300
10.09999958	2.54859700	-12.64764000	-1.57480300
10.29999956	2.22994600	-12.64764000	-1.57480300
10.49999955	1.59264300	-12.64764000	-1.61786400
10.69999954	0.79601380	-12.64764000	-1.99311000
10.89999953	0.00000000	-12.69070000	-2.73745100
11.09999952	-0.63668800	-13.02288000	-3.06348400
11.29999951	-0.95533960	-13.39198000	-2.73745100
11.49999949	-0.95533960	-13.02288000	-1.99311000
11.69999948	-0.79601380	-12.69070000	-1.61786400
11.89999947	-0.47736220	-12.64764000	-1.57480300
12.09999946	-0.15871060	-12.64764000	-1.57480300
12.29999945	-0.15871060	-12.69070000	-1.57480300
12.49999943	-0.15871060	-13.02288000	-1.57480300
12.69999942	0.00000000	-13.39198000	-1.57480300
12.89999941	0.00000000	-13.02288000	-1.57480300
13.09999940	0.00000000	-12.69070000	-1.57480300
13.29999939	0.00000000	-12.64764000	-1.57480300
13.49999937	0.00000000	-12.64764000	-1.57480300
13.69999936	0.00000000	-12.69070000	-1.57480300
13.89999935	0.00000000	-13.06594000	-1.57480300
14.09999934	-0.15871060	-13.76107000	-1.57480300
14.29999933	-0.15871060	-13.76107000	-1.57480300
14.49999932	-0.15871060	-13.06594000	-1.57480300
14.69999930	-0.15871060	-12.73991000	-1.57480300
14.89999929	0.00000000	-13.02288000	-1.57480300
15.09999928	0.00000000	-13.43504000	-1.61786400
15.29999927	0.00000000	-13.44119000	-1.95004900
15.49999926	0.00000000	-13.85334000	-2.31914400
15.69999924	0.00000000	-14.13632000	-1.95004900
15.89999923	0.00000000	-13.85334000	-1.61786400
16.09999922	0.00000000	-13.44119000	-1.57480300
16.29999921	0.00000000	-13.43504000	-1.57480300
16.49999920	-0.15871060	-13.02288000	-1.57480300
16.69999919	-0.15871060	-12.64764000	-1.57480300
16.89999917	0.00000000	-12.22933000	-1.57480300
17.09999916	0.00000000	-11.48499000	-1.57480300
17.29999915	0.00000000	-11.10974000	-1.57480300
17.49999914	0.00000000	-11.06668000	-1.57480300
17.69999913	0.00000000	-11.10974000	-1.57480300
17.89999911	0.00000000	-11.53420000	-1.57480300
18.09999910	0.00000000	-12.69070000	-1.57480300
18.29999909	0.00000000	-14.22859000	-1.57480300
18.49999908	0.00000000	-15.76649000	-1.57480300
18.69999907	0.00000000	-16.97219000	-1.57480300
18.89999905	0.00000000	-17.72268000	-1.57480300
19.09999904	0.00000000	-18.04257000	-1.57480300
19.29999903	0.00000000	-16.83686000	-1.57480300
19.49999902	0.00000000	-14.18553000	-1.57480300
19.69999901	0.00000000	-11.02362000	-1.61786400
19.89999900	0.00000000	-7.48646600	-1.95004900
20.09999898	0.00000000	-3.71555100	-2.31914400
20.29999897	0.00000000	-1.48253000	-1.95004900
20.49999896	0.00000000	-2.22687000	-1.66707700
20.69999895	0.00000000	-5.33956700	-1.95004900
20.89999894	0.00000000	-10.50689000	-2.31914400
21.09999892	0.00000000	-17.80881000	-1.99311000
21.29999891	0.00000000	-25.52903000	-1.99311000
21.49999890	0.00000000	-31.26230000	-2.31914400
21.69999889	0.00000000	-33.90748000	-1.95004900
21.89999888	0.00000000	-31.48991000	-1.61786400
22.09999886	0.00000000	-24.13878000	-1.57480300
22.29999885	0.00000000	-13.25664000	-1.61786400
22.49999884	0.00000000	-0.51058070	-1.99311000
22.69999883	0.00000000	10.98671000	-2.68823800
22.89999882	0.00000000	17.91339000	-2.68823800
23.09999881	0.00000000	18.24557000	-1.99311000
23.29999879	0.00000000	11.58957000	-1.61786400
23.49999878	0.00000000	-1.61786400	-1.53174200
23.69999877	0.00000000	-18.97145000	-1.15649600
23.89999876	0.00000000	-36.33120000	-0.41830710
24.09999875	0.00000000	-49.45251000	-0.09227362
24.29999873	0.00000000	-55.17347000	-0.46136810
24.49999872	0.00000000	-51.59325000	-1.62401600
24.69999871	0.00000000	-38.37967000	-3.15575800
24.89999870	0.00000000	-17.95645000	-4.73671200
25.09999869	0.00000000	4.79207600	-6.26845500
25.29999867	0.00000000	24.10802000	-7.38188900
25.49999866	0.00000000	35.69143000	-7.38188900
25.69999865	0.00000000	36.76181000	-6.17618100
25.89999864	0.00000000	26.24877000	-3.85088600
26.09999863	0.00000000	5.81938900	-0.33218500
26.29999862	0.00000000	-19.62352000	3.48794300
26.49999860	0.00000000	-43.54699000	6.96358300
26.69999859	0.00000000	-60.56840000	8.87672100
26.89999858	0.00000000	-66.71382000	8.82750900
27.09999857	0.00000000	-60.61761000	6.40994000
27.29999856	0.00000000	-43.96531000	0.97810030
27.49999854	0.00000000	-20.82923000	-6.31766700
27.69999853	0.00000000	3.91240100	-13.65650000
27.89999852	0.00000000	24.01575000	-19.46358000
28.09999851	0.00000000	35.59916000	-22.48400000
28.29999850	0.00000000	36.06053000	-21.60433000
28.49999848	0.00000000	25.27682000	-15.74803000
28.69999847	0.00000000	7.16043300	-5.71481200
28.89999846	0.00000000	-14.92987000	6.22539300
29.09999845	0.00000000	-35.72834000	17.42126000
29.29999844	0.00000000	-50.52288000	25.09227000
29.49999843	0.00000000	-56.75443000	27.36835000
29.69999841	0.00000000	-53.68479000	23.09301000
29.89999840	0.00000000	-42.09522000	13.01058000
30.09999839	0.00000000	-24.74163000	-0.92888770
30.29999838	0.00000000	-5.85014700	-16.39395000
30.49999837	0.00000000	10.05167000	-29.82899000
30.69999835	0.00000000	19.82652000	-37.91216000
30.89999834	0.00000000	22.57013000	-38.28740000
31.09999833	0.00000000	17.91339000	-30.94242000
31.29999832	0.00000000	6.79749000	-17.37820000
31.49999831	0.00000000	-7.48646600	0.00000000
31.69999829	0.00000000	-21.44439000	17.37820000
31.89999828	0.00000000	-32.74483000	30.85015000
32.09999827	0.00000000	-39.31471000	37.44463000
32.29999826	0.00000000	-40.09596000	35.50074000
32.49999825	0.00000000	-34.70103000	25.87352000
32.69999824	0.00000000	-24.74163000	10.40846000
32.89999822	0.00000000	-13.15822000	-7.38804100
33.09999821	0.00000000	-2.68823800	-24.02190000
33.29999820	0.00000000	4.70595500	-36.33120000
33.49999819	0.00000000	7.82480200	-40.97564000
33.69999818	0.00000000	6.28690900	-37.16781000
33.89999816	0.00000000	0.51673230	-26.38410000
34.09999815	0.00000000	-7.90477300	-10.91905000
34.29999814	0.00000000	-16.41855000	5.71481200
34.49999813	0.00000000	-23.02534000	20.39862000
34.69999812	0.00000000	-26.88238000	30.05659000
34.89999810	0.00000000	-26.88238000	32.38804000
35.09999809	0.00000000	-23.06841000	27.41142000
35.29999808	0.00000000	-16.92298000	16.21555000
35.49999807	0.00000000	-10.03937000	1.57480300
35.69999806	0.00000000	-4.64443900	-13.10285000
35.89999805	0.00000000	-2.26993100	-24.66781000
36.09999803	0.00000000	-2.64517700	-30.43184000
36.29999802	0.00000000	-5.76402500	-28.94316000
36.49999801	0.00000000	-11.10974000	-20.95226000
36.69999800	0.00000000	-16.83686000	-9.38115100
36.89999799	0.00000000	-21.06914000	2.93430100
37.09999797	0.00000000	-22.65010000	13.33046000
37.29999796	0.00000000	-21.48745000	18.68233000
37.49999795	0.00000000	-18.04257000	18.02411000
37.69999794	0.00000000	-13.06594000	11.89715000
37.89999793	0.00000000	-8.45841400	2.69439000
38.09999791	0.00000000	-5.29650500	-7.29576700
38.29999790	0.00000000	-3.71555100	-15.32972000
38.49999789	0.00000000	-3.75861200	-18.77460000
38.69999788	0.00000000	-5.71481200	-16.86762000
38.89999787	0.00000000	-9.57800100	-9.99015700
39.09999786	0.00000000	-14.18553000	-0.46136810
39.29999784	0.00000000	-18.46087000	8.31692900
39.49999783	0.00000000	-21.53666000	13.74877000
39.69999782	0.00000000	-22.74237000	14.45620000
39.89999781	0.00000000	-21.95497000	10.26083000
40.09999780	0.00000000	-19.62352000	1.81471400
40.29999778	0.00000000	-15.76649000	-7.71407400
40.49999777	0.00000000	-11.53420000	-15.84030000
40.69999776	0.00000000	-7.99704600	-20.39862000
40.89999775	0.00000000	-5.25344500	-19.97416000
41.09999774	0.00000000	-3.71555100	-14.25935000
41.29999772	0.00000000	-3.71555100	-5.06274600
41.49999771	0.00000000	-5.29650500	4.55831700
41.69999770	0.00000000	-8.37229300	12.63533000
41.89999769	0.00000000	-12.22933000	16.86762000
42.09999768	0.00000000	-15.71727000	16.12328000
42.29999767	0.00000000	-18.46087000	11.14665000
42.49999765	0.00000000	-19.99877000	3.06963600
42.69999764	0.00000000	-20.04183000	-5.75787400
42.89999763	0.00000000	-18.87918000	-13.10285000
43.09999762	0.00000000	-16.92298000	-17.32899000
43.29999761	0.00000000	-14.22859000	-17.37205000
43.49999759	0.00000000	-11.53420000	-13.56422000
43.69999758	0.00000000	-9.57800100	-7.43110200
43.89999757	0.00000000	-8.41535400	-0.51058070
44.09999756	0.00000000	-8.37229300	5.25344500
44.29999755	0.00000000	-9.11048200	8.40920300
44.49999753	0.00000000	-9.81791200	8.82750900
44.69999752	0.00000000	-10.23007000	6.92052100
44.89999751	0.00000000	-9.90403500	3.06963600
45.09999750	0.00000000	-9.95324800	-1.48868100
45.29999749	0.00000000	-10.73450000	-5.38262700
45.49999748	0.00000000	-11.90330000	-7.75713500
45.69999746	0.00000000	-13.94562000	-8.96284400
45.89999745	0.00000000	-16.60310000	-8.87672100
46.09999744	0.00000000	-19.66658000	-7.01279500
46.29999743	0.00000000	-21.57972000	-3.94931100
46.49999742	0.00000000	-21.99803000	-1.24877000
46.69999740	0.00000000	-21.11220000	1.07037400
46.89999739	0.00000000	-17.95029000	2.26993100
47.09999738	0.00000000	-12.55536000	2.32529500
47.29999737	0.00000000	-6.41609200	2.26993100
47.49999736	0.00000000	-0.97194880	1.02116100
47.69999734	0.00000000	2.42987200	-1.62401600
47.89999733	0.00000000	2.79281500	-4.64443900
48.09999732	0.00000000	-0.73203740	-6.96358300
48.29999731	0.00000000	-7.29576700	-7.75713500
48.49999730	0.00000000	-15.80955000	-7.38188900
48.69999729	0.00000000	-24.23105000	-5.80093500
48.89999727	0.00000000	-30.00123000	-3.11269700
49.09999726	0.00000000	-31.53912000	0.00000000
49.29999725	0.00000000	-28.46333000	3.06348400
49.49999724	0.00000000	-21.53666000	5.33956700
49.69999723	0.00000000	-12.60458000	5.71481200
49.89999721	0.00000000	-3.34030500	4.22613100
50.09999720	0.00000000	4.33070900	1.48868100
50.29999719	0.00000000	7.73252900	-1.99311000
50.49999718	0.00000000	5.86860200	-5.85014700
50.69999717	0.00000000	-0.68897630	-8.91978400
50.89999715	0.00000000	-9.90403500	-10.45152000
51.09999714	0.00000000	-19.53125000	-10.03322000
51.29999713	0.00000000	-26.88238000	-7.38188900
51.49999712	0.00000000	-30.32726000	-3.53100400
51.69999711	0.00000000	-29.15846000	0.37524600
51.89999710	0.00000000	-23.06841000	4.22613100
52.09999708	0.00000000	-14.64690000	6.82824800
52.29999707	0.00000000	-6.55142700	6.87746000
52.49999706	0.00000000	-0.36909450	4.60137700
52.69999705	0.00000000	1.91929100	1.15649600
52.89999704	0.00000000	0.04921259	-2.69439000
53.09999702	0.00000000	-5.29650500	-5.80093500
53.29999701	0.00000000	-12.22933000	-7.75713500
53.49999700	0.00000000	-18.79306000	-8.50147600
53.69999699	0.00000000	-23.76353000	-7.33882900
53.89999698	0.00000000	-25.25836000	-4.73671200
54.09999696	0.00000000	-22.65010000	-1.99311000
54.29999695	0.00000000	-17.29823000	0.28297240
54.49999694	0.00000000	-11.10974000	1.80856300
54.69999693	0.00000000	-5.33956700	1.43946800
54.89999692	0.00000000	-1.53174200	0.00000000
55.09999691	0.00000000	-1.15649600	-1.57480300
55.29999689	0.00000000	-4.18307100	-3.11269700
55.49999688	0.00000000	-9.52879000	-4.22613100
55.69999687	0.00000000	-15.29897000	-4.18307100
55.89999686	0.00000000	-19.90650000	-2.69439000
56.09999685	0.00000000	-22.27485000	-0.41830710
56.29999683	0.00000000	-21.86270000	1.43946800
56.49999682	0.00000000	-19.20522000	2.22687000
56.69999681	0.00000000	-14.60384000	1.43946800
56.89999680	0.00000000	-9.99630800	-0.51058070
57.09999679	0.00000000	-6.45915300	-3.62327700
57.29999677	0.00000000	-4.18307100	-7.38188900
57.49999676	0.00000000	-4.18307100	-10.03322000
57.69999675	0.00000000	-6.45915300	-10.40846000
57.89999674	0.00000000	-9.90403500	-8.45226300
58.09999673	0.00000000	-13.76107000	-4.22613100
58.29999672	0.00000000	-16.83686000	1.15649600
58.49999670	0.00000000	-18.37475000	6.13312000
58.69999669	0.00000000	-18.04257000	9.60875900
58.89999668	0.00000000	-16.18479000	10.31619000
59.09999667	0.00000000	-14.22859000	8.03395600
59.29999666	0.00000000	-12.27239000	2.97736200
59.49999664	0.00000000	-10.37155000	-3.53100400
59.69999663	0.00000000	-9.57800100	-10.07628000
59.89999662	0.00000000	-9.52879000	-14.67766000
60.09999661	0.00000000	-9.95324800	-16.20940000
60.29999660	0.00000000	-11.06668000	-14.25935000
60.49999658	0.00000000	-12.22933000	-8.87057000
60.69999657	0.00000000	-12.97982000	-1.58095500
60.89999656	0.00000000	-13.39198000	5.75787400
61.09999655	0.00000000	-12.97982000	11.52190000
61.29999654	0.00000000	-12.27239000	14.16708000
61.49999653	0.00000000	-11.48499000	12.63533000
61.69999651	0.00000000	-11.10974000	7.29576700
61.89999650	0.00000000	-11.10974000	-0.04306102
62.09999649	0.00000000	-11.53420000	-7.75713500
62.29999648	0.00000000	-12.64764000	-14.30241000
62.49999647	0.00000000	-13.81028000	-17.74729000
62.69999645	0.00000000	-14.56078000	-17.42126000
62.89999644	0.00000000	-14.97293000	-13.52116000
63.09999643	0.00000000	-14.56078000	-6.96358300
63.29999642	0.00000000	-13.76107000	1.11343500
63.49999641	0.00000000	-12.22933000	8.36614100
63.69999639	0.00000000	-10.32234000	12.68455000
63.89999638	0.00000000	-9.20275500	13.47810000
64.09999637	0.00000000	-8.79060000	11.14665000
64.29999636	0.00000000	-9.57800100	5.75787400
64.49999635	0.00000000	-11.06668000	-1.11343500
64.69999634	0.00000000	-12.64764000	-7.33882900
64.89999632	0.00000000	-14.18553000	-11.98327000
65.09999631	0.00000000	-15.29897000	-14.35162000
65.29999630	0.00000000	-15.29897000	-13.98253000
65.49999629	0.00000000	-14.18553000	-11.70029000
65.69999628	0.00000000	-12.69070000	-7.80019600
65.89999626	0.00000000	-11.48499000	-3.20497000
66.09999625	0.00000000	-10.73450000	1.11343500
66.29999624	0.00000000	-10.32234000	4.60137700
66.49999623	0.00000000	-10.73450000	6.96358300
66.69999622	0.00000000	-11.48499000	7.71407400
66.89999620	0.00000000	-12.69070000	7.01279500
67.09999619	0.00000000	-14.13632000	5.01968500
67.29999618	0.00000000	-14.92372000	2.31914400
67.49999617	0.00000000	-14.51156000	-1.20570900
67.69999616	0.00000000	-13.34276000	-4.64443900
67.89999615	0.00000000	-11.02362000	-7.43110200
68.09999613	0.00000000	-8.41535400	-9.38115100
68.29999612	0.00000000	-6.83439900	-10.53765000
68.49999611	0.00000000	-6.50221400	-10.49459000
68.69999610	0.00000000	-7.67101300	-8.91978400
68.89999609	0.00000000	-10.78371000	-5.80093500
69.09999607	0.00000000	-14.60384000	-1.53174200
69.29999606	0.00000000	-18.46087000	3.06963600
69.49999605	0.00000000	-21.11220000	6.92052100
69.69999604	0.00000000	-21.53666000	8.87672100
69.89999603	0.00000000	-19.95571000	8.91978400
70.09999601	0.00000000	-16.46161000	7.29576700
70.29999600	0.00000000	-11.44193000	3.76476400
70.49999599	0.00000000	-6.41609200	-1.57480300
70.69999598	0.00000000	-2.17765700	-6.96358300
70.89999597	0.00000000	0.09842519	-10.86983000
71.09999596	0.00000000	-0.68897630	-13.18898000
71.29999594	0.00000000	-4.13385800	-13.14591000
71.49999593	0.00000000	-9.57800100	-10.45152000
71.69999592	0.00000000	-15.71727000	-5.85014700
71.89999591	0.00000000	-21.16142000	-0.51058070
72.09999590	0.00000000	-24.60630000	3.76476400
72.29999588	0.00000000	-25.39370000	6.13312000
72.49999587	0.00000000	-23.02534000	6.92052100
72.69999586	0.00000000	-18.08563000	5.71481200
72.89999585	0.00000000	-11.90330000	2.69439000
73.09999584	0.00000000	-6.45915300	-1.11343500
73.29999582	0.00000000	-2.17765700	-4.18307100
73.49999581	0.00000000	0.09842519	-5.75787400
73.69999580	0.00000000	-0.68897630	-5.80093500
73.89999579	0.00000000	-4.09079700	-4.68750000
74.09999578	0.00000000	-9.11048200	-3.15575800
74.29999577	0.00000000	-14.13632000	-1.66707700
74.49999575	0.00000000	-18.41781000	-0.87967510
74.69999574	0.00000000	-21.11220000	-1.24877000
74.89999573	0.00000000	-21.48745000	-2.04232300
75.09999572	0.00000000	-19.62352000	-3.57406500
75.29999571	0.00000000	-16.14173000	-5.38262700
75.49999569	0.00000000	-12.31545000	-5.71481200
75.69999568	0.00000000	-8.83366100	-4.22613100
75.89999567	0.00000000	-6.87746000	-1.53174200
76.09999566	0.00000000	-6.41609200	1.53174200
76.29999565	0.00000000	-6.83439900	4.22613100
76.49999563	0.00000000	-8.37229300	5.75787400
76.69999562	0.00000000	-10.64838000	5.71481200
76.89999561	0.00000000	-12.55536000	3.71555100
77.09999560	0.00000000	-13.71801000	-0.51058070
77.29999559	0.00000000	-13.76107000	-5.80093500
77.49999558	0.00000000	-13.02288000	-10.07628000
77.69999556	0.00000000	-12.31545000	-12.40157000
77.89999555	0.00000000	-11.90330000	-12.77067000
78.09999554	0.00000000	-12.31545000	-10.40846000
78.29999553	0.00000000	-13.02288000	-5.85014700
78.49999552	0.00000000	-13.81028000	-0.41830710
78.69999550	0.00000000	-14.18553000	4.60137700
78.89999549	0.00000000	-14.18553000	8.45226300
79.09999548	0.00000000	-13.71801000	9.99015700
79.29999547	0.00000000	-12.18012000	8.82750900
79.49999546	0.00000000	-9.90403500	5.43184000
79.69999544	0.00000000	-8.04010800	0.75049200
79.89999543	0.00000000	-7.20964500	-3.90625000
80.09999542	0.00000000	-7.62180000	-8.54453700
80.29999541	0.00000000	-8.79060000	-11.56496000
80.49999540	0.00000000	-11.10974000	-12.03248000
80.69999539	0.00000000	-13.81028000	-10.49459000
80.89999537	0.00000000	-16.09252000	-7.42495000
81.09999536	0.00000000	-17.62426000	-3.57406500
81.29999535	0.00000000	-17.25517000	-0.04306102
81.49999534	0.00000000	-15.76649000	3.06348400
81.69999533	0.00000000	-13.76107000	5.38262700
81.89999531	0.00000000	-11.06668000	6.17618100
82.09999530	0.00000000	-8.41535400	5.85014700
82.29999529	0.00000000	-6.87746000	4.64443900
82.49999528	0.00000000	-6.83439900	2.69439000
82.69999527	0.00000000	-7.99704600	-0.04306102
82.89999525	0.00000000	-9.90403500	-3.11269700
83.09999524	0.00000000	-12.22933000	-5.85014700
83.29999523	0.00000000	-14.13632000	-7.80019600
83.49999522	0.00000000	-15.29897000	-8.96284400
83.69999521	0.00000000	-15.34203000	-8.91978400
83.89999520	0.00000000	-14.60384000	-7.38188900
84.09999518	0.00000000	-13.81028000	-4.68750000
84.29999517	0.00000000	-12.64764000	-1.58095500
84.49999516	0.00000000	-11.53420000	1.58095500
84.69999515	0.00000000	-11.10974000	4.64443900
84.89999514	0.00000000	-11.06668000	6.92052100
85.09999512	0.00000000	-11.06668000	7.29576700
85.29999511	0.00000000	-11.06668000	5.75787400
85.49999510	0.00000000	-11.06668000	2.64517700
85.69999509	0.00000000	-11.06668000	-1.62401600
85.89999508	0.00000000	-11.06668000	-6.21924200
86.09999506	0.00000000	-11.06668000	-10.07628000
86.29999505	0.00000000	-11.10974000	-11.94021000
86.49999504	0.00000000	-11.48499000	-11.18971000
86.69999503	0.00000000	-12.27239000	-7.75713500
86.89999502	0.00000000	-13.02288000	-3.20497000
87.09999501	0.00000000	-13.81028000	1.11343500
87.29999499	0.00000000	-14.18553000	4.60137700
87.49999498	0.00000000	-14.18553000	6.92052100
87.69999497	0.00000000	-13.76107000	7.24655500
87.89999496	0.00000000	-12.60458000	5.33956700
88.09999495	0.00000000	-11.06668000	1.48868100
88.29999493	0.00000000	-9.52879000	-3.11269700
88.49999492	0.00000000	-8.41535400	-7.33882900
88.69999491	0.00000000	-8.41535400	-10.03322000
88.89999490	0.00000000	-9.52879000	-10.40846000
89.09999489	0.00000000	-11.10974000	-8.50147600
89.29999487	0.00000000	-12.97982000	-4.64443900
89.49999486	0.00000000	-14.50541000	-0.09227362
89.69999485	0.00000000	-14.56078000	3.80782500
89.89999484	0.00000000	-14.22859000	6.13312000
90.09999483	0.00000000	-13.76107000	6.87130900
90.29999482	0.00000000	-12.64764000	5.29650500
90.49999480	0.00000000	-11.48499000	1.48868100
90.69999479	0.00000000	-10.69144000	-3.11269700
90.89999478	0.00000000	-9.95324800	-7.33882900
91.09999477	0.00000000	-9.95324800	-10.03322000
91.29999476	0.00000000	-10.64838000	-10.40846000
91.49999474	0.00000000	-11.02362000	-8.45226300
91.69999473	0.00000000	-11.06668000	-4.27534400
91.89999472	0.00000000	-11.06668000	0.69512790
92.09999471	0.00000000	-11.02362000	4.60137700
92.29999470	0.00000000	-10.69144000	7.25270600
92.49999468	0.00000000	-10.37155000	7.57258800
92.69999467	0.00000000	-11.10974000	4.55831700
92.89999466	0.00000000	-12.22933000	0.00000000
93.09999465	0.00000000	-13.02288000	-4.64443900
93.29999464	0.00000000	-13.81028000	-8.50147600
93.49999463	0.00000000	-14.18553000	-10.40846000
93.69999461	0.00000000	-14.18553000	-10.03322000
93.89999460	0.00000000	-13.76107000	-7.33882900
94.09999459	0.00000000	-12.55536000	-3.15575800
94.29999458	0.00000000	-10.64838000	1.07037400
94.49999457	0.00000000	-8.37229300	4.18307100
94.69999455	0.00000000	-6.83439900	5.71481200
94.89999454	0.00000000	-6.41609200	5.29650500
95.09999453	0.00000000	-6.83439900	2.64517700
95.29999452	0.00000000	-8.41535400	-1.15649600
95.49999451	0.00000000	-11.10974000	-4.64443900
95.69999449	0.00000000	-14.18553000	-7.33882900
95.89999448	0.00000000	-16.92298000	-8.45226300
96.09999447	0.00000000	-18.79306000	-7.33882900
96.29999446	0.00000000	-19.20522000	-4.68750000
96.49999445	0.00000000	-17.63041000	-1.58095500
96.69999444	0.00000000	-14.92372000	1.48868100
96.89999442	0.00000000	-11.02362000	3.76476400
97.09999441	0.00000000	-6.83439900	4.18307100
97.29999440	0.00000000	-3.75861200	3.06348400
97.49999439	0.00000000	-2.55290300	1.15649600
97.69999438	0.00000000	-3.34030500	-1.15649600
97.89999436	0.00000000	-5.62869100	-3.06348400
98.09999435	0.00000000	-9.15354300	-4.26919300
98.29999434	0.00000000	-12.97982000	-4.64443900
98.49999433	0.00000000	-16.55389000	-4.26919300
98.69999432	0.00000000	-19.21137000	-3.15575800
98.89999430	0.00000000	-20.73696000	-1.99311000
99.09999429	0.00000000	-19.90650000	-1.19955700
99.29999428	0.00000000	-16.92298000	-0.41830710
99.49999427	0.00000000	-13.06594000	-0.04306102
99.69999426	0.00000000	-9.57800100	0.00000000
99.89999425	0.00000000	-6.79133800	0.00000000
100.09999423	0.00000000	-4.87819900	0.04306102
100.29999422	0.00000000	-4.13385800	0.41830710
100.49999421	0.00000000	-5.29650500	1.11343500
100.69999420	0.00000000	-7.94783400	1.11343500
100.89999419	0.00000000	-11.02362000	0.32603340
101.09999417	0.00000000	-13.76107000	-0.83661410
101.29999416	0.00000000	-15.71727000	-2.73745100
101.49999415	0.00000000	-16.92298000	-4.26919300
101.69999414	0.00000000	-17.29823000	-5.11195900
101.89999413	0.00000000	-16.87992000	-5.80093500
102.09999411	0.00000000	-15.29897000	-5.38262700
102.29999410	0.00000000	-12.64764000	-3.48179100
102.49999409	0.00000000	-9.95324800	-1.15649600
102.69999408	0.00000000	-7.99704600	1.53174200
102.89999407	0.00000000	-6.83439900	3.80782500
103.09999406	0.00000000	-6.79133800	4.60137700
103.29999404	0.00000000	-7.57258800	4.22613100
103.49999403	0.00000000	-8.74138700	2.64517700
103.69999402	0.00000000	-10.69144000	-0.04306102
103.89999401	0.00000000	-12.60458000	-3.15575800
104.09999400	0.00000000	-14.18553000	-6.17618100
104.29999398	0.00000000	-15.29897000	-8.07701800
104.49999397	0.00000000	-15.34203000	-7.71407400
104.69999396	0.00000000	-14.60384000	-5.85014700
104.89999395	0.00000000	-13.76107000	-3.15575800
105.09999394	0.00000000	-12.22933000	-0.41830710
105.29999392	0.00000000	-10.32234000	1.90698800
105.49999391	0.00000000	-9.20275500	3.80782500
105.69999390	0.00000000	-8.74138700	4.14000900
105.89999389	0.00000000	-9.15354300	2.69439000
106.09999388	0.00000000	-9.90403500	0.37524600
106.29999387	0.00000000	-11.06668000	-1.95004900
106.49999385	0.00000000	-12.18012000	-4.26919300
106.69999384	0.00000000	-12.60458000	-5.75787400
106.89999383	0.00000000	-12.64764000	-5.80093500
107.09999382	0.00000000	-12.60458000	-4.64443900
107.29999381	0.00000000	-12.18012000	-2.73745100
107.49999379	0.00000000	-11.06668000	-0.46751960
107.69999378	0.00000000	-9.95324800	1.06422200
107.89999377	0.00000000	-9.57800100	1.48253000
108.09999376	0.00000000	-9.95324800	1.11343500
108.29999375	0.00000000	-11.06668000	-0.04306102
108.49999374	0.00000000	-12.22933000	-1.57480300
108.69999372	0.00000000	-13.02288000	-3.11269700
108.89999371	0.00000000	-13.76107000	-4.22613100
109.09999370	0.00000000	-13.76107000	-4.22613100
109.29999369	0.00000000	-13.02288000	-3.15575800
109.49999368	0.00000000	-12.22933000	-1.95004900
109.69999366	0.00000000	-11.02362000	-0.78124990
109.89999365	0.00000000	-9.57800100	0.73818890
110.09999364	0.00000000	-8.79060000	1.48253000
110.29999363	0.00000000	-9.15354300	1.53174200
110.49999362	0.00000000	-9.86097400	1.11343500
110.69999360	0.00000000	-10.69144000	-0.04306102
110.89999359	0.00000000	-11.48499000	-1.57480300
111.09999358	0.00000000	-12.64764000	-3.11269700
111.29999357	0.00000000	-13.71801000	-4.26919300
111.49999356	0.00000000	-13.76107000	-4.64443900
111.69999355	0.00000000	-13.02288000	-4.31840500
111.89999353	0.00000000	-12.27239000	-3.53100400
112.09999352	0.00000000	-11.48499000	-2.73745100
112.29999351	0.00000000	-11.06668000	-1.53174200
112.49999350	0.00000000	-10.69144000	-0.09227362
112.69999349	0.00000000	-10.32234000	0.69512790
112.89999347	0.00000000	-10.69144000	0.37524600
113.09999346	0.00000000	-11.02362000	0.04306102
113.29999345	0.00000000	-11.06668000	-0.04306102
113.49999344	0.00000000	-11.06668000	-0.41830710
113.69999343	0.00000000	-11.10974000	-1.15649600
113.89999341	0.00000000	-11.48499000	-1.53174200
114.09999340	0.00000000	-12.18012000	-1.61786400
114.29999339	0.00000000	-12.18012000	-1.99311000
114.49999338	0.00000000	-11.48499000	-2.73745100
114.69999337	0.00000000	-11.10974000	-3.11269700
114.89999336	0.00000000	-11.06668000	-3.15575800
115.09999334	0.00000000	-11.06668000	-3.15575800
115.29999333	0.00000000	-11.06668000	-3.11269700
115.49999332	0.00000000	-11.06668000	-2.73745100
115.69999331	0.00000000	-11.06668000	-1.95004900
115.89999330	0.00000000	-11.06668000	-1.19955700
116.09999328	0.00000000	-11.06668000	-0.37524600
116.29999327	0.00000000	-11.10974000	0.32603340
116.49999326	0.00000000	-11.48499000	0.73818890
116.69999325	0.00000000	-12.22933000	0.37524600
116.89999324	0.00000000	-12.55536000	0.00000000
117.09999322	0.00000000	-12.22933000	-0.46136810
117.29999321	0.00000000	-11.48499000	-1.57480300
117.49999320	0.00000000	-11.06668000	-2.68823800
117.69999319	0.00000000	-10.64838000	-3.11269700
117.89999318	0.00000000	-9.90403500	-3.15575800
118.09999317	0.00000000	-9.52879000	-3.15575800
118.29999315	0.00000000	-9.52879000	-3.11269700
118.49999314	0.00000000	-9.95324800	-2.68823800
118.69999313	0.00000000	-11.06668000	-1.57480300
118.89999312	0.00000000	-12.22933000	-0.46136810
119.09999311	0.00000000	-13.02288000	-0.04306102
119.29999309	0.00000000	-13.81028000	0.00000000
119.49999308	0.00000000	-14.13632000	0.00000000
119.69999307	0.00000000	-13.76107000	0.00000000
119.89999306	0.00000000	-12.60458000	-0.04306102
120.09999305	0.00000000	-11.10974000	-0.41830710
120.29999303	0.00000000	-9.90403500	-1.15649600
120.49999302	0.00000000	-9.11048200	-1.57480300
120.69999301	0.00000000	-8.32308000	-1.95004900
120.89999300	0.00000000	-7.99704600	-2.31914400
121.09999299	0.00000000	-8.37229300	-1.99311000
121.29999298	0.00000000	-9.52879000	-2.04232300
121.49999296	0.00000000	-11.06668000	-2.68823800
121.69999295	0.00000000	-12.60458000	-2.68823800
121.89999294	0.00000000	-13.76107000	-1.99311000
122.09999293	0.00000000	-14.13632000	-1.57480300
122.29999292	0.00000000	-13.81028000	-1.15649600
122.49999290	0.00000000	-13.06594000	-0.41830710
122.69999289	0.00000000	-12.64764000	-0.04306102
122.89999288	0.00000000	-12.18012000	0.00000000
123.09999287	0.00000000	-11.06668000	0.00000000
123.29999286	0.00000000	-9.95324800	-0.04306102
123.49999284	0.00000000	-9.48572700	-0.41830710
123.69999283	0.00000000	-9.11048200	-1.15649600
123.89999282	0.00000000	-8.74138700	-1.57480300
124.09999281	0.00000000	-9.15354300	-1.99311000
124.29999280	0.00000000	-9.90403500	-2.73745100
124.49999279	0.00000000	-11.02362000	-3.06348400
124.69999277	0.00000000	-11.81102000	-2.73745100
124.89999276	0.00000000	-11.86024000	-1.99311000
125.09999275	0.00000000	-12.27239000	-1.57480300
125.29999274	0.00000000	-12.60458000	-1.15649600
125.49999273	0.00000000	-12.64764000	-0.41830710
125.69999271	0.00000000	-12.60458000	-0.04306102
125.89999270	0.00000000	-12.18012000	0.00000000
126.09999269	0.00000000	-11.06668000	0.00000000
126.29999268	0.00000000	-9.95324800	-0.04306102
126.49999267	0.00000000	-9.52879000	-0.41830710
126.69999265	0.00000000	-9.48572700	-1.15649600
126.89999264	0.00000000	-9.52879000	-1.53174200
127.09999263	0.00000000	-9.95324800	-1.57480300
127.29999262	0.00000000	-11.06668000	-1.57480300
127.49999261	0.00000000	-12.18012000	-1.57480300
127.69999260	0.00000000	-12.64764000	-1.57480300
127.89999258	0.00000000	-13.02288000	-1.57480300
128.09999257	0.00000000	-13.34276000	-1.57480300
128.29999256	0.00000000	-12.60458000	-1.53174200
128.49999255	0.00000000	-11.48499000	-1.15649600
128.69999254	0.00000000	-10.69144000	-0.41830710
128.89999252	0.00000000	-9.90403500	-0.04306102
129.09999251	0.00000000	-9.52879000	-0.04306102
129.29999250	0.00000000	-9.52879000	-0.41830710
129.49999249	0.00000000	-9.90403500	-1.15649600
129.69999248	0.00000000	-10.69144000	-1.53174200
129.89999246	0.00000000	-11.44193000	-1.57480300
130.09999245	0.00000000	-12.22933000	-1.57480300
130.29999244	0.00000000	-12.60458000	-1.57480300
130.49999243	0.00000000	-12.60458000	-1.57480300
130.69999242	0.00000000	-12.22933000	-1.53174200
130.89999241	0.00000000	-11.44193000	-1.15649600
131.09999239	0.00000000	-10.69144000	-0.46136810
131.29999238	0.00000000	-9.90403500	-0.46136810
131.49999237	0.00000000	-9.52879000	-1.15649600
131.69999236	0.00000000	-9.52879000	-1.53174200
131.89999235	0.00000000	-9.90403500	-1.61786400
132.09999233	0.00000000	-10.64838000	-1.99311000
132.29999232	0.00000000	-11.02362000	-2.68823800
132.49999231	0.00000000	-11.10974000	-2.68823800
132.69999230	0.00000000	-11.44193000	-1.99311000
132.89999229	0.00000000	-11.81102000	-1.57480300
133.09999227	0.00000000	-11.44193000	-1.15649600
133.29999226	0.00000000	-11.10974000	-0.41830710
133.49999225	0.00000000	-11.06668000	-0.04306102
133.69999224	0.00000000	-11.06668000	0.00000000
133.89999223	0.00000000	-11.06668000	0.00000000
134.09999222	0.00000000	-11.06668000	-0.04306102
134.29999220	0.00000000	-11.06668000	-0.41830710
134.49999219	0.00000000	-11.06668000	-1.19955700
134.69999218	0.00000000	-11.06668000	-1.95004900
134.89999217	0.00000000	-11.02362000	-2.73745100
135.09999216	0.00000000	-10.69144000	-3.11269700
135.29999214	0.00000000	-10.27928000	-3.11269700
135.49999213	0.00000000	-10.31619000	-2.73745100
135.69999212	0.00000000	-10.27928000	-1.95004900
135.89999211	0.00000000	-10.69144000	-1.19955700
136.09999210	0.00000000	-11.06668000	-0.41830710
136.29999208	0.00000000	-11.48499000	-0.04306102
136.49999207	0.00000000	-12.22933000	0.00000000
136.69999206	0.00000000	-12.60458000	0.00000000
136.89999205	0.00000000	-12.60458000	-0.04306102
137.09999204	0.00000000	-12.22933000	-0.41830710
137.29999203	0.00000000	-11.44193000	-1.15649600
137.49999201	0.00000000	-10.69144000	-1.53174200
137.69999200	0.00000000	-9.90403500	-1.61786400
137.89999199	0.00000000	-9.52879000	-1.99311000
138.09999198	0.00000000	-9.52879000	-2.73745100
138.29999197	0.00000000	-9.90403500	-3.06348400
138.49999195	0.00000000	-10.69144000	-2.73745100
138.69999194	0.00000000	-11.44193000	-1.99311000
138.89999193	0.00000000	-12.22933000	-1.57480300
139.09999192	0.00000000	-12.60458000	-1.15649600
139.29999191	0.00000000	-12.60458000	-0.41830710
139.49999189	0.00000000	-12.22933000	-0.04306102
139.69999188	0.00000000	-11.44193000	0.00000000
139.89999187	0.00000000	-10.69144000	-0.04306102
140.09999186	0.00000000	-9.90403500	-0.41830710
140.29999185	0.00000000	-9.52879000	-1.15649600
140.49999184	0.00000000	-9.52879000	-1.57480300
140.69999182	0.00000000	-9.90403500	-1.99311000
140.89999181	0.00000000	-10.69144000	-2.73745100
141.09999180	0.00000000	-11.39887000	-3.11269700
141.29999179	0.00000000	-11.85408000	-3.11269700
141.49999178	0.00000000	-11.81717000	-2.73745100
141.69999176	0.00000000	-11.85408000	-1.95004900
141.89999175	0.00000000	-11.44193000	-1.19955700
142.09999174	0.00000000	-11.10974000	-0.41830710
142.29999173	0.00000000	-11.02362000	-0.04306102
142.49999172	0.00000000	-10.64838000	0.00000000
142.69999170	0.00000000	-9.95324800	-0.04306102
142.89999169	0.00000000	-9.95324800	-0.41830710
143.09999168	0.00000000	-10.64838000	-1.19955700
143.29999167	0.00000000	-11.02362000	-1.95004900
143.49999166	0.00000000	-11.06668000	-2.73745100
143.69999165	0.00000000	-11.06668000	-3.11269700
143.89999163	0.00000000	-11.06668000	-3.11269700
144.09999162	0.00000000	-11.06668000	-2.73745100
144.29999161	0.00000000	-11.02362000	-1.95004900
144.49999160	0.00000000	-10.64838000	-1.19955700
144.69999159	0.00000000	-9.90403500	-0.41830710
144.89999157	0.00000000	-9.52879000	-0.04306102
145.09999156	0.00000000	-9.52879000	0.00000000
145.29999155	0.00000000	-9.90403500	-0.04306102
145.49999154	0.00000000	-10.64838000	-0.41830710
145.69999153	0.00000000	-11.02362000	-1.15649600
145.89999151	0.00000000	-11.06668000	-1.53174200
146.09999150	0.00000000	-11.06668000	-1.61786400
146.29999149	0.00000000	-11.06668000	-1.95004900
146.49999148	0.00000000	-11.06668000	-2.31914400
146.69999147	0.00000000	-11.02362000	-1.95004900
146.89999146	0.00000000	-10.64838000	-1.57480300
147.09999144	0.00000000	-9.90403500	-1.15649600
147.29999143	0.00000000	-9.52879000	-0.41830710
147.49999142	0.00000000	-9.52879000	-0.04306102
147.69999141	0.00000000	-9.90403500	0.00000000
147.89999140	0.00000000	-10.64838000	0.00000000
148.09999138	0.00000000	-11.02362000	0.00000000
148.29999137	0.00000000	-11.06668000	-0.04306102
148.49999136	0.00000000	-11.06668000	-0.41830710
148.69999135	0.00000000	-11.06668000	-1.15649600
148.89999134	0.00000000	-11.06668000	-1.53174200
149.09999132	0.00000000	-11.06668000	-1.57480300
149.29999131	0.00000000	-11.02362000	-1.57480300
149.49999130	0.00000000	-10.64838000	-1.57480300
149.69999129	0.00000000	-9.90403500	-1.57480300
149.89999128	0.00000000	-9.52879000	-1.53174200
150.09999127	0.00000000	-9.52879000	-1.15649600
150.29999125	0.00000000	-9.90403500	-0.41830710
150.49999124	0.00000000	-10.64838000	-0.04306102
150.69999123	0.00000000	-11.02362000	0.00000000
150.89999122	0.00000000	-11.06668000	-0.04306102
151.09999121	0.00000000	-11.06668000	-0.37524600
151.29999119	0.00000000	-11.06668000	-0.73818890
151.49999118	0.00000000	-11.06668000	-0.41830710
151.69999117	0.00000000	-11.06668000	-0.46136810
151.89999116	0.00000000	-11.02362000	-1.15649600
152.09999115	0.00000000	-10.64838000	-1.53174200
152.29999113	0.00000000	-9.90403500	-1.57480300
152.49999112	0.00000000	-9.52879000	-1.57480300
152.69999111	0.00000000	-9.48572700	-1.57480300
152.89999110	0.00000000	-9.52879000	-1.53174200
153.09999109	0.00000000	-9.90403500	-1.15649600
153.29999108	0.00000000	-10.64838000	-0.41830710
153.49999106	0.00000000	-11.02362000	-0.04306102
153.69999105	0.00000000	-11.06668000	0.00000000
153.89999104	0.00000000	-11.10974000	0.00000000
154.09999103	0.00000000	-11.44193000	-0.04306102
154.29999102	0.00000000	-11.81102000	-0.41830710
154.49999100	0.00000000	-11.44193000	-1.15649600
154.69999099	0.00000000	-11.10974000	-1.53174200
154.89999098	0.00000000	-11.02362000	-1.57480300
155.09999097	0.00000000	-10.64838000	-1.57480300
155.29999096	0.00000000	-9.90403500	-1.57480300
155.49999094	0.00000000	-9.52879000	-1.57480300
155.69999093	0.00000000	-9.48572700	-1.57480300
155.89999092	0.00000000	-9.52879000	-1.57480300
156.09999091	0.00000000	-9.90403500	-1.57480300
156.29999090	0.00000000	-10.69144000	-1.57480300
156.49999089	0.00000000	-11.39887000	-1.53174200
156.69999087	0.00000000	-11.85408000	-1.15649600
156.89999086	0.00000000	-11.81717000	-0.41830710
157.09999085	0.00000000	-11.85408000	-0.04306102
157.29999084	0.00000000	-11.44193000	0.00000000
157.49999083	0.00000000	-11.10974000	-0.04306102
157.69999081	0.00000000	-11.06668000	-0.41830710
157.89999080	0.00000000	-11.02362000	-1.15649600
158.09999079	0.00000000	-10.64838000	-1.53174200
158.29999078	0.00000000	-9.90403500	-1.57480300
158.49999077	0.00000000	-9.52879000	-1.57480300
158.69999075	0.00000000	-9.48572700	-1.57480300
158.89999074	0.00000000	-9.52879000	-1.57480300
159.09999073	0.00000000	-9.90403500	-1.57480300
159.29999072	0.00000000	-10.64838000	-1.53174200
159.49999071	0.00000000	-11.02362000	-1.15649600
159.69999070	0.00000000	-11.06668000	-0.41830710
159.89999068	0.00000000	-11.06668000	-0.04306102
160.09999067	0.00000000	-11.06668000	0.00000000
160.29999066	0.00000000	-11.06668000	0.00000000
160.49999065	0.00000000	-11.06668000	0.00000000
160.69999064	0.00000000	-11.06668000	-0.04306102
160.89999062	0.00000000	-11.06668000	-0.41830710
161.09999061	0.00000000	-11.06668000	-1.15649600
161.29999060	0.00000000	-11.06668000	-1.53174200
161.49999059	0.00000000	-11.06668000	-1.61786400
161.69999058	0.00000000	-11.02362000	-1.95004900
161.89999056	0.00000000	-10.64838000	-2.31914400
162.09999055	0.00000000	-9.90403500	-1.95004900
162.29999054	0.00000000	-9.52879000	-1.61786400
162.49999053	0.00000000	-9.52879000	-1.53174200
162.69999052	0.00000000	-9.90403500	-1.15649600
162.89999051	0.00000000	-10.64838000	-0.46136810
163.09999049	0.00000000	-11.02362000	-0.41830710
163.29999048	0.00000000	-11.06668000	-0.78124990
163.49999047	0.00000000	-11.06668000	-0.79355310
163.69999046	0.00000000	-11.06668000	-1.19955700
163.89999045	0.00000000	-11.06668000	-1.53174200
164.09999043	0.00000000	-11.06668000	-1.57480300
164.29999042	0.00000000	-11.06668000	-1.57480300
164.49999041	0.00000000	-11.02362000	-1.57480300
164.69999040	0.00000000	-10.64838000	-1.57480300
164.89999039	0.00000000	-9.90403500	-1.57480300
165.09999037	0.00000000	-9.52879000	-1.57480300
165.29999036	0.00000000	-9.48572700	-1.57480300
165.49999035	0.00000000	-9.52879000	-1.57480300
165.69999034	0.00000000	-9.90403500	-1.53174200
165.89999033	0.00000000	-10.64838000	-1.19955700
166.09999032	0.00000000	-11.02362000	-0.83661410
166.29999030	0.00000000	-11.06668000	-1.15649600
166.49999029	0.00000000	-11.06668000	-1.11343500
166.69999028	0.00000000	-11.06668000	-0.46136810
166.89999027	0.00000000	-11.06668000	-0.46136810
167.09999026	0.00000000	-11.06668000	-1.15649600
167.29999024	0.00000000	-11.02362000	-1.53174200
167.49999023	0.00000000	-10.64838000	-1.57480300
167.69999022	0.00000000	-9.90403500	-1.57480300
167.89999021	0.00000000	-9.52879000	-1.57480300
168.09999020	0.00000000	-9.48572700	-1.57480300
168.29999018	0.00000000	-9.48572700	-1.57480300
168.49999017	0.00000000	-9.48572700	-1.57480300
168.69999016	0.00000000	-9.52879000	-1.57480300
168.89999015	0.00000000	-9.90403500	-1.57480300
169.09999014	0.00000000	-10.64838000	-1.57480300
169.29999013	0.00000000	-11.02362000	-1.57480300
169.49999011	0.00000000	-11.06668000	-1.57480300
169.69999010	0.00000000	-11.06668000	-1.57480300
169.89999009	0.00000000	-11.06668000	-1.57480300
170.09999008	0.00000000	-11.06668000	-1.57480300
170.29999007	0.00000000	-11.06668000	-1.57480300
170.49999005	0.00000000	-11.02362000	-1.57480300
170.69999004	0.00000000	-10.64838000	-1.53174200
170.89999003	0.00000000	-9.90403500	-1.19955700
171.09999002	0.00000000	-9.52879000	-0.83661410
171.29999001	0.00000000	-9.48572700	-1.19955700
171.49998999	0.00000000	-9.52879000	-1.53174200
171.69998998	0.00000000	-9.90403500	-1.57480300
171.89998997	0.00000000	-10.64838000	-1.57480300
172.09998996	0.00000000	-11.02362000	-1.57480300
172.29998995	0.00000000	-11.06668000	-1.57480300
172.49998994	0.00000000	-11.02362000	-1.53174200
172.69998992	0.00000000	-10.69144000	-1.19955700
172.89998991	0.00000000	-10.32234000	-0.79355310
173.09998990	0.00000000	-10.69144000	-0.83046260
173.29998989	0.00000000	-10.97441000	-0.79355310
173.49998988	0.00000000	-10.69144000	-1.19955700
173.69998986	0.00000000	-10.32234000	-1.53174200
173.89998985	0.00000000	-10.64838000	-1.57480300
174.09998984	0.00000000	-10.59916000	-1.57480300
174.29998983	0.00000000	-9.90403500	-1.57480300
174.49998982	0.00000000	-9.57800100	-1.57480300
174.69998980	0.00000000	-9.86097400	-1.57480300
174.89998979	0.00000000	-10.23007000	-1.57480300
175.09998978	0.00000000	-9.90403500	-1.57480300
175.29998977	0.00000000	-9.95324800	-1.57480300
175.49998976	0.00000000	-10.64838000	-1.57480300
175.69998975	0.00000000	-11.02362000	-1.53174200
175.89998973	0.00000000	-11.06668000	-1.19955700
176.09998972	0.00000000	-11.06668000	-0.83661410
176.29998971	0.00000000	-11.02362000	-1.19955700
176.49998970	0.00000000	-10.69144000	-1.53174200
176.69998969	0.00000000	-10.32234000	-1.57480300
176.89998967	0.00000000	-10.69144000	-1.57480300
177.09998966	0.00000000	-10.97441000	-1.57480300
177.29998965	0.00000000	-10.69144000	-1.57480300
177.49998964	0.00000000	-10.32234000	-1.57480300
177.69998963	0.00000000	-10.69144000	-1.57480300
177.89998961	0.00000000	-11.02362000	-1.53174200
178.09998960	0.00000000	-11.06668000	-1.19955700
178.29998959	0.00000000	-11.02362000	-0.83661410
178.49998958	0.00000000	-10.69144000	-1.15649600
178.69998957	0.00000000	-10.27928000	-1.11343500
178.89998956	0.00000000	-10.31619000	-0.41830710
179.09998954	0.00000000	-10.23622000	-0.04306102
179.29998953	0.00000000	-10.27313000	-0.04306102
179.49998952	0.00000000	-9.86097400	-0.41830710
179.69998951	0.00000000	-9.52879000	-1.15649600
179.89998950	0.00000000	-9.52879000	-1.53174200
180.09998948	0.00000000	-9.86097400	-1.57480300
180.29998947	0.00000000	-10.23007000	-1.57480300
180.49998946	0.00000000	-9.90403500	-1.57480300
180.69998945	0.00000000	-9.95324800	-1.53174200
180.89998944	0.00000000	-10.64838000	-1.19955700
181.09998942	0.00000000	-11.02362000	-0.79355310
181.29998941	0.00000000	-11.06668000	-0.78124990
181.49998940	0.00000000	-11.06668000	-0.37524600
181.69998939	0.00000000	-11.06668000	-0.04306102
181.89998938	0.00000000	-11.02362000	0.00000000
182.09998937	0.00000000	-10.64838000	0.00000000
182.29998935	0.00000000	-9.90403500	-0.04306102
182.49998934	0.00000000	-9.52879000	-0.41830710
182.69998933	0.00000000	-9.48572700	-1.15649600
182.89998932	0.00000000	-9.48572700	-1.53174200
183.09998931	0.00000000	-9.48572700	-1.57480300
183.29998929	0.00000000	-9.48572700	-1.57480300
183.49998928	0.00000000	-9.52879000	-1.57480300
183.69998927	0.00000000	-9.90403500	-1.57480300
183.89998926	0.00000000	-10.64838000	-1.57480300
184.09998925	0.00000000	-11.02362000	-1.53174200
184.29998923	0.00000000	-11.06668000	-1.15649600
184.49998922	0.00000000	-11.06668000	-0.41830710
184.69998921	0.00000000	-11.02362000	-0.04306102
184.89998920	0.00000000	-10.69144000	0.00000000
185.09998919	0.00000000	-10.27928000	-0.04306102
185.29998918	0.00000000	-10.27313000	-0.41830710
185.49998916	0.00000000	-9.86097400	-1.15649600
185.69998915	0.00000000	-9.52879000	-1.53174200
185.89998914	0.00000000	-9.48572700	-1.57480300
186.09998913	0.00000000	-9.48572700	-1.57480300
186.29998912	0.00000000	-9.48572700	-1.57480300
186.49998910	0.00000000	-9.52879000	-1.57480300
186.69998909	0.00000000	-9.90403500	-1.57480300
186.89998908	0.00000000	-10.64838000	-1.53174200
187.09998907	0.00000000	-11.02362000	-1.15649600
187.29998906	0.00000000	-11.06668000	-0.41830710
187.49998904	0.00000000	-11.02362000	-0.04306102
187.69998903	0.00000000	-10.69144000	0.00000000
187.89998902	0.00000000	-10.27928000	0.00000000
188.09998901	0.00000000	-10.27313000	0.00000000
188.29998900	0.00000000	-9.86097400	-0.04306102
188.49998899	0.00000000	-9.52879000	-0.41830710
188.69998897	0.00000000	-9.48572700	-1.15649600
188.89998896	0.00000000	-9.52879000	-1.53174200
189.09998895	0.00000000	-9.86097400	-1.57480300
189.29998894	0.00000000	-10.27313000	-1.57480300
189.49998893	0.00000000	-10.27928000	-1.57480300
189.69998891	0.00000000	-10.69144000	-1.57480300
189.89998890	0.00000000	-11.02362000	-1.57480300
190.09998889	0.00000000	-11.06668000	-1.57480300
190.29998888	0.00000000	-11.06668000	-1.53174200
190.49998887	0.00000000	-11.06668000	-1.15649600
190.69998885	0.00000000	-11.02362000	-0.41830710
190.89998884	0.00000000	-10.64838000	-0.04306102
191.09998883	0.00000000	-9.90403500	0.00000000
191.29998882	0.00000000	-9.52879000	0.00000000
191.49998881	0.00000000	-9.48572700	0.00000000
191.69998880	0.00000000	-9.48572700	-0.04306102
191.89998878	0.00000000	-9.48572700	-0.37524600
192.09998877	0.00000000	-9.48572700	-0.78124990
192.29998876	0.00000000	-9.48572700	-0.79355310
192.49998875	0.00000000	-9.52879000	-1.19955700
192.69998874	0.00000000	-9.86097400	-1.53174200
192.89998872	0.00000000	-10.23007000	-1.57480300
193.09998871	0.00000000	-9.90403500	-1.57480300
193.29998870	0.00000000	-9.90403500	-1.53174200
193.49998869	0.00000000	-10.23007000	-1.15649600
193.69998868	0.00000000	-9.86097400	-0.41830710
193.89998866	0.00000000	-9.52879000	-0.04306102
194.09998865	0.00000000	-9.48572700	0.00000000
194.29998864	0.00000000	-9.48572700	0.00000000
194.49998863	0.00000000	-9.48572700	-0.04306102
194.69998862	0.00000000	-9.48572700	-0.37524600
194.89998861	0.00000000	-9.48572700	-0.73818890
195.09998859	0.00000000	-9.48572700	-0.41830710
195.29998858	0.00000000	-9.48572700	-0.46136810
195.49998857	0.00000000	-9.52879000	-1.15649600
195.69998856	0.00000000	-9.90403500	-1.53174200
195.89998855	0.00000000	-10.64838000	-1.57480300
196.09998853	0.00000000	-11.02362000	-1.57480300
