Time	Channel A	Channel B	Channel C
(us)	(V)	(mV)	(mV)

-4.49999956	0.00000000	0.00000000	3.15575800
-4.29999957	0.00000000	0.00000000	3.15575800
-4.09999958	0.00000000	0.00000000	3.15575800
-3.89999959	0.00000000	0.00000000	3.15575800
-3.69999960	0.00000000	0.00000000	3.15575800
-3.49999962	0.00000000	0.00000000	3.15575800
-3.29999963	0.00000000	0.00000000	3.15575800
-3.09999964	0.00000000	0.00000000	3.15575800
-2.89999965	0.00000000	0.00000000	3.15575800
-2.69999966	0.00000000	0.00000000	3.15575800
-2.49999968	0.00000000	0.00000000	3.15575800
-2.29999969	0.00000000	0.00000000	3.15575800
-2.09999970	0.00000000	0.00000000	3.15575800
-1.89999971	0.00000000	0.00000000	3.15575800
-1.69999972	0.00000000	0.00000000	3.15575800
-1.49999973	0.00000000	0.00000000	3.15575800
-1.29999975	0.00000000	0.00000000	3.15575800
-1.09999976	0.00000000	0.00000000	3.15575800
-0.89999977	0.00000000	0.00000000	3.15575800
-0.69999978	0.00000000	0.00000000	3.15575800
-0.49999979	0.00000000	0.00000000	3.15575800
-0.29999981	0.31803640	-0.04306102	3.15575800
-0.09999982	0.63668800	-0.37524600	3.15575800
0.10000017	0.95533960	-0.74434050	3.15575800
0.30000016	0.95533960	-0.37524600	3.15575800
0.50000015	0.79601380	-0.04306102	3.15575800
0.70000013	0.31803640	0.00000000	3.15575800
0.90000012	-0.47736220	0.00000000	3.15575800
1.10000011	-1.59264300	0.00000000	3.15575800
1.30000010	-2.38927200	0.00000000	3.15575800
1.50000009	-2.86724900	0.00000000	3.15575800
1.70000008	-2.38927200	0.00000000	3.15575800
1.90000006	-1.27399100	0.00000000	3.15575800
2.10000005	0.63668800	0.00000000	3.15575800
2.30000004	2.70792300	0.00000000	3.15575800
2.50000003	4.45989200	0.00000000	3.15575800
2.70000002	5.41584600	0.00000000	3.15575800
2.90000000	4.77854300	0.00000000	3.11269700
3.09999999	2.86724900	0.00000000	2.73745100
3.29999998	-0.15871060	0.00000000	1.99311000
3.49999997	-3.50393700	0.00000000	1.66707700
3.69999996	-6.53112700	0.00000000	1.99311000
3.89999994	-7.96444400	0.00000000	2.78051200
4.09999993	-7.48646600	0.00000000	3.53100400
4.29999992	-4.93786900	0.00000000	4.31840500
4.49999991	-1.11466500	0.00000000	4.69365100
4.69999990	3.50393700	0.00000000	4.69365100
4.89999989	7.32714100	0.00000000	4.31840500
5.09999987	9.23905000	0.00000000	3.53100400
5.29999986	9.07972400	0.00000000	2.78051200
5.49999985	6.53112700	0.00000000	2.04232300
5.69999984	2.22994600	0.00000000	1.99311000
5.89999983	-2.54859700	0.00000000	2.36220500
6.09999981	-6.69045300	0.00000000	2.36835600
6.29999980	-9.07972400	0.00000000	2.78051200
6.49999979	-9.23905000	0.00000000	3.15575800
6.69999978	-7.00848900	0.00000000	3.57406500
6.89999977	-3.34522600	0.00000000	4.31840500
7.09999975	1.11466500	0.00000000	4.64443900
7.29999974	4.93786900	0.00000000	4.31840500
7.49999973	7.32714100	0.00000000	3.57406500
7.69999972	7.64579200	0.00000000	3.19881900
7.89999971	6.21247500	0.00000000	3.15575800
8.09999970	3.34522600	0.00000000	3.15575800
8.29999968	0.00000000	0.00000000	3.15575800
8.49999967	-2.86724900	0.00000000	3.15575800
8.69999966	-4.77854300	0.00000000	3.15575800
8.89999965	-5.09719500	0.00000000	3.15575800
9.09999964	-4.30056600	0.00000000	3.15575800
9.29999962	-2.70792300	0.00000000	3.15575800
9.49999961	-0.63668800	0.00000000	3.15575800
9.69999960	1.11466500	0.00000000	3.15575800
9.89999959	2.22994600	0.00000000	3.15575800
10.09999958	2.54859700	0.00000000	3.15575800
10.29999956	2.22994600	0.00000000	3.15575800
10.49999955	1.43331700	0.00000000	3.15575800
10.69999954	0.47736220	0.00000000	3.15575800
10.89999953	-0.31803640	0.00000000	3.15575800
11.09999952	-0.79601380	0.00000000	3.15575800
11.29999951	-0.95533960	0.00000000	3.15575800
11.49999949	-0.95533960	0.00000000	3.15575800
11.69999948	-0.79601380	0.00000000	3.15575800
11.89999947	-0.31803640	0.00000000	3.15575800
12.09999946	-0.15871060	0.00000000	3.15575800
12.29999945	-0.15871060	0.00000000	3.15575800
12.49999943	0.00000000	0.00000000	3.15575800
12.69999942	0.00000000	0.00000000	3.15575800
12.89999941	0.00000000	0.00000000	3.15575800
13.09999940	0.00000000	0.00000000	3.15575800
13.29999939	0.00000000	0.00000000	3.15575800
13.49999937	0.00000000	0.00000000	3.15575800
13.69999936	0.00000000	0.00000000	3.15575800
13.89999935	0.00000000	0.00000000	3.15575800
14.09999934	-0.15871060	0.00000000	3.15575800
14.29999933	-0.15871060	0.00000000	3.15575800
14.49999932	-0.15871060	0.00000000	3.15575800
14.69999930	0.00000000	0.00000000	3.15575800
14.89999929	0.00000000	0.00000000	3.15575800
15.09999928	0.00000000	0.00000000	3.15575800
15.29999927	0.00000000	0.00000000	3.15575800
15.49999926	0.00000000	0.00000000	3.15575800
15.69999924	0.00000000	0.00000000	3.15575800
15.89999923	0.00000000	0.00000000	3.15575800
16.09999922	0.00000000	0.00000000	3.15575800
16.29999921	0.00000000	0.00000000	3.15575800
16.49999920	-0.15871060	0.04306102	3.15575800
16.69999919	0.00000000	0.41830710	3.15575800
16.89999917	-0.15871060	1.16264800	3.15575800
17.09999916	0.00000000	1.53789400	3.15575800
17.29999915	0.00000000	1.58095500	3.15575800
17.49999914	0.00000000	1.58095500	3.15575800
17.69999913	0.00000000	1.58095500	3.15575800
17.89999911	0.00000000	1.48868100	3.15575800
18.09999910	0.00000000	0.69512790	3.15575800
18.29999909	0.00000000	-1.20570900	3.15575800
18.49999908	0.00000000	-3.06963600	3.15575800
18.69999907	0.00000000	-4.27534400	3.15575800
18.89999905	-0.15871060	-4.69980300	3.15575800
19.09999904	0.00000000	-4.65059000	3.15575800
19.29999903	0.00000000	-3.77091500	3.15575800
19.49999902	0.00000000	-1.07037400	3.15575800
19.69999901	0.00000000	2.74360200	3.15575800
19.89999900	0.00000000	6.28075700	3.15575800
20.09999898	0.00000000	9.39345400	3.15575800
20.29999897	0.00000000	11.58341000	3.15575800
20.49999896	0.00000000	11.11590000	3.15575800
20.69999895	0.00000000	7.25885800	3.15575800
20.89999894	0.00000000	1.07037400	3.15575800
21.09999892	0.00000000	-6.32381900	3.15575800
21.29999891	0.00000000	-13.63189000	3.15575800
21.49999890	0.00000000	-18.97761000	3.15575800
21.69999889	0.00000000	-20.42323000	3.15575800
21.89999888	0.00000000	-16.93528000	3.15575800
22.09999886	0.00000000	-8.75369100	3.15575800
22.29999885	0.00000000	2.50984200	3.11269700
22.49999884	0.00000000	15.25591000	2.78051200
22.69999883	0.00000000	26.32874000	2.41141700
22.89999882	0.00000000	32.05585000	2.82357300
23.09999881	0.00000000	30.47490000	3.53100400
23.29999879	0.00000000	21.54281000	4.31840500
23.49999878	0.00000000	6.79749000	4.69365100
23.69999877	0.00000000	-10.97441000	4.73671200
23.89999876	0.00000000	-27.90969000	4.73671200
24.09999875	0.00000000	-39.45005000	4.69365100
24.29999873	0.00000000	-42.48277000	4.26919300
24.49999872	0.00000000	-35.82677000	3.15575800
24.69999871	0.00000000	-19.96186000	1.95004900
24.89999870	0.00000000	1.62401600	0.78124990
25.09999869	0.00000000	23.63435000	-0.73818890
25.29999867	0.00000000	41.03100000	-1.48253000
25.49999866	0.00000000	49.92003000	-1.48253000
25.69999865	0.00000000	48.25295000	-0.64591530
25.89999864	0.00000000	35.45152000	1.71013800
26.09999863	0.00000000	13.45349000	5.19808000
26.29999862	0.00000000	-11.95866000	9.43036400
26.49999860	0.00000000	-34.75639000	13.18898000
26.69999859	0.00000000	-49.40945000	14.76993000
26.89999858	0.00000000	-52.57135000	13.93947000
27.09999857	0.00000000	-44.06372000	10.82062000
27.29999856	0.00000000	-25.86737000	4.97662400
27.49999854	0.00000000	-1.58095500	-1.99311000
27.69999853	0.00000000	22.74852000	-9.33809000
27.89999852	0.00000000	41.32013000	-15.42200000
28.09999851	0.00000000	50.62130000	-17.66117000
28.29999850	0.00000000	48.33907000	-15.32972000
28.49999848	0.00000000	35.64222000	-8.32308000
28.69999847	0.00000000	15.90797000	2.08538400
28.89999846	0.00000000	-6.84055100	13.69956000
29.09999845	0.00000000	-26.93774000	24.10802000
29.29999844	0.00000000	-39.78223000	31.03469000
29.49999843	0.00000000	-43.73154000	32.47416000
29.69999841	0.00000000	-38.33661000	27.41142000
29.89999840	0.00000000	-25.21530000	16.16634000
30.09999839	0.00000000	-7.43725300	1.15649600
30.29999838	0.00000000	11.12205000	-14.30856000
30.49999837	0.00000000	26.19340000	-26.62401000
30.69999835	0.00000000	34.79946000	-33.16929000
30.89999834	0.00000000	35.59301000	-31.92052000
31.09999833	0.00000000	29.07234000	-22.71777000
31.29999832	0.00000000	16.74459000	-7.62180000
31.49999831	0.00000000	2.09153500	9.75639700
31.69999829	0.00000000	-11.54035000	26.38410000
31.89999828	0.00000000	-22.00418000	38.33046000
32.09999827	0.00000000	-27.39911000	42.97490000
32.29999826	0.00000000	-26.28568000	39.48696000
32.49999825	0.00000000	-19.39591000	28.29109000
32.69999824	0.00000000	-8.97514600	12.07554000
32.89999822	0.00000000	2.60826800	-5.71481200
33.09999821	0.00000000	12.69685000	-21.55512000
33.29999820	0.00000000	19.26058000	-32.01279000
33.49999819	0.00000000	21.25369000	-35.12549000
33.69999818	0.00000000	18.19021000	-30.43184000
33.89999816	0.00000000	11.67569000	-18.49163000
34.09999815	0.00000000	3.16190900	-1.95004900
34.29999814	0.00000000	-5.30265700	14.68381000
34.49999813	0.00000000	-11.49114000	28.29109000
34.69999812	0.00000000	-14.23474000	36.74950000
34.89999810	0.00000000	-13.07210000	37.86294000
35.09999809	0.00000000	-8.51377900	30.98548000
35.29999808	0.00000000	-1.99926200	18.30093000
35.49999807	0.00000000	4.18922200	3.24803100
35.69999806	0.00000000	8.83981200	-11.06053000
35.89999805	0.00000000	11.11590000	-21.46899000
36.09999803	0.00000000	9.95939900	-25.69513000
36.29999802	0.00000000	5.81323800	-22.67470000
36.49999801	0.00000000	0.41830710	-13.47810000
36.69999800	0.00000000	-4.60752900	-1.20570900
36.89999799	0.00000000	-8.42150500	11.14665000
37.09999797	0.00000000	-9.58415200	20.34941000
37.29999796	0.00000000	-7.72637700	24.29257000
37.49999795	0.00000000	-4.23228400	22.34867000
37.69999794	0.00000000	0.41830710	15.50812000
37.89999793	0.00000000	5.39493100	5.53026500
38.09999791	0.00000000	8.83981200	-4.04773600
38.29999790	0.00000000	10.04552000	-10.96826000
38.49999789	0.00000000	8.93208600	-13.23819000
38.69999788	0.00000000	6.18848400	-9.80561000
38.89999787	0.00000000	2.32529500	-2.18380900
39.09999786	0.00000000	-2.32529500	7.38188900
39.29999784	0.00000000	-6.14542300	15.79724000
39.49999783	0.00000000	-8.51377900	20.34941000
39.69999782	0.00000000	-8.93208600	19.60507000
39.89999781	0.00000000	-7.76943800	13.52116000
40.09999780	0.00000000	-5.39493100	4.69365100
40.29999778	0.00000000	-1.53789400	-4.55831700
40.49999777	0.00000000	2.69439000	-12.21703000
40.69999776	0.00000000	6.23154500	-15.61270000
40.89999775	0.00000000	8.93208600	-13.70571000
41.09999774	0.00000000	10.09473000	-6.82824800
41.29999772	0.00000000	9.30733200	2.73745100
41.49999771	0.00000000	7.01894700	11.98942000
41.69999770	0.00000000	3.53715500	18.95300000
41.89999769	0.00000000	0.04306102	22.02264000
42.09999768	0.00000000	-3.11884800	20.48474000
42.29999767	0.00000000	-5.81323800	14.72072000
42.49999765	0.00000000	-7.35113100	6.26845500
42.69999764	0.00000000	-7.35113100	-2.55905500
42.89999763	0.00000000	-5.81323800	-9.47957600
43.09999762	0.00000000	-3.11884800	-12.59227000
43.29999761	0.00000000	-0.04306102	-11.47884000
43.49999759	0.00000000	2.65132900	-6.92052100
43.69999758	0.00000000	4.23228400	-0.37524600
43.89999757	0.00000000	4.69980300	6.13312000
44.09999756	0.00000000	4.69980300	11.18971000
44.29999755	0.00000000	4.32455700	13.56422000
44.49999753	0.00000000	3.58021600	13.61343000
44.69999752	0.00000000	3.20497000	11.65723000
44.89999751	0.00000000	3.16190900	7.84940900
45.09999750	0.00000000	3.11884800	3.62327700
45.29999749	0.00000000	2.69439000	0.13533460
45.49999748	0.00000000	1.48868100	-2.22687000
45.69999746	0.00000000	-0.51058070	-2.97736200
45.89999745	0.00000000	-3.58021600	-2.27608300
46.09999744	0.00000000	-7.01894700	-0.33218500
46.29999743	0.00000000	-9.25812000	1.99311000
46.49999742	0.00000000	-9.67027500	4.73671200
46.69999740	0.00000000	-7.67716500	7.38188900
46.89999739	0.00000000	-3.77091500	8.91978400
47.09999738	0.00000000	2.04847400	8.96284400
47.29999737	0.00000000	8.55684000	7.80019600
47.49999736	0.00000000	13.58268000	5.89320800
47.69999734	0.00000000	16.28322000	3.53100400
47.89999733	0.00000000	15.81570000	1.20570900
48.09999732	0.00000000	11.49114000	-1.11343500
48.29999731	0.00000000	3.81397600	-2.55905500
48.49999730	0.00000000	-5.39493100	-2.22687000
48.69999729	0.00000000	-13.12131000	-0.28297240
48.89999727	0.00000000	-17.81496000	2.41141700
49.09999726	0.00000000	-18.89148000	5.89320800
49.29999725	0.00000000	-15.35433000	8.91978400
49.49999724	0.00000000	-7.30807100	10.49459000
49.69999723	0.00000000	2.65132900	10.49459000
49.89999721	0.00000000	11.58341000	8.91978400
50.09999720	0.00000000	17.77190000	5.85014700
50.29999719	0.00000000	20.04798000	1.99311000
50.49999718	0.00000000	17.35359000	-1.48868100
50.69999717	0.00000000	10.42077000	-4.18307100
50.89999715	0.00000000	1.20570900	-5.29650500
51.09999714	0.00000000	-8.04626000	-4.13385800
51.29999713	0.00000000	-14.56693000	-1.07037400
51.49999712	0.00000000	-16.93528000	3.15575800
51.69999711	0.00000000	-14.60999000	7.38188900
51.89999710	0.00000000	-8.46456700	10.49459000
52.09999708	0.00000000	-0.04306102	12.03248000
52.29999707	0.00000000	8.04626000	11.65723000
52.49999706	0.00000000	13.44734000	9.33809000
52.69999705	0.00000000	15.39739000	5.89320800
52.89999704	0.00000000	13.02903000	1.99311000
53.09999702	0.00000000	6.97588500	-1.44562000
53.29999701	0.00000000	-0.69512790	-3.71555100
53.49999700	0.00000000	-7.25885800	-3.76476400
53.69999699	0.00000000	-11.49114000	-1.90698800
53.89999698	0.00000000	-12.23548000	0.41830710
54.09999696	0.00000000	-8.83981200	3.15575800
54.29999695	0.00000000	-3.11884800	5.80093500
54.49999694	0.00000000	3.06963600	7.33882900
54.69999693	0.00000000	8.42150500	7.33882900
54.89999692	0.00000000	11.11590000	5.85014700
55.09999691	0.00000000	10.42077000	3.57406500
55.29999689	0.00000000	7.35113100	1.71013800
55.49999688	0.00000000	2.69439000	0.92888770
55.69999687	0.00000000	-2.69439000	1.66707700
55.89999686	0.00000000	-7.25885800	3.19881900
56.09999685	0.00000000	-9.58415200	5.11195900
56.29999683	0.00000000	-8.79675100	7.01279500
56.49999682	0.00000000	-5.39493100	7.71407400
56.69999681	0.00000000	-0.41830710	6.96358300
56.89999680	0.00000000	4.18922200	4.60137700
57.09999679	0.00000000	7.35113100	1.20570900
57.29999677	0.00000000	8.88902600	-2.22687000
57.49999676	0.00000000	8.46456700	-4.14000900
57.69999675	0.00000000	5.81323800	-4.14000900
57.89999674	0.00000000	1.99926200	-2.14074800
58.09999673	0.00000000	-1.48868100	2.08538400
58.29999672	0.00000000	-4.18922200	7.42495000
58.49999670	0.00000000	-5.35187000	12.03248000
58.69999669	0.00000000	-4.60752900	14.76993000
58.89999668	0.00000000	-2.74360200	15.05290000
59.09999667	0.00000000	-0.41830710	12.35236000
59.29999666	0.00000000	1.53789400	6.55142700
59.49999664	0.00000000	3.06963600	-0.28297240
59.69999663	0.00000000	3.85703700	-6.50221400
59.89999662	0.00000000	3.49409400	-10.31619000
60.09999661	0.00000000	2.74360200	-11.10359000
60.29999660	0.00000000	1.58095500	-8.36614100
60.49999658	0.00000000	0.41830710	-2.55905500
60.69999657	0.00000000	-0.33218500	5.11195900
60.89999656	0.00000000	-0.74434050	12.77067000
61.09999655	0.00000000	-0.33218500	17.79650000
61.29999654	0.00000000	0.37524600	19.37131000
61.49999653	0.00000000	1.16264800	17.37205000
61.69999651	0.00000000	1.53789400	11.61417000
61.89999650	0.00000000	1.53789400	3.53100400
62.09999649	0.00000000	1.11343500	-4.51525500
62.29999648	0.00000000	0.00000000	-10.68528000
62.49999647	0.00000000	-1.11343500	-13.01058000
62.69999645	0.00000000	-1.53789400	-11.52190000
62.89999644	0.00000000	-1.53789400	-6.87746000
63.09999643	0.00000000	-1.11343500	0.09227362
63.29999642	0.00000000	0.04306102	7.75713500
63.49999641	0.00000000	1.58095500	14.35162000
63.69999639	0.00000000	3.11884800	18.16560000
63.89999638	0.00000000	4.23228400	18.57775000
64.09999637	0.00000000	4.23228400	15.14518000
64.29999636	0.00000000	3.11884800	9.42421200
64.49999635	0.00000000	1.58095500	3.20497000
64.69999634	0.00000000	0.04306102	-2.64517700
64.89999632	0.00000000	-1.16264800	-7.24655500
65.09999631	0.00000000	-1.91314000	-9.56569900
65.29999630	0.00000000	-2.27608300	-8.82750900
65.49999629	0.00000000	-1.48868100	-5.80093500
65.69999628	0.00000000	0.00000000	-1.53174200
65.89999626	0.00000000	1.53789400	3.11269700
66.09999625	0.00000000	2.65132900	7.38188900
66.29999624	0.00000000	2.65132900	10.49459000
66.49999623	0.00000000	1.58095500	12.11860000
66.69999622	0.00000000	0.41830710	12.49385000
66.89999620	0.00000000	-0.41830710	11.70029000
67.09999619	0.00000000	-1.53789400	9.38115100
67.29999618	0.00000000	-2.23302100	6.31151500
67.49999617	0.00000000	-1.44562000	3.15575800
67.69999616	0.00000000	0.46751960	0.04306102
67.89999615	0.00000000	3.11884800	-2.69439000
68.09999613	0.00000000	5.39493100	-4.64443900
68.29999612	0.00000000	6.18848400	-5.80093500
68.49999611	0.00000000	5.81323800	-5.71481200
68.69999610	0.00000000	4.18922200	-3.76476400
68.89999609	0.00000000	1.11343500	0.09227362
69.09999607	0.00000000	-2.74360200	4.69365100
69.29999606	0.00000000	-6.18848400	9.00590400
69.49999605	0.00000000	-8.51377900	12.49385000
69.69999604	0.00000000	-8.83981200	14.76993000
69.89999603	0.00000000	-6.88361200	14.76993000
70.09999601	0.00000000	-2.65132900	12.45079000
70.29999600	0.00000000	2.74360200	8.54453700
70.49999599	0.00000000	7.76943800	3.15575800
70.69999598	0.00000000	11.62648000	-2.22687000
70.89999597	0.00000000	13.12131000	-6.09005900
71.09999596	0.00000000	11.58341000	-8.03395600
71.29999594	0.00000000	7.35113100	-7.25270600
71.49999593	0.00000000	1.53789400	-4.18307100
71.69999592	0.00000000	-4.65059000	0.46136810
71.89999591	0.00000000	-10.00246000	5.80093500
72.09999590	0.00000000	-12.74606000	10.03322000
72.29999588	0.00000000	-12.37697000	12.03248000
72.49999587	0.00000000	-9.62721400	12.03248000
72.69999586	0.00000000	-4.23228400	10.11934000
72.89999585	0.00000000	2.27608300	6.72982200
73.09999584	0.00000000	7.72637700	3.66633800
73.29999582	0.00000000	11.58341000	1.66707700
73.49999581	0.00000000	12.74606000	0.46136810
73.69999580	0.00000000	10.83907000	0.13533460
73.89999579	0.00000000	7.01894700	0.87967510
74.09999578	0.00000000	1.95620100	2.73745100
74.29999577	0.00000000	-3.02657500	4.18307100
74.49999575	0.00000000	-6.93282500	4.26919300
74.69999574	0.00000000	-8.88902600	3.48794300
74.89999573	0.00000000	-8.88902600	2.36220500
75.09999572	0.00000000	-6.93282500	0.83661410
75.29999571	0.00000000	-3.11884800	0.13533460
75.49999569	0.00000000	1.07037400	0.51058070
75.69999568	0.00000000	4.18922200	2.08538400
75.89999567	0.00000000	5.81323800	4.77977300
76.09999566	0.00000000	6.18848400	7.84940900
76.29999565	0.00000000	5.43799200	10.49459000
76.49999563	0.00000000	3.53715500	11.60802000
76.69999562	0.00000000	1.62401600	10.45152000
76.89999561	0.00000000	0.04306102	7.38188900
77.09999560	0.00000000	-1.07037400	3.11269700
77.29999559	0.00000000	-1.11343500	-1.53174200
77.49999558	0.00000000	-0.37524600	-5.71481200
77.69999556	0.00000000	0.33218500	-7.99089500
77.89999555	0.00000000	0.74434050	-7.25270600
78.09999554	0.00000000	0.33218500	-4.18307100
78.29999553	0.00000000	-0.37524600	0.46136810
78.49999552	0.00000000	-1.16264800	5.89320800
78.69999550	0.00000000	-1.48868100	10.86983000
78.89999549	0.00000000	-1.11343500	14.34547000
79.09999548	0.00000000	0.04306102	15.09596000
79.29999547	0.00000000	1.58095500	13.23819000
79.49999546	0.00000000	3.16190900	9.33809000
79.69999544	0.00000000	4.69980300	4.36146600
79.89999543	0.00000000	5.77017700	-0.69512790
80.09999542	0.00000000	5.39493100	-4.55831700
80.29999541	0.00000000	3.44488200	-6.87746000
80.49999540	0.00000000	0.78740150	-6.87746000
80.69999539	0.00000000	-2.27608300	-4.60137700
80.89999537	0.00000000	-4.18922200	-1.15649600
81.09999536	0.00000000	-4.65059000	2.73745100
81.29999535	0.00000000	-4.23228400	6.22539300
81.49999534	0.00000000	-2.65132900	8.96284400
81.69999533	0.00000000	0.04306102	10.53765000
81.89999531	0.00000000	3.06963600	10.95595000
82.09999530	0.00000000	5.39493100	10.53765000
82.29999529	0.00000000	6.18848400	9.00590400
82.49999528	0.00000000	5.81323800	6.68676100
82.69999527	0.00000000	4.27534400	4.31840500
82.89999525	0.00000000	1.99926200	1.58095500
83.09999524	0.00000000	0.04306102	-1.11343500
83.29999523	0.00000000	-1.53789400	-3.06348400
83.49999522	0.00000000	-2.65132900	-4.22613100
83.69999521	0.00000000	-2.65132900	-4.18307100
83.89999520	0.00000000	-1.58095500	-2.64517700
84.09999518	0.00000000	-0.41830710	0.09227362
84.29999517	0.00000000	0.37524600	3.57406500
84.49999516	0.00000000	1.16264800	7.42495000
84.69999515	0.00000000	1.53789400	10.49459000
84.89999514	0.00000000	1.58095500	12.07554000
85.09999512	0.00000000	1.58095500	12.03248000
85.29999511	0.00000000	1.58095500	10.07628000
85.49999510	0.00000000	1.58095500	6.21924200
85.69999509	0.00000000	1.58095500	1.62401600
85.89999508	0.00000000	1.58095500	-2.64517700
86.09999506	0.00000000	1.58095500	-5.71481200
86.29999505	0.00000000	1.53789400	-6.87130900
86.49999504	0.00000000	1.16264800	-5.71481200
86.69999503	0.00000000	0.37524600	-2.60211600
86.89999502	0.00000000	-0.37524600	1.99311000
87.09999501	0.00000000	-1.16264800	7.00664300
87.29999499	0.00000000	-1.53789400	10.82677000
87.49999498	0.00000000	-1.48868100	12.81373000
87.69999497	0.00000000	-0.69512790	12.40157000
87.89999496	0.00000000	1.16264800	10.07628000
88.09999495	0.00000000	2.69439000	5.85014700
88.29999493	0.00000000	3.53715500	0.87967510
88.49999492	0.00000000	4.27534400	-2.93430100
88.69999491	0.00000000	4.23228400	-4.92125900
88.89999490	0.00000000	3.11884800	-4.50910400
89.09999489	0.00000000	1.58095500	-2.22687000
89.29999487	0.00000000	0.00000000	1.66707700
89.49999486	0.00000000	-1.48868100	6.21924200
89.69999485	0.00000000	-2.23302100	10.07628000
89.89999484	0.00000000	-1.53789400	12.03248000
90.09999483	0.00000000	-0.41830710	12.03248000
90.29999482	0.00000000	0.41830710	10.03322000
90.49999480	0.00000000	1.58095500	5.80093500
90.69999479	0.00000000	2.69439000	0.51058070
90.89999478	0.00000000	3.06963600	-3.71555100
91.09999477	0.00000000	2.74360200	-5.67175200
91.29999476	0.00000000	1.99926200	-5.29650500
91.49999474	0.00000000	1.62401600	-2.55905500
91.69999473	0.00000000	1.58095500	1.99311000
91.89999472	0.00000000	1.58095500	7.00664300
92.09999471	0.00000000	1.58095500	10.82677000
92.29999470	0.00000000	1.62401600	12.81373000
92.49999468	0.00000000	1.95620100	12.35851000
92.69999467	0.00000000	2.27608300	9.70103300
92.89999466	0.00000000	1.53789400	5.11195900
93.09999465	0.00000000	0.41830710	0.51058070
93.29999464	0.00000000	-0.37524600	-2.97736200
93.49999463	0.00000000	-1.16264800	-4.87819900
93.69999461	0.00000000	-1.48868100	-4.09079700
93.89999460	0.00000000	-1.11343500	-1.07037400
94.09999459	0.00000000	0.09227362	3.15575800
94.29999458	0.00000000	1.99926200	7.33882900
94.49999457	0.00000000	4.27534400	10.03322000
94.69999455	0.00000000	5.81323800	10.45152000
94.89999454	0.00000000	6.18848400	8.91978400
95.09999453	0.00000000	5.39493100	5.85014700
95.29999452	0.00000000	3.11884800	2.04232300
95.49999451	0.00000000	0.41830710	-1.07037400
95.69999449	0.00000000	-1.99926200	-2.97736200
95.89999448	0.00000000	-4.65059000	-3.34030500
96.09999447	0.00000000	-6.50836600	-1.44562000
96.29999446	0.00000000	-6.14542300	1.58095500
96.49999445	0.00000000	-4.23228400	4.68750000
96.69999444	0.00000000	-1.11343500	7.38188900
96.89999442	0.00000000	2.74360200	8.91978400
97.09999441	0.00000000	6.23154500	8.91978400
97.29999440	0.00000000	8.93208600	7.43110200
97.49999439	0.00000000	10.04552000	5.11195900
97.69999438	0.00000000	8.93208600	2.82972400
97.89999436	0.00000000	6.23154500	0.87967510
98.09999435	0.00000000	2.69439000	0.13533460
98.29999434	0.00000000	-1.53789400	0.41830710
98.49999433	0.00000000	-5.35187000	1.19955700
98.69999432	0.00000000	-7.30807100	1.99311000
98.89999430	0.00000000	-7.35113100	3.15575800
99.09999429	0.00000000	-5.81323800	4.26919300
99.29999428	0.00000000	-3.11884800	4.69365100
99.49999427	0.00000000	0.04306102	4.73671200
99.69999426	0.00000000	3.49409400	4.73671200
99.89999425	0.00000000	6.55757800	4.73671200
100.09999423	0.00000000	7.76943800	4.77977300
100.29999422	0.00000000	7.81250000	5.15501900
100.49999421	0.00000000	6.97588500	5.89320800
100.69999420	0.00000000	4.65059000	6.21924200
100.89999419	0.00000000	1.58095500	5.80093500
101.09999417	0.00000000	-1.48868100	4.26919300
101.29999416	0.00000000	-3.81397600	1.99311000
101.49999415	0.00000000	-4.65059000	0.09227362
101.69999414	0.00000000	-4.69980300	-1.06422200
101.89999413	0.00000000	-4.23228400	-1.06422200
102.09999411	0.00000000	-2.65132900	0.09227362
102.29999410	0.00000000	0.00000000	2.04232300
102.49999409	0.00000000	2.65132900	4.73671200
102.69999408	0.00000000	4.27534400	7.43110200
102.89999407	0.00000000	5.07504900	9.33809000
103.09999406	0.00000000	5.43799200	10.11934000
103.29999404	0.00000000	4.65059000	9.33809000
103.49999403	0.00000000	3.16190900	7.38188900
103.69999402	0.00000000	1.58095500	4.26919300
103.89999401	0.00000000	0.00000000	0.51058070
104.09999400	0.00000000	-1.53789400	-2.18380900
104.29999398	0.00000000	-2.69439000	-3.02042300
104.49999397	0.00000000	-3.06963600	-2.64517700
104.69999396	0.00000000	-2.69439000	-1.02116100
104.89999395	0.00000000	-1.48868100	1.99311000
105.09999394	0.00000000	0.37524600	5.43184000
105.29999392	0.00000000	2.27608300	7.75713500
105.49999391	0.00000000	3.06963600	8.96284400
105.69999390	0.00000000	3.11884800	8.91978400
105.89999389	0.00000000	2.74360200	7.38188900
106.09999388	0.00000000	1.95620100	4.73671200
106.29999387	0.00000000	1.16264800	2.04232300
106.49999385	0.00000000	0.00000000	0.13533460
106.69999384	0.00000000	-1.07037400	-0.69512790
106.89999383	0.00000000	-1.07037400	-0.28297240
107.09999382	0.00000000	0.00000000	0.83661410
107.29999381	0.00000000	1.16264800	2.78051200
107.49999379	0.00000000	1.95620100	4.64443900
107.69999378	0.00000000	2.69439000	5.85014700
107.89999377	0.00000000	2.69439000	6.21924200
108.09999376	0.00000000	1.95620100	5.85014700
108.29999375	0.00000000	1.20570900	4.68750000
108.49999374	0.00000000	0.37524600	3.15575800
108.69999372	0.00000000	-0.37524600	1.62401600
108.89999371	0.00000000	-1.11343500	0.51058070
109.09999370	0.00000000	-1.11343500	0.51058070
109.29999369	0.00000000	-0.37524600	1.62401600
109.49999368	0.00000000	0.41830710	3.15575800
109.69999366	0.00000000	1.58095500	4.68750000
109.89999365	0.00000000	2.69439000	5.85014700
110.09999364	0.00000000	3.11884800	6.26845500
110.29999363	0.00000000	3.11884800	6.26845500
110.49999362	0.00000000	2.69439000	5.80093500
110.69999360	0.00000000	1.58095500	4.31840500
110.89999359	0.00000000	0.41830710	2.41141700
111.09999358	0.00000000	-0.37524600	1.24877000
111.29999357	0.00000000	-1.11343500	0.46136810
111.49999356	0.00000000	-1.11343500	0.46136810
111.69999355	0.00000000	-0.41830710	1.19955700
111.89999353	0.00000000	0.00000000	1.95004900
112.09999352	0.00000000	0.41830710	2.78051200
112.29999351	0.00000000	1.16264800	3.53100400
112.49999350	0.00000000	1.53789400	4.31840500
112.69999349	0.00000000	1.58095500	4.69365100
112.89999347	0.00000000	1.58095500	4.73671200
113.09999346	0.00000000	1.58095500	4.73671200
113.29999345	0.00000000	1.58095500	4.69365100
113.49999344	0.00000000	1.53789400	4.31840500
113.69999343	0.00000000	1.16264800	3.57406500
113.89999341	0.00000000	0.41830710	3.19881900
114.09999340	0.00000000	0.09227362	3.15575800
114.29999339	0.00000000	0.37524600	3.11269700
114.49999338	0.00000000	0.78740150	2.73745100
114.69999337	0.00000000	0.79355310	1.99311000
114.89999336	0.00000000	1.20570900	1.61786400
115.09999334	0.00000000	1.53789400	1.61786400
115.29999333	0.00000000	1.58095500	1.99311000
115.49999332	0.00000000	1.58095500	2.73745100
115.69999331	0.00000000	1.58095500	3.15575800
115.89999330	0.00000000	1.58095500	3.62327700
116.09999328	0.00000000	1.53789400	4.73671200
116.29999327	0.00000000	1.16264800	5.85014700
116.49999326	0.00000000	0.41830710	6.21924200
116.69999325	0.00000000	0.04306102	5.89320800
116.89999324	0.00000000	0.00000000	5.11195900
117.09999322	0.00000000	0.04306102	4.31840500
117.29999321	0.00000000	0.46751960	3.15575800
117.49999320	0.00000000	1.58095500	2.04232300
117.69999319	0.00000000	2.69439000	1.61786400
117.89999318	0.00000000	3.11884800	1.57480300
118.09999317	0.00000000	3.11884800	1.57480300
118.29999315	0.00000000	2.74360200	1.61786400
118.49999314	0.00000000	1.95620100	2.04232300
118.69999313	0.00000000	1.16264800	3.15575800
118.89999312	0.00000000	0.00000000	4.31840500
119.09999311	0.00000000	-1.11343500	5.06274600
119.29999309	0.00000000	-1.53789400	5.51796200
119.49999308	0.00000000	-1.53789400	5.48105300
119.69999307	0.00000000	-1.11343500	5.51796200
119.89999306	0.00000000	0.00000000	5.06274600
120.09999305	0.00000000	1.16264800	4.36146600
120.29999303	0.00000000	1.99926200	3.57406500
120.49999302	0.00000000	3.16190900	3.19881900
120.69999301	0.00000000	4.23228400	3.11269700
120.89999300	0.00000000	4.23228400	2.78051200
121.09999299	0.00000000	3.16190900	2.41141700
121.29999298	0.00000000	1.95620100	2.73745100
121.49999296	0.00000000	0.78740150	2.73745100
121.69999295	0.00000000	-0.74434050	2.41141700
121.89999294	0.00000000	-1.48868100	2.82357300
122.09999293	0.00000000	-1.58095500	3.53100400
122.29999292	0.00000000	-1.53789400	4.31840500
122.49999290	0.00000000	-1.11343500	4.69365100
122.69999289	0.00000000	0.00000000	4.73671200
122.89999288	0.00000000	1.16264800	4.73671200
123.09999287	0.00000000	1.95620100	4.73671200
123.29999286	0.00000000	2.74360200	4.69365100
123.49999284	0.00000000	3.11884800	4.31840500
123.69999283	0.00000000	3.16190900	3.57406500
123.89999282	0.00000000	3.11884800	3.15575800
124.09999281	0.00000000	2.69439000	2.73745100
124.29999280	0.00000000	1.58095500	1.99311000
124.49999279	0.00000000	0.46751960	1.66707700
124.69999277	0.00000000	0.00000000	1.99311000
124.89999276	0.00000000	-0.41830710	2.73745100
125.09999275	0.00000000	-1.16264800	3.15575800
125.29999274	0.00000000	-1.48868100	3.57406500
125.49999273	0.00000000	-1.11343500	4.31840500
125.69999271	0.00000000	0.00000000	4.69365100
125.89999270	0.00000000	1.16264800	4.73671200
126.09999269	0.00000000	1.95620100	4.73671200
126.29999268	0.00000000	2.74360200	4.73671200
126.49999267	0.00000000	3.11884800	4.69365100
126.69999265	0.00000000	3.11884800	4.31840500
126.89999264	0.00000000	2.74360200	3.57406500
127.09999263	0.00000000	1.95620100	3.19881900
127.29999262	0.00000000	1.16264800	3.15575800
127.49999261	0.00000000	0.00000000	3.15575800
127.69999260	0.00000000	-1.11343500	3.15575800
127.89999258	0.00000000	-1.48868100	3.15575800
128.09999257	0.00000000	-1.11343500	3.19881900
128.29999256	0.00000000	0.00000000	3.57406500
128.49999255	0.00000000	1.16264800	4.31840500
128.69999254	0.00000000	1.95620100	4.69365100
128.89999252	0.00000000	2.74360200	4.73671200
129.09999251	0.00000000	3.11884800	4.69365100
129.29999250	0.00000000	3.11884800	4.31840500
129.49999249	0.00000000	2.69439000	3.57406500
129.69999248	0.00000000	1.58095500	3.19881900
129.89999246	0.00000000	0.41830710	3.15575800
130.09999245	0.00000000	-0.37524600	3.15575800
130.29999244	0.00000000	-1.11343500	3.19881900
130.49999243	0.00000000	-1.07037400	3.57406500
130.69999242	0.00000000	0.00000000	4.31840500
130.89999241	0.00000000	1.11343500	4.69365100
131.09999239	0.00000000	1.58095500	4.73671200
131.29999238	0.00000000	1.99926200	4.73671200
131.49999237	0.00000000	2.74360200	4.69365100
131.69999236	0.00000000	3.06963600	4.31840500
131.89999235	0.00000000	2.74360200	3.57406500
132.09999233	0.00000000	1.95620100	3.15575800
132.29999232	0.00000000	1.20570900	2.78051200
132.49999231	0.00000000	0.41830710	2.41141700
132.69999230	0.00000000	0.04306102	2.78051200
132.89999229	0.00000000	0.00000000	3.15575800
133.09999227	0.00000000	0.04306102	3.57406500
133.29999226	0.00000000	0.41830710	4.31840500
133.49999225	0.00000000	1.16264800	4.69365100
133.69999224	0.00000000	1.53789400	4.73671200
133.89999223	0.00000000	1.58095500	4.73671200
134.09999222	0.00000000	1.53789400	4.69365100
134.29999220	0.00000000	1.20570900	4.26919300
134.49999219	0.00000000	0.83661410	3.15575800
134.69999218	0.00000000	1.20570900	2.04232300
134.89999217	0.00000000	1.53789400	1.66707700
135.09999216	0.00000000	1.62401600	1.95004900
135.29999214	0.00000000	1.99926200	2.36220500
135.49999213	0.00000000	2.69439000	2.36835600
135.69999212	0.00000000	2.69439000	2.82357300
135.89999211	0.00000000	1.99926200	3.53100400
136.09999210	0.00000000	1.58095500	4.31840500
136.29999208	0.00000000	1.16264800	4.69365100
136.49999207	0.00000000	0.41830710	4.73671200
136.69999206	0.00000000	0.04306102	4.73671200
136.89999205	0.00000000	0.04306102	4.69365100
137.09999204	0.00000000	0.41830710	4.31840500
137.29999203	0.00000000	1.16264800	3.57406500
137.49999201	0.00000000	1.58095500	3.15575800
137.69999200	0.00000000	1.99926200	2.73745100
137.89999199	0.00000000	2.74360200	2.04232300
138.09999198	0.00000000	3.06963600	2.04232300
138.29999197	0.00000000	2.69439000	2.73745100
138.49999195	0.00000000	1.58095500	3.11269700
138.69999194	0.00000000	0.46751960	3.19881900
138.89999193	0.00000000	0.04306102	3.57406500
139.09999192	0.00000000	0.00000000	4.31840500
139.29999191	0.00000000	0.04306102	4.69365100
139.49999189	0.00000000	0.41830710	4.73671200
139.69999188	0.00000000	1.16264800	4.73671200
139.89999187	0.00000000	1.53789400	4.73671200
140.09999186	0.00000000	1.62401600	4.69365100
140.29999185	0.00000000	1.95620100	4.31840500
140.49999184	0.00000000	2.32529500	3.53100400
140.69999182	0.00000000	1.95620100	2.78051200
140.89999181	0.00000000	1.62401600	1.99311000
141.09999180	0.00000000	1.53789400	1.66707700
141.29999179	0.00000000	1.20570900	1.99311000
141.49999178	0.00000000	0.83661410	2.78051200
141.69999176	0.00000000	1.20570900	3.53100400
141.89999175	0.00000000	1.53789400	4.36146600
142.09999174	0.00000000	1.58095500	5.11195900
142.29999173	0.00000000	1.58095500	5.85014700
142.49999172	0.00000000	1.58095500	5.85014700
142.69999170	0.00000000	1.58095500	5.11195900
142.89999169	0.00000000	1.58095500	4.36146600
143.09999168	0.00000000	1.53789400	3.53100400
143.29999167	0.00000000	1.20570900	2.78051200
143.49999166	0.00000000	0.83661410	1.99311000
143.69999165	0.00000000	1.20570900	1.61786400
143.89999163	0.00000000	1.53789400	1.61786400
144.09999162	0.00000000	1.58095500	2.04232300
144.29999161	0.00000000	1.58095500	3.15575800
144.49999160	0.00000000	1.58095500	4.26919300
144.69999159	0.00000000	1.62401600	4.73671200
144.89999157	0.00000000	1.95620100	5.11195900
145.09999156	0.00000000	2.32529500	5.47490100
145.29999155	0.00000000	1.95620100	5.11195900
145.49999154	0.00000000	1.62401600	4.73671200
145.69999153	0.00000000	1.53789400	4.31840500
145.89999151	0.00000000	1.20570900	3.57406500
146.09999150	0.00000000	0.83661410	3.15575800
146.29999149	0.00000000	1.20570900	2.78051200
146.49999148	0.00000000	1.53789400	2.41141700
146.69999147	0.00000000	1.58095500	2.78051200
146.89999146	0.00000000	1.58095500	3.11269700
147.09999144	0.00000000	1.58095500	3.15575800
147.29999143	0.00000000	1.58095500	3.19881900
147.49999142	0.00000000	1.58095500	3.57406500
147.69999141	0.00000000	1.58095500	4.31840500
147.89999140	0.00000000	1.58095500	4.69365100
148.09999138	0.00000000	1.53789400	4.73671200
148.29999137	0.00000000	1.16264800	4.69365100
148.49999136	0.00000000	0.41830710	4.31840500
148.69999135	0.00000000	0.09227362	3.57406500
148.89999134	0.00000000	0.41830710	3.19881900
149.09999132	0.00000000	1.16264800	3.15575800
149.29999131	0.00000000	1.53789400	3.15575800
149.49999130	0.00000000	1.58095500	3.15575800
149.69999129	0.00000000	1.58095500	3.15575800
149.89999128	0.00000000	1.58095500	3.15575800
150.09999127	0.00000000	1.62401600	3.19881900
150.29999125	0.00000000	1.91314000	3.57406500
150.49999124	0.00000000	1.95004900	4.31840500
150.69999123	0.00000000	1.21186000	4.69365100
150.89999122	0.00000000	1.24877000	4.73671200
151.09999121	0.00000000	1.48868100	4.73671200
151.29999119	0.00000000	1.20570900	4.69365100
151.49999118	0.00000000	0.83661410	4.31840500
151.69999117	0.00000000	1.20570900	3.57406500
151.89999116	0.00000000	1.53789400	3.19881900
152.09999115	0.00000000	1.58095500	3.15575800
152.29999113	0.00000000	1.62401600	3.19881900
152.49999112	0.00000000	1.99926200	3.53100400
152.69999111	0.00000000	2.74360200	3.94315900
152.89999110	0.00000000	3.06963600	3.94931100
153.09999109	0.00000000	2.74360200	4.36146600
153.29999108	0.00000000	1.99926200	4.69365100
153.49999106	0.00000000	1.62401600	4.73671200
153.69999105	0.00000000	1.53789400	4.69365100
153.89999104	0.00000000	1.16264800	4.31840500
154.09999103	0.00000000	0.41830710	3.62327700
154.29999102	0.00000000	0.04306102	3.57406500
154.49999100	0.00000000	0.04306102	3.90009800
154.69999099	0.00000000	0.41830710	3.53100400
154.89999098	0.00000000	1.16264800	3.19881900
155.09999097	0.00000000	1.53789400	3.15575800
155.29999096	0.00000000	1.62401600	3.15575800
155.49999094	0.00000000	1.95620100	3.15575800
155.69999093	0.00000000	2.32529500	3.15575800
155.89999092	0.00000000	1.95620100	3.15575800
156.09999091	0.00000000	1.62401600	3.19881900
156.29999090	0.00000000	1.58095500	3.57406500
156.49999089	0.00000000	1.58095500	4.31840500
156.69999087	0.00000000	1.53789400	4.69365100
156.89999086	0.00000000	1.16264800	4.73671200
157.09999085	0.00000000	0.41830710	4.73671200
157.29999084	0.00000000	0.09227362	4.73671200
157.49999083	0.00000000	0.41830710	4.69365100
157.69999081	0.00000000	1.16264800	4.31840500
157.89999080	0.00000000	1.53789400	3.57406500
158.09999079	0.00000000	1.62401600	3.19881900
158.29999078	0.00000000	1.95620100	3.15575800
158.49999077	0.00000000	2.32529500	3.15575800
158.69999075	0.00000000	1.95620100	3.15575800
158.89999074	0.00000000	1.62401600	3.15575800
159.09999073	0.00000000	1.58095500	3.19881900
159.29999072	0.00000000	1.58095500	3.57406500
159.49999071	0.00000000	1.58095500	4.31840500
159.69999070	0.00000000	1.58095500	4.69365100
159.89999068	0.00000000	1.58095500	4.73671200
160.09999067	0.00000000	1.58095500	4.73671200
160.29999066	0.00000000	1.58095500	4.73671200
160.49999065	0.00000000	1.58095500	4.69365100
160.69999064	0.00000000	1.58095500	4.31840500
160.89999062	0.00000000	1.58095500	3.57406500
161.09999061	0.00000000	1.58095500	3.19881900
161.29999060	0.00000000	1.58095500	3.15575800
161.49999059	0.00000000	1.58095500	3.15575800
161.69999058	0.00000000	1.62401600	3.15575800
161.89999056	0.00000000	1.95620100	3.15575800
162.09999055	0.00000000	2.32529500	3.19881900
162.29999054	0.00000000	1.95620100	3.57406500
162.49999053	0.00000000	1.62401600	4.31840500
162.69999052	0.00000000	1.58095500	4.69365100
162.89999051	0.00000000	1.58095500	4.73671200
163.09999049	0.00000000	1.58095500	4.73671200
163.29999048	0.00000000	1.53789400	4.69365100
163.49999047	0.00000000	1.20570900	4.31840500
163.69999046	0.00000000	0.83661410	3.57406500
163.89999045	0.00000000	1.20570900	3.19881900
164.09999043	0.00000000	1.53789400	3.15575800
164.29999042	0.00000000	1.58095500	3.15575800
164.49999041	0.00000000	1.58095500	3.15575800
164.69999040	0.00000000	1.58095500	3.15575800
164.89999039	0.00000000	1.62401600	3.15575800
165.09999037	0.00000000	1.99926200	3.15575800
165.29999036	0.00000000	2.69439000	3.15575800
165.49999035	0.00000000	2.69439000	3.15575800
165.69999034	0.00000000	1.99926200	3.15575800
165.89999033	0.00000000	1.62401600	3.15575800
166.09999032	0.00000000	1.58095500	3.15575800
166.29999030	0.00000000	1.58095500	3.19881900
166.49999029	0.00000000	1.58095500	3.57406500
166.69999028	0.00000000	1.58095500	4.26919300
166.89999027	0.00000000	1.58095500	4.26919300
167.09999026	0.00000000	1.58095500	3.57406500
167.29999024	0.00000000	1.58095500	3.19881900
167.49999023	0.00000000	1.58095500	3.15575800
167.69999022	0.00000000	1.58095500	3.15575800
167.89999021	0.00000000	1.58095500	3.15575800
168.09999020	0.00000000	1.58095500	3.15575800
168.29999018	0.00000000	1.58095500	3.15575800
168.49999017	0.00000000	1.58095500	3.19881900
168.69999016	0.00000000	1.58095500	3.53100400
168.89999015	0.00000000	1.58095500	3.94315900
169.09999014	0.00000000	1.58095500	3.90625000
169.29999013	0.00000000	1.58095500	3.94315900
169.49999011	0.00000000	1.58095500	3.53100400
169.69999010	0.00000000	1.58095500	3.19881900
169.89999009	0.00000000	1.58095500	3.15575800
170.09999008	0.00000000	1.58095500	3.15575800
170.29999007	0.00000000	1.58095500	3.15575800
170.49999005	0.00000000	1.58095500	3.15575800
170.69999004	0.00000000	1.58095500	3.15575800
170.89999003	0.00000000	1.58095500	3.15575800
171.09999002	0.00000000	1.58095500	3.15575800
171.29999001	0.00000000	1.58095500	3.15575800
171.49998999	0.00000000	1.58095500	3.15575800
171.69998998	0.00000000	1.58095500	3.15575800
171.89998997	0.00000000	1.58095500	3.15575800
172.09998996	0.00000000	1.58095500	3.15575800
172.29998995	0.00000000	1.58095500	3.15575800
172.49998994	0.00000000	1.58095500	3.15575800
172.69998992	0.00000000	1.58095500	3.15575800
172.89998991	0.00000000	1.58095500	3.15575800
173.09998990	0.00000000	1.58095500	3.15575800
173.29998989	0.00000000	1.58095500	3.15575800
173.49998988	0.00000000	1.58095500	3.15575800
173.69998986	0.00000000	1.58095500	3.15575800
173.89998985	0.00000000	1.58095500	3.19881900
174.09998984	0.00000000	1.58095500	3.53100400
174.29998983	0.00000000	1.58095500	3.94315900
174.49998982	0.00000000	1.58095500	3.90625000
174.69998980	0.00000000	1.58095500	3.94315900
174.89998979	0.00000000	1.58095500	3.53100400
175.09998978	0.00000000	1.58095500	3.24803100
175.29998977	0.00000000	1.58095500	3.53100400
175.49998976	0.00000000	1.58095500	3.90009800
175.69998975	0.00000000	1.58095500	3.53100400
175.89998973	0.00000000	1.58095500	3.24803100
176.09998972	0.00000000	1.58095500	3.53100400
176.29998971	0.00000000	1.58095500	3.90009800
176.49998970	0.00000000	1.53789400	3.53100400
176.69998969	0.00000000	1.20570900	3.19881900
176.89998967	0.00000000	0.83661410	3.15575800
177.09998966	0.00000000	1.20570900	3.15575800
177.29998965	0.00000000	1.53789400	3.15575800
177.49998964	0.00000000	1.58095500	3.15575800
177.69998963	0.00000000	1.58095500	3.15575800
177.89998961	0.00000000	1.58095500	3.15575800
178.09998960	0.00000000	1.58095500	3.15575800
178.29998959	0.00000000	1.58095500	3.15575800
178.49998958	0.00000000	1.58095500	3.19881900
178.69998957	0.00000000	1.58095500	3.57406500
178.89998956	0.00000000	1.58095500	4.26919300
179.09998954	0.00000000	1.58095500	4.31840500
179.29998953	0.00000000	1.58095500	3.99237200
179.49998952	0.00000000	1.58095500	4.31840500
179.69998951	0.00000000	1.58095500	4.26919300
179.89998950	0.00000000	1.58095500	3.57406500
180.09998948	0.00000000	1.58095500	3.19881900
180.29998947	0.00000000	1.58095500	3.15575800
180.49998946	0.00000000	1.58095500	3.15575800
180.69998945	0.00000000	1.58095500	3.19881900
180.89998944	0.00000000	1.58095500	3.57406500
181.09998942	0.00000000	1.58095500	4.31840500
181.29998941	0.00000000	1.58095500	4.69365100
181.49998940	0.00000000	1.58095500	4.73671200
181.69998939	0.00000000	1.58095500	4.73671200
181.89998938	0.00000000	1.58095500	4.73671200
182.09998937	0.00000000	1.58095500	4.73671200
182.29998935	0.00000000	1.58095500	4.69365100
182.49998934	0.00000000	1.58095500	4.31840500
182.69998933	0.00000000	1.58095500	3.57406500
182.89998932	0.00000000	1.58095500	3.19881900
183.09998931	0.00000000	1.58095500	3.15575800
183.29998929	0.00000000	1.58095500	3.15575800
183.49998928	0.00000000	1.58095500	3.15575800
183.69998927	0.00000000	1.58095500	3.15575800
183.89998926	0.00000000	1.58095500	3.19881900
184.09998925	0.00000000	1.58095500	3.57406500
184.29998923	0.00000000	1.58095500	4.31840500
184.49998922	0.00000000	1.58095500	4.69365100
184.69998921	0.00000000	1.58095500	4.73671200
184.89998920	0.00000000	1.58095500	4.73671200
185.09998919	0.00000000	1.58095500	4.73671200
185.29998918	0.00000000	1.58095500	4.73671200
185.49998916	0.00000000	1.58095500	4.69365100
185.69998915	0.00000000	1.58095500	4.31840500
185.89998914	0.00000000	1.62401600	3.57406500
186.09998913	0.00000000	1.95620100	3.19881900
186.29998912	0.00000000	2.32529500	3.15575800
186.49998910	0.00000000	1.95620100	3.15575800
186.69998909	0.00000000	1.62401600	3.15575800
186.89998908	0.00000000	1.58095500	3.19881900
187.09998907	0.00000000	1.58095500	3.57406500
187.29998906	0.00000000	1.58095500	4.31840500
187.49998904	0.00000000	1.58095500	4.69365100
187.69998903	0.00000000	1.58095500	4.73671200
187.89998902	0.00000000	1.58095500	4.69365100
188.09998901	0.00000000	1.58095500	4.36146600
188.29998900	0.00000000	1.58095500	3.94931100
188.49998899	0.00000000	1.58095500	3.94315900
188.69998897	0.00000000	1.58095500	3.53100400
188.89998896	0.00000000	1.58095500	3.19881900
189.09998895	0.00000000	1.58095500	3.15575800
189.29998894	0.00000000	1.58095500	3.15575800
189.49998893	0.00000000	1.58095500	3.15575800
189.69998891	0.00000000	1.58095500	3.19881900
189.89998890	0.00000000	1.58095500	3.57406500
190.09998889	0.00000000	1.58095500	4.31840500
190.29998888	0.00000000	1.58095500	4.69365100
190.49998887	0.00000000	1.58095500	4.73671200
190.69998885	0.00000000	1.58095500	4.73671200
190.89998884	0.00000000	1.58095500	4.73671200
191.09998883	0.00000000	1.58095500	4.69365100
191.29998882	0.00000000	1.58095500	4.31840500
191.49998881	0.00000000	1.58095500	3.57406500
191.69998880	0.00000000	1.58095500	3.19881900
191.89998878	0.00000000	1.58095500	3.15575800
192.09998877	0.00000000	1.58095500	3.15575800
192.29998876	0.00000000	1.58095500	3.15575800
192.49998875	0.00000000	1.58095500	3.15575800
192.69998874	0.00000000	1.58095500	3.15575800
192.89998872	0.00000000	1.58095500	3.15575800
193.09998871	0.00000000	1.58095500	3.15575800
193.29998870	0.00000000	1.58095500	3.15575800
193.49998869	0.00000000	1.58095500	3.19881900
193.69998868	0.00000000	1.58095500	3.57406500
193.89998866	0.00000000	1.58095500	4.31840500
194.09998865	0.00000000	1.58095500	4.69365100
194.29998864	0.00000000	1.58095500	4.73671200
194.49998863	0.00000000	1.58095500	4.73671200
194.69998862	0.00000000	1.58095500	4.73671200
194.89998861	0.00000000	1.58095500	4.69365100
195.09998859	0.00000000	1.58095500	4.31840500
195.29998858	0.00000000	1.58095500	3.57406500
195.49998857	0.00000000	1.58095500	3.19881900
195.69998856	0.00000000	1.58095500	3.15575800
195.89998855	0.00000000	1.58095500	3.15575800
196.09998853	0.00000000	1.58095500	3.19881900
