Time	Channel A	Channel B	Channel C
(us)	(V)	(mV)	(mV)

-4.59999956	0.00000000	49.01575000	25.26452000
-4.39999957	0.00000000	49.01575000	25.26452000
-4.19999958	0.00000000	49.01575000	25.26452000
-3.99999959	0.00000000	49.01575000	25.26452000
-3.79999960	0.00000000	49.01575000	25.26452000
-3.59999962	0.00000000	49.01575000	25.26452000
-3.39999963	0.00000000	49.01575000	25.26452000
-3.19999964	0.00000000	49.01575000	25.26452000
-2.99999965	0.00000000	49.01575000	25.26452000
-2.79999966	0.00000000	49.01575000	25.26452000
-2.59999968	0.00000000	49.01575000	25.26452000
-2.39999969	0.00000000	49.01575000	25.26452000
-2.19999970	0.00000000	49.01575000	25.26452000
-1.99999971	0.00000000	49.01575000	25.26452000
-1.79999972	0.00000000	49.01575000	25.26452000
-1.59999973	0.00000000	49.01575000	25.26452000
-1.39999975	0.00000000	49.01575000	25.26452000
-1.19999976	0.00000000	48.97269000	25.22145000
-0.99999977	0.00000000	48.64050000	24.88927000
-0.79999978	0.00000000	48.27140000	24.52018000
-0.59999979	0.00000000	48.64050000	24.88927000
-0.39999981	0.15871060	48.97269000	25.22145000
-0.19999982	0.47736220	49.01575000	25.26452000
0.00000017	0.79601380	49.01575000	25.22145000
0.20000016	1.11466500	49.01575000	24.84621000
0.40000015	0.95533960	49.01575000	24.10187000
0.60000013	0.63668800	49.01575000	23.72662000
0.80000012	0.00000000	49.01575000	23.68356000
1.00000011	-0.95533960	49.01575000	23.72662000
1.20000010	-1.91129400	49.01575000	24.10187000
1.40000009	-2.70792300	49.01575000	24.84621000
1.60000008	-2.70792300	49.01575000	25.22145000
1.80000006	-1.91129400	49.01575000	25.26452000
2.00000005	-0.47736220	49.01575000	25.26452000
2.20000004	1.59264300	49.01575000	25.26452000
2.40000003	3.66326300	49.01575000	25.26452000
2.60000002	5.09719500	49.01575000	25.22145000
2.80000000	5.25652100	49.01575000	24.84621000
2.99999999	4.14124000	49.01575000	24.10187000
3.19999998	1.59264300	49.01575000	23.72662000
3.39999997	-1.75196900	49.01575000	23.68356000
3.59999996	-4.93786900	49.01575000	23.72662000
3.79999994	-7.32714100	49.01575000	24.10187000
3.99999993	-7.96444400	49.01575000	24.84621000
4.19999992	-6.53112700	49.01575000	25.22145000
4.39999991	-3.34522600	49.01575000	25.26452000
4.59999990	0.95533960	49.01575000	25.26452000
4.79999989	5.25652100	49.01575000	25.22145000
4.99999987	8.44242100	49.01575000	24.84621000
5.19999986	9.55770200	49.01575000	24.10187000
5.39999985	8.12377000	49.01575000	23.72662000
5.59999984	4.77854300	49.01575000	23.68356000
5.79999983	0.15871060	49.01575000	23.72662000
5.99999981	-4.45989200	49.01575000	24.10187000
6.19999980	-7.96444400	49.01575000	24.84621000
6.39999979	-9.55770200	49.01575000	25.22145000
6.59999978	-8.60174700	49.01575000	25.26452000
6.79999977	-5.57517200	49.01575000	25.26452000
6.99999975	-1.27399100	49.01575000	25.26452000
7.19999974	3.02657500	49.01575000	25.26452000
7.39999973	6.21247500	49.01575000	25.26452000
7.59999972	7.64579200	49.01575000	25.26452000
7.79999971	7.16781500	49.05881000	25.26452000
7.99999970	4.93786900	49.39099000	25.26452000
8.19999968	1.91129400	49.76009000	25.26452000
8.39999967	-1.43331700	49.39099000	25.26452000
8.59999966	-3.82258900	49.05881000	25.26452000
8.79999965	-5.09719500	49.01575000	25.26452000
8.99999964	-4.93786900	49.01575000	25.26452000
9.19999962	-3.66326300	49.01575000	25.26452000
9.39999961	-1.75196900	49.01575000	25.26452000
9.59999960	0.15871060	49.01575000	25.26452000
9.79999959	1.75196900	49.01575000	25.26452000
9.99999958	2.54859700	49.01575000	25.26452000
10.19999956	2.38927200	49.01575000	25.26452000
10.39999955	1.91129400	49.05881000	25.26452000
10.59999954	1.11466500	49.39099000	25.26452000
10.79999953	0.15871060	49.76009000	25.26452000
10.99999952	-0.47736220	49.43405000	25.26452000
11.19999951	-0.79601380	49.48326000	25.26452000
11.39999949	-0.95533960	50.17839000	25.26452000
11.59999948	-0.79601380	50.55364000	25.26452000
11.79999947	-0.63668800	50.59670000	25.26452000
11.99999946	-0.31803640	50.59670000	25.26452000
12.19999945	-0.15871060	50.59670000	25.26452000
12.39999943	-0.15871060	50.55364000	25.26452000
12.59999942	0.00000000	50.22145000	25.26452000
12.79999941	0.00000000	49.85236000	25.26452000
12.99999940	0.00000000	50.22145000	25.26452000
13.19999939	0.00000000	50.55364000	25.26452000
13.39999937	0.00000000	50.55364000	25.26452000
13.59999936	0.00000000	50.17839000	25.26452000
13.79999935	0.00000000	49.48326000	25.26452000
13.99999934	-0.15871060	49.43405000	25.26452000
14.19999933	-0.15871060	49.80315000	25.26452000
14.39999932	-0.15871060	49.80930000	25.26452000
14.59999930	-0.15871060	50.17839000	25.26452000
14.79999929	0.00000000	50.12918000	25.26452000
14.99999928	0.00000000	49.48326000	25.26452000
15.19999927	0.00000000	49.43405000	25.26452000
15.39999926	0.00000000	49.76009000	25.26452000
15.59999924	0.00000000	49.39099000	25.26452000
15.79999923	0.00000000	49.05881000	25.26452000
15.99999922	0.00000000	49.05881000	25.26452000
16.19999921	0.00000000	49.39099000	25.26452000
16.39999920	-0.15871060	49.80315000	25.26452000
16.59999919	0.00000000	49.80930000	25.26452000
16.79999917	0.00000000	50.22145000	25.26452000
16.99999916	0.00000000	50.59670000	25.26452000
17.19999915	0.00000000	51.01501000	25.26452000
17.39999914	0.00000000	51.75935000	25.26452000
17.59999913	0.00000000	52.08538000	25.26452000
17.79999911	0.00000000	51.71013000	25.26452000
17.99999910	0.00000000	50.55364000	25.26452000
18.19999909	0.00000000	49.01575000	25.26452000
18.39999908	0.00000000	47.43479000	25.26452000
18.59999907	0.00000000	45.89690000	25.26452000
18.79999905	0.00000000	44.74040000	25.26452000
18.99999904	0.00000000	44.40821000	25.26452000
19.19999903	0.00000000	45.20177000	25.26452000
19.39999902	0.00000000	47.52707000	25.26452000
19.59999901	0.00000000	50.63976000	25.26452000
19.79999900	0.00000000	54.17691000	25.26452000
19.99999898	0.00000000	57.99089000	25.26452000
20.19999897	0.00000000	60.64222000	25.26452000
20.39999896	0.00000000	61.01746000	25.26452000
20.59999895	0.00000000	59.01821000	25.26452000
20.79999894	0.00000000	54.31840000	25.26452000
20.99999892	0.00000000	47.34252000	25.22145000
21.19999891	0.00000000	39.61614000	24.88927000
21.39999890	0.00000000	32.73252000	24.52018000
21.59999889	0.00000000	28.91240000	24.88927000
21.79999888	0.00000000	29.74901000	25.22145000
21.99999886	0.00000000	35.19316000	25.26452000
22.19999885	0.00000000	44.96186000	25.22145000
22.39999884	0.00000000	57.29576000	24.84621000
22.59999883	0.00000000	69.62352000	24.15108000
22.79999882	0.00000000	78.46948000	24.15108000
22.99999881	0.00000000	81.49606000	24.84621000
23.19999879	0.00000000	77.54060000	25.26452000
23.39999878	0.00000000	66.28321000	25.68282000
23.59999877	0.00000000	50.04306000	26.42101000
23.79999876	0.00000000	32.26501000	26.79626000
23.99999875	0.00000000	16.91068000	26.83932000
24.19999873	0.00000000	8.44611200	26.79626000
24.39999872	0.00000000	9.27657400	26.37795000
24.59999871	0.00000000	19.37746000	25.21530000
24.79999870	0.00000000	37.61073000	23.68356000
24.99999869	0.00000000	59.94709000	22.15182000
25.19999867	0.00000000	81.20693000	20.98917000
25.39999866	0.00000000	96.19832000	20.62008000
25.59999865	0.00000000	101.17490000	21.03838000
25.79999864	0.00000000	94.19291000	22.65625000
25.99999863	0.00000000	76.88238000	25.77510000
26.19999862	0.00000000	53.66634000	30.00123000
26.39999860	0.00000000	29.65674000	34.18430000
26.59999859	0.00000000	9.60875900	36.87869000
26.79999858	0.00000000	-1.51328700	37.29700000
26.99999857	0.00000000	-0.35063970	35.71604000
27.19999856	0.00000000	12.67840000	32.13582000
27.39999854	0.00000000	33.93824000	26.28568000
27.59999853	0.00000000	58.27386000	18.94685000
27.79999852	0.00000000	80.69636000	11.65108000
27.99999851	0.00000000	95.77386000	6.35457700
28.19999850	0.00000000	100.47370000	5.23499000
28.39999848	0.00000000	94.32824000	9.09202700
28.59999847	0.00000000	78.88779000	16.84916000
28.79999846	0.00000000	57.99089000	27.39296000
28.99999845	0.00000000	36.02977000	39.24704000
29.19999844	0.00000000	18.26402000	49.27411000
29.39999843	0.00000000	9.23351300	54.26304000
29.59999841	0.00000000	9.14124000	53.88164000
29.79999840	0.00000000	17.28592000	47.15182000
29.99999839	0.00000000	32.30807000	34.78716000
30.19999838	0.00000000	50.04306000	18.98991000
30.39999837	0.00000000	66.37549000	3.61097400
30.59999835	0.00000000	78.42027000	-7.21579700
30.79999834	0.00000000	84.23965000	-11.48499000
30.99999833	0.00000000	82.74483000	-8.32923100
31.19999832	0.00000000	74.69857000	2.12844500
31.39999831	0.00000000	62.69069000	18.01181000
31.59999829	0.00000000	49.10802000	36.09129000
31.79999828	0.00000000	36.36196000	52.34375000
31.99999827	0.00000000	27.47293000	62.72145000
32.19999826	0.00000000	24.26181000	65.45275000
32.39999825	0.00000000	26.53789000	59.23351000
32.59999824	0.00000000	33.15083000	45.79847000
32.79999822	0.00000000	43.20251000	28.37721000
32.99999821	0.00000000	54.36761000	10.58071000
33.19999820	0.00000000	63.67495000	-4.14000900
33.39999819	0.00000000	69.48818000	-13.01673000
33.59999818	0.00000000	70.70004000	-14.13017000
33.79999816	0.00000000	67.25517000	-6.84055100
33.99999815	0.00000000	60.69144000	7.04970500
34.19999814	0.00000000	52.17765000	24.05881000
34.39999813	0.00000000	43.75615000	41.06176000
34.59999812	0.00000000	37.94291000	54.16461000
34.79999810	0.00000000	35.94365000	60.39001000
34.99999809	0.00000000	37.47539000	58.90133000
35.19999808	0.00000000	42.08292000	50.39985000
35.39999807	0.00000000	48.59744000	36.87869000
35.59999806	0.00000000	54.78592000	21.08145000
35.79999805	0.00000000	59.43651000	6.86515700
35.99999803	0.00000000	61.71259000	-2.05462600
36.19999802	0.00000000	60.59916000	-4.01082700
36.39999801	0.00000000	56.78519000	0.92273620
36.59999800	0.00000000	51.75935000	11.31890000
36.79999799	0.00000000	46.36442000	24.00960000
36.99999797	0.00000000	42.21825000	36.36811000
37.19999796	0.00000000	41.01255000	45.15256000
37.39999795	0.00000000	42.87032000	47.89616000
37.59999794	0.00000000	46.32135000	44.13140000
37.79999793	0.00000000	50.63976000	35.71604000
37.99999791	0.00000000	55.24729000	25.35064000
38.19999790	0.00000000	59.06127000	15.77879000
38.39999789	0.00000000	60.64222000	10.02092000
38.59999788	0.00000000	59.90403000	9.59645700
38.79999787	0.00000000	57.57259000	14.20399000
38.99999786	0.00000000	53.66634000	22.61319000
39.19999784	0.00000000	49.05881000	32.18504000
39.39999783	0.00000000	44.82652000	39.81299000
39.59999782	0.00000000	42.13213000	43.28863000
39.79999781	0.00000000	41.70767000	41.34473000
39.99999780	0.00000000	43.20251000	34.83022000
40.19999778	0.00000000	45.94611000	25.21530000
40.39999777	0.00000000	49.43405000	15.31742000
40.59999776	0.00000000	53.34030000	8.39689900
40.79999775	0.00000000	56.82825000	6.48375900
40.99999774	0.00000000	59.52879000	9.92864100
41.19999772	0.00000000	60.69144000	17.96260000
41.39999771	0.00000000	59.94709000	27.95275000
41.59999770	0.00000000	57.99089000	37.20472000
41.79999769	0.00000000	54.87204000	43.75615000
41.99999768	0.00000000	51.01501000	45.66314000
42.19999767	0.00000000	47.52707000	42.63656000
42.39999765	0.00000000	44.82652000	35.71604000
42.59999764	0.00000000	43.66388000	26.88238000
42.79999763	0.00000000	44.36515000	18.38090000
42.99999762	0.00000000	45.89690000	12.24778000
43.19999761	0.00000000	47.85310000	9.87942800
43.39999759	0.00000000	50.17839000	11.78026000
43.59999758	0.00000000	52.13459000	16.71383000
43.79999757	0.00000000	53.71555000	23.30832000
43.99999756	0.00000000	54.87204000	29.82283000
44.19999755	0.00000000	55.29650000	34.83022000
44.39999753	0.00000000	55.33957000	36.78642000
44.59999752	0.00000000	55.33957000	35.71604000
44.79999751	0.00000000	55.33957000	32.64640000
44.99999750	0.00000000	55.29650000	28.42027000
45.19999749	0.00000000	54.87204000	24.19414000
45.39999748	0.00000000	53.66634000	21.08145000
45.59999746	0.00000000	51.71013000	19.50049000
45.79999745	0.00000000	48.97269000	19.45743000
45.99999744	0.00000000	45.85384000	20.61393000
46.19999743	0.00000000	42.78420000	22.52091000
46.39999742	0.00000000	40.55118000	24.84621000
46.59999740	0.00000000	40.59424000	26.79626000
46.79999739	0.00000000	43.33784000	28.37721000
46.99999738	0.00000000	48.36368000	29.49065000
47.19999737	0.00000000	54.92125000	29.49065000
47.39999736	0.00000000	61.10974000	28.37721000
47.59999734	0.00000000	65.76648000	26.79626000
47.79999733	0.00000000	67.99950000	24.84621000
47.99999732	0.00000000	66.41855000	22.52091000
48.19999731	0.00000000	61.02362000	20.66314000
48.39999730	0.00000000	53.24803000	19.87574000
48.59999729	0.00000000	44.36515000	20.66314000
48.79999727	0.00000000	36.31274000	22.57013000
48.99999726	0.00000000	31.74827000	25.30758000
49.19999725	0.00000000	32.08046000	28.37721000
49.39999724	0.00000000	37.10014000	31.06545000
49.59999723	0.00000000	45.20177000	32.60334000
49.79999721	0.00000000	54.87204000	32.60334000
49.99999720	0.00000000	63.71801000	31.02239000
50.19999719	0.00000000	69.53740000	27.90969000
50.39999718	0.00000000	71.02608000	23.72662000
50.59999717	0.00000000	67.58119000	19.87574000
50.79999715	0.00000000	59.90403000	17.54429000
50.99999714	0.00000000	50.68897000	16.75689000
51.19999713	0.00000000	42.17519000	17.96260000
51.39999712	0.00000000	36.40502000	21.03838000
51.59999711	0.00000000	34.82406000	25.30758000
51.79999710	0.00000000	37.51845000	29.90895000
51.99999708	0.00000000	43.66388000	33.71678000
52.19999707	0.00000000	51.75935000	35.25467000
52.39999706	0.00000000	59.39345000	34.18430000
52.59999705	0.00000000	64.45620000	31.48991000
52.79999704	0.00000000	65.58194000	27.95275000
52.99999702	0.00000000	62.96751000	23.72662000
53.19999701	0.00000000	57.16043000	19.91880000
53.39999700	0.00000000	50.31373000	18.01181000
53.59999699	0.00000000	44.13140000	18.33784000
53.79999698	0.00000000	40.68651000	20.61393000
53.99999696	0.00000000	40.63730000	23.68356000
54.19999695	0.00000000	43.71309000	26.75320000
54.39999694	0.00000000	49.05881000	29.07234000
54.59999693	0.00000000	54.78592000	29.86589000
54.79999692	0.00000000	59.06127000	29.53371000
54.99999691	0.00000000	61.01746000	28.37721000
55.19999689	0.00000000	60.64222000	26.83932000
55.39999688	0.00000000	57.94783000	25.30758000
55.59999687	0.00000000	53.71555000	24.23720000
55.79999686	0.00000000	49.10802000	24.61245000
55.99999685	0.00000000	45.29404000	26.46407000
56.19999683	0.00000000	43.75615000	28.32800000
56.39999682	0.00000000	44.86958000	29.49065000
56.59999681	0.00000000	47.90231000	29.49065000
56.79999680	0.00000000	51.75935000	28.28494000
56.99999679	0.00000000	55.24729000	25.95964000
57.19999677	0.00000000	57.94783000	22.52091000
57.39999676	0.00000000	59.11048000	19.50049000
57.59999675	0.00000000	58.32308000	17.96260000
57.79999674	0.00000000	56.03469000	18.38706000
57.99999673	0.00000000	52.59596000	21.12451000
58.19999672	0.00000000	49.56939000	25.77510000
58.39999670	0.00000000	47.94537000	31.48991000
58.59999669	0.00000000	47.57013000	36.45423000
58.79999668	0.00000000	48.32062000	38.74261000
58.99999667	0.00000000	50.22145000	37.99213000
59.19999666	0.00000000	52.13459000	34.09203000
59.39999664	0.00000000	53.71555000	27.90969000
59.59999663	0.00000000	54.82898000	20.61393000
59.79999662	0.00000000	54.82898000	14.11171000
59.99999661	0.00000000	53.71555000	10.67298000
60.19999660	0.00000000	52.22071000	11.04208000
60.39999658	0.00000000	51.06422000	15.31742000
60.59999657	0.00000000	50.63976000	22.57013000
60.79999656	0.00000000	50.63976000	30.69636000
60.99999655	0.00000000	51.06422000	37.62303000
61.19999654	0.00000000	52.22071000	42.21825000
61.39999653	0.00000000	53.71555000	42.55044000
61.59999651	0.00000000	54.87204000	38.41043000
61.79999650	0.00000000	55.24729000	31.44069000
61.99999649	0.00000000	54.82898000	23.35138000
62.19999648	0.00000000	53.29109000	15.60039000
62.39999647	0.00000000	51.01501000	10.24852000
62.59999645	0.00000000	49.10802000	8.30462600
62.79999644	0.00000000	47.90231000	10.62377000
62.99999643	0.00000000	47.57013000	16.38779000
63.19999642	0.00000000	48.32062000	24.10187000
63.39999641	0.00000000	50.26451000	32.18504000
63.59999639	0.00000000	52.55290000	38.31816000
63.79999638	0.00000000	54.87204000	41.10482000
63.99999637	0.00000000	56.40993000	40.36663000
64.19999636	0.00000000	56.82825000	36.87869000
64.39999635	0.00000000	56.40993000	31.06545000
64.59999634	0.00000000	54.82898000	24.14493000
64.79999632	0.00000000	52.17765000	17.96260000
64.99999631	0.00000000	49.52633000	13.69340000
65.19999630	0.00000000	47.94537000	12.15551000
65.39999629	0.00000000	47.57013000	13.64419000
65.59999628	0.00000000	48.32062000	17.45817000
65.79999626	0.00000000	50.22145000	22.10261000
65.99999625	0.00000000	52.13459000	26.79626000
66.19999624	0.00000000	53.71555000	31.06545000
66.39999623	0.00000000	54.82898000	34.13509000
66.59999622	0.00000000	54.82898000	35.34079000
66.79999620	0.00000000	53.71555000	34.64567000
66.99999619	0.00000000	52.17765000	33.11393000
67.19999618	0.00000000	50.63976000	31.11466000
67.39999617	0.00000000	49.52633000	28.37721000
67.59999616	0.00000000	49.56939000	25.26452000
67.79999615	0.00000000	51.06422000	22.10261000
67.99999613	0.00000000	53.34030000	19.03297000
68.19999612	0.00000000	55.29650000	16.75689000
68.39999611	0.00000000	56.82825000	16.33858000
68.59999610	0.00000000	57.52953000	17.50123000
68.79999609	0.00000000	56.36687000	19.87574000
68.99999607	0.00000000	53.66634000	23.72662000
69.19999606	0.00000000	50.22145000	28.00197000
69.39999605	0.00000000	46.78272000	31.90822000
69.59999604	0.00000000	44.82652000	35.38385000
69.79999603	0.00000000	44.45127000	37.24778000
69.99999601	0.00000000	45.66929000	36.87869000
70.19999600	0.00000000	49.19414000	34.18430000
70.39999599	0.00000000	54.13385000	29.90895000
70.59999598	0.00000000	59.15354000	24.88927000
70.79999597	0.00000000	62.59842000	19.87574000
70.99999596	0.00000000	63.80413000	16.43085000
71.19999594	0.00000000	62.59842000	15.26821000
71.39999593	0.00000000	59.11048000	16.80610000
71.59999592	0.00000000	53.71555000	20.61393000
71.79999591	0.00000000	47.94537000	25.22145000
71.99999590	0.00000000	43.28863000	29.53371000
72.19999588	0.00000000	40.59424000	32.97859000
72.39999587	0.00000000	40.63730000	34.92249000
72.59999586	0.00000000	43.66388000	34.55955000
72.79999585	0.00000000	48.68356000	32.69562000
72.99999584	0.00000000	54.09079000	29.95201000
73.19999582	0.00000000	59.15354000	26.93159000
73.39999581	0.00000000	62.59842000	24.61245000
73.59999580	0.00000000	63.80413000	23.81890000
73.79999579	0.00000000	62.64764000	24.15108000
73.99999578	0.00000000	59.57185000	25.26452000
74.19999577	0.00000000	55.29650000	26.37795000
74.39999575	0.00000000	50.68897000	26.79626000
74.59999574	0.00000000	46.82579000	26.79626000
74.79999573	0.00000000	44.86958000	26.37795000
74.99999572	0.00000000	44.86958000	25.21530000
75.19999571	0.00000000	46.78272000	23.72662000
75.39999569	0.00000000	50.17839000	22.61319000
75.59999568	0.00000000	53.24803000	22.65625000
75.79999567	0.00000000	55.29650000	24.23720000
75.99999566	0.00000000	56.82825000	27.25763000
76.19999565	0.00000000	57.57259000	30.69636000
76.39999563	0.00000000	56.82825000	33.02165000
76.59999562	0.00000000	55.38263000	34.18430000
76.79999561	0.00000000	54.22613000	33.67372000
76.99999560	0.00000000	53.75861000	30.60408000
77.19999559	0.00000000	53.34030000	25.63976000
77.39999558	0.00000000	52.59596000	20.61393000
77.59999556	0.00000000	52.22071000	16.33858000
77.79999555	0.00000000	52.17765000	13.69340000
77.99999554	0.00000000	52.13459000	13.73647000
78.19999553	0.00000000	51.71013000	16.80610000
78.39999552	0.00000000	50.59670000	22.14567000
78.59999550	0.00000000	49.52633000	27.95275000
78.79999549	0.00000000	49.48326000	33.02165000
78.99999548	0.00000000	50.26451000	36.87869000
79.19999547	0.00000000	51.43332000	38.36737000
79.39999546	0.00000000	53.38336000	36.82948000
79.59999544	0.00000000	55.29650000	32.64640000
79.79999543	0.00000000	56.87746000	27.25763000
79.99999542	0.00000000	57.99089000	22.19488000
80.19999541	0.00000000	57.94783000	17.91953000
80.39999540	0.00000000	56.40993000	15.22515000
80.59999539	0.00000000	53.71555000	14.80684000
80.79999537	0.00000000	50.63976000	16.33858000
80.99999536	0.00000000	47.98843000	19.45743000
81.19999535	0.00000000	46.82579000	23.68356000
81.39999534	0.00000000	47.57013000	27.95275000
81.59999533	0.00000000	49.48326000	31.48991000
81.79999531	0.00000000	52.17765000	34.22736000
81.99999530	0.00000000	54.87204000	35.75910000
82.19999529	0.00000000	56.82825000	35.75910000
82.39999528	0.00000000	57.99089000	34.18430000
82.59999527	0.00000000	57.99089000	31.11466000
82.79999525	0.00000000	56.87746000	27.25763000
82.99999524	0.00000000	55.33957000	23.72662000
83.19999523	0.00000000	53.75861000	20.57087000
83.39999522	0.00000000	52.22071000	17.91953000
83.59999521	0.00000000	51.06422000	16.75689000
83.79999520	0.00000000	50.68897000	17.54429000
83.99999518	0.00000000	51.01501000	19.82652000
84.19999517	0.00000000	51.80241000	23.35138000
84.39999516	0.00000000	52.55290000	27.25763000
84.59999515	0.00000000	53.34030000	31.53297000
84.79999514	0.00000000	53.71555000	35.34079000
84.99999512	0.00000000	53.75861000	37.24778000
85.19999511	0.00000000	53.80167000	36.92175000
85.39999510	0.00000000	54.17691000	34.55955000
85.59999509	0.00000000	54.92125000	30.69636000
85.79999508	0.00000000	55.33957000	25.68282000
85.99999506	0.00000000	55.71481000	21.08145000
86.19999505	0.00000000	56.08390000	17.91953000
86.39999504	0.00000000	55.62254000	16.38164000
86.59999503	0.00000000	54.54601000	16.84916000
86.79999502	0.00000000	52.97121000	19.91880000
86.99999501	0.00000000	51.80241000	24.88927000
87.19999499	0.00000000	50.63976000	29.90895000
87.39999498	0.00000000	49.94463000	34.18430000
87.59999497	0.00000000	50.68897000	36.82948000
87.79999496	0.00000000	52.17765000	36.82948000
87.99999495	0.00000000	53.80167000	34.18430000
88.19999493	0.00000000	55.71481000	29.95817000
88.39999492	0.00000000	57.61565000	25.30758000
88.59999491	0.00000000	58.36614000	21.03838000
88.79999490	0.00000000	57.99089000	18.01181000
88.99999489	0.00000000	56.45300000	17.22441000
89.19999487	0.00000000	54.17691000	19.12524000
89.39999486	0.00000000	52.26993000	22.61319000
89.59999485	0.00000000	51.06422000	27.25763000
89.79999484	0.00000000	50.63976000	32.18504000
89.99999483	0.00000000	50.63976000	35.24852000
90.19999482	0.00000000	51.06422000	35.67298000
90.39999480	0.00000000	52.22071000	33.76599000
90.59999479	0.00000000	53.71555000	29.90895000
90.79999478	0.00000000	54.87204000	25.30758000
90.99999477	0.00000000	55.29650000	21.08145000
91.19999476	0.00000000	55.33957000	18.43012000
91.39999474	0.00000000	55.29650000	18.38706000
91.59999473	0.00000000	54.92125000	20.66314000
91.79999472	0.00000000	54.17691000	24.15108000
91.99999471	0.00000000	53.80167000	28.37721000
92.19999470	0.00000000	53.75861000	32.18504000
92.39999468	0.00000000	53.75861000	34.14124000
92.59999467	0.00000000	53.71555000	34.14124000
92.79999466	0.00000000	53.34030000	32.14198000
92.99999465	0.00000000	52.55290000	27.95275000
93.19999464	0.00000000	51.80241000	23.03149000
93.39999463	0.00000000	51.01501000	19.54355000
93.59999461	0.00000000	50.68897000	17.96260000
93.79999460	0.00000000	51.06422000	18.38706000
93.99999459	0.00000000	52.22071000	21.08145000
94.19999458	0.00000000	53.75861000	25.26452000
94.39999457	0.00000000	55.33957000	29.49065000
94.59999455	0.00000000	56.87746000	32.56028000
94.79999454	0.00000000	58.03395000	33.71678000
94.99999453	0.00000000	58.40920000	32.56028000
95.19999452	0.00000000	57.99089000	29.53371000
95.39999451	0.00000000	56.40993000	25.68282000
95.59999449	0.00000000	53.71555000	22.23794000
95.79999448	0.00000000	50.63976000	19.91880000
95.99999447	0.00000000	47.94537000	19.54355000
96.19999446	0.00000000	46.45054000	21.03838000
96.39999445	0.00000000	46.82579000	23.72662000
96.59999444	0.00000000	49.10802000	26.83932000
96.79999442	0.00000000	52.22071000	29.86589000
96.99999441	0.00000000	55.71481000	31.76673000
97.19999440	0.00000000	59.19660000	31.44069000
97.39999439	0.00000000	61.48499000	29.95201000
97.59999438	0.00000000	62.27239000	28.00197000
97.79999436	0.00000000	61.10974000	25.68282000
97.99999435	0.00000000	58.40920000	23.77584000
98.19999434	0.00000000	54.92125000	22.61319000
98.39999433	0.00000000	51.01501000	22.61319000
98.59999432	0.00000000	47.57013000	23.72662000
98.79999430	0.00000000	45.24483000	25.26452000
98.99999429	0.00000000	44.86958000	26.79626000
99.19999428	0.00000000	46.40748000	27.95275000
99.39999427	0.00000000	49.52633000	28.32800000
99.59999426	0.00000000	53.71555000	28.04503000
99.79999425	0.00000000	57.57259000	27.63287000
99.99999423	0.00000000	59.94709000	27.66978000
100.19999422	0.00000000	61.15280000	27.63287000
100.39999421	0.00000000	61.10974000	28.04503000
100.59999420	0.00000000	59.57185000	28.37721000
100.79999419	0.00000000	56.87746000	28.37721000
100.99999417	0.00000000	53.80167000	28.00197000
101.19999416	0.00000000	51.06422000	27.17150000
101.39999415	0.00000000	49.10802000	26.04577000
101.59999414	0.00000000	47.94537000	24.47712000
101.79999413	0.00000000	47.94537000	23.40059000
101.99999411	0.00000000	49.10802000	22.98843000
102.19999410	0.00000000	51.06422000	23.81890000
102.39999409	0.00000000	53.75861000	25.68282000
102.59999408	0.00000000	56.45300000	28.04503000
102.79999407	0.00000000	58.40920000	30.32726000
102.99999406	0.00000000	59.57185000	32.27731000
103.19999404	0.00000000	59.57185000	32.97859000
103.39999403	0.00000000	58.45841000	32.22810000
103.59999402	0.00000000	56.87746000	29.95201000
103.79999401	0.00000000	54.92125000	27.25763000
103.99999400	0.00000000	52.64517000	24.88927000
104.19999398	0.00000000	51.10728000	22.57013000
104.39999397	0.00000000	50.68897000	21.08145000
104.59999396	0.00000000	51.06422000	21.08145000
104.79999395	0.00000000	52.22071000	22.61319000
104.99999394	0.00000000	53.75861000	25.30758000
105.19999392	0.00000000	55.29650000	28.37721000
105.39999391	0.00000000	56.45300000	31.02239000
105.59999390	0.00000000	56.87746000	32.18504000
105.79999389	0.00000000	56.87746000	31.44069000
105.99999388	0.00000000	56.45300000	29.58292000
106.19999387	0.00000000	55.29650000	27.25763000
106.39999385	0.00000000	53.80167000	25.30758000
106.59999384	0.00000000	52.64517000	23.77584000
106.79999383	0.00000000	52.26993000	23.03149000
106.99999382	0.00000000	52.64517000	23.77584000
107.19999381	0.00000000	53.75861000	25.26452000
107.39999379	0.00000000	54.92125000	26.83932000
107.59999378	0.00000000	55.71481000	28.37721000
107.79999377	0.00000000	56.45300000	29.49065000
107.99999376	0.00000000	56.40993000	29.49065000
108.19999375	0.00000000	55.29650000	28.37721000
108.39999374	0.00000000	53.80167000	26.83932000
108.59999372	0.00000000	52.64517000	25.30758000
108.79999371	0.00000000	52.22071000	24.15108000
108.99999370	0.00000000	52.22071000	23.77584000
109.19999369	0.00000000	52.64517000	24.15108000
109.39999368	0.00000000	53.75861000	25.30758000
109.59999366	0.00000000	54.92125000	26.83932000
109.79999365	0.00000000	55.71481000	28.37721000
109.99999364	0.00000000	56.50221000	29.53371000
110.19999363	0.00000000	56.82825000	29.90895000
110.39999362	0.00000000	56.45300000	29.53371000
110.59999360	0.00000000	55.33957000	28.37721000
110.79999359	0.00000000	54.17691000	26.83932000
110.99999358	0.00000000	53.38336000	25.26452000
111.19999357	0.00000000	52.59596000	23.72662000
111.39999356	0.00000000	52.22071000	22.61319000
111.59999355	0.00000000	52.22071000	22.61319000
111.79999353	0.00000000	52.64517000	23.72662000
111.99999352	0.00000000	53.75861000	25.21530000
112.19999351	0.00000000	54.87204000	26.42101000
112.39999350	0.00000000	55.29650000	27.21457000
112.59999349	0.00000000	55.33957000	28.00197000
112.79999347	0.00000000	55.33957000	28.32800000
112.99999346	0.00000000	55.29650000	28.00197000
113.19999345	0.00000000	54.92125000	27.25763000
113.39999344	0.00000000	54.17691000	26.88238000
113.59999343	0.00000000	53.80167000	26.83932000
113.79999341	0.00000000	53.75861000	26.83932000
113.99999340	0.00000000	53.75861000	26.83932000
114.19999339	0.00000000	53.80167000	26.83932000
114.39999338	0.00000000	54.17691000	26.83932000
114.59999337	0.00000000	54.92125000	26.79626000
114.79999336	0.00000000	55.29650000	26.42101000
114.99999334	0.00000000	55.33957000	25.72589000
115.19999333	0.00000000	55.33957000	25.72589000
115.39999332	0.00000000	55.33957000	26.42101000
115.59999331	0.00000000	55.33957000	26.83932000
115.79999330	0.00000000	55.33957000	27.25763000
115.99999328	0.00000000	55.33957000	28.00197000
116.19999327	0.00000000	55.29650000	28.42027000
116.39999326	0.00000000	54.92125000	28.83858000
116.59999325	0.00000000	54.17691000	29.58292000
116.79999324	0.00000000	53.85088000	29.90895000
116.99999322	0.00000000	54.17691000	29.58292000
117.19999321	0.00000000	54.96432000	28.79552000
117.39999320	0.00000000	55.71481000	28.04503000
117.59999319	0.00000000	56.50221000	27.21457000
117.79999318	0.00000000	56.87746000	26.46407000
117.99999317	0.00000000	56.92052000	25.68282000
118.19999315	0.00000000	56.87746000	25.35679000
118.39999314	0.00000000	56.50221000	25.68282000
118.59999313	0.00000000	55.71481000	26.46407000
118.79999312	0.00000000	54.96432000	27.21457000
118.99999311	0.00000000	54.13385000	28.00197000
119.19999309	0.00000000	53.42642000	28.37721000
119.39999308	0.00000000	53.01427000	28.42027000
119.59999307	0.00000000	53.38336000	28.42027000
119.79999306	0.00000000	53.75861000	28.42027000
119.99999305	0.00000000	54.22613000	28.37721000
120.19999303	0.00000000	55.38263000	28.00197000
120.39999302	0.00000000	56.87746000	27.25763000
120.59999301	0.00000000	58.03395000	26.83932000
120.79999300	0.00000000	58.40920000	26.42101000
120.99999299	0.00000000	58.03395000	25.68282000
121.19999298	0.00000000	56.92052000	25.30758000
121.39999296	0.00000000	55.75787000	25.26452000
121.59999295	0.00000000	54.92125000	25.26452000
121.79999294	0.00000000	53.75861000	25.30758000
121.99999293	0.00000000	52.64517000	25.68282000
122.19999292	0.00000000	52.26993000	26.42101000
122.39999290	0.00000000	52.59596000	26.74705000
122.59999289	0.00000000	53.38336000	26.55635000
122.79999288	0.00000000	54.17691000	26.89468000
122.99999287	0.00000000	55.33957000	28.37106000
123.19999286	0.00000000	56.45300000	28.66018000
123.39999284	0.00000000	56.87746000	28.04503000
123.59999283	0.00000000	56.92052000	27.25763000
123.79999282	0.00000000	56.92052000	26.83932000
123.99999281	0.00000000	56.87746000	26.42101000
124.19999280	0.00000000	56.50221000	25.68282000
124.39999279	0.00000000	55.71481000	25.30758000
124.59999277	0.00000000	54.96432000	25.26452000
124.79999276	0.00000000	54.17691000	25.30758000
124.99999275	0.00000000	53.80167000	25.68282000
125.19999274	0.00000000	53.75861000	26.46407000
125.39999273	0.00000000	53.75861000	27.21457000
125.59999271	0.00000000	53.80167000	28.00197000
125.79999270	0.00000000	54.22613000	28.37721000
125.99999269	0.00000000	55.33957000	28.42027000
126.19999268	0.00000000	56.45300000	28.37721000
126.39999267	0.00000000	56.87746000	28.00197000
126.59999265	0.00000000	56.92052000	27.25763000
126.79999264	0.00000000	56.92052000	26.88238000
126.99999263	0.00000000	56.87746000	26.79626000
127.19999262	0.00000000	56.45300000	26.42101000
127.39999261	0.00000000	55.33957000	25.72589000
127.59999260	0.00000000	54.17691000	25.72589000
127.79999258	0.00000000	53.42642000	26.42101000
127.99999257	0.00000000	53.01427000	26.79626000
128.19999256	0.00000000	53.42642000	26.83932000
128.39999255	0.00000000	54.17691000	26.88238000
128.59999254	0.00000000	55.33957000	27.25763000
128.79999252	0.00000000	56.50221000	28.00197000
128.99999251	0.00000000	57.29576000	28.32800000
129.19999250	0.00000000	58.03395000	28.00197000
129.39999249	0.00000000	58.03395000	27.25763000
129.59999248	0.00000000	57.29576000	26.88238000
129.79999246	0.00000000	56.50221000	26.83932000
129.99999245	0.00000000	55.33957000	26.83932000
130.19999244	0.00000000	54.22613000	26.83932000
130.39999243	0.00000000	53.80167000	26.88238000
130.59999242	0.00000000	53.80167000	27.25763000
130.79999241	0.00000000	54.22613000	28.00197000
130.99999239	0.00000000	55.33957000	28.37721000
131.19999238	0.00000000	56.45300000	28.37721000
131.39999237	0.00000000	56.87746000	28.00197000
131.59999236	0.00000000	56.92052000	27.25763000
131.79999235	0.00000000	56.92052000	26.83932000
131.99999233	0.00000000	56.87746000	26.46407000
132.19999232	0.00000000	56.50221000	26.05807000
132.39999231	0.00000000	55.75787000	26.09498000
132.59999230	0.00000000	55.38263000	26.05807000
132.79999229	0.00000000	55.33957000	26.46407000
132.99999227	0.00000000	55.33957000	26.83932000
133.19999226	0.00000000	55.33957000	27.25763000
133.39999225	0.00000000	55.33957000	28.04503000
133.59999224	0.00000000	55.33957000	28.75246000
133.79999223	0.00000000	55.38263000	29.16461000
133.99999222	0.00000000	55.71481000	28.79552000
134.19999220	0.00000000	56.12696000	28.42027000
134.39999219	0.00000000	56.09006000	28.00197000
134.59999218	0.00000000	56.12696000	27.21457000
134.79999217	0.00000000	55.75787000	26.46407000
134.99999216	0.00000000	55.80708000	25.68282000
135.19999214	0.00000000	56.50221000	25.35679000
135.39999213	0.00000000	56.87746000	25.68282000
135.59999212	0.00000000	56.92052000	26.46407000
135.79999211	0.00000000	56.87746000	27.21457000
135.99999210	0.00000000	56.50221000	28.00197000
136.19999208	0.00000000	55.75787000	28.37721000
136.39999207	0.00000000	55.33957000	28.42027000
136.59999206	0.00000000	54.96432000	28.42027000
136.79999205	0.00000000	54.59522000	28.42027000
136.99999204	0.00000000	54.96432000	28.37721000
137.19999203	0.00000000	55.33957000	28.00197000
137.39999201	0.00000000	55.75787000	27.25763000
137.59999200	0.00000000	56.54527000	26.88238000
137.79999199	0.00000000	57.25270000	26.79626000
137.99999198	0.00000000	57.66486000	26.42101000
138.19999197	0.00000000	57.29576000	25.68282000
138.39999195	0.00000000	56.92052000	25.35679000
138.59999194	0.00000000	56.50221000	25.68282000
138.79999193	0.00000000	55.71481000	26.42101000
138.99999192	0.00000000	54.96432000	26.83932000
139.19999191	0.00000000	54.17691000	27.25763000
139.39999189	0.00000000	53.85088000	28.00197000
139.59999188	0.00000000	54.22613000	28.37721000
139.79999187	0.00000000	55.33957000	28.42027000
139.99999186	0.00000000	56.45300000	28.37721000
140.19999185	0.00000000	56.87746000	28.00197000
140.39999184	0.00000000	56.92052000	27.21457000
140.59999182	0.00000000	56.92052000	26.46407000
140.79999181	0.00000000	56.87746000	25.68282000
140.99999180	0.00000000	56.50221000	25.30758000
141.19999179	0.00000000	55.75787000	25.26452000
141.39999178	0.00000000	55.38263000	25.30758000
141.59999176	0.00000000	55.33957000	25.68282000
141.79999175	0.00000000	55.33957000	26.46407000
141.99999174	0.00000000	55.38263000	27.25763000
142.19999173	0.00000000	55.75787000	28.37721000
142.39999172	0.00000000	56.50221000	29.11540000
142.59999170	0.00000000	56.87746000	28.79552000
142.79999169	0.00000000	56.92052000	28.42027000
142.99999168	0.00000000	56.87746000	28.00197000
143.19999167	0.00000000	56.50221000	27.21457000
143.39999166	0.00000000	55.75787000	26.46407000
143.59999165	0.00000000	55.38263000	25.68282000
143.79999163	0.00000000	55.33957000	25.30758000
143.99999162	0.00000000	55.33957000	25.30758000
144.19999161	0.00000000	55.38263000	25.68282000
144.39999160	0.00000000	55.75787000	26.46407000
144.59999159	0.00000000	56.50221000	27.21457000
144.79999157	0.00000000	56.87746000	28.00197000
144.99999156	0.00000000	56.92052000	28.37721000
145.19999155	0.00000000	56.92052000	28.42027000
145.39999154	0.00000000	56.87746000	28.37721000
145.59999153	0.00000000	56.50221000	28.00197000
145.79999151	0.00000000	55.75787000	27.25763000
145.99999150	0.00000000	55.38263000	26.88238000
146.19999149	0.00000000	55.33957000	26.83932000
146.39999148	0.00000000	55.38263000	26.83932000
146.59999147	0.00000000	55.75787000	26.83932000
146.79999146	0.00000000	56.50221000	26.83932000
146.99999144	0.00000000	56.87746000	26.88238000
147.19999143	0.00000000	56.92052000	27.25763000
147.39999142	0.00000000	56.92052000	28.00197000
147.59999141	0.00000000	56.92052000	28.37721000
147.79999140	0.00000000	56.92052000	28.42027000
147.99999138	0.00000000	56.87746000	28.42027000
148.19999137	0.00000000	56.50221000	28.42027000
148.39999136	0.00000000	55.75787000	28.42027000
148.59999135	0.00000000	55.38263000	28.37721000
148.79999134	0.00000000	55.38263000	28.00197000
148.99999132	0.00000000	55.75787000	27.25763000
149.19999131	0.00000000	56.50221000	26.88238000
149.39999130	0.00000000	56.87746000	26.83932000
149.59999129	0.00000000	56.92052000	26.83932000
149.79999128	0.00000000	56.96358000	26.88238000
149.99999127	0.00000000	57.33883000	27.25763000
150.19999125	0.00000000	58.03395000	28.00197000
150.39999124	0.00000000	58.03395000	28.37721000
150.59999123	0.00000000	57.29576000	28.42027000
150.79999122	0.00000000	56.58833000	28.42027000
150.99999121	0.00000000	56.13312000	28.42027000
151.19999119	0.00000000	56.12696000	28.42027000
151.39999118	0.00000000	55.71481000	28.37721000
151.59999117	0.00000000	55.43184000	28.00197000
151.79999116	0.00000000	55.75787000	27.25763000
151.99999115	0.00000000	56.50221000	26.88238000
152.19999113	0.00000000	56.87746000	26.83932000
152.39999112	0.00000000	56.92052000	26.83932000
152.59999111	0.00000000	56.96358000	26.88238000
152.79999110	0.00000000	57.33883000	27.21457000
152.99999109	0.00000000	58.03395000	27.58366000
153.19999108	0.00000000	58.03395000	27.25763000
153.39999106	0.00000000	57.33883000	27.30684000
153.59999105	0.00000000	56.96358000	28.00197000
153.79999104	0.00000000	56.87746000	28.37721000
153.99999103	0.00000000	56.50221000	28.37721000
154.19999102	0.00000000	55.75787000	28.00197000
154.39999100	0.00000000	55.38263000	27.25763000
154.59999099	0.00000000	55.33957000	26.88238000
154.79999098	0.00000000	55.38263000	26.83932000
154.99999097	0.00000000	55.75787000	26.83932000
155.19999096	0.00000000	56.50221000	26.83932000
155.39999094	0.00000000	56.87746000	26.83932000
155.59999093	0.00000000	56.92052000	26.83932000
155.79999092	0.00000000	56.92052000	26.83932000
155.99999091	0.00000000	56.92052000	26.83932000
156.19999090	0.00000000	56.92052000	26.83932000
156.39999089	0.00000000	56.87746000	26.83932000
156.59999087	0.00000000	56.54527000	26.88238000
156.79999086	0.00000000	56.13312000	27.25763000
156.99999085	0.00000000	56.12696000	28.00197000
157.19999084	0.00000000	55.71481000	28.37721000
157.39999083	0.00000000	55.38263000	28.37721000
157.59999081	0.00000000	55.38263000	28.00197000
157.79999080	0.00000000	55.75787000	27.25763000
157.99999079	0.00000000	56.50221000	26.88238000
158.19999078	0.00000000	56.87746000	26.83932000
158.39999077	0.00000000	56.92052000	26.83932000
158.59999075	0.00000000	56.92052000	26.83932000
158.79999074	0.00000000	56.92052000	26.83932000
158.99999073	0.00000000	56.92052000	26.83932000
159.19999072	0.00000000	56.92052000	26.88238000
159.39999071	0.00000000	56.92052000	27.25763000
159.59999070	0.00000000	56.87746000	28.00197000
159.79999068	0.00000000	56.54527000	28.37721000
159.99999067	0.00000000	56.17618000	28.42027000
160.19999066	0.00000000	56.50221000	28.42027000
160.39999065	0.00000000	56.50221000	28.42027000
160.59999064	0.00000000	56.17618000	28.37721000
160.79999062	0.00000000	56.54527000	28.00197000
160.99999061	0.00000000	56.87746000	27.25763000
161.19999060	0.00000000	56.92052000	26.88238000
161.39999059	0.00000000	56.92052000	26.83932000
161.59999058	0.00000000	56.96358000	26.83932000
161.79999056	0.00000000	57.33883000	26.88238000
161.99999055	0.00000000	58.08316000	27.25763000
162.19999054	0.00000000	58.45841000	28.00197000
162.39999053	0.00000000	58.50147000	28.37721000
162.59999052	0.00000000	58.45841000	28.42027000
162.79999051	0.00000000	58.08316000	28.42027000
162.99999049	0.00000000	57.33883000	28.42027000
163.19999048	0.00000000	56.96358000	28.42027000
163.39999047	0.00000000	56.92052000	28.42027000
163.59999046	0.00000000	56.92052000	28.42027000
163.79999045	0.00000000	56.92052000	28.42027000
163.99999043	0.00000000	56.92052000	28.37721000
164.19999042	0.00000000	56.92052000	28.04503000
164.39999041	0.00000000	56.96358000	27.67593000
164.59999040	0.00000000	57.33883000	28.00197000
164.79999039	0.00000000	58.08316000	27.95275000
164.99999037	0.00000000	58.45841000	27.30684000
165.19999036	0.00000000	58.50147000	27.30684000
165.39999035	0.00000000	58.50147000	28.00197000
165.59999034	0.00000000	58.50147000	28.37721000
165.79999033	0.00000000	58.45841000	28.42027000
165.99999032	0.00000000	58.08316000	28.42027000
166.19999030	0.00000000	57.33883000	28.42027000
166.39999029	0.00000000	56.96358000	28.42027000
166.59999028	0.00000000	56.92052000	28.42027000
166.79999027	0.00000000	56.92052000	28.42027000
166.99999026	0.00000000	56.92052000	28.42027000
167.19999024	0.00000000	56.92052000	28.37721000
167.39999023	0.00000000	56.92052000	28.00197000
167.59999022	0.00000000	56.96358000	27.25763000
167.79999021	0.00000000	57.29576000	26.88238000
167.99999020	0.00000000	57.70792000	26.83932000
168.19999018	0.00000000	57.71407000	26.83932000
168.39999017	0.00000000	58.08316000	26.83932000
168.59999016	0.00000000	58.08316000	26.83932000
168.79999015	0.00000000	57.71407000	26.83932000
168.99999014	0.00000000	57.70792000	26.88238000
169.19999013	0.00000000	57.33883000	27.21457000
169.39999011	0.00000000	57.33883000	27.62672000
169.59999010	0.00000000	57.66486000	27.58981000
169.79999009	0.00000000	57.29576000	27.62672000
169.99999008	0.00000000	56.96358000	27.25763000
170.19999007	0.00000000	56.92052000	27.25763000
170.39999005	0.00000000	56.92052000	27.58366000
170.59999004	0.00000000	56.96358000	27.21457000
170.79999003	0.00000000	57.33883000	26.88238000
170.99999002	0.00000000	58.03395000	26.83932000
171.19999001	0.00000000	58.08316000	26.83932000
171.39998999	0.00000000	57.75713000	26.83932000
171.59998998	0.00000000	58.12622000	26.83932000
171.79998997	0.00000000	58.45841000	26.83932000
171.99998996	0.00000000	58.45841000	26.83932000
172.19998995	0.00000000	58.08316000	26.83932000
172.39998994	0.00000000	57.33883000	26.83932000
172.59998992	0.00000000	56.96358000	26.88238000
172.79998991	0.00000000	56.92052000	27.25763000
172.99998990	0.00000000	56.92052000	28.00197000
173.19998989	0.00000000	56.96358000	28.37721000
173.39998988	0.00000000	57.33883000	28.42027000
173.59998986	0.00000000	58.03395000	28.37721000
173.79998985	0.00000000	58.03395000	28.00197000
173.99998984	0.00000000	57.33883000	27.25763000
174.19998983	0.00000000	57.01279000	26.88238000
174.39998982	0.00000000	57.33883000	26.83932000
174.59998980	0.00000000	58.03395000	26.83932000
174.79998979	0.00000000	58.03395000	26.83932000
174.99998978	0.00000000	57.38804000	26.83932000
175.19998977	0.00000000	57.33883000	26.83932000
175.39998976	0.00000000	57.66486000	26.88238000
175.59998975	0.00000000	57.29576000	27.25763000
175.79998973	0.00000000	56.96358000	28.00197000
175.99998972	0.00000000	56.92052000	28.37721000
176.19998971	0.00000000	56.96358000	28.42027000
176.39998970	0.00000000	57.33883000	28.42027000
176.59998969	0.00000000	58.08316000	28.42027000
176.79998967	0.00000000	58.45841000	28.42027000
176.99998966	0.00000000	58.50147000	28.42027000
177.19998965	0.00000000	58.50147000	28.42027000
177.39998964	0.00000000	58.50147000	28.42027000
177.59998963	0.00000000	58.50147000	28.42027000
177.79998961	0.00000000	58.50147000	28.42027000
177.99998960	0.00000000	58.45841000	28.42027000
178.19998959	0.00000000	58.12622000	28.42027000
178.39998958	0.00000000	57.75713000	28.42027000
178.59998957	0.00000000	58.12622000	28.42027000
178.79998956	0.00000000	58.45841000	28.42027000
178.99998954	0.00000000	58.50147000	28.42027000
179.19998953	0.00000000	58.50147000	28.42027000
179.39998952	0.00000000	58.50147000	28.42027000
179.59998951	0.00000000	58.50147000	28.42027000
179.79998950	0.00000000	58.50147000	28.42027000
179.99998948	0.00000000	58.50147000	28.42027000
180.19998947	0.00000000	58.50147000	28.42027000
180.39998946	0.00000000	58.50147000	28.42027000
180.59998945	0.00000000	58.50147000	28.42027000
180.79998944	0.00000000	58.50147000	28.42027000
180.99998942	0.00000000	58.50147000	28.42027000
181.19998941	0.00000000	58.50147000	28.42027000
181.39998940	0.00000000	58.50147000	28.42027000
181.59998939	0.00000000	58.50147000	28.42027000
181.79998938	0.00000000	58.50147000	28.42027000
181.99998937	0.00000000	58.50147000	28.42027000
182.19998935	0.00000000	58.50147000	28.42027000
182.39998934	0.00000000	58.50147000	28.42027000
182.59998933	0.00000000	58.50147000	28.42027000
182.79998932	0.00000000	58.45841000	28.37721000
182.99998931	0.00000000	58.12622000	28.00197000
183.19998929	0.00000000	57.75713000	27.25763000
183.39998928	0.00000000	58.12622000	26.88238000
183.59998927	0.00000000	58.45841000	26.83932000
183.79998926	0.00000000	58.50147000	26.83932000
183.99998925	0.00000000	58.50147000	26.88238000
184.19998923	0.00000000	58.45841000	27.21457000
184.39998922	0.00000000	58.08316000	27.62672000
184.59998921	0.00000000	57.38804000	27.63287000
184.79998920	0.00000000	57.38804000	28.04503000
184.99998919	0.00000000	58.08316000	28.37721000
185.19998918	0.00000000	58.45841000	28.42027000
185.39998916	0.00000000	58.50147000	28.37721000
185.59998915	0.00000000	58.50147000	28.00197000
185.79998914	0.00000000	58.50147000	27.25763000
185.99998913	0.00000000	58.50147000	26.88238000
186.19998912	0.00000000	58.50147000	26.83932000
186.39998910	0.00000000	58.50147000	26.83932000
186.59998909	0.00000000	58.50147000	26.83932000
186.79998908	0.00000000	58.50147000	26.83932000
186.99998907	0.00000000	58.50147000	26.88238000
187.19998906	0.00000000	58.50147000	27.25763000
187.39998904	0.00000000	58.45841000	28.00197000
187.59998903	0.00000000	58.12622000	28.37721000
187.79998902	0.00000000	57.75713000	28.42027000
187.99998901	0.00000000	58.12622000	28.42027000
188.19998900	0.00000000	58.45841000	28.42027000
188.39998899	0.00000000	58.50147000	28.42027000
188.59998897	0.00000000	58.50147000	28.37721000
188.79998896	0.00000000	58.50147000	28.00197000
188.99998895	0.00000000	58.50147000	27.25763000
189.19998894	0.00000000	58.50147000	26.88238000
189.39998893	0.00000000	58.50147000	26.88238000
189.59998891	0.00000000	58.50147000	27.21457000
189.79998890	0.00000000	58.50147000	27.62672000
189.99998889	0.00000000	58.50147000	27.63287000
190.19998888	0.00000000	58.50147000	28.04503000
190.39998887	0.00000000	58.50147000	28.37721000
190.59998885	0.00000000	58.50147000	28.42027000
190.79998884	0.00000000	58.50147000	28.42027000
190.99998883	0.00000000	58.50147000	28.42027000
191.19998882	0.00000000	58.50147000	28.42027000
191.39998881	0.00000000	58.50147000	28.42027000
191.59998880	0.00000000	58.54454000	28.42027000
191.79998878	0.00000000	58.87672000	28.42027000
191.99998877	0.00000000	59.28888000	28.42027000
192.19998876	0.00000000	59.25196000	28.42027000
192.39998875	0.00000000	59.28888000	28.42027000
192.59998874	0.00000000	58.87672000	28.42027000
192.79998872	0.00000000	58.54454000	28.42027000
192.99998871	0.00000000	58.50147000	28.42027000
193.19998870	0.00000000	58.50147000	28.42027000
193.39998869	0.00000000	58.50147000	28.42027000
193.59998868	0.00000000	58.50147000	28.42027000
193.79998866	0.00000000	58.50147000	28.42027000
193.99998865	0.00000000	58.50147000	28.42027000
194.19998864	0.00000000	58.50147000	28.42027000
194.39998863	0.00000000	58.54454000	28.42027000
194.59998862	0.00000000	58.87672000	28.42027000
194.79998861	0.00000000	59.28888000	28.42027000
194.99998859	0.00000000	59.25196000	28.42027000
195.19998858	0.00000000	59.28888000	28.42027000
195.39998857	0.00000000	58.87672000	28.42027000
195.59998856	0.00000000	58.54454000	28.42027000
195.79998855	0.00000000	58.50147000	28.42027000
195.99998853	0.00000000	58.50147000	28.42027000
