Time	Channel A	Channel B	Channel C
(us)	(V)	(mV)	(mV)

-4.49999956	0.00000000	103.61710000	37.89370000
-4.29999957	0.00000000	103.98620000	37.89370000
-4.09999958	0.00000000	104.31840000	37.89370000
-3.89999959	0.00000000	104.36150000	37.89370000
-3.69999960	0.00000000	104.36150000	37.93676000
-3.49999962	0.00000000	104.36150000	38.31200000
-3.29999963	0.00000000	104.36150000	39.05635000
-3.09999964	0.00000000	104.36150000	39.43159000
-2.89999965	0.00000000	104.36150000	39.47465000
-2.69999966	0.00000000	104.36150000	39.47465000
-2.49999968	0.00000000	104.36150000	39.47465000
-2.29999969	0.00000000	104.36150000	39.47465000
-2.09999970	0.00000000	104.36150000	39.47465000
-1.89999971	0.00000000	104.36150000	39.47465000
-1.69999972	0.00000000	104.36150000	39.47465000
-1.49999973	0.00000000	104.36150000	39.47465000
-1.29999975	0.00000000	104.36150000	39.47465000
-1.09999976	0.00000000	104.36150000	39.47465000
-0.89999977	0.00000000	104.36150000	39.47465000
-0.69999978	0.00000000	104.36150000	39.47465000
-0.49999979	0.00000000	104.36150000	39.47465000
-0.29999981	0.31803640	104.36150000	39.47465000
-0.09999982	0.63668800	104.36150000	39.47465000
0.10000017	0.95533960	104.36150000	39.47465000
0.30000016	1.11466500	104.36150000	39.47465000
0.50000015	0.79601380	104.36150000	39.47465000
0.70000013	0.31803640	104.36150000	39.47465000
0.90000012	-0.47736220	104.36150000	39.47465000
1.10000011	-1.43331700	104.36150000	39.47465000
1.30000010	-2.38927200	104.36150000	39.47465000
1.50000009	-2.70792300	104.36150000	39.47465000
1.70000008	-2.54859700	104.36150000	39.47465000
1.90000006	-1.43331700	104.36150000	39.47465000
2.10000005	0.47736220	104.36150000	39.47465000
2.30000004	2.54859700	104.36150000	39.47465000
2.50000003	4.45989200	104.36150000	39.43159000
2.70000002	5.41584600	104.36150000	39.05635000
2.90000000	4.93786900	104.36150000	38.31200000
3.09999999	3.02657500	104.36150000	37.93676000
3.29999998	0.15871060	104.36150000	37.89370000
3.49999997	-3.34522600	104.36150000	37.89370000
3.69999996	-6.21247500	104.36150000	37.93676000
3.89999994	-7.80511800	104.36150000	38.31200000
4.09999993	-7.48646600	104.36150000	39.05635000
4.29999992	-5.09719500	104.36150000	39.43159000
4.49999991	-1.43331700	104.36150000	39.47465000
4.69999990	3.02657500	104.36150000	39.43159000
4.89999989	7.00848900	104.36150000	39.05635000
5.09999987	9.23905000	104.31840000	38.31200000
5.29999986	9.23905000	103.98620000	37.93676000
5.49999985	6.84916400	103.61710000	37.89370000
5.69999984	2.70792300	103.98620000	37.89370000
5.89999983	-2.07062000	104.26920000	37.89370000
6.09999981	-6.37180100	103.98620000	37.89370000
6.29999980	-8.92039900	103.61710000	37.89370000
6.49999979	-9.23905000	103.98620000	37.89370000
6.69999978	-7.32714100	104.31840000	37.93676000
6.89999977	-3.66326300	104.31840000	38.31200000
7.09999975	0.79601380	103.98620000	39.00713000
7.29999974	4.61921700	103.61710000	39.00713000
7.49999973	7.16781500	103.98620000	38.31200000
7.69999972	7.80511800	104.31840000	37.93676000
7.89999971	6.37180100	104.36150000	37.85064000
8.09999970	3.66326300	104.36150000	37.51845000
8.29999968	0.31803640	104.36150000	37.14936000
8.49999967	-2.70792300	104.36150000	37.51845000
8.69999966	-4.61921700	104.36150000	37.85064000
8.89999965	-5.09719500	104.36150000	37.89370000
9.09999964	-4.45989200	104.36150000	37.89370000
9.29999962	-2.70792300	104.36150000	37.89370000
9.49999961	-0.79601380	104.36150000	37.89370000
9.69999960	0.95533960	104.36150000	37.89370000
9.89999959	2.22994600	104.36150000	37.89370000
10.09999958	2.54859700	104.36150000	37.89370000
10.29999956	2.22994600	104.36150000	37.89370000
10.49999955	1.59264300	104.31840000	37.89370000
10.69999954	0.63668800	103.98620000	37.89370000
10.89999953	-0.15871060	103.61710000	37.89370000
11.09999952	-0.63668800	103.98620000	37.89370000
11.29999951	-0.95533960	104.31840000	37.93676000
11.49999949	-0.95533960	104.36150000	38.26894000
11.69999948	-0.79601380	104.36150000	38.63804000
11.89999947	-0.47736220	104.36150000	38.26894000
12.09999946	-0.15871060	104.36150000	37.98597000
12.29999945	-0.15871060	104.36150000	38.31200000
12.49999943	0.00000000	104.36150000	39.00713000
12.69999942	0.00000000	104.36150000	39.00713000
12.89999941	0.00000000	104.31840000	38.31200000
13.09999940	0.00000000	103.98620000	37.98597000
13.29999939	0.15871060	103.61710000	38.31200000
13.49999937	0.00000000	103.98620000	39.05635000
13.69999936	0.00000000	104.31840000	39.43159000
13.89999935	0.00000000	104.31840000	39.43159000
14.09999934	-0.15871060	103.98620000	39.09941000
14.29999933	-0.15871060	103.61710000	38.73031000
14.49999932	-0.15871060	103.98620000	39.09941000
14.69999930	0.00000000	104.31840000	39.43159000
14.89999929	0.00000000	104.36150000	39.43159000
15.09999928	0.00000000	104.36150000	39.09941000
15.29999927	0.00000000	104.31840000	38.73031000
15.49999926	0.00000000	103.98620000	39.09941000
15.69999924	0.00000000	103.61710000	39.38238000
15.89999923	0.00000000	103.94320000	39.09941000
16.09999922	0.00000000	103.94320000	38.73031000
16.29999921	0.00000000	103.61710000	39.09941000
16.49999920	-0.15871060	103.98620000	39.43159000
16.69999919	0.00000000	104.31840000	39.47465000
16.89999917	0.00000000	104.40450000	39.47465000
17.09999916	0.00000000	104.77980000	39.43159000
17.29999915	0.00000000	105.52410000	39.09941000
17.49999914	0.00000000	105.89940000	38.73031000
17.69999913	0.00000000	105.89940000	39.09941000
17.89999911	0.00000000	105.47490000	39.38238000
18.09999910	0.00000000	104.31840000	39.05635000
18.29999909	0.00000000	102.78050000	38.31200000
18.49999908	0.00000000	101.19960000	37.93676000
18.69999907	0.00000000	99.66166000	37.89370000
18.89999905	0.00000000	98.54208000	37.93676000
19.09999904	0.00000000	98.58513000	38.26894000
19.29999903	0.00000000	100.12300000	38.63804000
19.49999902	0.00000000	102.86660000	38.26894000
19.69999901	0.00000000	106.36070000	37.93676000
19.89999900	0.00000000	110.26700000	37.89370000
20.09999898	0.00000000	113.66880000	37.89370000
20.29999897	0.00000000	115.56960000	37.89370000
20.49999896	0.00000000	114.73920000	37.89370000
20.69999895	0.00000000	111.24510000	37.89370000
20.89999894	0.00000000	105.38880000	37.89370000
21.09999892	0.00000000	98.03149000	37.89370000
21.29999891	0.00000000	90.68036000	37.89370000
21.49999890	0.00000000	84.95940000	37.89370000
21.69999889	0.00000000	82.72637000	37.89370000
21.89999888	0.00000000	85.46382000	37.85064000
22.09999886	0.00000000	92.90723000	37.56152000
22.29999885	0.00000000	104.12770000	37.52460000
22.49999884	0.00000000	117.24290000	38.26279000
22.69999883	0.00000000	128.37100000	38.22588000
22.89999882	0.00000000	134.92860000	37.93676000
23.09999881	0.00000000	134.79330000	37.93676000
23.29999879	0.00000000	127.01770000	38.31200000
23.49999878	0.00000000	112.69070000	39.05635000
23.69999877	0.00000000	94.96185000	39.43159000
23.89999876	0.00000000	77.93430000	39.47465000
24.09999875	0.00000000	65.64345000	39.47465000
24.29999873	0.00000000	61.04207000	39.43159000
24.49999872	0.00000000	66.19709000	39.00713000
24.69999871	0.00000000	80.49335000	37.85064000
24.89999870	0.00000000	101.37790000	36.31274000
25.09999869	0.00000000	123.71430000	34.73794000
25.29999867	0.00000000	142.27980000	33.24926000
25.49999866	0.00000000	152.65750000	32.54798000
25.69999865	0.00000000	152.23920000	33.71063000
25.89999864	0.00000000	140.60650000	36.40502000
26.09999863	0.00000000	120.13410000	39.89296000
26.29999862	0.00000000	95.42323000	43.79306000
26.49999860	0.00000000	72.25639000	47.23179000
26.69999859	0.00000000	56.05930000	49.55708000
26.89999858	0.00000000	50.62130000	49.84006000
27.09999857	0.00000000	57.22195000	47.46555000
27.29999856	0.00000000	74.21259000	42.03371000
27.49999854	0.00000000	98.12376000	34.73794000
27.69999853	0.00000000	122.78540000	27.39296000
27.89999852	0.00000000	142.18750000	21.58587000
28.09999851	0.00000000	152.65750000	18.56545000
28.29999850	0.00000000	152.28220000	19.44513000
28.49999848	0.00000000	141.11710000	25.30143000
28.69999847	0.00000000	122.26870000	35.29158000
28.89999846	0.00000000	100.59050000	46.90575000
29.09999845	0.00000000	80.85629000	57.73252000
29.29999844	0.00000000	66.85531000	65.81570000
29.49999843	0.00000000	61.41117000	68.79305000
29.69999841	0.00000000	64.85605000	65.26205000
29.89999840	0.00000000	76.44561000	55.18577000
30.09999839	0.00000000	93.38090000	40.54502000
30.29999838	0.00000000	111.15280000	24.70472000
30.49999837	0.00000000	125.94730000	11.17741000
30.69999835	0.00000000	135.26080000	2.72514700
30.89999834	0.00000000	137.62300000	1.61171300
31.09999833	0.00000000	132.64640000	8.61835600
31.29999832	0.00000000	122.26870000	22.51476000
31.49999831	0.00000000	109.10430000	40.63730000
31.69999829	0.00000000	95.93381000	58.38459000
31.89999828	0.00000000	85.42076000	71.95497000
32.09999827	0.00000000	79.18922000	78.91855000
32.29999826	0.00000000	78.02657000	77.71899000
32.49999825	0.00000000	82.30192000	68.42396000
32.69999824	0.00000000	91.14788000	52.62057000
32.89999822	0.00000000	102.31300000	34.08588000
33.09999821	0.00000000	112.73990000	17.07062000
33.29999820	0.00000000	120.17720000	4.67519700
33.49999819	0.00000000	123.67120000	-0.34448820
33.69999818	0.00000000	122.92080000	2.72514700
33.89999816	0.00000000	117.90110000	13.13361000
34.09999815	0.00000000	110.21780000	28.59867000
34.29999814	0.00000000	101.71010000	45.61392000
34.49999813	0.00000000	94.40206000	61.07898000
34.69999812	0.00000000	90.12056000	71.44439000
34.89999810	0.00000000	89.70226000	74.23105000
35.09999809	0.00000000	92.77190000	69.21751000
35.29999808	0.00000000	98.54208000	58.05856000
35.49999807	0.00000000	105.43180000	42.96260000
35.69999806	0.00000000	111.20200000	27.57136000
35.89999805	0.00000000	114.32090000	15.21900000
36.09999803	0.00000000	114.36390000	9.07972400
36.29999802	0.00000000	111.71260000	10.52534000
36.49999801	0.00000000	107.43110000	18.56545000
36.69999800	0.00000000	102.40530000	30.46260000
36.89999799	0.00000000	97.42863000	43.19635000
37.09999797	0.00000000	94.39590000	53.60482000
37.29999796	0.00000000	94.35285000	59.36885000
37.49999795	0.00000000	97.00417000	58.99360000
37.69999794	0.00000000	101.24260000	52.53445000
37.89999793	0.00000000	105.89940000	42.58735000
38.09999791	0.00000000	110.13160000	32.22195000
38.29999790	0.00000000	112.82600000	24.13878000
38.49999789	0.00000000	113.20130000	20.70005000
38.69999788	0.00000000	111.33730000	22.60704000
38.89999787	0.00000000	107.85560000	29.48450000
39.09999786	0.00000000	103.94320000	39.00713000
39.29999784	0.00000000	99.66166000	47.84079000
39.49999783	0.00000000	95.84153000	53.60482000
39.69999782	0.00000000	93.93454000	54.71825000
39.89999781	0.00000000	94.21751000	50.48597000
40.09999780	0.00000000	96.16756000	42.07677000
40.29999778	0.00000000	98.91731000	32.12967000
40.49999777	0.00000000	102.82360000	23.67741000
40.69999776	0.00000000	107.05590000	19.06988000
40.89999775	0.00000000	110.54990000	19.44513000
41.09999774	0.00000000	112.87520000	24.83391000
41.29999772	0.00000000	113.25050000	33.66756000
41.49999771	0.00000000	111.71260000	43.65773000
41.69999770	0.00000000	108.63680000	52.10999000
41.89999769	0.00000000	104.77980000	56.71751000
42.09999768	0.00000000	101.28570000	56.38533000
42.29999767	0.00000000	98.49901000	51.37180000
42.49999765	0.00000000	96.58587000	43.32554000
42.69999764	0.00000000	95.79847000	34.12894000
42.89999763	0.00000000	96.58587000	26.79011000
43.09999762	0.00000000	98.49901000	22.88386000
43.29999761	0.00000000	101.19960000	22.47170000
43.49999759	0.00000000	103.89390000	25.95349000
43.69999758	0.00000000	105.85010000	32.04355000
43.89999757	0.00000000	107.05590000	39.00713000
44.09999756	0.00000000	107.48030000	45.14640000
44.29999755	0.00000000	107.52340000	49.04650000
44.49999753	0.00000000	107.52340000	49.84006000
44.69999752	0.00000000	107.52340000	48.01919000
44.89999751	0.00000000	107.52340000	44.54355000
45.09999750	0.00000000	107.43110000	40.68036000
45.29999749	0.00000000	106.68680000	36.78026000
45.49999748	0.00000000	105.06270000	33.71063000
45.69999746	0.00000000	103.10040000	32.17273000
45.89999745	0.00000000	99.94463000	32.50492000
46.09999744	0.00000000	96.58587000	34.40575000
46.29999743	0.00000000	94.21751000	36.68799000
46.49999742	0.00000000	93.46702000	39.05635000
46.69999740	0.00000000	94.30978000	41.00639000
46.89999739	0.00000000	97.51476000	42.54429000
47.09999738	0.00000000	103.29110000	43.32554000
47.29999737	0.00000000	110.21780000	42.91338000
47.49999736	0.00000000	116.36320000	41.75073000
47.69999734	0.00000000	120.22020000	39.42544000
47.89999733	0.00000000	120.55240000	36.78026000
48.09999732	0.00000000	117.05830000	34.82406000
48.29999731	0.00000000	110.08860000	33.62450000
48.49999730	0.00000000	101.24260000	33.29232000
48.69999729	0.00000000	92.72884000	34.08588000
48.89999727	0.00000000	86.58340000	36.40502000
49.09999726	0.00000000	84.25811000	39.47465000
49.29999725	0.00000000	86.62647000	42.54429000
49.49999724	0.00000000	93.14714000	44.86343000
49.69999723	0.00000000	102.44830000	45.61392000
49.89999721	0.00000000	112.03860000	44.82037000
50.09999720	0.00000000	119.75890000	42.11983000
50.29999719	0.00000000	123.25290000	38.26894000
50.49999718	0.00000000	122.13340000	34.40575000
50.69999717	0.00000000	117.05830000	30.93012000
50.89999715	0.00000000	108.59370000	29.06619000
51.09999714	0.00000000	99.00959000	29.43528000
51.29999713	0.00000000	91.28321000	32.12967000
51.49999712	0.00000000	87.04478000	36.31274000
51.69999711	0.00000000	87.42003000	40.58809000
51.89999710	0.00000000	92.39665000	44.07603000
52.09999708	0.00000000	100.03080000	46.43824000
52.29999707	0.00000000	108.12620000	47.14566000
52.49999706	0.00000000	114.32090000	45.97687000
52.69999705	0.00000000	117.43360000	42.49508000
52.89999704	0.00000000	117.01530000	37.93676000
53.09999702	0.00000000	112.78300000	33.71063000
53.29999701	0.00000000	105.94240000	30.97318000
53.49999700	0.00000000	99.00959000	30.17962000
53.69999699	0.00000000	93.97760000	30.93012000
53.89999698	0.00000000	91.65846000	33.24926000
54.09999696	0.00000000	92.81496000	36.31274000
54.29999695	0.00000000	97.00417000	39.38238000
54.49999694	0.00000000	102.73130000	41.65846000
54.69999693	0.00000000	108.13240000	42.07677000
54.89999692	0.00000000	111.62030000	40.96333000
55.09999691	0.00000000	112.78300000	39.05635000
55.29999689	0.00000000	111.24510000	36.82332000
55.49999688	0.00000000	107.43110000	35.66683000
55.69999687	0.00000000	102.82360000	36.02977000
55.89999686	0.00000000	98.58513000	37.14936000
56.09999685	0.00000000	95.89074000	39.09941000
56.29999683	0.00000000	95.51550000	40.92027000
56.49999682	0.00000000	97.37943000	41.70152000
56.69999681	0.00000000	100.86740000	40.92027000
56.89999680	0.00000000	104.69360000	38.96407000
57.09999679	0.00000000	108.17540000	35.89444000
57.29999677	0.00000000	110.08860000	32.50492000
57.49999676	0.00000000	110.13160000	30.59793000
57.69999675	0.00000000	108.59370000	30.55487000
57.89999674	0.00000000	105.89940000	32.17888000
58.09999673	0.00000000	102.86660000	35.70989000
58.29999672	0.00000000	100.49830000	41.05561000
58.49999670	0.00000000	99.37253000	46.39517000
58.69999669	0.00000000	99.33562000	49.84006000
58.89999668	0.00000000	100.91040000	50.62130000
59.09999667	0.00000000	103.11270000	48.25910000
59.29999666	0.00000000	105.10580000	43.28247000
59.49999664	0.00000000	106.22540000	36.68799000
59.69999663	0.00000000	106.68680000	30.17962000
59.89999662	0.00000000	106.27460000	25.20915000
60.09999661	0.00000000	105.52410000	23.67741000
60.29999660	0.00000000	104.31840000	25.99655000
60.49999658	0.00000000	102.87280000	31.39149000
60.69999657	0.00000000	102.08540000	39.09941000
60.89999656	0.00000000	102.44830000	46.77042000
61.09999655	0.00000000	103.19880000	52.57751000
61.29999654	0.00000000	104.40450000	55.22883000
61.49999653	0.00000000	105.89940000	53.69094000
61.69999651	0.00000000	107.01280000	48.30832000
61.89999650	0.00000000	107.01280000	40.63730000
62.09999649	0.00000000	105.89940000	32.50492000
62.29999648	0.00000000	104.31840000	25.95349000
62.49999647	0.00000000	102.40530000	22.09646000
62.69999645	0.00000000	100.49830000	22.09646000
62.89999644	0.00000000	99.74778000	25.95349000
63.09999643	0.00000000	100.08000000	32.50492000
63.29999642	0.00000000	101.28570000	40.58809000
63.49999641	0.00000000	103.24800000	47.88385000
63.69999639	0.00000000	105.89940000	52.57751000
63.89999638	0.00000000	108.17540000	54.10925000
64.09999637	0.00000000	108.96900000	52.15920000
64.29999636	0.00000000	108.63680000	46.81348000
64.49999635	0.00000000	107.43110000	39.93602000
64.69999634	0.00000000	105.47490000	33.66756000
64.89999632	0.00000000	102.78050000	28.59867000
65.09999631	0.00000000	100.16610000	25.16609000
65.29999630	0.00000000	98.96038000	24.79084000
65.49999629	0.00000000	99.32948000	27.39296000
65.69999628	0.00000000	100.45520000	31.61909000
65.89999626	0.00000000	102.44830000	36.31274000
66.09999625	0.00000000	104.69360000	40.96333000
66.29999624	0.00000000	106.59450000	44.86343000
66.49999623	0.00000000	106.96970000	47.18872000
66.69999622	0.00000000	105.89940000	48.01919000
66.89999620	0.00000000	104.36150000	47.23179000
67.09999619	0.00000000	102.82360000	45.32480000
67.29999618	0.00000000	101.66710000	42.54429000
67.49999617	0.00000000	101.29180000	39.05635000
67.69999616	0.00000000	101.71010000	35.19931000
67.89999615	0.00000000	103.24800000	32.08661000
68.09999613	0.00000000	105.47490000	30.08735000
68.29999612	0.00000000	107.05590000	28.93085000
68.49999611	0.00000000	107.85560000	28.97392000
68.69999610	0.00000000	108.13240000	30.51181000
68.89999609	0.00000000	106.50220000	33.24926000
69.09999607	0.00000000	102.78050000	36.78026000
69.29999606	0.00000000	98.96038000	41.05561000
69.49999605	0.00000000	96.58587000	45.28174000
69.69999604	0.00000000	95.42323000	48.30832000
69.89999603	0.00000000	95.89074000	49.08956000
70.09999601	0.00000000	98.58513000	47.18872000
70.29999600	0.00000000	102.78050000	43.70079000
70.49999599	0.00000000	107.10510000	39.00713000
70.69999598	0.00000000	110.96820000	33.62450000
70.89999597	0.00000000	113.98870000	29.01698000
71.09999596	0.00000000	114.32090000	26.32874000
71.29999594	0.00000000	111.66950000	26.32874000
71.49999593	0.00000000	107.01280000	28.97392000
71.69999592	0.00000000	101.24260000	33.20005000
71.89999591	0.00000000	95.84768000	37.85064000
72.09999590	0.00000000	92.35358000	42.11983000
72.29999588	0.00000000	91.19093000	45.18947000
72.49999587	0.00000000	92.72884000	46.35211000
72.69999586	0.00000000	96.58587000	45.23868000
72.89999585	0.00000000	101.61790000	42.58735000
73.09999584	0.00000000	107.05590000	39.51771000
73.29999582	0.00000000	111.66950000	36.82332000
73.49999581	0.00000000	114.36390000	35.29158000
73.69999580	0.00000000	114.40700000	35.24852000
73.89999579	0.00000000	112.13090000	36.31274000
74.09999578	0.00000000	108.63680000	37.47539000
74.29999577	0.00000000	104.36150000	38.26894000
74.49999575	0.00000000	100.12300000	39.00713000
74.69999574	0.00000000	97.04724000	38.96407000
74.89999573	0.00000000	95.84153000	37.85064000
75.09999572	0.00000000	96.58587000	36.31274000
75.29999571	0.00000000	98.54208000	34.82406000
75.49999569	0.00000000	101.61790000	34.12894000
75.69999568	0.00000000	105.01350000	35.29158000
75.89999567	0.00000000	107.01280000	37.98597000
76.09999566	0.00000000	107.85560000	41.43085000
76.29999565	0.00000000	108.21850000	44.86343000
76.49999563	0.00000000	107.43110000	46.77042000
76.69999562	0.00000000	105.94240000	46.77042000
76.89999561	0.00000000	104.45370000	44.77116000
77.09999560	0.00000000	103.61710000	40.54502000
77.29999559	0.00000000	103.61100000	35.20546000
77.49999558	0.00000000	103.57410000	30.55487000
77.69999556	0.00000000	103.98620000	27.44217000
77.89999555	0.00000000	104.26920000	26.32259000
78.09999554	0.00000000	103.89390000	27.90354000
78.29999553	0.00000000	102.78050000	32.08661000
78.49999552	0.00000000	101.66710000	37.51845000
78.69999550	0.00000000	101.24260000	42.96260000
78.89999549	0.00000000	101.24260000	47.97613000
79.09999548	0.00000000	101.71010000	50.99655000
79.29999547	0.00000000	103.24800000	51.03962000
79.49999546	0.00000000	105.52410000	48.35138000
79.69999544	0.00000000	107.43110000	43.74385000
79.89999543	0.00000000	108.63680000	38.31200000
80.09999542	0.00000000	108.96900000	33.29232000
80.29999541	0.00000000	108.17540000	29.39222000
80.49999540	0.00000000	105.89940000	27.48524000
80.69999539	0.00000000	103.19880000	27.81127000
80.89999537	0.00000000	100.86740000	30.13656000
81.09999536	0.00000000	98.91731000	33.62450000
81.29999535	0.00000000	98.20988000	37.89370000
81.49999534	0.00000000	98.96038000	42.11983000
81.69999533	0.00000000	101.24260000	45.28174000
81.89999531	0.00000000	103.94320000	47.23179000
82.09999530	0.00000000	106.27460000	47.97613000
82.29999529	0.00000000	108.21850000	46.81348000
82.49999528	0.00000000	108.92590000	44.16830000
82.69999527	0.00000000	108.21850000	41.00639000
82.89999525	0.00000000	106.31770000	37.47539000
83.09999524	0.00000000	104.40450000	33.62450000
83.29999523	0.00000000	102.82360000	30.51181000
83.49999522	0.00000000	101.66710000	28.55561000
83.69999521	0.00000000	101.24260000	27.81127000
83.89999520	0.00000000	101.24260000	29.01698000
84.09999518	0.00000000	101.61790000	32.08661000
84.29999517	0.00000000	102.36220000	36.31274000
84.49999516	0.00000000	102.73740000	40.58809000
84.69999515	0.00000000	102.78050000	44.11909000
84.89999514	0.00000000	102.82360000	46.81348000
85.09999512	0.00000000	103.19880000	47.92691000
85.29999511	0.00000000	103.94320000	46.72736000
85.49999510	0.00000000	104.36150000	43.28247000
85.69999509	0.00000000	104.77980000	38.26894000
85.89999508	0.00000000	105.52410000	33.24926000
86.09999506	0.00000000	105.85010000	28.97392000
86.29999505	0.00000000	105.47490000	26.32874000
86.49999504	0.00000000	104.31840000	26.32874000
86.69999503	0.00000000	102.78050000	28.97392000
86.89999502	0.00000000	101.24260000	33.20005000
87.09999501	0.00000000	100.08000000	37.89370000
87.29999499	0.00000000	99.65550000	42.53814000
87.49999498	0.00000000	99.65550000	46.35211000
87.69999497	0.00000000	100.12300000	47.88385000
87.89999496	0.00000000	101.66090000	46.77042000
88.09999495	0.00000000	103.94320000	43.70079000
88.29999493	0.00000000	105.85010000	39.43159000
88.49999492	0.00000000	107.05590000	34.78100000
88.69999491	0.00000000	107.43110000	30.59793000
88.89999490	0.00000000	107.01280000	28.32185000
89.09999489	0.00000000	105.47490000	29.06004000
89.29999487	0.00000000	103.19880000	32.08661000
89.49999486	0.00000000	101.28570000	36.36196000
89.69999485	0.00000000	100.12300000	41.00639000
89.89999484	0.00000000	100.08000000	45.19562000
90.09999483	0.00000000	100.82430000	47.46555000
90.29999482	0.00000000	101.66710000	46.72736000
90.49999480	0.00000000	103.19880000	43.70079000
90.69999479	0.00000000	105.05660000	39.47465000
90.89999478	0.00000000	105.85010000	35.19931000
91.09999477	0.00000000	105.89940000	31.75443000
91.29999476	0.00000000	105.52410000	29.85974000
91.49999474	0.00000000	104.77980000	30.64099000
91.69999473	0.00000000	104.40450000	33.71063000
91.89999472	0.00000000	104.36150000	38.31200000
92.09999471	0.00000000	104.36150000	43.28247000
92.29999470	0.00000000	104.36150000	46.72736000
92.49999468	0.00000000	104.36150000	47.88385000
92.69999467	0.00000000	104.31840000	46.35211000
92.89999466	0.00000000	103.94320000	42.53814000
93.09999465	0.00000000	103.15570000	37.93676000
93.29999464	0.00000000	102.40530000	33.66756000
93.49999463	0.00000000	101.61790000	30.64099000
93.69999461	0.00000000	101.29180000	29.85974000
93.89999460	0.00000000	101.66710000	31.75443000
94.09999459	0.00000000	102.87280000	35.19931000
94.29999458	0.00000000	104.73670000	39.47465000
94.49999457	0.00000000	106.68680000	43.61467000
94.69999455	0.00000000	107.85560000	45.93381000
94.89999454	0.00000000	108.63680000	45.56471000
95.09999453	0.00000000	108.59370000	43.28247000
95.29999452	0.00000000	107.38800000	39.43159000
95.49999451	0.00000000	105.05660000	35.24852000
95.69999449	0.00000000	101.61790000	32.12967000
95.89999448	0.00000000	98.54208000	30.59793000
96.09999447	0.00000000	96.58587000	31.01624000
96.29999446	0.00000000	95.84153000	33.66756000
96.49999445	0.00000000	97.00417000	37.43233000
96.69999444	0.00000000	99.70472000	40.54502000
96.89999442	0.00000000	103.19880000	42.49508000
97.09999441	0.00000000	107.05590000	43.28247000
97.29999440	0.00000000	110.13160000	42.49508000
97.49999439	0.00000000	111.71260000	40.58809000
97.69999438	0.00000000	111.66950000	37.89370000
97.89999436	0.00000000	109.75640000	35.24852000
98.09999435	0.00000000	106.27460000	33.71063000
98.29999434	0.00000000	102.40530000	33.62450000
98.49999433	0.00000000	98.54208000	34.40575000
98.69999432	0.00000000	95.84153000	35.53149000
98.89999430	0.00000000	95.04797000	37.10014000
99.09999429	0.00000000	95.79847000	38.22588000
99.29999428	0.00000000	98.12376000	39.00713000
99.49999427	0.00000000	101.24260000	39.00713000
99.69999426	0.00000000	104.73670000	38.31200000
99.89999425	0.00000000	108.21850000	37.98597000
100.09999423	0.00000000	110.50690000	38.31200000
100.29999422	0.00000000	111.33730000	39.05635000
100.49999421	0.00000000	110.54990000	39.43159000
100.69999420	0.00000000	108.63680000	39.47465000
100.89999419	0.00000000	105.89940000	39.43159000
101.09999417	0.00000000	102.78050000	39.00713000
101.29999416	0.00000000	99.70472000	37.85064000
101.49999415	0.00000000	97.37943000	36.31274000
101.69999414	0.00000000	96.62893000	34.78100000
101.89999413	0.00000000	97.33636000	33.66756000
102.09999411	0.00000000	99.28641000	33.66756000
102.29999410	0.00000000	101.57480000	34.82406000
102.49999409	0.00000000	103.94320000	36.78026000
102.69999408	0.00000000	105.89940000	39.47465000
102.89999407	0.00000000	107.43110000	42.11983000
103.09999406	0.00000000	108.21850000	43.65773000
103.29999404	0.00000000	107.80630000	43.65773000
103.49999403	0.00000000	106.63750000	42.11983000
103.69999402	0.00000000	104.36150000	39.42544000
103.89999401	0.00000000	102.08540000	36.36196000
104.09999400	0.00000000	100.86740000	33.66756000
104.29999398	0.00000000	100.03080000	32.12967000
104.49999397	0.00000000	99.70472000	32.08661000
104.69999396	0.00000000	100.08000000	33.24926000
104.89999395	0.00000000	101.28570000	35.19931000
105.09999394	0.00000000	103.15570000	37.89370000
105.29999392	0.00000000	105.05660000	40.54502000
105.49999391	0.00000000	105.85010000	42.11983000
105.69999390	0.00000000	105.89940000	42.53814000
105.89999389	0.00000000	105.47490000	42.11983000
106.09999388	0.00000000	104.36150000	40.58809000
106.29999387	0.00000000	103.19880000	38.31200000
106.49999385	0.00000000	102.44830000	36.40502000
106.69999384	0.00000000	102.03620000	35.19931000
106.89999383	0.00000000	102.44830000	34.87328000
107.09999382	0.00000000	103.19880000	35.61762000
107.29999381	0.00000000	104.36150000	37.51845000
107.49999379	0.00000000	105.47490000	39.43159000
107.69999378	0.00000000	105.89940000	40.96333000
107.89999377	0.00000000	105.89940000	41.70152000
108.09999376	0.00000000	105.47490000	40.96333000
108.29999375	0.00000000	104.31840000	39.47465000
108.49999374	0.00000000	102.82360000	37.89370000
108.69999372	0.00000000	101.66710000	36.36196000
108.89999371	0.00000000	101.24260000	35.24852000
109.09999370	0.00000000	101.24260000	35.19931000
109.29999369	0.00000000	101.66710000	35.98671000
109.49999368	0.00000000	102.82360000	37.14936000
109.69999366	0.00000000	104.31840000	39.05635000
109.89999365	0.00000000	105.47490000	40.58809000
110.09999364	0.00000000	105.89940000	41.38164000
110.29999363	0.00000000	105.89940000	41.75073000
110.49999362	0.00000000	105.47490000	40.96333000
110.69999360	0.00000000	104.31840000	39.43159000
110.89999359	0.00000000	102.82360000	37.51845000
111.09999358	0.00000000	101.66710000	35.61762000
111.29999357	0.00000000	101.24260000	34.83022000
111.49999356	0.00000000	101.24260000	34.73794000
111.69999355	0.00000000	101.66710000	34.78100000
111.89999353	0.00000000	102.78050000	35.19931000
112.09999352	0.00000000	103.89390000	36.36196000
112.29999351	0.00000000	104.31840000	37.85064000
112.49999350	0.00000000	104.36150000	39.00713000
112.69999349	0.00000000	104.36150000	39.43159000
112.89999347	0.00000000	104.36150000	39.47465000
113.09999346	0.00000000	104.31840000	39.43159000
113.29999345	0.00000000	103.94320000	39.05635000
113.49999344	0.00000000	103.19880000	38.26894000
113.69999343	0.00000000	102.82360000	37.51845000
113.89999341	0.00000000	102.78050000	36.73105000
114.09999340	0.00000000	102.78050000	36.35580000
114.29999339	0.00000000	102.78050000	36.31274000
114.49999338	0.00000000	102.82360000	36.31274000
114.69999337	0.00000000	103.19880000	36.31274000
114.89999336	0.00000000	103.94320000	36.31274000
115.09999334	0.00000000	104.31840000	36.31274000
115.29999333	0.00000000	104.36150000	36.31274000
115.49999332	0.00000000	104.31840000	36.31274000
115.69999331	0.00000000	103.94320000	36.35580000
115.89999330	0.00000000	103.19880000	36.78026000
116.09999328	0.00000000	102.82360000	37.89370000
116.29999327	0.00000000	102.78050000	39.00713000
116.49999326	0.00000000	102.78050000	39.43159000
116.69999325	0.00000000	102.78050000	39.43159000
116.89999324	0.00000000	102.78050000	39.05635000
117.09999322	0.00000000	102.82360000	38.31200000
117.29999321	0.00000000	103.19880000	37.89370000
117.49999320	0.00000000	103.98620000	37.47539000
117.69999319	0.00000000	104.73670000	36.73105000
117.89999318	0.00000000	105.52410000	36.35580000
118.09999317	0.00000000	105.85010000	36.31274000
118.29999315	0.00000000	105.52410000	36.35580000
118.49999314	0.00000000	104.73670000	36.73105000
118.69999313	0.00000000	103.94320000	37.47539000
118.89999312	0.00000000	102.78050000	37.89370000
119.09999311	0.00000000	101.61790000	38.31200000
119.29999309	0.00000000	100.86740000	39.05635000
119.49999308	0.00000000	100.45520000	39.43159000
119.69999307	0.00000000	100.86740000	39.47465000
119.89999306	0.00000000	101.61790000	39.47465000
120.09999305	0.00000000	102.82360000	39.43159000
120.29999303	0.00000000	104.31840000	39.05635000
120.49999302	0.00000000	105.52410000	38.31200000
120.69999301	0.00000000	106.27460000	37.89370000
120.89999300	0.00000000	106.63750000	37.47539000
121.09999299	0.00000000	105.89940000	36.73105000
121.29999298	0.00000000	104.77980000	36.40502000
121.49999296	0.00000000	103.94320000	36.73105000
121.69999295	0.00000000	102.78050000	37.47539000
121.89999294	0.00000000	101.66710000	37.89370000
122.09999293	0.00000000	101.24260000	38.31200000
122.29999292	0.00000000	101.19960000	39.05635000
122.49999290	0.00000000	101.24260000	39.43159000
122.69999289	0.00000000	101.66710000	39.47465000
122.89999288	0.00000000	102.78050000	39.47465000
123.09999287	0.00000000	103.94320000	39.47465000
123.29999286	0.00000000	104.73670000	39.43159000
123.49999284	0.00000000	105.52410000	39.05635000
123.69999283	0.00000000	105.89940000	38.26894000
123.89999282	0.00000000	105.89940000	37.51845000
124.09999281	0.00000000	105.52410000	36.73105000
124.29999280	0.00000000	104.73670000	36.35580000
124.49999279	0.00000000	103.98620000	36.31274000
124.69999277	0.00000000	103.15570000	36.35580000
124.89999276	0.00000000	102.40530000	36.73105000
125.09999275	0.00000000	101.61790000	37.47539000
125.29999274	0.00000000	101.24260000	37.89370000
125.49999273	0.00000000	101.24260000	38.31200000
125.69999271	0.00000000	101.66710000	39.05635000
125.89999270	0.00000000	102.78050000	39.43159000
126.09999269	0.00000000	103.94320000	39.47465000
126.29999268	0.00000000	104.73670000	39.43159000
126.49999267	0.00000000	105.52410000	39.05635000
126.69999265	0.00000000	105.89940000	38.31200000
126.89999264	0.00000000	105.89940000	37.93676000
127.09999263	0.00000000	105.47490000	37.85064000
127.29999262	0.00000000	104.31840000	37.47539000
127.49999261	0.00000000	102.82360000	36.78026000
127.69999260	0.00000000	101.66710000	36.78026000
127.89999258	0.00000000	101.29180000	37.47539000
128.09999257	0.00000000	101.61790000	37.85064000
128.29999256	0.00000000	102.40530000	37.93676000
128.49999255	0.00000000	103.15570000	38.31200000
128.69999254	0.00000000	103.98620000	39.00713000
128.89999252	0.00000000	104.73670000	39.00713000
129.09999251	0.00000000	105.52410000	38.31200000
129.29999250	0.00000000	105.85010000	37.93676000
129.49999249	0.00000000	105.52410000	37.89370000
129.69999248	0.00000000	104.73670000	37.89370000
129.89999246	0.00000000	103.94320000	37.85064000
130.09999245	0.00000000	102.78050000	37.47539000
130.29999244	0.00000000	101.66710000	36.78026000
130.49999243	0.00000000	101.29180000	36.78026000
130.69999242	0.00000000	101.61790000	37.47539000
130.89999241	0.00000000	102.40530000	37.85064000
131.09999239	0.00000000	103.15570000	37.89370000
131.29999238	0.00000000	103.98620000	37.89370000
131.49999237	0.00000000	104.69360000	37.85064000
131.69999236	0.00000000	105.10580000	37.47539000
131.89999235	0.00000000	104.73670000	36.73105000
132.09999233	0.00000000	104.36150000	36.31274000
132.29999232	0.00000000	103.89390000	35.93750000
132.49999231	0.00000000	102.78050000	35.57455000
132.69999230	0.00000000	101.71010000	35.93750000
132.89999229	0.00000000	101.66710000	36.31274000
133.09999227	0.00000000	102.36220000	36.78026000
133.29999226	0.00000000	102.73740000	37.89370000
133.49999225	0.00000000	102.78050000	39.00713000
133.69999224	0.00000000	102.78050000	39.43159000
133.89999223	0.00000000	102.78050000	39.43159000
134.09999222	0.00000000	102.78050000	39.05635000
134.29999220	0.00000000	102.78050000	38.26894000
134.49999219	0.00000000	102.78050000	37.51845000
134.69999218	0.00000000	102.78050000	36.68799000
134.89999217	0.00000000	102.82360000	35.93750000
135.09999216	0.00000000	103.19880000	35.19931000
135.29999214	0.00000000	103.94320000	35.19931000
135.49999213	0.00000000	104.31840000	35.93750000
135.69999212	0.00000000	104.31840000	36.68799000
135.89999211	0.00000000	103.94320000	37.51845000
136.09999210	0.00000000	103.19880000	38.26894000
136.29999208	0.00000000	102.78050000	39.05635000
136.49999207	0.00000000	102.36220000	39.43159000
136.69999206	0.00000000	101.61790000	39.47465000
136.89999205	0.00000000	101.29180000	39.43159000
137.09999204	0.00000000	101.61790000	39.05635000
137.29999203	0.00000000	102.40530000	38.31200000
137.49999201	0.00000000	103.15570000	37.89370000
137.69999200	0.00000000	103.94320000	37.47539000
137.89999199	0.00000000	104.31840000	36.73105000
138.09999198	0.00000000	104.36150000	36.35580000
138.29999197	0.00000000	104.31840000	36.35580000
138.49999195	0.00000000	103.94320000	36.73105000
138.69999194	0.00000000	103.19880000	37.47539000
138.89999193	0.00000000	102.82360000	37.89370000
139.09999192	0.00000000	102.78050000	38.31200000
139.29999191	0.00000000	102.78050000	39.05635000
139.49999189	0.00000000	102.78050000	39.43159000
139.69999188	0.00000000	102.82360000	39.47465000
139.89999187	0.00000000	103.19880000	39.47465000
140.09999186	0.00000000	103.94320000	39.43159000
140.29999185	0.00000000	104.31840000	39.00713000
140.49999184	0.00000000	104.36150000	37.89370000
140.69999182	0.00000000	104.36150000	36.78026000
140.89999181	0.00000000	104.31840000	36.35580000
141.09999180	0.00000000	103.94320000	36.31274000
141.29999179	0.00000000	103.24800000	36.35580000
141.49999178	0.00000000	103.19880000	36.73105000
141.69999176	0.00000000	103.52480000	37.51845000
141.89999175	0.00000000	103.19880000	38.26894000
142.09999174	0.00000000	103.24800000	39.05635000
142.29999173	0.00000000	103.94320000	39.43159000
142.49999172	0.00000000	104.31840000	39.47465000
142.69999170	0.00000000	104.36150000	39.43159000
142.89999169	0.00000000	104.36150000	39.05635000
143.09999168	0.00000000	104.31840000	38.22588000
143.29999167	0.00000000	103.94320000	37.14321000
143.49999166	0.00000000	103.19880000	35.94980000
143.69999165	0.00000000	102.82360000	35.61146000
143.89999163	0.00000000	102.78050000	35.53149000
144.09999162	0.00000000	102.78050000	35.93750000
144.29999161	0.00000000	102.82360000	36.31274000
144.49999160	0.00000000	103.19880000	36.73105000
144.69999159	0.00000000	103.94320000	37.51845000
144.89999157	0.00000000	104.31840000	38.26894000
145.09999156	0.00000000	104.31840000	39.00713000
145.29999155	0.00000000	103.94320000	38.96407000
145.49999154	0.00000000	103.19880000	37.93676000
145.69999153	0.00000000	102.82360000	37.14936000
145.89999151	0.00000000	102.78050000	37.10014000
146.09999150	0.00000000	102.78050000	36.68799000
146.29999149	0.00000000	102.78050000	36.35580000
146.49999148	0.00000000	102.78050000	36.31274000
146.69999147	0.00000000	102.78050000	36.31274000
146.89999146	0.00000000	102.82360000	36.35580000
147.09999144	0.00000000	103.19880000	36.73105000
147.29999143	0.00000000	103.94320000	37.47539000
147.49999142	0.00000000	104.26920000	37.85064000
147.69999141	0.00000000	103.94320000	37.89370000
147.89999140	0.00000000	103.19880000	37.89370000
148.09999138	0.00000000	102.82360000	37.89370000
148.29999137	0.00000000	102.73740000	37.89370000
148.49999136	0.00000000	102.40530000	37.89370000
148.69999135	0.00000000	102.03620000	37.85064000
148.89999134	0.00000000	102.40530000	37.47539000
149.09999132	0.00000000	102.73740000	36.73105000
149.29999131	0.00000000	102.82360000	36.35580000
149.49999130	0.00000000	103.19880000	36.31274000
149.69999129	0.00000000	103.94320000	36.35580000
149.89999128	0.00000000	104.31840000	36.73105000
150.09999127	0.00000000	104.36150000	37.47539000
150.29999125	0.00000000	104.31840000	37.85064000
150.49999124	0.00000000	103.94320000	37.93676000
150.69999123	0.00000000	103.19880000	38.26894000
150.89999122	0.00000000	102.82360000	38.63804000
151.09999121	0.00000000	102.78050000	38.26894000
151.29999119	0.00000000	102.78050000	37.93676000
151.49999118	0.00000000	102.78050000	37.89370000
151.69999117	0.00000000	102.78050000	37.89370000
151.89999116	0.00000000	102.78050000	37.89370000
152.09999115	0.00000000	102.82360000	37.89370000
152.29999113	0.00000000	103.19880000	37.89370000
152.49999112	0.00000000	103.94320000	37.89370000
152.69999111	0.00000000	104.31840000	37.89370000
152.89999110	0.00000000	104.36150000	37.89370000
153.09999109	0.00000000	104.36150000	37.89370000
153.29999108	0.00000000	104.36150000	37.89370000
153.49999106	0.00000000	104.31840000	37.89370000
153.69999105	0.00000000	103.94320000	37.89370000
153.89999104	0.00000000	103.19880000	37.93676000
154.09999103	0.00000000	102.78050000	38.26894000
154.29999102	0.00000000	102.40530000	38.63804000
154.49999100	0.00000000	102.03620000	38.26894000
154.69999099	0.00000000	102.40530000	37.93676000
154.89999098	0.00000000	102.78050000	37.89370000
155.09999097	0.00000000	103.19880000	37.89370000
155.29999096	0.00000000	103.94320000	37.89370000
155.49999094	0.00000000	104.31840000	37.89370000
155.69999093	0.00000000	104.36150000	37.89370000
155.89999092	0.00000000	104.36150000	37.89370000
156.09999091	0.00000000	104.36150000	37.89370000
156.29999090	0.00000000	104.31840000	37.89370000
156.49999089	0.00000000	103.94320000	37.89370000
156.69999087	0.00000000	103.19880000	37.89370000
156.89999086	0.00000000	102.82360000	37.89370000
157.09999085	0.00000000	102.73740000	37.89370000
157.29999084	0.00000000	102.40530000	37.89370000
157.49999083	0.00000000	102.03620000	37.89370000
157.69999081	0.00000000	102.40530000	37.89370000
157.89999080	0.00000000	102.73740000	37.85064000
158.09999079	0.00000000	102.82360000	37.47539000
158.29999078	0.00000000	103.19880000	36.73105000
158.49999077	0.00000000	103.94320000	36.35580000
158.69999075	0.00000000	104.31840000	36.31274000
158.89999074	0.00000000	104.36150000	36.31274000
159.09999073	0.00000000	104.31840000	36.35580000
159.29999072	0.00000000	103.94320000	36.73105000
159.49999071	0.00000000	103.19880000	37.47539000
159.69999070	0.00000000	102.82360000	37.85064000
159.89999068	0.00000000	102.78050000	37.89370000
160.09999067	0.00000000	102.78050000	37.89370000
160.29999066	0.00000000	102.78050000	37.89370000
160.49999065	0.00000000	102.78050000	37.89370000
160.69999064	0.00000000	102.78050000	37.85064000
160.89999062	0.00000000	102.78050000	37.47539000
161.09999061	0.00000000	102.78050000	36.73105000
161.29999060	0.00000000	102.78050000	36.35580000
161.49999059	0.00000000	102.78050000	36.31274000
161.69999058	0.00000000	102.78050000	36.31274000
161.89999056	0.00000000	102.82360000	36.31274000
162.09999055	0.00000000	103.15570000	36.35580000
162.29999054	0.00000000	103.52480000	36.73105000
162.49999053	0.00000000	103.15570000	37.47539000
162.69999052	0.00000000	102.82360000	37.85064000
162.89999051	0.00000000	102.78050000	37.89370000
163.09999049	0.00000000	102.78050000	37.89370000
163.29999048	0.00000000	102.78050000	37.89370000
163.49999047	0.00000000	102.78050000	37.89370000
163.69999046	0.00000000	102.78050000	37.85064000
163.89999045	0.00000000	102.78050000	37.47539000
164.09999043	0.00000000	102.78050000	36.73105000
164.29999042	0.00000000	102.78050000	36.35580000
164.49999041	0.00000000	102.78050000	36.31274000
164.69999040	0.00000000	102.82360000	36.35580000
164.89999039	0.00000000	103.19880000	36.73105000
165.09999037	0.00000000	103.94320000	37.47539000
165.29999036	0.00000000	104.31840000	37.85064000
165.49999035	0.00000000	104.36150000	37.89370000
165.69999034	0.00000000	104.31840000	37.89370000
165.89999033	0.00000000	103.94320000	37.89370000
166.09999032	0.00000000	103.19880000	37.89370000
166.29999030	0.00000000	102.82360000	37.89370000
166.49999029	0.00000000	102.78050000	37.89370000
166.69999028	0.00000000	102.78050000	37.89370000
166.89999027	0.00000000	102.78050000	37.89370000
167.09999026	0.00000000	102.78050000	37.89370000
167.29999024	0.00000000	102.78050000	37.89370000
167.49999023	0.00000000	102.78050000	37.89370000
167.69999022	0.00000000	102.82360000	37.89370000
167.89999021	0.00000000	103.19880000	37.89370000
168.09999020	0.00000000	103.94320000	37.89370000
168.29999018	0.00000000	104.31840000	37.89370000
168.49999017	0.00000000	104.36150000	37.89370000
168.69999016	0.00000000	104.36150000	37.89370000
168.89999015	0.00000000	104.31840000	37.89370000
169.09999014	0.00000000	103.94320000	37.89370000
169.29999013	0.00000000	103.19880000	37.89370000
169.49999011	0.00000000	102.82360000	37.89370000
169.69999010	0.00000000	102.78050000	37.89370000
169.89999009	0.00000000	102.78050000	37.89370000
170.09999008	0.00000000	102.78050000	37.89370000
170.29999007	0.00000000	102.78050000	37.89370000
170.49999005	0.00000000	102.78050000	37.89370000
170.69999004	0.00000000	102.82360000	37.89370000
170.89999003	0.00000000	103.19880000	37.89370000
171.09999002	0.00000000	103.94320000	37.89370000
171.29999001	0.00000000	104.31840000	37.89370000
171.49998999	0.00000000	104.31840000	37.89370000
171.69998998	0.00000000	103.98620000	37.89370000
171.89998997	0.00000000	103.61710000	37.89370000
172.09998996	0.00000000	103.94320000	37.89370000
172.29998995	0.00000000	103.89390000	37.89370000
172.49998994	0.00000000	103.19880000	37.89370000
172.69998992	0.00000000	102.82360000	37.89370000
172.89998991	0.00000000	102.78050000	37.89370000
173.09998990	0.00000000	102.78050000	37.89370000
173.29998989	0.00000000	102.78050000	37.85064000
173.49998988	0.00000000	102.78050000	37.42618000
173.69998986	0.00000000	102.78050000	36.40502000
173.89998985	0.00000000	102.78050000	35.99286000
174.09998984	0.00000000	102.82360000	36.68184000
174.29998983	0.00000000	103.15570000	36.64493000
174.49998982	0.00000000	103.52480000	36.35580000
174.69998980	0.00000000	103.15570000	36.31274000
174.89998979	0.00000000	102.82360000	36.31274000
175.09998978	0.00000000	102.78050000	36.31274000
175.29998977	0.00000000	102.78050000	36.31274000
175.49998976	0.00000000	102.78050000	36.31274000
175.69998975	0.00000000	102.78050000	36.31274000
175.89998973	0.00000000	102.78050000	36.35580000
176.09998972	0.00000000	102.78050000	36.73105000
176.29998971	0.00000000	102.78050000	37.42618000
176.49998970	0.00000000	102.78050000	37.47539000
176.69998969	0.00000000	102.78050000	37.10630000
176.89998967	0.00000000	102.78050000	37.14321000
177.09998966	0.00000000	102.78050000	37.10630000
177.29998965	0.00000000	102.78050000	37.47539000
177.49998964	0.00000000	102.78050000	37.42618000
177.69998963	0.00000000	102.78050000	36.73105000
177.89998961	0.00000000	102.78050000	36.35580000
178.09998960	0.00000000	102.78050000	36.35580000
178.29998959	0.00000000	102.78050000	36.73105000
178.49998958	0.00000000	102.78050000	37.47539000
178.69998957	0.00000000	102.78050000	37.85064000
178.89998956	0.00000000	102.78050000	37.89370000
179.09998954	0.00000000	102.78050000	37.89370000
179.29998953	0.00000000	102.78050000	37.89370000
179.49998952	0.00000000	102.78050000	37.89370000
179.69998951	0.00000000	102.78050000	37.89370000
179.89998950	0.00000000	102.78050000	37.89370000
180.09998948	0.00000000	102.78050000	37.89370000
180.29998947	0.00000000	102.78050000	37.85064000
180.49998946	0.00000000	102.78050000	37.51845000
180.69998945	0.00000000	102.78050000	37.14936000
180.89998944	0.00000000	102.78050000	37.51845000
181.09998942	0.00000000	102.78050000	37.85064000
181.29998941	0.00000000	102.78050000	37.89370000
181.49998940	0.00000000	102.78050000	37.89370000
181.69998939	0.00000000	102.78050000	37.89370000
181.89998938	0.00000000	102.78050000	37.89370000
182.09998937	0.00000000	102.82360000	37.89370000
182.29998935	0.00000000	103.15570000	37.89370000
182.49998934	0.00000000	103.52480000	37.89370000
182.69998933	0.00000000	103.19880000	37.89370000
182.89998932	0.00000000	103.19880000	37.89370000
183.09998931	0.00000000	103.52480000	37.85064000
183.29998929	0.00000000	103.15570000	37.47539000
183.49998928	0.00000000	102.82360000	36.73105000
183.69998927	0.00000000	102.78050000	36.35580000
183.89998926	0.00000000	102.78050000	36.35580000
184.09998925	0.00000000	102.78050000	36.73105000
184.29998923	0.00000000	102.78050000	37.47539000
184.49998922	0.00000000	102.78050000	37.85064000
184.69998921	0.00000000	102.78050000	37.93676000
184.89998920	0.00000000	102.78050000	38.26894000
185.09998919	0.00000000	102.78050000	38.63804000
185.29998918	0.00000000	102.82360000	38.26894000
185.49998916	0.00000000	103.15570000	37.93676000
185.69998915	0.00000000	103.52480000	37.85064000
185.89998914	0.00000000	103.15570000	37.47539000
186.09998913	0.00000000	102.82360000	36.73105000
186.29998912	0.00000000	102.78050000	36.35580000
186.49998910	0.00000000	102.78050000	36.31274000
186.69998909	0.00000000	102.78050000	36.35580000
186.89998908	0.00000000	102.78050000	36.73105000
187.09998907	0.00000000	102.78050000	37.47539000
187.29998906	0.00000000	102.78050000	37.85064000
187.49998904	0.00000000	102.78050000	37.89370000
187.69998903	0.00000000	102.78050000	37.89370000
187.89998902	0.00000000	102.78050000	37.89370000
188.09998901	0.00000000	102.78050000	37.89370000
188.29998900	0.00000000	102.78050000	37.85064000
188.49998899	0.00000000	102.78050000	37.47539000
188.69998897	0.00000000	102.78050000	36.68799000
188.89998896	0.00000000	102.78050000	36.02977000
189.09998895	0.00000000	102.78050000	35.94980000
189.29998894	0.00000000	102.78050000	36.68184000
189.49998893	0.00000000	102.78050000	36.64493000
189.69998891	0.00000000	102.78050000	36.35580000
189.89998890	0.00000000	102.78050000	36.35580000
190.09998889	0.00000000	102.78050000	36.73105000
190.29998888	0.00000000	102.73740000	37.42618000
190.49998887	0.00000000	102.40530000	37.47539000
190.69998885	0.00000000	102.03620000	37.14936000
190.89998884	0.00000000	102.40530000	37.51845000
191.09998883	0.00000000	102.73740000	37.85064000
191.29998882	0.00000000	102.78050000	37.89370000
191.49998881	0.00000000	102.78050000	37.85064000
191.69998880	0.00000000	102.78050000	37.47539000
191.89998878	0.00000000	102.78050000	36.73105000
192.09998877	0.00000000	102.78050000	36.35580000
192.29998876	0.00000000	102.78050000	36.31274000
192.49998875	0.00000000	102.78050000	36.31274000
192.69998874	0.00000000	102.78050000	36.31274000
192.89998872	0.00000000	102.78050000	36.31274000
193.09998871	0.00000000	102.78050000	36.31274000
193.29998870	0.00000000	102.73740000	36.35580000
193.49998869	0.00000000	102.40530000	36.73105000
193.69998868	0.00000000	102.03620000	37.47539000
193.89998866	0.00000000	102.40530000	37.85064000
194.09998865	0.00000000	102.73740000	37.89370000
194.29998864	0.00000000	102.78050000	37.89370000
194.49998863	0.00000000	102.78050000	37.89370000
194.69998862	0.00000000	102.78050000	37.89370000
194.89998861	0.00000000	102.78050000	37.89370000
195.09998859	0.00000000	102.78050000	37.85064000
195.29998858	0.00000000	102.78050000	37.47539000
195.49998857	0.00000000	102.78050000	36.78026000
195.69998856	0.00000000	102.78050000	36.73105000
195.89998855	0.00000000	102.73740000	37.05708000
196.09998853	0.00000000	102.40530000	36.73105000
