Time	Channel A	Channel B	Channel C
(us)	(V)	(mV)	(mV)

-4.49999956	0.00000000	32.03740000	18.94685000
-4.29999957	0.00000000	32.08661000	18.94685000
-4.09999958	0.00000000	32.78174000	18.94685000
-3.89999959	0.00000000	33.15699000	18.94685000
-3.69999960	0.00000000	33.20005000	18.94685000
-3.49999962	0.00000000	33.20005000	18.94685000
-3.29999963	0.00000000	33.20005000	18.94685000
-3.09999964	0.00000000	33.20005000	18.94685000
-2.89999965	0.00000000	33.20005000	18.94685000
-2.69999966	0.00000000	33.15699000	18.94685000
-2.49999968	0.00000000	32.82480000	18.94685000
-2.29999969	0.00000000	32.41265000	18.94685000
-2.09999970	0.00000000	32.44956000	18.94685000
-1.89999971	0.00000000	32.41265000	18.94685000
-1.69999972	0.00000000	32.82480000	18.94685000
-1.49999973	0.00000000	33.15699000	18.94685000
-1.29999975	0.00000000	33.20005000	18.94685000
-1.09999976	0.00000000	33.20005000	18.94685000
-0.89999977	0.00000000	33.20005000	18.94685000
-0.69999978	0.00000000	33.20005000	18.94685000
-0.49999979	0.00000000	33.20005000	18.94685000
-0.29999981	0.15871060	33.20005000	18.94685000
-0.09999982	0.63668800	33.20005000	18.94685000
0.10000017	0.95533960	33.20005000	18.94685000
0.30000016	1.11466500	33.20005000	18.94685000
0.50000015	0.95533960	33.20005000	18.94685000
0.70000013	0.47736220	33.20005000	18.94685000
0.90000012	-0.31803640	33.20005000	18.94685000
1.10000011	-1.27399100	33.20005000	18.94685000
1.30000010	-2.22994600	33.20005000	18.94685000
1.50000009	-2.70792300	33.20005000	18.98991000
1.70000008	-2.54859700	33.20005000	19.36516000
1.90000006	-1.59264300	33.20005000	20.06029000
2.10000005	0.15871060	33.20005000	20.06029000
2.30000004	2.22994600	33.20005000	19.36516000
2.50000003	4.14124000	33.20005000	18.98991000
2.70000002	5.25652100	33.20005000	18.94685000
2.90000000	5.09719500	33.20005000	18.94685000
3.09999999	3.34522600	33.20005000	18.94685000
3.29999998	0.47736220	33.20005000	18.90379000
3.49999997	-2.86724900	33.20005000	18.57160000
3.69999996	-5.89382400	33.20005000	18.20251000
3.89999994	-7.80511800	33.20005000	18.57160000
4.09999993	-7.64579200	33.20005000	18.94685000
4.29999992	-5.57517200	33.20005000	19.36516000
4.49999991	-1.91129400	33.20005000	20.06029000
4.69999990	2.54859700	33.20005000	20.06029000
4.89999989	6.53112700	33.20005000	19.36516000
5.09999987	9.07972400	33.20005000	18.94685000
5.29999986	9.39837600	33.20005000	18.52854000
5.49999985	7.32714100	33.20005000	17.78420000
5.69999984	3.34522600	33.20005000	17.45817000
5.89999983	-1.43331700	33.20005000	17.78420000
6.09999981	-5.89382400	33.20005000	18.52854000
6.29999980	-8.76107300	33.20005000	18.90379000
6.49999979	-9.39837600	33.20005000	18.94685000
6.69999978	-7.80511800	33.20005000	18.94685000
6.89999977	-4.14124000	33.20005000	18.94685000
7.09999975	0.15871060	33.20005000	18.94685000
7.29999974	4.30056600	33.20005000	18.94685000
7.49999973	6.84916400	33.20005000	18.94685000
7.69999972	7.80511800	33.20005000	18.94685000
7.89999971	6.69045300	33.20005000	18.94685000
8.09999970	3.98191400	33.15699000	18.94685000
8.29999968	0.63668800	32.82480000	18.94685000
8.49999967	-2.22994600	32.45571000	18.94685000
8.69999966	-4.45989200	32.82480000	18.94685000
8.89999965	-5.09719500	33.15699000	18.94685000
9.09999964	-4.61921700	33.20005000	18.94685000
9.29999962	-3.02657500	33.20005000	18.94685000
9.49999961	-1.11466500	33.20005000	18.94685000
9.69999960	0.79601380	33.20005000	18.94685000
9.89999959	2.07062000	33.20005000	18.94685000
10.09999958	2.54859700	33.20005000	18.94685000
10.29999956	2.38927200	33.20005000	18.94685000
10.49999955	1.59264300	33.20005000	18.94685000
10.69999954	0.63668800	33.20005000	18.94685000
10.89999953	0.00000000	33.20005000	18.94685000
11.09999952	-0.63668800	33.20005000	18.94685000
11.29999951	-0.95533960	33.20005000	18.94685000
11.49999949	-0.95533960	33.20005000	18.94685000
11.69999948	-0.79601380	33.20005000	18.94685000
11.89999947	-0.47736220	33.20005000	18.94685000
12.09999946	-0.15871060	33.20005000	18.94685000
12.29999945	-0.15871060	33.20005000	18.94685000
12.49999943	0.00000000	33.20005000	18.94685000
12.69999942	0.00000000	33.20005000	18.94685000
12.89999941	0.00000000	33.20005000	18.94685000
13.09999940	0.00000000	33.20005000	18.94685000
13.29999939	0.15871060	33.20005000	18.94685000
13.49999937	0.00000000	33.20005000	18.98991000
13.69999936	0.00000000	33.20005000	19.36516000
13.89999935	0.00000000	33.24311000	20.10950000
14.09999934	0.00000000	33.61835000	20.48474000
14.29999933	-0.15871060	34.31963000	20.52780000
14.49999932	-0.15871060	34.31963000	20.52780000
14.69999930	0.00000000	33.66756000	20.52780000
14.89999929	0.00000000	33.66756000	20.48474000
15.09999928	0.00000000	34.31963000	20.10950000
15.29999927	0.00000000	34.31963000	19.36516000
15.49999926	0.00000000	33.61835000	18.98991000
15.69999924	0.00000000	33.24311000	18.94685000
15.89999923	0.00000000	33.20005000	18.94685000
16.09999922	0.00000000	33.20005000	18.94685000
16.29999921	0.00000000	33.20005000	18.94685000
16.49999920	-0.15871060	33.24311000	18.94685000
16.69999919	-0.15871060	33.61835000	18.94685000
16.89999917	0.00000000	34.36884000	18.94685000
17.09999916	0.00000000	34.78716000	18.94685000
17.29999915	0.00000000	35.20546000	18.94685000
17.49999914	0.00000000	35.90059000	18.94685000
17.69999913	0.00000000	35.90059000	18.94685000
17.89999911	0.00000000	35.16240000	18.94685000
18.09999910	0.00000000	34.36884000	18.94685000
18.29999909	0.00000000	33.15699000	18.94685000
18.49999908	0.00000000	31.61909000	18.94685000
18.69999907	0.00000000	30.08120000	18.94685000
18.89999905	0.00000000	28.92470000	18.94685000
19.09999904	0.00000000	28.59252000	18.94685000
19.29999903	0.00000000	29.42913000	18.98991000
19.49999902	0.00000000	32.12967000	19.32210000
19.69999901	0.00000000	35.99286000	19.69119000
19.89999900	0.00000000	39.86220000	19.32210000
20.09999898	0.00000000	43.34399000	18.98991000
20.29999897	0.00000000	45.20792000	18.94685000
20.49999896	0.00000000	44.83267000	18.94685000
20.69999895	0.00000000	42.04601000	18.94685000
20.89999894	0.00000000	36.92790000	18.94685000
21.09999892	0.00000000	29.57677000	18.94685000
21.29999891	0.00000000	21.52436000	18.94685000
21.49999890	0.00000000	15.38509000	18.94685000
21.69999889	0.00000000	12.72761000	18.94685000
21.89999888	0.00000000	14.77608000	18.94685000
22.09999886	0.00000000	22.12721000	18.94685000
22.29999885	0.00000000	33.33538000	18.94685000
22.49999884	0.00000000	45.71850000	18.94685000
22.69999883	0.00000000	56.92667000	18.94685000
22.89999882	0.00000000	64.19168000	18.94685000
23.09999881	0.00000000	65.26205000	18.98991000
23.29999879	0.00000000	58.98130000	19.36516000
23.49999878	0.00000000	45.81693000	20.10950000
23.69999877	0.00000000	28.41412000	20.52780000
23.89999876	0.00000000	10.72835000	20.94611000
24.09999875	0.00000000	-2.79896600	21.64124000
24.29999873	0.00000000	-8.48917200	21.59203000
24.49999872	0.00000000	-4.94586600	20.47859000
24.69999871	0.00000000	8.63065900	18.94685000
24.89999870	0.00000000	29.06004000	17.36589000
25.09999869	0.00000000	51.48868000	15.78494000
25.29999867	0.00000000	71.16756000	14.29626000
25.49999866	0.00000000	83.04011000	13.60113000
25.69999865	0.00000000	83.82751000	14.76378000
25.89999864	0.00000000	72.98843000	17.41511000
26.09999863	0.00000000	53.30339000	20.57087000
26.29999862	0.00000000	28.92470000	24.10187000
26.49999860	0.00000000	5.38262700	27.90969000
26.69999859	0.00000000	-11.97096000	30.56102000
26.89999858	0.00000000	-18.90379000	30.93627000
27.09999857	0.00000000	-13.50886000	28.93701000
27.29999856	0.00000000	2.63902500	24.20029000
27.49999854	0.00000000	25.47982000	16.90453000
27.69999853	0.00000000	49.81545000	8.86441900
27.89999852	0.00000000	70.65698000	2.68823800
28.09999851	0.00000000	82.61565000	-0.42445860
28.29999850	0.00000000	83.12623000	0.03690945
28.49999848	0.00000000	73.12376000	4.77362200
28.69999847	0.00000000	55.34571000	13.69340000
28.89999846	0.00000000	33.71063000	25.30758000
29.09999845	0.00000000	13.23819000	37.20472000
29.29999844	0.00000000	-1.50713600	46.40133000
29.49999843	0.00000000	-7.78174200	49.84621000
29.69999841	0.00000000	-5.08735200	46.77657000
29.89999840	0.00000000	5.70866100	37.81373000
30.09999839	0.00000000	22.26870000	24.24335000
30.29999838	0.00000000	40.04675000	8.44611200
30.49999837	0.00000000	55.21038000	-5.77017700
30.69999835	0.00000000	65.31126000	-14.64075000
30.89999834	0.00000000	68.47317000	-16.17864000
31.09999833	0.00000000	64.65305000	-9.95324800
31.29999832	0.00000000	55.34571000	3.14960600
31.49999831	0.00000000	42.22441000	20.15256000
31.69999829	0.00000000	28.31570000	37.20472000
31.89999828	0.00000000	17.05217000	51.51329000
32.09999827	0.00000000	10.03322000	59.92249000
32.29999826	0.00000000	8.49532500	59.92249000
32.49999825	0.00000000	12.68455000	51.42101000
32.69999824	0.00000000	21.14911000	36.36811000
32.89999822	0.00000000	31.61909000	17.83341000
33.09999821	0.00000000	42.08907000	0.08612204
33.29999820	0.00000000	50.55979000	-13.10900000
33.49999819	0.00000000	54.83513000	-19.33440000
33.69999818	0.00000000	54.14001000	-17.75344000
33.89999816	0.00000000	49.53248000	-8.46456700
34.09999815	0.00000000	42.18134000	6.95743000
34.29999814	0.00000000	33.71063000	24.66166000
34.49999813	0.00000000	26.35950000	40.55118000
34.69999812	0.00000000	21.70891000	51.37795000
34.89999810	0.00000000	20.54626000	55.27805000
35.09999809	0.00000000	23.24065000	51.42101000
35.29999808	0.00000000	28.92470000	41.01255000
35.49999807	0.00000000	35.48228000	26.32874000
35.69999806	0.00000000	40.88336000	10.58071000
35.89999805	0.00000000	44.41437000	-2.14689900
36.09999803	0.00000000	45.16486000	-8.74138700
36.29999802	0.00000000	43.25172000	-8.41535400
36.49999801	0.00000000	39.01944000	-1.49483300
36.69999800	0.00000000	33.66756000	9.98400600
36.89999799	0.00000000	29.01082000	22.71161000
37.09999797	0.00000000	25.94119000	33.49532000
37.29999796	0.00000000	25.19685000	40.08366000
37.49999795	0.00000000	27.47293000	40.83415000
37.69999794	0.00000000	31.66830000	35.85752000
37.89999793	0.00000000	36.31890000	26.28568000
38.09999791	0.00000000	40.55733000	15.22515000
38.29999790	0.00000000	43.30093000	6.39763700
38.49999789	0.00000000	44.04527000	2.17150600
38.69999788	0.00000000	42.92569000	3.66018700
38.89999787	0.00000000	39.81299000	10.11319000
39.09999786	0.00000000	35.94980000	18.94685000
39.29999784	0.00000000	31.66830000	27.77436000
39.49999783	0.00000000	27.84818000	34.27657000
39.69999782	0.00000000	25.89198000	36.18971000
39.89999781	0.00000000	25.84892000	33.12008000
40.09999780	0.00000000	27.42987000	25.77510000
40.29999778	0.00000000	30.50566000	15.87721000
40.49999777	0.00000000	34.41191000	6.68061000
40.69999776	0.00000000	38.28125000	1.33489200
40.89999775	0.00000000	41.76304000	0.92273620
41.09999774	0.00000000	43.71924000	5.93626900
41.29999772	0.00000000	44.13755000	14.72072000
41.49999771	0.00000000	43.34399000	24.75394000
41.69999770	0.00000000	40.97564000	33.58760000
41.89999769	0.00000000	37.53075000	38.97638000
42.09999768	0.00000000	33.61835000	39.34547000
42.29999767	0.00000000	30.17347000	34.78716000
42.49999765	0.00000000	27.84818000	26.70398000
42.69999764	0.00000000	27.42987000	17.50123000
42.89999763	0.00000000	28.50024000	9.41806000
43.09999762	0.00000000	30.08120000	4.77362200
43.29999761	0.00000000	32.08661000	4.30610200
43.49999759	0.00000000	34.78716000	7.37573800
43.69999758	0.00000000	37.43848000	13.13976000
43.89999757	0.00000000	39.01944000	20.06029000
44.09999756	0.00000000	39.48696000	26.19955000
44.29999755	0.00000000	39.53002000	30.09350000
44.49999753	0.00000000	39.53002000	30.93627000
44.69999752	0.00000000	39.53002000	29.44759000
44.89999751	0.00000000	39.48696000	26.37795000
45.09999750	0.00000000	39.11171000	22.52091000
45.29999749	0.00000000	38.32431000	19.03297000
45.49999748	0.00000000	37.43848000	16.29552000
45.69999746	0.00000000	35.43922000	14.72072000
45.89999745	0.00000000	31.99434000	14.34547000
46.09999744	0.00000000	28.54946000	15.13902000
46.29999743	0.00000000	25.84892000	17.41511000
46.49999742	0.00000000	24.73548000	20.10950000
46.69999740	0.00000000	25.94119000	22.43479000
46.89999739	0.00000000	29.43528000	24.29257000
47.09999738	0.00000000	34.87328000	24.37869000
47.29999737	0.00000000	41.11097000	23.31447000
47.49999736	0.00000000	47.25640000	22.84695000
47.69999734	0.00000000	51.80856000	21.59203000
47.89999733	0.00000000	52.55905000	19.32210000
48.09999732	0.00000000	49.48942000	17.03986000
48.29999731	0.00000000	43.25172000	15.13902000
48.49999730	0.00000000	34.73794000	14.76378000
48.69999729	0.00000000	25.89813000	15.87721000
48.89999727	0.00000000	18.96531000	17.83341000
49.09999726	0.00000000	15.88952000	20.57087000
49.29999725	0.00000000	17.47047000	23.59129000
49.49999724	0.00000000	23.66511000	25.91043000
49.69999723	0.00000000	33.24926000	26.70398000
49.89999721	0.00000000	43.25172000	26.28568000
50.09999720	0.00000000	51.02116000	24.29257000
50.29999719	0.00000000	55.25959000	20.47859000
50.49999718	0.00000000	54.83513000	16.29552000
50.69999717	0.00000000	49.48942000	13.18282000
50.89999715	0.00000000	41.01870000	11.60187000
51.09999714	0.00000000	31.75443000	11.64493000
51.29999713	0.00000000	23.66511000	13.60113000
51.49999712	0.00000000	19.05143000	17.45817000
51.69999711	0.00000000	19.00837000	22.01033000
51.89999710	0.00000000	23.24065000	25.91043000
52.09999708	0.00000000	30.54872000	28.24188000
52.29999707	0.00000000	38.97638000	29.02928000
52.49999706	0.00000000	45.90305000	27.82357000
52.69999705	0.00000000	49.39714000	24.75394000
52.89999704	0.00000000	49.06496000	20.52780000
53.09999702	0.00000000	45.20792000	16.29552000
53.29999701	0.00000000	39.06250000	13.22589000
53.49999700	0.00000000	32.17273000	12.06939000
53.69999699	0.00000000	26.77780000	13.18282000
53.89999698	0.00000000	24.44636000	15.83415000
54.09999696	0.00000000	25.19685000	18.89764000
54.29999695	0.00000000	29.06004000	21.64124000
54.49999694	0.00000000	34.78716000	23.54823000
54.69999693	0.00000000	40.55733000	24.33563000
54.89999692	0.00000000	44.74655000	23.54823000
55.09999691	0.00000000	45.95226000	21.68430000
55.29999689	0.00000000	44.09449000	19.40822000
55.49999688	0.00000000	40.60039000	17.91953000
55.69999687	0.00000000	35.94980000	17.87647000
55.89999686	0.00000000	30.96703000	18.98991000
56.09999685	0.00000000	27.56521000	20.57087000
56.29999683	0.00000000	26.77780000	22.43479000
56.49999682	0.00000000	29.01082000	23.91732000
56.69999681	0.00000000	32.82480000	23.50517000
56.89999680	0.00000000	36.69414000	21.64124000
57.09999679	0.00000000	40.18209000	18.89764000
57.29999677	0.00000000	42.13828000	15.83415000
57.49999676	0.00000000	42.51353000	13.18282000
57.69999675	0.00000000	41.38779000	12.11245000
57.89999674	0.00000000	38.69955000	13.64419000
58.09999673	0.00000000	36.03592000	17.50123000
58.29999672	0.00000000	33.66756000	22.52091000
58.49999670	0.00000000	32.12967000	27.90969000
58.69999669	0.00000000	31.75443000	32.04970000
58.89999668	0.00000000	32.54798000	33.21235000
59.09999667	0.00000000	34.83022000	30.93627000
59.29999666	0.00000000	37.43848000	26.28568000
59.49999664	0.00000000	39.01944000	20.06029000
59.69999663	0.00000000	39.43774000	13.18282000
59.89999662	0.00000000	39.06250000	7.83710600
60.09999661	0.00000000	37.90600000	5.88705700
60.29999660	0.00000000	36.41117000	7.46801100
60.49999658	0.00000000	35.25467000	12.48770000
60.69999657	0.00000000	34.83022000	20.15256000
60.89999656	0.00000000	34.83022000	27.82357000
61.09999655	0.00000000	35.25467000	33.67372000
61.29999654	0.00000000	36.41117000	36.69414000
61.49999653	0.00000000	37.90600000	35.90059000
61.69999651	0.00000000	39.01944000	30.88705000
61.89999650	0.00000000	39.01944000	23.21604000
62.09999649	0.00000000	37.90600000	14.76378000
62.29999648	0.00000000	36.36811000	7.79404500
62.49999647	0.00000000	34.78716000	3.93085600
62.69999645	0.00000000	33.24926000	3.56791300
62.89999644	0.00000000	32.12967000	7.41879900
63.09999643	0.00000000	32.17273000	14.29626000
63.29999642	0.00000000	33.66756000	22.05955000
63.49999641	0.00000000	35.94980000	29.39837000
63.69999639	0.00000000	37.94907000	34.74409000
63.89999638	0.00000000	39.90526000	36.32505000
64.09999637	0.00000000	41.76304000	34.09203000
64.29999636	0.00000000	42.09522000	29.44759000
64.49999635	0.00000000	40.60039000	23.26525000
64.69999634	0.00000000	37.94907000	16.67077000
64.89999632	0.00000000	35.24852000	11.27584000
65.09999631	0.00000000	33.29232000	7.79404500
65.29999630	0.00000000	32.12967000	7.37573800
65.49999629	0.00000000	32.12967000	9.65182000
65.69999628	0.00000000	33.29232000	13.51501000
65.89999626	0.00000000	35.20546000	18.52854000
66.09999625	0.00000000	37.48154000	23.17298000
66.29999624	0.00000000	39.01944000	26.75320000
66.49999623	0.00000000	39.43774000	29.44759000
66.69999622	0.00000000	39.06250000	30.60408000
66.89999620	0.00000000	37.90600000	29.86589000
67.09999619	0.00000000	36.36811000	27.95891000
67.29999618	0.00000000	34.87328000	25.21530000
67.49999617	0.00000000	34.13509000	22.10261000
67.69999616	0.00000000	34.87328000	18.94685000
67.89999615	0.00000000	36.41117000	15.83415000
68.09999613	0.00000000	38.36737000	13.13976000
68.29999612	0.00000000	40.64345000	11.60187000
68.49999611	0.00000000	42.09522000	11.60187000
68.69999610	0.00000000	41.71998000	13.13976000
68.89999609	0.00000000	39.43774000	15.87721000
69.09999607	0.00000000	36.36811000	19.40822000
69.29999606	0.00000000	33.20005000	23.68356000
69.49999605	0.00000000	30.17347000	27.90969000
69.69999604	0.00000000	28.27264000	30.97933000
69.89999603	0.00000000	28.68479000	32.09276000
70.09999601	0.00000000	30.96703000	30.56102000
70.29999600	0.00000000	34.87328000	26.70398000
70.49999599	0.00000000	39.48696000	21.68430000
70.69999598	0.00000000	43.76230000	16.25246000
70.89999597	0.00000000	46.78888000	11.64493000
71.09999596	0.00000000	47.53321000	8.95669300
71.29999594	0.00000000	45.25713000	8.90747900
71.49999593	0.00000000	41.01870000	11.22662000
71.69999592	0.00000000	35.94980000	15.08981000
71.89999591	0.00000000	30.54872000	20.10950000
72.09999590	0.00000000	26.35950000	24.71087000
72.29999588	0.00000000	24.77854000	27.82357000
72.49999587	0.00000000	25.94119000	28.98007000
72.69999586	0.00000000	29.38607000	27.86663000
72.89999585	0.00000000	34.41191000	25.21530000
73.09999584	0.00000000	39.43774000	22.15182000
73.29999582	0.00000000	43.76230000	19.40822000
73.49999581	0.00000000	46.78888000	17.50123000
73.69999580	0.00000000	47.57627000	16.71383000
73.89999579	0.00000000	45.67544000	17.45817000
74.09999578	0.00000000	42.22441000	18.94685000
74.29999577	0.00000000	37.94907000	20.47859000
74.49999575	0.00000000	33.71063000	21.59203000
74.69999574	0.00000000	30.63484000	21.59203000
74.89999573	0.00000000	29.42913000	20.47859000
75.09999572	0.00000000	30.17347000	18.98991000
75.29999571	0.00000000	32.08661000	17.83341000
75.49999569	0.00000000	34.83022000	17.50123000
75.69999568	0.00000000	37.90600000	18.29478000
75.89999567	0.00000000	40.60039000	20.61393000
76.09999566	0.00000000	42.13828000	23.68356000
76.29999565	0.00000000	42.18134000	26.75320000
76.49999563	0.00000000	41.06791000	29.02928000
76.69999562	0.00000000	39.57308000	29.40452000
76.89999561	0.00000000	38.36737000	27.82357000
77.09999560	0.00000000	37.61687000	24.33563000
77.29999559	0.00000000	37.20472000	19.32210000
77.49999558	0.00000000	37.57381000	14.34547000
77.69999556	0.00000000	37.85679000	10.48843000
77.89999555	0.00000000	37.53075000	8.99975300
78.09999554	0.00000000	36.74335000	10.48843000
78.29999553	0.00000000	35.99286000	14.38853000
78.49999552	0.00000000	35.16240000	19.78346000
78.69999550	0.00000000	34.45497000	25.95964000
78.89999549	0.00000000	34.13509000	30.93627000
79.09999548	0.00000000	35.29773000	33.67372000
79.29999547	0.00000000	37.53075000	33.67372000
79.49999546	0.00000000	39.48696000	31.02239000
79.69999544	0.00000000	41.11097000	26.74705000
79.89999543	0.00000000	42.59965000	21.68430000
80.09999542	0.00000000	43.30093000	16.29552000
80.29999541	0.00000000	42.13828000	12.06939000
80.49999540	0.00000000	39.53002000	10.07013000
80.69999539	0.00000000	36.78642000	10.07013000
80.89999537	0.00000000	34.45497000	11.97711000
81.09999536	0.00000000	32.50492000	15.45891000
81.29999535	0.00000000	31.79749000	19.32210000
81.49999534	0.00000000	32.50492000	23.26525000
81.69999533	0.00000000	34.45497000	26.70398000
81.89999531	0.00000000	36.78642000	29.07234000
82.09999530	0.00000000	39.48696000	29.82283000
82.29999529	0.00000000	41.76304000	29.07234000
82.49999528	0.00000000	42.55659000	26.75320000
82.69999527	0.00000000	42.18134000	23.68356000
82.89999525	0.00000000	40.64345000	20.47859000
83.09999524	0.00000000	38.36737000	16.99065000
83.29999523	0.00000000	36.46038000	13.55807000
83.49999522	0.00000000	35.25467000	11.60187000
83.69999521	0.00000000	34.83022000	11.18356000
83.89999520	0.00000000	34.83022000	12.02018000
84.09999518	0.00000000	35.20546000	14.72072000
84.29999517	0.00000000	35.94980000	18.57160000
84.49999516	0.00000000	36.36811000	22.47785000
84.69999515	0.00000000	36.78642000	26.37795000
84.89999514	0.00000000	37.53075000	29.39837000
85.09999512	0.00000000	37.90600000	30.56102000
85.29999511	0.00000000	37.99213000	29.39837000
85.49999510	0.00000000	38.36737000	26.32874000
85.69999509	0.00000000	39.11171000	22.05955000
85.89999508	0.00000000	39.48696000	17.40895000
86.09999506	0.00000000	39.53002000	13.18282000
86.29999505	0.00000000	39.48696000	10.48843000
86.49999504	0.00000000	39.06250000	10.07013000
86.69999503	0.00000000	37.90600000	11.65108000
86.89999502	0.00000000	36.36811000	15.18209000
87.09999501	0.00000000	34.83022000	20.52780000
87.29999499	0.00000000	33.71063000	25.86737000
87.49999498	0.00000000	33.71063000	29.39837000
87.69999497	0.00000000	34.83022000	30.97933000
87.89999496	0.00000000	36.41117000	30.56102000
88.09999495	0.00000000	38.36737000	27.86663000
88.29999493	0.00000000	40.60039000	23.59129000
88.49999492	0.00000000	41.80610000	18.61466000
88.69999491	0.00000000	41.81841000	14.01944000
88.89999490	0.00000000	41.43085000	11.73720000
89.09999489	0.00000000	39.86220000	12.06939000
89.29999487	0.00000000	37.99213000	14.76378000
89.49999486	0.00000000	36.41117000	18.98991000
89.69999485	0.00000000	35.25467000	23.64050000
89.89999484	0.00000000	34.87943000	27.86663000
90.09999483	0.00000000	35.25467000	30.51181000
90.29999482	0.00000000	36.41117000	30.51181000
90.49999480	0.00000000	37.90600000	27.82357000
90.69999479	0.00000000	39.11171000	23.26525000
90.89999478	0.00000000	39.86220000	18.29478000
91.09999477	0.00000000	40.27436000	14.80684000
91.29999476	0.00000000	39.90526000	13.22589000
91.49999474	0.00000000	39.57308000	13.64419000
91.69999473	0.00000000	39.48696000	16.33858000
91.89999472	0.00000000	39.11171000	20.57087000
92.09999471	0.00000000	38.36737000	25.12918000
92.29999470	0.00000000	37.99213000	28.61097000
92.49999468	0.00000000	37.94907000	29.77362000
92.69999467	0.00000000	37.94907000	28.98007000
92.89999466	0.00000000	37.90600000	25.86737000
93.09999465	0.00000000	37.53075000	20.94611000
93.29999464	0.00000000	36.78642000	16.38779000
93.49999463	0.00000000	36.41117000	13.64419000
93.69999461	0.00000000	36.36811000	13.22589000
93.89999460	0.00000000	36.46038000	14.76378000
94.09999459	0.00000000	37.25394000	17.87647000
94.29999458	0.00000000	39.15477000	22.05955000
94.49999457	0.00000000	41.06791000	25.86737000
94.69999455	0.00000000	42.64886000	27.82357000
94.89999454	0.00000000	43.76230000	27.86663000
95.09999453	0.00000000	43.76230000	26.28568000
95.29999452	0.00000000	42.55659000	23.17298000
95.49999451	0.00000000	40.22515000	18.98991000
95.69999449	0.00000000	36.78642000	15.22515000
95.89999448	0.00000000	33.71063000	13.65034000
96.09999447	0.00000000	31.75443000	14.38853000
96.29999446	0.00000000	30.96703000	16.67077000
96.49999445	0.00000000	31.79749000	20.15256000
96.69999444	0.00000000	34.08588000	23.54823000
96.89999442	0.00000000	37.61687000	25.91043000
97.09999441	0.00000000	41.44316000	26.66092000
97.29999440	0.00000000	44.92495000	25.95964000
97.49999439	0.00000000	46.83809000	24.00960000
97.69999438	0.00000000	46.88115000	21.72736000
97.89999436	0.00000000	45.30019000	19.36516000
98.09999435	0.00000000	42.18134000	17.50123000
98.29999434	0.00000000	37.94907000	16.71383000
98.49999433	0.00000000	33.71063000	17.45817000
98.69999432	0.00000000	30.63484000	18.94685000
98.89999430	0.00000000	29.42913000	20.47859000
99.09999429	0.00000000	30.21653000	21.64124000
99.29999428	0.00000000	32.50492000	22.05955000
99.49999427	0.00000000	35.99286000	22.10261000
99.69999426	0.00000000	39.48696000	22.10261000
99.89999425	0.00000000	42.64886000	22.10261000
100.09999423	0.00000000	45.30019000	22.10261000
100.29999422	0.00000000	46.46284000	22.14567000
100.49999421	0.00000000	45.71850000	22.52091000
100.69999420	0.00000000	43.80536000	23.21604000
100.89999419	0.00000000	41.06791000	23.21604000
101.09999417	0.00000000	37.99213000	22.43479000
101.29999416	0.00000000	35.24852000	21.26599000
101.49999415	0.00000000	33.29232000	19.36516000
101.69999414	0.00000000	32.17273000	17.87647000
101.89999413	0.00000000	32.54798000	17.45817000
102.09999411	0.00000000	34.45497000	17.83341000
102.29999410	0.00000000	36.74335000	18.98991000
102.49999409	0.00000000	39.15477000	20.57087000
102.69999408	0.00000000	41.44316000	22.52091000
102.89999407	0.00000000	43.38705000	24.84621000
103.09999406	0.00000000	44.13755000	26.70398000
103.29999404	0.00000000	43.80536000	27.44832000
103.49999403	0.00000000	42.59965000	26.28568000
103.69999402	0.00000000	40.69267000	23.64050000
103.89999401	0.00000000	38.36737000	20.57087000
104.09999400	0.00000000	36.46038000	17.83341000
104.29999398	0.00000000	35.25467000	15.92027000
104.49999397	0.00000000	34.87943000	15.18209000
104.69999396	0.00000000	35.25467000	16.33858000
104.89999395	0.00000000	36.46038000	18.94685000
105.09999394	0.00000000	38.32431000	21.68430000
105.29999392	0.00000000	40.27436000	24.05881000
105.49999391	0.00000000	41.39394000	26.32874000
105.69999390	0.00000000	41.85531000	27.39911000
105.89999389	0.00000000	41.44316000	26.32874000
106.09999388	0.00000000	40.69267000	24.05881000
106.29999387	0.00000000	39.48696000	21.72736000
106.49999385	0.00000000	38.04134000	19.40822000
106.69999384	0.00000000	37.25394000	17.91953000
106.89999383	0.00000000	37.61687000	17.87647000
107.09999382	0.00000000	38.32431000	18.98991000
107.29999381	0.00000000	39.15477000	20.52780000
107.49999379	0.00000000	39.90526000	22.10261000
107.69999378	0.00000000	40.69267000	23.59129000
107.89999377	0.00000000	41.01870000	24.37869000
108.09999376	0.00000000	40.64345000	24.01575000
108.29999375	0.00000000	39.53002000	23.21604000
108.49999374	0.00000000	38.36737000	21.68430000
108.69999372	0.00000000	37.57381000	19.78346000
108.89999371	0.00000000	36.78642000	18.66388000
109.09999370	0.00000000	36.46038000	18.25172000
109.29999369	0.00000000	36.83563000	19.03912000
109.49999368	0.00000000	37.99213000	20.52780000
109.69999366	0.00000000	39.53002000	22.10261000
109.89999365	0.00000000	41.06791000	23.64050000
110.09999364	0.00000000	42.22441000	24.75394000
110.29999363	0.00000000	42.59965000	24.79700000
110.49999362	0.00000000	42.22441000	24.01575000
110.69999360	0.00000000	41.06791000	22.89001000
110.89999359	0.00000000	39.53002000	21.32136000
111.09999358	0.00000000	37.99213000	20.15256000
111.29999357	0.00000000	36.83563000	18.94685000
111.49999356	0.00000000	36.46038000	17.87647000
111.69999355	0.00000000	36.83563000	17.87647000
111.89999353	0.00000000	37.94907000	18.98991000
112.09999352	0.00000000	39.11171000	20.52780000
112.29999351	0.00000000	39.90526000	22.05955000
112.49999350	0.00000000	40.69267000	23.21604000
112.69999349	0.00000000	41.01870000	23.64050000
112.89999347	0.00000000	40.69267000	23.64050000
113.09999346	0.00000000	39.94832000	23.26525000
113.29999345	0.00000000	39.53002000	22.52091000
113.49999344	0.00000000	39.11171000	22.10261000
113.69999343	0.00000000	38.41658000	21.68430000
113.89999341	0.00000000	38.41658000	20.94611000
114.09999340	0.00000000	39.11171000	20.57087000
114.29999339	0.00000000	39.48696000	20.52780000
114.49999338	0.00000000	39.53002000	20.52780000
114.69999337	0.00000000	39.53002000	20.52780000
114.89999336	0.00000000	39.53002000	20.48474000
115.09999334	0.00000000	39.53002000	20.15256000
115.29999333	0.00000000	39.53002000	19.78346000
115.49999332	0.00000000	39.53002000	20.15256000
115.69999331	0.00000000	39.53002000	20.52780000
115.89999330	0.00000000	39.53002000	20.94611000
116.09999328	0.00000000	39.48696000	21.68430000
116.29999327	0.00000000	39.11171000	22.10261000
116.49999326	0.00000000	38.36737000	22.47785000
116.69999325	0.00000000	37.99213000	22.84695000
116.89999324	0.00000000	37.99213000	22.47785000
117.09999322	0.00000000	38.36737000	22.10261000
117.29999321	0.00000000	39.15477000	21.68430000
117.49999320	0.00000000	39.90526000	20.90305000
117.69999319	0.00000000	40.69267000	20.15256000
117.89999318	0.00000000	41.06791000	19.41437000
118.09999317	0.00000000	41.11097000	19.41437000
118.29999315	0.00000000	41.06791000	20.10950000
118.49999314	0.00000000	40.64345000	20.48474000
118.69999313	0.00000000	39.53002000	20.57087000
118.89999312	0.00000000	38.36737000	20.94611000
119.09999311	0.00000000	37.57381000	21.72736000
119.29999309	0.00000000	36.78642000	22.47785000
119.49999308	0.00000000	36.46038000	23.26525000
119.69999307	0.00000000	36.83563000	23.64050000
119.89999306	0.00000000	37.99213000	23.64050000
120.09999305	0.00000000	39.53002000	23.26525000
120.29999303	0.00000000	41.01870000	22.52091000
120.49999302	0.00000000	41.89838000	22.14567000
120.69999301	0.00000000	42.27977000	22.05955000
120.89999300	0.00000000	43.01181000	21.68430000
121.09999299	0.00000000	42.59965000	20.94611000
121.29999298	0.00000000	41.52928000	20.57087000
121.49999296	0.00000000	40.69267000	20.52780000
121.69999295	0.00000000	39.48696000	20.57087000
121.89999294	0.00000000	38.04134000	20.94611000
122.09999293	0.00000000	37.25394000	21.72736000
122.29999292	0.00000000	37.57381000	22.47785000
122.49999290	0.00000000	37.94907000	23.26525000
122.69999289	0.00000000	38.41658000	23.64050000
122.89999288	0.00000000	39.53002000	23.68356000
123.09999287	0.00000000	40.69267000	23.68356000
123.29999286	0.00000000	41.48622000	23.64050000
123.49999284	0.00000000	42.27362000	23.26525000
123.69999283	0.00000000	42.64886000	22.47785000
123.89999282	0.00000000	42.64886000	21.72736000
124.09999281	0.00000000	42.27362000	20.94611000
124.29999280	0.00000000	41.48622000	20.57087000
124.49999279	0.00000000	40.73573000	20.52780000
124.69999277	0.00000000	39.90526000	20.57087000
124.89999276	0.00000000	39.15477000	20.94611000
125.09999275	0.00000000	38.36737000	21.68430000
125.29999274	0.00000000	38.04134000	22.05955000
125.49999273	0.00000000	38.36737000	22.14567000
125.69999271	0.00000000	39.15477000	22.52091000
125.89999270	0.00000000	39.90526000	23.26525000
126.09999269	0.00000000	40.73573000	23.59129000
126.29999268	0.00000000	41.48622000	23.26525000
126.49999267	0.00000000	42.27362000	22.52091000
126.69999265	0.00000000	42.64886000	22.10261000
126.89999264	0.00000000	42.64886000	21.68430000
127.09999263	0.00000000	42.22441000	20.94611000
127.29999262	0.00000000	41.11097000	20.57087000
127.49999261	0.00000000	39.94832000	20.52780000
127.69999260	0.00000000	39.15477000	20.52780000
127.89999258	0.00000000	38.36737000	20.57087000
128.09999257	0.00000000	38.04134000	20.94611000
128.29999256	0.00000000	38.36737000	21.68430000
128.49999255	0.00000000	39.15477000	22.05955000
128.69999254	0.00000000	39.94832000	22.10261000
128.89999252	0.00000000	41.11097000	22.10261000
129.09999251	0.00000000	42.22441000	22.05955000
129.29999250	0.00000000	42.59965000	21.68430000
129.49999249	0.00000000	42.22441000	20.94611000
129.69999248	0.00000000	41.11097000	20.57087000
129.89999246	0.00000000	39.94832000	20.52780000
130.09999245	0.00000000	39.15477000	20.52780000
130.29999244	0.00000000	38.36737000	20.57087000
130.49999243	0.00000000	37.99213000	20.94611000
130.69999242	0.00000000	37.99213000	21.68430000
130.89999241	0.00000000	38.41658000	22.05955000
131.09999239	0.00000000	39.53002000	22.10261000
131.29999238	0.00000000	40.64345000	22.10261000
131.49999237	0.00000000	41.11097000	22.05955000
131.69999236	0.00000000	41.48622000	21.68430000
131.89999235	0.00000000	41.85531000	20.94611000
132.09999233	0.00000000	41.44316000	20.52780000
132.29999232	0.00000000	40.73573000	20.15256000
132.49999231	0.00000000	39.94832000	19.78346000
132.69999230	0.00000000	39.57308000	20.15256000
132.89999229	0.00000000	39.53002000	20.52780000
133.09999227	0.00000000	39.53002000	20.98917000
133.29999226	0.00000000	39.57308000	22.10261000
133.49999225	0.00000000	39.94832000	23.21604000
133.69999224	0.00000000	40.69267000	23.64050000
133.89999223	0.00000000	41.06791000	23.68356000
134.09999222	0.00000000	41.11097000	23.64050000
134.29999220	0.00000000	41.11097000	23.21604000
134.49999219	0.00000000	41.11097000	22.10261000
134.69999218	0.00000000	41.11097000	20.98917000
134.89999217	0.00000000	41.11097000	20.57087000
135.09999216	0.00000000	41.11097000	20.52780000
135.29999214	0.00000000	41.11097000	20.52780000
135.49999213	0.00000000	41.11097000	20.57087000
135.69999212	0.00000000	41.11097000	20.94611000
135.89999211	0.00000000	41.11097000	21.72736000
136.09999210	0.00000000	41.06791000	22.47785000
136.29999208	0.00000000	40.69267000	23.26525000
136.49999207	0.00000000	39.94832000	23.64050000
136.69999206	0.00000000	39.57308000	23.68356000
136.89999205	0.00000000	39.53002000	23.68356000
137.09999204	0.00000000	39.57308000	23.64050000
137.29999203	0.00000000	39.94832000	23.26525000
137.49999201	0.00000000	40.73573000	22.52091000
137.69999200	0.00000000	41.48622000	22.10261000
137.89999199	0.00000000	42.27362000	21.68430000
138.09999198	0.00000000	42.64886000	20.94611000
138.29999197	0.00000000	42.64886000	20.57087000
138.49999195	0.00000000	42.22441000	20.57087000
138.69999194	0.00000000	41.11097000	20.94611000
138.89999193	0.00000000	39.99754000	21.72736000
139.09999192	0.00000000	39.57308000	22.47785000
139.29999191	0.00000000	39.53002000	23.26525000
139.49999189	0.00000000	39.57308000	23.64050000
139.69999188	0.00000000	39.94832000	23.68356000
139.89999187	0.00000000	40.69267000	23.68356000
140.09999186	0.00000000	41.11097000	23.64050000
140.29999185	0.00000000	41.52928000	23.21604000
140.49999184	0.00000000	42.27362000	22.10261000
140.69999182	0.00000000	42.59965000	20.98917000
140.89999181	0.00000000	42.27362000	20.57087000
141.09999180	0.00000000	41.48622000	20.52780000
141.29999179	0.00000000	40.73573000	20.52780000
141.49999178	0.00000000	39.94832000	20.57087000
141.69999176	0.00000000	39.62229000	20.94611000
141.89999175	0.00000000	39.94832000	21.72736000
142.09999174	0.00000000	40.69267000	22.47785000
142.29999173	0.00000000	41.11097000	23.26525000
142.49999172	0.00000000	41.48622000	23.64050000
142.69999170	0.00000000	41.85531000	23.64050000
142.89999169	0.00000000	41.48622000	23.26525000
143.09999168	0.00000000	41.15403000	22.47785000
143.29999167	0.00000000	41.06791000	21.72736000
143.49999166	0.00000000	40.69267000	20.90305000
143.69999165	0.00000000	39.99754000	20.19562000
143.89999163	0.00000000	39.99754000	19.78346000
144.09999162	0.00000000	40.69267000	20.19562000
144.29999161	0.00000000	41.06791000	20.90305000
144.49999160	0.00000000	41.11097000	21.72736000
144.69999159	0.00000000	41.11097000	22.47785000
144.89999157	0.00000000	41.11097000	23.26525000
145.09999156	0.00000000	41.11097000	23.59129000
145.29999155	0.00000000	41.11097000	23.26525000
145.49999154	0.00000000	41.11097000	22.52091000
145.69999153	0.00000000	41.06791000	22.10261000
145.89999151	0.00000000	40.69267000	21.68430000
146.09999150	0.00000000	39.99754000	20.94611000
146.29999149	0.00000000	39.99754000	20.57087000
146.49999148	0.00000000	40.69267000	20.52780000
146.69999147	0.00000000	41.06791000	20.52780000
146.89999146	0.00000000	41.15403000	20.57087000
147.09999144	0.00000000	41.52928000	20.94611000
147.29999143	0.00000000	42.27362000	21.68430000
147.49999142	0.00000000	42.59965000	22.10261000
147.69999141	0.00000000	42.27362000	22.52091000
147.89999140	0.00000000	41.52928000	23.26525000
148.09999138	0.00000000	41.11097000	23.64050000
148.29999137	0.00000000	40.73573000	23.64050000
148.49999136	0.00000000	40.36663000	23.26525000
148.69999135	0.00000000	40.73573000	22.52091000
148.89999134	0.00000000	41.06791000	22.14567000
149.09999132	0.00000000	41.11097000	22.10261000
149.29999131	0.00000000	41.15403000	22.10261000
149.49999130	0.00000000	41.52928000	22.10261000
149.69999129	0.00000000	42.27362000	22.10261000
149.89999128	0.00000000	42.64886000	22.10261000
150.09999127	0.00000000	42.69193000	22.14567000
150.29999125	0.00000000	42.69193000	22.47785000
150.49999124	0.00000000	42.64886000	22.89001000
150.69999123	0.00000000	42.27362000	22.89616000
150.89999122	0.00000000	41.52928000	23.30832000
151.09999121	0.00000000	41.15403000	23.64050000
151.29999119	0.00000000	41.11097000	23.64050000
151.49999118	0.00000000	41.11097000	23.26525000
151.69999117	0.00000000	41.11097000	22.52091000
151.89999116	0.00000000	41.11097000	22.14567000
152.09999115	0.00000000	41.15403000	22.10261000
152.29999113	0.00000000	41.57849000	22.14567000
152.49999112	0.00000000	42.64886000	22.52091000
152.69999111	0.00000000	43.38705000	23.26525000
152.89999110	0.00000000	43.06717000	23.64050000
153.09999109	0.00000000	42.73499000	23.68356000
153.29999108	0.00000000	42.69193000	23.68356000
153.49999106	0.00000000	42.69193000	23.68356000
153.69999105	0.00000000	42.64886000	23.68356000
153.89999104	0.00000000	42.27362000	23.68356000
154.09999103	0.00000000	41.52928000	23.64050000
154.29999102	0.00000000	41.15403000	23.26525000
154.49999100	0.00000000	41.11097000	22.52091000
154.69999099	0.00000000	41.11097000	22.14567000
154.89999098	0.00000000	41.11097000	22.10261000
155.09999097	0.00000000	41.15403000	22.10261000
155.29999096	0.00000000	41.52928000	22.10261000
155.49999094	0.00000000	42.27362000	22.10261000
155.69999093	0.00000000	42.64886000	22.10261000
155.89999092	0.00000000	42.69193000	22.10261000
156.09999091	0.00000000	42.69193000	22.10261000
156.29999090	0.00000000	42.64886000	22.10261000
156.49999089	0.00000000	42.27362000	22.10261000
156.69999087	0.00000000	41.52928000	22.14567000
156.89999086	0.00000000	41.15403000	22.52091000
157.09999085	0.00000000	41.11097000	23.26525000
157.29999084	0.00000000	41.11097000	23.64050000
157.49999083	0.00000000	41.11097000	23.68356000
157.69999081	0.00000000	41.11097000	23.64050000
157.89999080	0.00000000	41.15403000	23.26525000
158.09999079	0.00000000	41.52928000	22.52091000
158.29999078	0.00000000	42.27362000	22.14567000
158.49999077	0.00000000	42.64886000	22.10261000
158.69999075	0.00000000	42.69193000	22.10261000
158.89999074	0.00000000	42.69193000	22.10261000
159.09999073	0.00000000	42.69193000	22.10261000
159.29999072	0.00000000	42.69193000	22.14567000
159.49999071	0.00000000	42.69193000	22.52091000
159.69999070	0.00000000	42.64886000	23.26525000
159.89999068	0.00000000	42.27362000	23.64050000
160.09999067	0.00000000	41.52928000	23.68356000
160.29999066	0.00000000	41.15403000	23.68356000
160.49999065	0.00000000	41.11097000	23.64050000
160.69999064	0.00000000	41.11097000	23.26525000
160.89999062	0.00000000	41.11097000	22.52091000
161.09999061	0.00000000	41.15403000	22.14567000
161.29999060	0.00000000	41.52928000	22.10261000
161.49999059	0.00000000	42.27362000	22.10261000
161.69999058	0.00000000	42.64886000	22.10261000
161.89999056	0.00000000	42.69193000	22.10261000
162.09999055	0.00000000	42.69193000	22.10261000
162.29999054	0.00000000	42.69193000	22.10261000
162.49999053	0.00000000	42.69193000	22.14567000
162.69999052	0.00000000	42.64886000	22.52091000
162.89999051	0.00000000	42.27362000	23.26525000
163.09999049	0.00000000	41.52928000	23.59129000
163.29999048	0.00000000	41.15403000	23.26525000
163.49999047	0.00000000	41.11097000	22.52091000
163.69999046	0.00000000	41.11097000	22.14567000
163.89999045	0.00000000	41.11097000	22.10261000
164.09999043	0.00000000	41.11097000	22.10261000
164.29999042	0.00000000	41.15403000	22.10261000
164.49999041	0.00000000	41.52928000	22.10261000
164.69999040	0.00000000	42.27362000	22.10261000
164.89999039	0.00000000	42.64886000	22.10261000
165.09999037	0.00000000	42.69193000	22.10261000
165.29999036	0.00000000	42.69193000	22.10261000
165.49999035	0.00000000	42.69193000	22.14567000
165.69999034	0.00000000	42.69193000	22.47785000
165.89999033	0.00000000	42.69193000	22.84695000
166.09999032	0.00000000	42.64886000	22.52091000
166.29999030	0.00000000	42.27362000	22.57013000
166.49999029	0.00000000	41.52928000	23.21604000
166.69999028	0.00000000	41.15403000	23.21604000
166.89999027	0.00000000	41.15403000	22.52091000
167.09999026	0.00000000	41.52928000	22.14567000
167.29999024	0.00000000	42.27362000	22.14567000
167.49999023	0.00000000	42.64886000	22.47785000
167.69999022	0.00000000	42.69193000	22.84695000
167.89999021	0.00000000	42.69193000	22.47785000
168.09999020	0.00000000	42.69193000	22.14567000
168.29999018	0.00000000	42.69193000	22.14567000
168.49999017	0.00000000	42.69193000	22.52091000
168.69999016	0.00000000	42.69193000	23.21604000
168.89999015	0.00000000	42.69193000	23.26525000
169.09999014	0.00000000	42.69193000	22.89616000
169.29999013	0.00000000	42.69193000	22.93307000
169.49999011	0.00000000	42.69193000	22.89616000
169.69999010	0.00000000	42.69193000	23.30832000
169.89999009	0.00000000	42.69193000	23.64050000
170.09999008	0.00000000	42.64886000	23.68356000
170.29999007	0.00000000	42.31668000	23.68356000
170.49999005	0.00000000	41.94759000	23.68356000
170.69999004	0.00000000	42.31668000	23.68356000
170.89999003	0.00000000	42.64886000	23.64050000
171.09999002	0.00000000	42.69193000	23.30832000
171.29999001	0.00000000	42.69193000	22.89616000
171.49998999	0.00000000	42.69193000	22.93307000
171.69998998	0.00000000	42.69193000	22.85310000
171.89998997	0.00000000	42.69193000	22.89001000
172.09998996	0.00000000	42.69193000	22.47785000
172.29998995	0.00000000	42.69193000	22.14567000
172.49998994	0.00000000	42.69193000	22.10261000
172.69998992	0.00000000	42.69193000	22.10261000
172.89998991	0.00000000	42.69193000	22.10261000
173.09998990	0.00000000	42.73499000	22.10261000
173.29998989	0.00000000	43.06717000	22.10261000
173.49998988	0.00000000	43.43627000	22.14567000
173.69998986	0.00000000	43.06717000	22.47785000
173.89998985	0.00000000	42.73499000	22.84695000
174.09998984	0.00000000	42.69193000	22.47785000
174.29998983	0.00000000	42.69193000	22.14567000
174.49998982	0.00000000	42.69193000	22.10261000
174.69998980	0.00000000	42.69193000	22.10261000
174.89998979	0.00000000	42.69193000	22.10261000
175.09998978	0.00000000	42.69193000	22.10261000
175.29998977	0.00000000	42.69193000	22.10261000
175.49998976	0.00000000	42.64886000	22.10261000
175.69998975	0.00000000	42.31668000	22.10261000
175.89998973	0.00000000	41.99680000	22.10261000
176.09998972	0.00000000	42.69193000	22.10261000
176.29998971	0.00000000	43.38705000	22.10261000
176.49998970	0.00000000	43.06717000	22.10261000
176.69998969	0.00000000	42.73499000	22.10261000
176.89998967	0.00000000	42.69193000	22.10261000
177.09998966	0.00000000	42.69193000	22.10261000
177.29998965	0.00000000	42.69193000	22.10261000
177.49998964	0.00000000	42.69193000	22.10261000
177.69998963	0.00000000	42.69193000	22.10261000
177.89998961	0.00000000	42.69193000	22.10261000
178.09998960	0.00000000	42.69193000	22.10261000
178.29998959	0.00000000	42.69193000	22.10261000
178.49998958	0.00000000	42.69193000	22.14567000
178.69998957	0.00000000	42.69193000	22.52091000
178.89998956	0.00000000	42.69193000	23.26525000
179.09998954	0.00000000	42.69193000	23.64050000
179.29998953	0.00000000	42.69193000	23.64050000
179.49998952	0.00000000	42.69193000	23.26525000
179.69998951	0.00000000	42.69193000	22.52091000
179.89998950	0.00000000	42.69193000	22.14567000
180.09998948	0.00000000	42.69193000	22.14567000
180.29998947	0.00000000	42.69193000	22.47785000
180.49998946	0.00000000	42.69193000	22.84695000
180.69998945	0.00000000	42.69193000	22.52091000
180.89998944	0.00000000	42.69193000	22.57013000
181.09998942	0.00000000	42.69193000	23.26525000
181.29998941	0.00000000	42.69193000	23.64050000
181.49998940	0.00000000	42.69193000	23.68356000
181.69998939	0.00000000	42.73499000	23.68356000
181.89998938	0.00000000	43.11023000	23.68356000
182.09998937	0.00000000	43.80536000	23.68356000
182.29998935	0.00000000	43.85457000	23.68356000
182.49998934	0.00000000	43.52854000	23.68356000
182.69998933	0.00000000	43.89763000	23.68356000
182.89998932	0.00000000	44.22982000	23.68356000
183.09998931	0.00000000	44.27288000	23.64050000
183.29998929	0.00000000	44.27288000	23.26525000
183.49998928	0.00000000	44.27288000	22.57013000
183.69998927	0.00000000	44.22982000	22.57013000
183.89998926	0.00000000	43.85457000	23.26525000
184.09998925	0.00000000	43.11023000	23.64050000
184.29998923	0.00000000	42.78420000	23.72662000
184.49998922	0.00000000	43.06717000	24.05881000
184.69998921	0.00000000	43.43627000	24.42790000
184.89998920	0.00000000	43.11023000	24.05881000
185.09998919	0.00000000	43.15945000	23.72662000
185.29998918	0.00000000	43.85457000	23.68356000
185.49998916	0.00000000	44.22982000	23.68356000
185.69998915	0.00000000	44.27288000	23.64050000
185.89998914	0.00000000	44.27288000	23.26525000
186.09998913	0.00000000	44.27288000	22.52091000
186.29998912	0.00000000	44.27288000	22.14567000
186.49998910	0.00000000	44.27288000	22.10261000
186.69998909	0.00000000	44.22982000	22.10261000
186.89998908	0.00000000	43.89763000	22.14567000
187.09998907	0.00000000	43.48548000	22.52091000
187.29998906	0.00000000	43.47933000	23.26525000
187.49998904	0.00000000	43.06717000	23.64050000
187.69998903	0.00000000	42.73499000	23.68356000
187.89998902	0.00000000	42.73499000	23.68356000
188.09998901	0.00000000	43.11023000	23.68356000
188.29998900	0.00000000	43.85457000	23.64050000
188.49998899	0.00000000	44.22982000	23.26525000
188.69998897	0.00000000	44.27288000	22.52091000
188.89998896	0.00000000	44.27288000	22.14567000
189.09998895	0.00000000	44.27288000	22.10261000
189.29998894	0.00000000	44.27288000	22.10261000
189.49998893	0.00000000	44.27288000	22.10261000
189.69998891	0.00000000	44.22982000	22.10261000
189.89998890	0.00000000	43.89763000	22.14567000
190.09998889	0.00000000	43.52854000	22.47785000
190.29998888	0.00000000	43.85457000	22.84695000
190.49998887	0.00000000	43.80536000	22.52091000
190.69998885	0.00000000	43.11023000	22.57013000
190.89998884	0.00000000	42.78420000	23.21604000
191.09998883	0.00000000	43.11023000	23.26525000
191.29998882	0.00000000	43.85457000	22.89616000
191.49998881	0.00000000	44.22982000	22.89001000
191.69998880	0.00000000	44.27288000	22.47785000
191.89998878	0.00000000	44.27288000	22.14567000
192.09998877	0.00000000	44.27288000	22.10261000
192.29998876	0.00000000	44.27288000	22.10261000
192.49998875	0.00000000	44.27288000	22.10261000
192.69998874	0.00000000	44.22982000	22.10261000
192.89998872	0.00000000	43.89763000	22.10261000
193.09998871	0.00000000	43.48548000	22.10261000
193.29998870	0.00000000	43.52239000	22.14567000
193.49998869	0.00000000	43.44242000	22.52091000
193.69998868	0.00000000	43.52239000	23.26525000
193.89998866	0.00000000	43.44242000	23.64050000
194.09998865	0.00000000	43.52239000	23.68356000
194.29998864	0.00000000	43.48548000	23.68356000
194.49998863	0.00000000	43.89763000	23.68356000
194.69998862	0.00000000	44.22982000	23.68356000
194.89998861	0.00000000	44.27288000	23.68356000
195.09998859	0.00000000	44.27288000	23.68356000
195.29998858	0.00000000	44.27288000	23.68356000
195.49998857	0.00000000	44.27288000	23.68356000
195.69998856	0.00000000	44.27288000	23.68356000
195.89998855	0.00000000	44.27288000	23.68356000
196.09998853	0.00000000	44.27288000	23.68356000
