Time	Channel A	Channel B	Channel C
(us)	(V)	(mV)	(mV)

-4.49999956	0.00000000	18.50394000	4.73671200
-4.29999957	0.00000000	18.55315000	4.73671200
-4.09999958	0.00000000	18.18405000	4.73671200
-3.89999959	0.00000000	18.22096000	4.73671200
-3.69999960	0.00000000	18.18405000	4.73671200
-3.49999962	0.00000000	18.55315000	4.73671200
-3.29999963	0.00000000	18.55315000	4.73671200
-3.09999964	0.00000000	18.22711000	4.73671200
-2.89999965	0.00000000	18.55315000	4.73671200
-2.69999966	0.00000000	18.50394000	4.73671200
-2.49999968	0.00000000	17.85802000	4.73671200
-2.29999969	0.00000000	17.80881000	4.73671200
-2.09999970	0.00000000	18.13484000	4.73671200
-1.89999971	0.00000000	17.80881000	4.73671200
-1.69999972	0.00000000	17.85802000	4.73671200
-1.49999973	0.00000000	18.50394000	4.73671200
-1.29999975	0.00000000	18.50394000	4.73671200
-1.09999976	0.00000000	17.85802000	4.73671200
-0.89999977	0.00000000	17.80881000	4.73671200
-0.69999978	0.00000000	18.17790000	4.73671200
-0.49999979	0.00000000	18.14099000	4.73671200
-0.29999981	0.31803640	18.22096000	4.73671200
-0.09999982	0.63668800	18.14099000	4.73671200
0.10000017	0.95533960	18.22096000	4.69365100
0.30000016	0.95533960	18.18405000	4.36146600
0.50000015	0.79601380	18.55315000	3.99237200
0.70000013	0.31803640	18.50394000	4.36146600
0.90000012	-0.47736220	17.80881000	4.69365100
1.10000011	-1.43331700	17.48277000	4.73671200
1.30000010	-2.38927200	17.76575000	4.73671200
1.50000009	-2.86724900	18.13484000	4.73671200
1.70000008	-2.54859700	17.76575000	4.73671200
1.90000006	-1.43331700	17.43356000	4.73671200
2.10000005	0.47736220	17.39050000	4.73671200
2.30000004	2.54859700	17.43356000	4.73671200
2.50000003	4.45989200	17.76575000	4.73671200
2.70000002	5.25652100	18.13484000	4.73671200
2.90000000	4.77854300	17.76575000	4.73671200
3.09999999	3.02657500	17.43356000	4.69365100
3.29999998	0.00000000	17.39050000	4.36146600
3.49999997	-3.34522600	17.39050000	3.99237200
3.69999996	-6.37180100	17.43356000	4.36146600
3.89999994	-7.80511800	17.80881000	4.69365100
4.09999993	-7.48646600	18.55315000	4.73671200
4.29999992	-5.25652100	18.92839000	4.77977300
4.49999991	-1.27399100	18.97145000	5.11195900
4.69999990	3.18590100	18.92839000	5.47490100
4.89999989	7.00848900	18.55315000	5.11195900
5.09999987	9.23905000	17.85802000	4.77977300
5.29999986	9.23905000	17.80881000	4.69365100
5.49999985	6.69045300	18.13484000	4.31840500
5.69999984	2.54859700	17.76575000	3.62327700
5.89999983	-2.22994600	17.43356000	3.62327700
6.09999981	-6.37180100	17.43356000	4.31840500
6.29999980	-9.07972400	17.80881000	4.69365100
6.49999979	-9.23905000	18.55315000	4.73671200
6.69999978	-7.32714100	18.87918000	4.73671200
6.89999977	-3.50393700	18.55315000	4.73671200
7.09999975	0.79601380	17.85802000	4.73671200
7.29999974	4.77854300	17.80881000	4.73671200
7.49999973	7.16781500	18.13484000	4.73671200
7.69999972	7.64579200	17.76575000	4.73671200
7.89999971	6.37180100	17.43356000	4.69365100
8.09999970	3.50393700	17.39050000	4.36146600
8.29999968	0.31803640	17.39050000	3.99237200
8.49999967	-2.70792300	17.43356000	4.36146600
8.69999966	-4.61921700	17.80881000	4.69365100
8.89999965	-5.25652100	18.50394000	4.73671200
9.09999964	-4.45989200	18.50394000	4.73671200
9.29999962	-2.70792300	17.80881000	4.73671200
9.49999961	-0.79601380	17.43356000	4.73671200
9.69999960	1.11466500	17.39050000	4.73671200
9.89999959	2.22994600	17.39050000	4.73671200
10.09999958	2.54859700	17.39050000	4.73671200
10.29999956	2.22994600	17.39050000	4.73671200
10.49999955	1.43331700	17.43356000	4.73671200
10.69999954	0.63668800	17.76575000	4.73671200
10.89999953	-0.15871060	18.13484000	4.73671200
11.09999952	-0.79601380	17.80881000	4.73671200
11.29999951	-0.95533960	17.80881000	4.73671200
11.49999949	-0.95533960	18.17790000	4.73671200
11.69999948	-0.79601380	18.18405000	4.73671200
11.89999947	-0.47736220	18.59621000	4.73671200
12.09999946	-0.15871060	18.92839000	4.73671200
12.29999945	-0.15871060	18.92839000	4.73671200
12.49999943	0.00000000	18.55315000	4.73671200
12.69999942	0.00000000	17.80881000	4.73671200
12.89999941	0.00000000	17.43356000	4.73671200
13.09999940	0.00000000	17.39050000	4.73671200
13.29999939	0.00000000	17.39050000	4.73671200
13.49999937	0.00000000	17.39050000	4.73671200
13.69999936	0.00000000	17.39050000	4.69365100
13.89999935	0.00000000	17.39050000	4.36146600
14.09999934	-0.15871060	17.43356000	3.99237200
14.29999933	-0.15871060	17.76575000	4.36146600
14.49999932	-0.15871060	18.13484000	4.69365100
14.69999930	0.00000000	17.76575000	4.73671200
14.89999929	0.00000000	17.43356000	4.73671200
15.09999928	0.00000000	17.39050000	4.73671200
15.29999927	0.00000000	17.39050000	4.73671200
15.49999926	0.00000000	17.39050000	4.73671200
15.69999924	0.00000000	17.39050000	4.73671200
15.89999923	0.00000000	17.39050000	4.73671200
16.09999922	0.00000000	17.39050000	4.73671200
16.29999921	-0.15871060	17.39050000	4.73671200
16.49999920	-0.15871060	17.39050000	4.73671200
16.69999919	-0.15871060	17.43356000	4.73671200
16.89999917	0.00000000	17.80881000	4.73671200
17.09999916	0.00000000	18.55315000	4.73671200
17.29999915	0.00000000	18.97145000	4.73671200
17.49999914	0.00000000	19.34670000	4.73671200
17.69999913	0.00000000	19.71580000	4.69365100
17.89999911	0.00000000	19.30364000	4.36146600
18.09999910	0.00000000	18.55315000	3.99237200
18.29999909	0.00000000	17.34744000	4.36146600
18.49999908	0.00000000	15.80955000	4.69365100
18.69999907	0.00000000	14.27165000	4.73671200
18.89999905	0.00000000	13.11516000	4.73671200
19.09999904	0.00000000	12.78297000	4.73671200
19.29999903	0.00000000	13.57652000	4.73671200
19.49999902	0.00000000	15.94488000	4.73671200
19.69999901	0.00000000	19.38976000	4.73671200
19.89999900	0.00000000	23.29601000	4.73671200
20.09999898	0.00000000	26.69783000	4.73671200
20.29999897	0.00000000	28.64173000	4.73671200
20.49999896	0.00000000	28.22958000	4.73671200
20.69999895	0.00000000	25.81201000	4.69365100
20.89999894	0.00000000	20.69390000	4.31840500
21.09999892	0.00000000	13.02288000	3.57406500
21.29999891	0.00000000	5.33956700	3.19881900
21.49999890	0.00000000	-0.47367120	3.19881900
21.69999889	0.00000000	-3.08193900	3.53100400
21.89999888	0.00000000	-1.03346500	3.94315900
22.09999886	0.00000000	6.31766700	3.94931100
22.29999885	0.00000000	17.52584000	4.36146600
22.49999884	0.00000000	29.90280000	4.64443900
22.69999883	0.00000000	41.07406000	4.31840500
22.89999882	0.00000000	47.95768000	3.62327700
23.09999881	0.00000000	48.28986000	3.62327700
23.29999879	0.00000000	41.63386000	4.31840500
23.49999878	0.00000000	28.42027000	4.73671200
23.69999877	0.00000000	11.06668000	5.15501900
23.89999876	0.00000000	-6.28690900	5.89320800
24.09999875	0.00000000	-19.35900000	6.21924200
24.29999873	0.00000000	-24.71087000	5.85014700
24.49999872	0.00000000	-20.38632000	4.68750000
24.69999871	0.00000000	-6.84670200	3.15575800
24.89999870	0.00000000	13.29355000	1.57480300
25.09999869	0.00000000	35.62992000	0.04306102
25.29999867	0.00000000	54.93356000	-1.06422200
25.49999866	0.00000000	66.11097000	-1.06422200
25.69999865	0.00000000	66.84916000	0.09227362
25.89999864	0.00000000	56.33612000	2.08538400
26.09999863	0.00000000	36.28199000	5.24729300
26.29999862	0.00000000	11.57726000	9.47342500
26.49999860	0.00000000	-12.00787000	13.65650000
26.69999859	0.00000000	-29.36762000	16.30167000
26.89999858	0.00000000	-36.30044000	16.30167000
27.09999857	0.00000000	-30.90551000	13.56422000
27.29999856	0.00000000	-14.70842000	8.45226300
27.49999854	0.00000000	8.45841400	1.11343500
27.69999853	0.00000000	33.21235000	-6.96358300
27.89999852	0.00000000	54.10310000	-13.47810000
28.09999851	0.00000000	66.84916000	-16.91068000
28.29999850	0.00000000	68.38705000	-15.70497000
28.49999848	0.00000000	58.42765000	-9.84867000
28.69999847	0.00000000	39.91141000	-0.14148620
28.89999846	0.00000000	17.48277000	12.21087000
29.09999845	0.00000000	-4.15231300	24.10802000
29.29999844	0.00000000	-20.06029000	32.56643000
29.49999843	0.00000000	-27.04232000	35.21776000
29.69999841	0.00000000	-24.42790000	30.98548000
29.89999840	0.00000000	-12.85064000	20.85999000
30.09999839	0.00000000	4.13385800	6.54527500
30.29999838	0.00000000	23.11762000	-9.65797200
30.49999837	0.00000000	40.09596000	-23.51132000
30.69999835	0.00000000	50.98425000	-32.01279000
30.89999834	0.00000000	54.14616000	-33.12623000
31.09999833	0.00000000	49.53863000	-26.11343000
31.29999832	0.00000000	38.37352000	-12.22318000
31.49999831	0.00000000	23.71432000	5.94242000
31.69999829	0.00000000	8.96899500	24.06496000
31.89999828	0.00000000	-3.08193900	38.37352000
32.09999827	0.00000000	-10.42692000	45.66929000
32.29999826	0.00000000	-11.58957000	44.13140000
32.49999825	0.00000000	-6.19463500	34.09818000
32.69999824	0.00000000	4.18307100	17.88263000
32.89999822	0.00000000	16.87992000	-1.02116100
33.09999821	0.00000000	28.51255000	-18.44242000
33.29999820	0.00000000	36.65723000	-30.80709000
33.49999819	0.00000000	40.18824000	-35.86368000
33.69999818	0.00000000	38.23819000	-32.38804000
33.89999816	0.00000000	31.76058000	-21.60433000
34.09999815	0.00000000	22.46555000	-5.71481200
34.29999814	0.00000000	12.87525000	12.03248000
34.49999813	0.00000000	5.11195900	27.82972000
34.69999812	0.00000000	1.29183100	37.91216000
34.89999810	0.00000000	1.95004900	40.28051000
35.09999809	0.00000000	6.55142700	35.26082000
35.29999808	0.00000000	13.06594000	23.68971000
35.49999807	0.00000000	20.08489000	8.26771600
35.69999806	0.00000000	26.18725000	-7.16043300
35.89999805	0.00000000	29.62598000	-19.46973000
36.09999803	0.00000000	28.88164000	-25.27682000
36.29999802	0.00000000	24.74163000	-23.46826000
36.49999801	0.00000000	18.97145000	-15.79724000
36.69999800	0.00000000	13.20128000	-4.18307100
36.89999799	0.00000000	8.96899500	8.87672100
37.09999797	0.00000000	7.38804100	19.98031000
37.29999796	0.00000000	8.55068800	25.78740000
37.49999795	0.00000000	11.99557000	25.09227000
37.69999794	0.00000000	17.01525000	19.00221000
37.89999793	0.00000000	21.95497000	9.38730200
38.09999791	0.00000000	25.47982000	-0.93503930
38.29999790	0.00000000	26.64862000	-9.01205700
38.49999789	0.00000000	25.90428000	-12.45694000
38.69999788	0.00000000	23.20374000	-10.54995000
38.89999787	0.00000000	19.34670000	-3.67249000
39.09999786	0.00000000	15.47736000	5.85014700
39.29999784	0.00000000	11.99557000	14.67766000
39.49999783	0.00000000	10.03937000	20.39862000
39.69999782	0.00000000	9.57800100	21.13681000
39.89999781	0.00000000	9.99630800	16.16634000
40.09999780	0.00000000	11.62032000	7.38188900
40.29999778	0.00000000	14.69611000	-2.60211600
40.49999777	0.00000000	18.50394000	-11.01132000
40.69999776	0.00000000	21.62278000	-15.23745000
40.89999775	0.00000000	23.62205000	-14.12401000
41.09999774	0.00000000	24.78469000	-8.31692900
41.29999772	0.00000000	24.78469000	0.92888770
41.49999771	0.00000000	23.67126000	11.65723000
41.69999770	0.00000000	22.04109000	20.44168000
41.89999769	0.00000000	19.66658000	24.71703000
42.09999768	0.00000000	16.22785000	23.60359000
42.29999767	0.00000000	13.15822000	17.83957000
42.49999765	0.00000000	11.20202000	9.01205700
42.69999764	0.00000000	10.37155000	-0.60285430
42.89999763	0.00000000	10.78371000	-8.31692900
43.09999762	0.00000000	11.90330000	-12.59227000
43.29999761	0.00000000	13.89641000	-12.59227000
43.49999759	0.00000000	16.18479000	-8.40920300
43.69999758	0.00000000	18.50394000	-1.53174200
43.89999757	0.00000000	20.08489000	5.75787400
44.09999756	0.00000000	20.92766000	11.60802000
44.29999755	0.00000000	21.71506000	15.14518000
44.49999753	0.00000000	22.09030000	16.30167000
44.69999752	0.00000000	22.13336000	14.76993000
44.89999751	0.00000000	22.04109000	10.91289000
45.09999750	0.00000000	21.29675000	5.93626900
45.29999749	0.00000000	19.72195000	0.92888770
45.49999748	0.00000000	18.13484000	-2.51599400
45.69999746	0.00000000	15.71727000	-3.76476400
45.89999745	0.00000000	12.64764000	-3.02042300
46.09999744	0.00000000	9.52879000	-1.11343500
46.29999743	0.00000000	6.87746000	1.62401600
46.49999742	0.00000000	5.80708600	4.68750000
46.69999740	0.00000000	7.38804100	7.43110200
46.89999739	0.00000000	11.62032000	9.33809000
47.09999738	0.00000000	17.43356000	10.11934000
47.29999737	0.00000000	23.67126000	9.38115100
47.49999736	0.00000000	29.44143000	7.84940900
47.69999734	0.00000000	33.25541000	5.85014700
47.89999733	0.00000000	33.58760000	3.15575800
48.09999732	0.00000000	30.09350000	0.46751960
48.29999731	0.00000000	23.11762000	-1.43946800
48.49999730	0.00000000	14.27165000	-2.18380900
48.69999729	0.00000000	5.76402500	-1.02116100
48.89999727	0.00000000	-0.38139760	1.62401600
49.09999726	0.00000000	-2.70669300	4.73671200
49.29999725	0.00000000	-0.38139760	7.84940900
49.49999724	0.00000000	5.80708600	10.53765000
49.69999723	0.00000000	14.73917000	12.03248000
49.89999721	0.00000000	24.69857000	11.61417000
50.09999720	0.00000000	32.79404000	8.91978400
50.29999719	0.00000000	36.65723000	4.73671200
50.49999718	0.00000000	35.90674000	0.51058070
50.69999717	0.00000000	30.51181000	-2.60211600
50.89999715	0.00000000	22.04109000	-4.18307100
51.09999714	0.00000000	12.78297000	-4.14000900
51.29999713	0.00000000	4.73671200	-2.18380900
51.49999712	0.00000000	0.50442900	1.66707700
51.69999711	0.00000000	1.19955700	6.21924200
51.89999710	0.00000000	5.76402500	10.11934000
52.09999708	0.00000000	12.73991000	12.40157000
52.29999707	0.00000000	20.46014000	12.86294000
52.49999706	0.00000000	27.30069000	11.24508000
52.69999705	0.00000000	30.78863000	8.21235200
52.89999704	0.00000000	29.68135000	3.94931100
53.09999702	0.00000000	25.47982000	0.17839570
53.29999701	0.00000000	18.92839000	-2.18380900
53.49999700	0.00000000	12.08784000	-2.55905500
53.69999699	0.00000000	7.43110200	-1.07037400
53.89999698	0.00000000	5.85014700	1.62401600
54.09999696	0.00000000	7.38804100	4.64443900
54.29999695	0.00000000	11.62032000	6.96358300
54.49999694	0.00000000	17.39050000	7.75713500
54.69999693	0.00000000	23.11762000	7.38188900
54.89999692	0.00000000	26.92544000	5.85014700
55.09999691	0.00000000	27.34990000	3.57406500
55.29999689	0.00000000	24.69857000	1.71013800
55.49999688	0.00000000	20.08489000	0.92888770
55.69999687	0.00000000	14.69611000	1.71013800
55.89999686	0.00000000	10.08243000	3.61712600
56.09999685	0.00000000	7.38804100	6.31151500
56.29999683	0.00000000	7.38804100	8.91978400
56.49999682	0.00000000	10.08243000	10.07628000
56.69999681	0.00000000	14.64690000	9.29502900
56.89999680	0.00000000	19.66658000	6.96358300
57.09999679	0.00000000	23.48671000	3.06963600
57.29999677	0.00000000	25.47982000	-1.43946800
57.49999676	0.00000000	25.06767000	-4.87204700
57.69999675	0.00000000	22.82849000	-5.62253900
57.89999674	0.00000000	19.34670000	-3.71555100
58.09999673	0.00000000	15.90182000	0.55364170
58.29999672	0.00000000	13.11516000	6.31151500
58.49999670	0.00000000	11.24508000	12.07554000
58.69999669	0.00000000	10.88213000	16.30167000
58.89999668	0.00000000	12.73991000	17.79035000
59.09999667	0.00000000	15.39124000	15.84030000
59.29999666	0.00000000	17.72268000	10.45152000
59.49999664	0.00000000	19.66658000	3.19881900
59.69999663	0.00000000	20.41708000	-3.76476400
59.89999662	0.00000000	20.08489000	-8.78444900
60.09999661	0.00000000	18.92839000	-11.06053000
60.29999660	0.00000000	17.39050000	-9.47957600
60.49999658	0.00000000	15.90182000	-4.14000900
60.69999657	0.00000000	15.06521000	3.15575800
60.89999656	0.00000000	15.10212000	10.53765000
61.09999655	0.00000000	15.48966000	16.67692000
61.29999654	0.00000000	17.01525000	20.11565000
61.49999653	0.00000000	18.46087000	19.28519000
61.69999651	0.00000000	18.92839000	14.35162000
61.89999650	0.00000000	18.92839000	6.64370100
62.09999649	0.00000000	18.46087000	-1.39640700
62.29999648	0.00000000	16.92298000	-7.99089500
62.49999647	0.00000000	14.69611000	-11.47884000
62.69999645	0.00000000	13.15822000	-11.47884000
62.89999644	0.00000000	12.73991000	-7.99089500
63.09999643	0.00000000	13.11516000	-1.44562000
63.29999642	0.00000000	14.32087000	6.22539300
63.49999641	0.00000000	16.22785000	13.18898000
63.69999639	0.00000000	18.55315000	17.79650000
63.89999638	0.00000000	20.46014000	19.00221000
64.09999637	0.00000000	21.62278000	16.72613000
64.29999636	0.00000000	21.57972000	12.11860000
64.49999635	0.00000000	20.04183000	6.31151500
64.69999634	0.00000000	17.39050000	0.51058070
64.89999632	0.00000000	14.73917000	-4.14000900
65.09999631	0.00000000	13.15822000	-6.87746000
65.29999630	0.00000000	12.73991000	-7.24655500
65.49999629	0.00000000	13.11516000	-5.33956700
65.69999628	0.00000000	14.32087000	-1.53174200
65.89999626	0.00000000	16.22785000	2.69439000
66.09999625	0.00000000	18.50394000	6.22539300
66.29999624	0.00000000	19.99877000	9.00590400
66.49999623	0.00000000	20.04183000	10.96211000
66.69999622	0.00000000	18.92839000	12.11860000
66.89999620	0.00000000	17.34744000	12.11860000
67.09999619	0.00000000	15.43430000	10.96211000
67.29999618	0.00000000	13.57652000	9.00590400
67.49999617	0.00000000	13.24434000	6.26845500
67.69999616	0.00000000	14.69611000	3.15575800
67.89999615	0.00000000	17.01525000	0.04306102
68.09999613	0.00000000	19.34670000	-2.69439000
68.29999612	0.00000000	21.66585000	-4.60137700
68.49999611	0.00000000	23.11762000	-5.38262700
68.69999610	0.00000000	22.69316000	-4.55831700
68.89999609	0.00000000	19.99877000	-2.18380900
69.09999607	0.00000000	15.80955000	2.08538400
69.29999606	0.00000000	11.57726000	7.42495000
69.49999605	0.00000000	8.45841400	12.07554000
69.69999604	0.00000000	6.92052100	15.18824000
69.89999603	0.00000000	7.38804100	16.30167000
70.09999601	0.00000000	10.50689000	14.76993000
70.29999600	0.00000000	15.85261000	10.86983000
70.49999599	0.00000000	21.62278000	5.51796200
70.69999598	0.00000000	26.32259000	-0.27682080
70.89999597	0.00000000	29.34916000	-4.50910400
71.09999596	0.00000000	29.66904000	-6.92052100
71.29999594	0.00000000	26.23031000	-7.20349400
71.49999593	0.00000000	20.46014000	-4.92125900
71.69999592	0.00000000	13.89641000	-0.32603340
71.89999591	0.00000000	7.72022600	4.64443900
72.09999590	0.00000000	3.85088600	8.91978400
72.29999588	0.00000000	2.64517700	11.61417000
72.49999587	0.00000000	4.22613100	12.03248000
72.69999586	0.00000000	8.55068800	10.53765000
72.89999585	0.00000000	15.06521000	7.84940900
73.09999584	0.00000000	22.36712000	4.77977300
73.29999582	0.00000000	27.72515000	2.08538400
73.49999581	0.00000000	30.13656000	0.55364170
73.69999580	0.00000000	29.39222000	0.55364170
73.89999579	0.00000000	26.32259000	1.99311000
74.09999578	0.00000000	21.62278000	3.90009800
74.29999577	0.00000000	15.85261000	5.01968500
74.49999575	0.00000000	10.45768000	5.43184000
74.69999574	0.00000000	6.96973400	4.60137700
74.89999573	0.00000000	5.80708600	2.73745100
75.09999572	0.00000000	7.34498000	0.46751960
75.29999571	0.00000000	11.15896000	-1.02116100
75.49999569	0.00000000	15.71727000	-1.02116100
75.69999568	0.00000000	19.66658000	0.55364170
75.89999567	0.00000000	22.37328000	3.62327700
76.09999566	0.00000000	23.89887000	7.42495000
76.29999565	0.00000000	23.16068000	10.58686000
76.49999563	0.00000000	20.92766000	12.81988000
76.69999562	0.00000000	18.63927000	13.50886000
76.89999561	0.00000000	16.64616000	10.77756000
77.09999560	0.00000000	15.47736000	5.89320800
77.29999559	0.00000000	14.69611000	0.41830710
77.49999558	0.00000000	14.69611000	-4.55831700
77.69999556	0.00000000	15.39124000	-8.03395600
77.89999555	0.00000000	15.76649000	-8.78444900
78.09999554	0.00000000	15.80955000	-6.82824800
78.29999553	0.00000000	15.76649000	-2.18380900
78.49999552	0.00000000	15.39124000	4.31840500
78.69999550	0.00000000	14.69611000	10.49459000
78.89999549	0.00000000	14.73917000	15.14518000
79.09999548	0.00000000	15.85261000	17.46432000
79.29999547	0.00000000	17.39050000	16.67692000
79.49999546	0.00000000	18.92839000	13.23819000
79.69999544	0.00000000	20.13410000	7.84940900
79.89999543	0.00000000	20.88459000	2.08538400
80.09999542	0.00000000	21.20448000	-2.60211600
80.29999541	0.00000000	20.04183000	-5.71481200
80.49999540	0.00000000	17.76575000	-6.87130900
80.69999539	0.00000000	15.39124000	-5.75787400
80.89999537	0.00000000	12.69070000	-3.06348400
81.09999536	0.00000000	10.45768000	0.46751960
81.29999535	0.00000000	10.08243000	4.69365100
81.49999534	0.00000000	11.57726000	8.54453700
81.69999533	0.00000000	14.27165000	10.91289000
81.89999531	0.00000000	17.34744000	12.11860000
82.09999530	0.00000000	20.08489000	12.11860000
82.29999529	0.00000000	21.99803000	10.96211000
82.49999528	0.00000000	22.74237000	9.00590400
82.69999527	0.00000000	21.57972000	6.26845500
82.89999525	0.00000000	18.97145000	3.15575800
83.09999524	0.00000000	16.27707000	0.04306102
83.29999523	0.00000000	14.32087000	-2.64517700
83.49999522	0.00000000	13.11516000	-4.18307100
83.69999521	0.00000000	12.73991000	-4.22613100
83.89999520	0.00000000	13.11516000	-3.02042300
84.09999518	0.00000000	14.27165000	-0.69512790
84.29999517	0.00000000	15.80955000	2.82972400
84.49999516	0.00000000	17.29823000	6.68676100
84.69999515	0.00000000	18.08563000	10.58686000
84.89999514	0.00000000	17.72268000	13.60728000
85.09999512	0.00000000	17.05832000	14.76993000
85.29999511	0.00000000	16.60310000	13.56422000
85.49999510	0.00000000	16.64001000	10.11934000
85.69999509	0.00000000	16.64616000	5.11195900
85.89999508	0.00000000	17.39050000	0.09227362
86.09999506	0.00000000	18.08563000	-4.18307100
86.29999505	0.00000000	17.76575000	-6.82824800
86.49999504	0.00000000	17.39050000	-6.82824800
86.69999503	0.00000000	16.92298000	-4.18307100
86.89999502	0.00000000	15.76649000	0.04306102
87.09999501	0.00000000	14.27165000	4.73671200
87.29999499	0.00000000	13.11516000	9.33809000
87.49999498	0.00000000	12.73991000	12.77067000
87.69999497	0.00000000	13.15822000	13.56422000
87.89999496	0.00000000	14.69611000	12.03248000
88.09999495	0.00000000	16.97219000	8.54453700
88.29999493	0.00000000	18.87918000	3.57406500
88.49999492	0.00000000	20.08489000	-1.02116100
88.69999491	0.00000000	20.46014000	-4.13385800
88.89999490	0.00000000	20.04183000	-5.29650500
89.09999489	0.00000000	18.50394000	-4.13385800
89.29999487	0.00000000	16.22785000	-1.07037400
89.49999486	0.00000000	14.32087000	3.20497000
89.69999485	0.00000000	13.11516000	7.75713500
89.89999484	0.00000000	12.73991000	11.18971000
90.09999483	0.00000000	13.11516000	11.98327000
90.29999482	0.00000000	14.27165000	10.49459000
90.49999480	0.00000000	15.80955000	7.38188900
90.69999479	0.00000000	17.34744000	3.15575800
90.89999478	0.00000000	18.50394000	-1.02116100
91.09999477	0.00000000	18.92839000	-3.71555100
91.29999476	0.00000000	18.92839000	-4.09079700
91.49999474	0.00000000	18.55315000	-2.18380900
91.69999473	0.00000000	17.80881000	1.62401600
91.89999472	0.00000000	17.43356000	5.85014700
92.09999471	0.00000000	17.34744000	9.33809000
92.29999470	0.00000000	16.97219000	11.61417000
92.49999468	0.00000000	16.22785000	11.56496000
92.69999467	0.00000000	15.85261000	8.91978400
92.89999466	0.00000000	15.76649000	4.73671200
93.09999465	0.00000000	15.39124000	0.51058070
93.29999464	0.00000000	14.64690000	-2.60211600
93.49999463	0.00000000	14.27165000	-4.14000900
93.69999461	0.00000000	14.27165000	-3.71555100
93.89999460	0.00000000	14.69611000	-1.02116100
94.09999459	0.00000000	15.90182000	3.15575800
94.29999458	0.00000000	17.76575000	7.38188900
94.49999457	0.00000000	19.71580000	10.45152000
94.69999455	0.00000000	20.88459000	11.60802000
94.89999454	0.00000000	21.66585000	10.45152000
95.09999453	0.00000000	21.57972000	7.38188900
95.29999452	0.00000000	20.04183000	3.20497000
95.49999451	0.00000000	17.34744000	-0.64591530
95.69999449	0.00000000	14.27165000	-2.97736200
95.89999448	0.00000000	11.57726000	-3.76476400
96.09999447	0.00000000	9.99630800	-2.55905500
96.29999446	0.00000000	9.62106200	0.46751960
96.49999445	0.00000000	10.41462000	4.26919300
96.69999444	0.00000000	12.78297000	7.38188900
96.89999442	0.00000000	16.22785000	9.29502900
97.09999441	0.00000000	20.08489000	9.70103300
97.29999440	0.00000000	23.16068000	8.17544300
97.49999439	0.00000000	24.74163000	5.93626900
97.69999438	0.00000000	24.69857000	3.57406500
97.89999436	0.00000000	22.78543000	1.62401600
98.09999435	0.00000000	19.30364000	0.09227362
98.29999434	0.00000000	15.43430000	-0.65206690
98.49999433	0.00000000	11.53420000	0.09227362
98.69999432	0.00000000	8.50147600	1.57480300
98.89999430	0.00000000	7.29576700	3.15575800
99.09999429	0.00000000	8.08316900	4.68750000
99.29999428	0.00000000	10.41462000	5.80093500
99.49999427	0.00000000	14.27165000	5.85014700
99.69999426	0.00000000	18.46087000	5.15501900
99.89999425	0.00000000	21.62278000	4.77977300
100.09999423	0.00000000	23.57899000	4.77977300
100.29999422	0.00000000	24.32333000	5.15501900
100.49999421	0.00000000	23.20374000	5.89320800
100.69999420	0.00000000	20.88459000	6.21924200
100.89999419	0.00000000	18.13484000	5.85014700
101.09999417	0.00000000	14.69611000	4.68750000
101.29999416	0.00000000	11.99557000	3.15575800
101.49999415	0.00000000	10.73450000	1.57480300
101.69999414	0.00000000	9.99630800	0.09227362
101.89999413	0.00000000	10.41462000	-0.65206690
102.09999411	0.00000000	12.31545000	0.09227362
102.29999410	0.00000000	14.60384000	1.62401600
102.49999409	0.00000000	16.97219000	3.61712600
102.69999408	0.00000000	18.87918000	6.31151500
102.89999407	0.00000000	20.08489000	8.96284400
103.09999406	0.00000000	20.46014000	10.49459000
103.29999404	0.00000000	20.08489000	10.45152000
103.49999403	0.00000000	18.92839000	8.54453700
103.69999402	0.00000000	17.39050000	5.11195900
103.89999401	0.00000000	15.80955000	1.66707700
104.09999400	0.00000000	14.27165000	-1.07037400
104.29999398	0.00000000	13.11516000	-2.60211600
104.49999397	0.00000000	12.73991000	-2.60211600
104.69999396	0.00000000	13.11516000	-1.07037400
104.89999395	0.00000000	14.27165000	1.62401600
105.09999394	0.00000000	15.76649000	4.64443900
105.29999392	0.00000000	16.97219000	7.01279500
105.49999391	0.00000000	17.72268000	8.17544300
105.69999390	0.00000000	18.13484000	8.58759800
105.89999389	0.00000000	17.72268000	7.75713500
106.09999388	0.00000000	17.01525000	5.89320800
106.29999387	0.00000000	16.18479000	3.57406500
106.49999385	0.00000000	15.43430000	1.66707700
106.69999384	0.00000000	14.64690000	0.51058070
106.89999383	0.00000000	14.32087000	0.51058070
107.09999382	0.00000000	14.69611000	1.62401600
107.29999381	0.00000000	15.80955000	3.15575800
107.49999379	0.00000000	16.92298000	4.68750000
107.69999378	0.00000000	17.34744000	5.85014700
107.89999377	0.00000000	17.34744000	6.21924200
108.09999376	0.00000000	16.97219000	5.85014700
108.29999375	0.00000000	16.18479000	4.68750000
108.49999374	0.00000000	15.39124000	3.19881900
108.69999372	0.00000000	14.27165000	2.04232300
108.89999371	0.00000000	13.53346000	1.61786400
109.09999370	0.00000000	13.89641000	1.61786400
109.29999369	0.00000000	14.64690000	2.04232300
109.49999368	0.00000000	15.85261000	3.19881900
109.69999366	0.00000000	17.34744000	4.68750000
109.89999365	0.00000000	18.50394000	5.85014700
110.09999364	0.00000000	18.92839000	6.26845500
110.29999363	0.00000000	18.92839000	6.26845500
110.49999362	0.00000000	18.46087000	5.85014700
110.69999360	0.00000000	16.97219000	4.68750000
110.89999359	0.00000000	15.11442000	3.19881900
111.09999358	0.00000000	14.27165000	2.04232300
111.29999357	0.00000000	13.85334000	1.61786400
111.49999356	0.00000000	13.48425000	1.57480300
111.69999355	0.00000000	13.89641000	1.61786400
111.89999353	0.00000000	14.64690000	2.04232300
112.09999352	0.00000000	15.80955000	3.15575800
112.29999351	0.00000000	16.97219000	4.31840500
112.49999350	0.00000000	17.72268000	5.06274600
112.69999349	0.00000000	18.13484000	5.47490100
112.89999347	0.00000000	17.76575000	5.11195900
113.09999346	0.00000000	17.39050000	4.77977300
113.29999345	0.00000000	16.97219000	4.73671200
113.49999344	0.00000000	16.18479000	4.69365100
113.69999343	0.00000000	15.43430000	4.31840500
113.89999341	0.00000000	14.69611000	3.57406500
114.09999340	0.00000000	14.64690000	3.19881900
114.29999339	0.00000000	15.01599000	3.15575800
114.49999338	0.00000000	15.02214000	3.11269700
114.69999337	0.00000000	15.47736000	2.73745100
114.89999336	0.00000000	16.18479000	1.99311000
115.09999334	0.00000000	16.97219000	1.61786400
115.29999333	0.00000000	17.34744000	1.61786400
115.49999332	0.00000000	17.39050000	1.99311000
115.69999331	0.00000000	17.34744000	2.78051200
115.89999330	0.00000000	16.92298000	3.53100400
116.09999328	0.00000000	15.85261000	4.36146600
116.29999327	0.00000000	15.06521000	5.11195900
116.49999326	0.00000000	15.01599000	5.89320800
116.69999325	0.00000000	14.60384000	6.21924200
116.89999324	0.00000000	14.32087000	5.89320800
117.09999322	0.00000000	14.64690000	5.11195900
117.29999321	0.00000000	15.43430000	4.31840500
117.49999320	0.00000000	16.18479000	3.15575800
117.69999319	0.00000000	17.01525000	2.04232300
117.89999318	0.00000000	17.72268000	1.61786400
118.09999317	0.00000000	18.13484000	1.57480300
118.29999315	0.00000000	17.72268000	1.61786400
118.49999314	0.00000000	16.97219000	1.99311000
118.69999313	0.00000000	15.80955000	2.78051200
118.89999312	0.00000000	14.64690000	3.53100400
119.09999311	0.00000000	13.85334000	4.36146600
119.29999309	0.00000000	13.11516000	5.11195900
119.49999308	0.00000000	13.11516000	5.85014700
119.69999307	0.00000000	13.85334000	5.85014700
119.89999306	0.00000000	14.64690000	5.15501900
120.09999305	0.00000000	15.85261000	4.73671200
120.29999303	0.00000000	17.34744000	4.31840500
120.49999302	0.00000000	18.50394000	3.57406500
120.69999301	0.00000000	18.87918000	3.15575800
120.89999300	0.00000000	18.55315000	2.78051200
121.09999299	0.00000000	17.76575000	2.41141700
121.29999298	0.00000000	16.97219000	2.78051200
121.49999296	0.00000000	15.80955000	3.11269700
121.69999295	0.00000000	14.69611000	3.15575800
121.89999294	0.00000000	14.22859000	3.15575800
122.09999293	0.00000000	13.85334000	3.19881900
122.29999292	0.00000000	13.48425000	3.57406500
122.49999290	0.00000000	13.89641000	4.31840500
122.69999289	0.00000000	14.64690000	4.69365100
122.89999288	0.00000000	15.80955000	4.73671200
123.09999287	0.00000000	16.92298000	4.73671200
123.29999286	0.00000000	17.34744000	4.73671200
123.49999284	0.00000000	17.39050000	4.73671200
123.69999283	0.00000000	17.39050000	4.69365100
123.89999282	0.00000000	17.39050000	4.31840500
124.09999281	0.00000000	17.34744000	3.53100400
124.29999280	0.00000000	16.97219000	2.78051200
124.49999279	0.00000000	16.18479000	1.99311000
124.69999277	0.00000000	15.43430000	1.66707700
124.89999276	0.00000000	14.64690000	1.99311000
125.09999275	0.00000000	14.27165000	2.78051200
125.29999274	0.00000000	14.22859000	3.53100400
125.49999273	0.00000000	14.27165000	4.31840500
125.69999271	0.00000000	14.64690000	4.69365100
125.89999270	0.00000000	15.43430000	4.73671200
126.09999269	0.00000000	16.18479000	4.73671200
126.29999268	0.00000000	16.97219000	4.73671200
126.49999267	0.00000000	17.34744000	4.69365100
126.69999265	0.00000000	17.39050000	4.31840500
126.89999264	0.00000000	17.34744000	3.57406500
127.09999263	0.00000000	16.97219000	3.19881900
127.29999262	0.00000000	16.18479000	3.15575800
127.49999261	0.00000000	15.43430000	3.15575800
127.69999260	0.00000000	14.60384000	3.15575800
127.89999258	0.00000000	13.89641000	3.15575800
128.09999257	0.00000000	13.53346000	3.19881900
128.29999256	0.00000000	14.27165000	3.57406500
128.49999255	0.00000000	15.39124000	4.31840500
128.69999254	0.00000000	16.18479000	4.69365100
128.89999252	0.00000000	16.97219000	4.69365100
129.09999251	0.00000000	17.34744000	4.31840500
129.29999250	0.00000000	17.34744000	3.57406500
129.49999249	0.00000000	16.97219000	3.19881900
129.69999248	0.00000000	16.18479000	3.15575800
129.89999246	0.00000000	15.39124000	3.15575800
130.09999245	0.00000000	14.22859000	3.15575800
130.29999244	0.00000000	13.15822000	3.19881900
130.49999243	0.00000000	13.11516000	3.57406500
130.69999242	0.00000000	13.85334000	4.31840500
130.89999241	0.00000000	14.64690000	4.69365100
131.09999239	0.00000000	15.80955000	4.73671200
131.29999238	0.00000000	16.92298000	4.69365100
131.49999237	0.00000000	17.34744000	4.31840500
131.69999236	0.00000000	17.34744000	3.57406500
131.89999235	0.00000000	16.97219000	3.19881900
132.09999233	0.00000000	16.22785000	3.11269700
132.29999232	0.00000000	15.80955000	2.78051200
132.49999231	0.00000000	15.39124000	2.41141700
132.69999230	0.00000000	14.64690000	2.78051200
132.89999229	0.00000000	14.32087000	3.15575800
133.09999227	0.00000000	14.64690000	3.57406500
133.29999226	0.00000000	15.39124000	4.31840500
133.49999225	0.00000000	15.76649000	4.69365100
133.69999224	0.00000000	15.80955000	4.73671200
133.89999223	0.00000000	15.80955000	4.73671200
134.09999222	0.00000000	15.80955000	4.69365100
134.29999220	0.00000000	15.80955000	4.26919300
134.49999219	0.00000000	15.80955000	3.15575800
134.69999218	0.00000000	15.80955000	2.04232300
134.89999217	0.00000000	15.80955000	1.61786400
135.09999216	0.00000000	15.80955000	1.57480300
135.29999214	0.00000000	15.80955000	1.61786400
135.49999213	0.00000000	15.80955000	1.99311000
135.69999212	0.00000000	15.80955000	2.78051200
135.89999211	0.00000000	15.80955000	3.53100400
136.09999210	0.00000000	15.76649000	4.31840500
136.29999208	0.00000000	15.39124000	4.69365100
136.49999207	0.00000000	14.64690000	4.73671200
136.69999206	0.00000000	14.27165000	4.73671200
136.89999205	0.00000000	14.22859000	4.69365100
137.09999204	0.00000000	14.27165000	4.31840500
137.29999203	0.00000000	14.64690000	3.57406500
137.49999201	0.00000000	15.43430000	3.15575800
137.69999200	0.00000000	16.18479000	2.73745100
137.89999199	0.00000000	16.97219000	1.99311000
138.09999198	0.00000000	17.29823000	1.61786400
138.29999197	0.00000000	16.97219000	1.57480300
138.49999195	0.00000000	16.18479000	1.61786400
138.69999194	0.00000000	15.43430000	1.99311000
138.89999193	0.00000000	14.64690000	2.73745100
139.09999192	0.00000000	14.27165000	3.15575800
139.29999191	0.00000000	14.22859000	3.57406500
139.49999189	0.00000000	14.27165000	4.31840500
139.69999188	0.00000000	14.64690000	4.69365100
139.89999187	0.00000000	15.43430000	4.73671200
140.09999186	0.00000000	16.18479000	4.69365100
140.29999185	0.00000000	16.97219000	4.31840500
140.49999184	0.00000000	17.29823000	3.53100400
140.69999182	0.00000000	16.97219000	2.78051200
140.89999181	0.00000000	16.22785000	1.99311000
141.09999180	0.00000000	15.80955000	1.61786400
141.29999179	0.00000000	15.39124000	1.61786400
141.49999178	0.00000000	14.64690000	1.99311000
141.69999176	0.00000000	14.32087000	2.78051200
141.89999175	0.00000000	14.64690000	3.53100400
142.09999174	0.00000000	15.39124000	4.36146600
142.29999173	0.00000000	15.76649000	5.11195900
142.49999172	0.00000000	15.85261000	5.85014700
142.69999170	0.00000000	16.18479000	5.85014700
142.89999169	0.00000000	16.55389000	5.11195900
143.09999168	0.00000000	16.18479000	4.31840500
143.29999167	0.00000000	15.80955000	3.15575800
143.49999166	0.00000000	15.39124000	2.04232300
143.69999165	0.00000000	14.69611000	1.61786400
143.89999163	0.00000000	14.69611000	1.61786400
144.09999162	0.00000000	15.39124000	1.99311000
144.29999161	0.00000000	15.80955000	2.78051200
144.49999160	0.00000000	16.18479000	3.53100400
144.69999159	0.00000000	16.55389000	4.31840500
144.89999157	0.00000000	16.18479000	4.69365100
145.09999156	0.00000000	15.85261000	4.73671200
145.29999155	0.00000000	15.80955000	4.69365100
145.49999154	0.00000000	15.76649000	4.31840500
145.69999153	0.00000000	15.39124000	3.57406500
145.89999151	0.00000000	14.64690000	3.19881900
146.09999150	0.00000000	14.27165000	3.11269700
146.29999149	0.00000000	14.27165000	2.73745100
146.49999148	0.00000000	14.64690000	2.04232300
146.69999147	0.00000000	15.39124000	2.04232300
146.89999146	0.00000000	15.76649000	2.73745100
147.09999144	0.00000000	15.80955000	3.11269700
147.29999143	0.00000000	15.80955000	3.19881900
147.49999142	0.00000000	15.80955000	3.57406500
147.69999141	0.00000000	15.76649000	4.31840500
147.89999140	0.00000000	15.39124000	4.69365100
148.09999138	0.00000000	14.64690000	4.73671200
148.29999137	0.00000000	14.27165000	4.69365100
148.49999136	0.00000000	14.22859000	4.31840500
148.69999135	0.00000000	14.27165000	3.57406500
148.89999134	0.00000000	14.64690000	3.19881900
149.09999132	0.00000000	15.39124000	3.15575800
149.29999131	0.00000000	15.76649000	3.15575800
149.49999130	0.00000000	15.80955000	3.15575800
149.69999129	0.00000000	15.80955000	3.15575800
149.89999128	0.00000000	15.85261000	3.15575800
150.09999127	0.00000000	16.18479000	3.15575800
150.29999125	0.00000000	16.55389000	3.19881900
150.49999124	0.00000000	16.14173000	3.57406500
150.69999123	0.00000000	15.43430000	4.31840500
150.89999122	0.00000000	14.64690000	4.69365100
151.09999121	0.00000000	14.27165000	4.69365100
151.29999119	0.00000000	14.22859000	4.31840500
151.49999118	0.00000000	14.22859000	3.57406500
151.69999117	0.00000000	14.27165000	3.19881900
151.89999116	0.00000000	14.64690000	3.15575800
152.09999115	0.00000000	15.39124000	3.15575800
152.29999113	0.00000000	15.76649000	3.15575800
152.49999112	0.00000000	15.85261000	3.15575800
152.69999111	0.00000000	16.18479000	3.15575800
152.89999110	0.00000000	16.55389000	3.15575800
153.09999109	0.00000000	16.18479000	3.15575800
153.29999108	0.00000000	15.85261000	3.15575800
153.49999106	0.00000000	15.76649000	3.15575800
153.69999105	0.00000000	15.39124000	3.19881900
153.89999104	0.00000000	14.64690000	3.53100400
154.09999103	0.00000000	14.27165000	3.94315900
154.29999102	0.00000000	14.22859000	3.90625000
154.49999100	0.00000000	14.22859000	3.94315900
154.69999099	0.00000000	14.22859000	3.53100400
154.89999098	0.00000000	14.27165000	3.19881900
155.09999097	0.00000000	14.64690000	3.11269700
155.29999096	0.00000000	15.39124000	2.78051200
155.49999094	0.00000000	15.76649000	2.41141700
155.69999093	0.00000000	15.80955000	2.78051200
155.89999092	0.00000000	15.80955000	3.11269700
156.09999091	0.00000000	15.80955000	3.15575800
156.29999090	0.00000000	15.76649000	3.15575800
156.49999089	0.00000000	15.39124000	3.19881900
156.69999087	0.00000000	14.64690000	3.53100400
156.89999086	0.00000000	14.27165000	3.94315900
157.09999085	0.00000000	14.22859000	3.94931100
157.29999084	0.00000000	14.22859000	4.36146600
157.49999083	0.00000000	14.22859000	4.64443900
157.69999081	0.00000000	14.27165000	4.31840500
157.89999080	0.00000000	14.64690000	3.57406500
158.09999079	0.00000000	15.39124000	3.19881900
158.29999078	0.00000000	15.76649000	3.15575800
158.49999077	0.00000000	15.80955000	3.15575800
158.69999075	0.00000000	15.80955000	3.15575800
158.89999074	0.00000000	15.80955000	3.15575800
159.09999073	0.00000000	15.80955000	3.15575800
159.29999072	0.00000000	15.76649000	3.15575800
159.49999071	0.00000000	15.39124000	3.19881900
159.69999070	0.00000000	14.64690000	3.57406500
159.89999068	0.00000000	14.27165000	4.31840500
160.09999067	0.00000000	14.22859000	4.69365100
160.29999066	0.00000000	14.22859000	4.73671200
160.49999065	0.00000000	14.27165000	4.69365100
160.69999064	0.00000000	14.60384000	4.31840500
160.89999062	0.00000000	14.97293000	3.57406500
161.09999061	0.00000000	14.64690000	3.19881900
161.29999060	0.00000000	14.64690000	3.15575800
161.49999059	0.00000000	15.01599000	3.15575800
161.69999058	0.00000000	15.02214000	3.15575800
161.89999056	0.00000000	15.43430000	3.15575800
162.09999055	0.00000000	15.76649000	3.19881900
162.29999054	0.00000000	15.80955000	3.53100400
162.49999053	0.00000000	15.80955000	3.90009800
162.69999052	0.00000000	15.80955000	3.53100400
162.89999051	0.00000000	15.76649000	3.19881900
163.09999049	0.00000000	15.39124000	3.15575800
163.29999048	0.00000000	14.64690000	3.15575800
163.49999047	0.00000000	14.27165000	3.15575800
163.69999046	0.00000000	14.22859000	3.15575800
163.89999045	0.00000000	14.22859000	3.15575800
164.09999043	0.00000000	14.22859000	3.15575800
164.29999042	0.00000000	14.22859000	3.15575800
164.49999041	0.00000000	14.27165000	3.15575800
164.69999040	0.00000000	14.64690000	3.15575800
164.89999039	0.00000000	15.39124000	3.15575800
165.09999037	0.00000000	15.71727000	3.15575800
165.29999036	0.00000000	15.43430000	3.15575800
165.49999035	0.00000000	15.06521000	3.15575800
165.69999034	0.00000000	15.43430000	3.15575800
165.89999033	0.00000000	15.71727000	3.15575800
166.09999032	0.00000000	15.39124000	3.15575800
166.29999030	0.00000000	14.64690000	3.15575800
166.49999029	0.00000000	14.27165000	3.15575800
166.69999028	0.00000000	14.22859000	3.15575800
166.89999027	0.00000000	14.22859000	3.15575800
167.09999026	0.00000000	14.22859000	3.15575800
167.29999024	0.00000000	14.27165000	3.15575800
167.49999023	0.00000000	14.64690000	3.15575800
167.69999022	0.00000000	15.39124000	3.15575800
167.89999021	0.00000000	15.76649000	3.15575800
168.09999020	0.00000000	15.85261000	3.15575800
168.29999018	0.00000000	16.18479000	3.15575800
168.49999017	0.00000000	16.55389000	3.15575800
168.69999016	0.00000000	16.14173000	3.15575800
168.89999015	0.00000000	15.43430000	3.15575800
169.09999014	0.00000000	14.64690000	3.15575800
169.29999013	0.00000000	14.27165000	3.15575800
169.49999011	0.00000000	14.22859000	3.15575800
169.69999010	0.00000000	14.22859000	3.15575800
169.89999009	0.00000000	14.22859000	3.15575800
170.09999008	0.00000000	14.22859000	3.15575800
170.29999007	0.00000000	14.27165000	3.15575800
170.49999005	0.00000000	14.64690000	3.15575800
170.69999004	0.00000000	15.39124000	3.15575800
170.89999003	0.00000000	15.71727000	3.15575800
171.09999002	0.00000000	15.43430000	3.15575800
171.29999001	0.00000000	15.06521000	3.15575800
171.49998999	0.00000000	15.43430000	3.15575800
171.69998998	0.00000000	15.76649000	3.15575800
171.89998997	0.00000000	15.76649000	3.15575800
172.09998996	0.00000000	15.39124000	3.15575800
172.29998995	0.00000000	14.64690000	3.15575800
172.49998994	0.00000000	14.27165000	3.15575800
172.69998992	0.00000000	14.22859000	3.15575800
172.89998991	0.00000000	14.22859000	3.15575800
173.09998990	0.00000000	14.27165000	3.15575800
173.29998989	0.00000000	14.60384000	3.15575800
173.49998988	0.00000000	15.01599000	3.15575800
173.69998986	0.00000000	15.02214000	3.15575800
173.89998985	0.00000000	15.43430000	3.15575800
174.09998984	0.00000000	15.76649000	3.15575800
174.29998983	0.00000000	15.80955000	3.15575800
174.49998982	0.00000000	15.80955000	3.15575800
174.69998980	0.00000000	15.76649000	3.15575800
174.89998979	0.00000000	15.39124000	3.15575800
175.09998978	0.00000000	14.64690000	3.15575800
175.29998977	0.00000000	14.27165000	3.15575800
175.49998976	0.00000000	14.22859000	3.15575800
175.69998975	0.00000000	14.22859000	3.15575800
175.89998973	0.00000000	14.27165000	3.15575800
176.09998972	0.00000000	14.60384000	3.15575800
176.29998971	0.00000000	14.97293000	3.15575800
176.49998970	0.00000000	14.60384000	3.15575800
176.69998969	0.00000000	14.27165000	3.15575800
176.89998967	0.00000000	14.22859000	3.15575800
177.09998966	0.00000000	14.27165000	3.15575800
177.29998965	0.00000000	14.64690000	3.15575800
177.49998964	0.00000000	15.34203000	3.15575800
177.69998963	0.00000000	15.34203000	3.15575800
177.89998961	0.00000000	14.64690000	3.15575800
178.09998960	0.00000000	14.27165000	3.15575800
178.29998959	0.00000000	14.27165000	3.15575800
178.49998958	0.00000000	14.60384000	3.15575800
178.69998957	0.00000000	14.97293000	3.15575800
178.89998956	0.00000000	14.64690000	3.15575800
179.09998954	0.00000000	14.64690000	3.15575800
179.29998953	0.00000000	14.97293000	3.15575800
179.49998952	0.00000000	14.60384000	3.15575800
179.69998951	0.00000000	14.32087000	3.15575800
179.89998950	0.00000000	14.64690000	3.15575800
180.09998948	0.00000000	15.34203000	3.15575800
180.29998947	0.00000000	15.34203000	3.15575800
180.49998946	0.00000000	14.64690000	3.15575800
180.69998945	0.00000000	14.27165000	3.15575800
180.89998944	0.00000000	14.22859000	3.15575800
181.09998942	0.00000000	14.22859000	3.15575800
181.29998941	0.00000000	14.22859000	3.15575800
181.49998940	0.00000000	14.22859000	3.15575800
181.69998939	0.00000000	14.22859000	3.15575800
181.89998938	0.00000000	14.22859000	3.15575800
182.09998937	0.00000000	14.27165000	3.15575800
182.29998935	0.00000000	14.64690000	3.15575800
182.49998934	0.00000000	15.39124000	3.15575800
182.69998933	0.00000000	15.76649000	3.15575800
182.89998932	0.00000000	15.76649000	3.11269700
183.09998931	0.00000000	15.39124000	2.78051200
183.29998929	0.00000000	14.64690000	2.36835600
183.49998928	0.00000000	14.27165000	2.36220500
183.69998927	0.00000000	14.22859000	1.99311000
183.89998926	0.00000000	14.22859000	2.04232300
184.09998925	0.00000000	14.22859000	2.73745100
184.29998923	0.00000000	14.22859000	3.11269700
184.49998922	0.00000000	14.22859000	3.15575800
184.69998921	0.00000000	14.22859000	3.19881900
184.89998920	0.00000000	14.22859000	3.53100400
185.09998919	0.00000000	14.22859000	3.94315900
185.29998918	0.00000000	14.22859000	3.90625000
185.49998916	0.00000000	14.27165000	3.94315900
185.69998915	0.00000000	14.64690000	3.53100400
185.89998914	0.00000000	15.39124000	3.15575800
186.09998913	0.00000000	15.71727000	2.73745100
186.29998912	0.00000000	15.39124000	1.99311000
186.49998910	0.00000000	14.64690000	1.61786400
186.69998909	0.00000000	14.27165000	1.57480300
186.89998908	0.00000000	14.22859000	1.61786400
187.09998907	0.00000000	14.22859000	1.99311000
187.29998906	0.00000000	14.22859000	2.73745100
187.49998904	0.00000000	14.22859000	3.15575800
187.69998903	0.00000000	14.22859000	3.57406500
187.89998902	0.00000000	14.22859000	4.26919300
188.09998901	0.00000000	14.22859000	4.26919300
188.29998900	0.00000000	14.22859000	3.57406500
188.49998899	0.00000000	14.27165000	3.19881900
188.69998897	0.00000000	14.60384000	3.11269700
188.89998896	0.00000000	15.01599000	2.73745100
189.09998895	0.00000000	14.97908000	1.99311000
189.29998894	0.00000000	15.01599000	1.61786400
189.49998893	0.00000000	14.60384000	1.61786400
189.69998891	0.00000000	14.27165000	1.99311000
189.89998890	0.00000000	14.22859000	2.73745100
190.09998889	0.00000000	14.22859000	3.11269700
190.29998888	0.00000000	14.22859000	3.15575800
190.49998887	0.00000000	14.22859000	3.15575800
190.69998885	0.00000000	14.22859000	3.15575800
190.89998884	0.00000000	14.22859000	3.15575800
191.09998883	0.00000000	14.22859000	3.15575800
191.29998882	0.00000000	14.22859000	3.15575800
191.49998881	0.00000000	14.27165000	3.15575800
191.69998880	0.00000000	14.60384000	3.15575800
191.89998878	0.00000000	15.01599000	3.15575800
192.09998877	0.00000000	14.97908000	3.15575800
192.29998876	0.00000000	15.01599000	3.15575800
192.49998875	0.00000000	14.60384000	3.15575800
192.69998874	0.00000000	14.27165000	3.15575800
192.89998872	0.00000000	14.22859000	3.15575800
193.09998871	0.00000000	14.22859000	3.15575800
193.29998870	0.00000000	14.22859000	3.15575800
193.49998869	0.00000000	14.22859000	3.15575800
193.69998868	0.00000000	14.22859000	3.15575800
193.89998866	0.00000000	14.22859000	3.15575800
194.09998865	0.00000000	14.22859000	3.15575800
194.29998864	0.00000000	14.22859000	3.15575800
194.49998863	0.00000000	14.27165000	3.19881900
194.69998862	0.00000000	14.60384000	3.53100400
194.89998861	0.00000000	14.97293000	3.90009800
195.09998859	0.00000000	14.60384000	3.53100400
195.29998858	0.00000000	14.27165000	3.15575800
195.49998857	0.00000000	14.22859000	2.78051200
195.69998856	0.00000000	14.22859000	2.41141700
195.89998855	0.00000000	14.22859000	2.78051200
196.09998853	0.00000000	14.22859000	3.11269700
