Time	Channel A	Channel B	Channel C
(us)	(V)	(mV)	(mV)

-4.49999956	0.00000000	31.61909000	10.67298000
-4.29999957	0.00000000	31.61909000	10.95595000
-4.09999958	0.00000000	31.61909000	10.67298000
-3.89999959	0.00000000	31.61909000	10.31004000
-3.69999960	0.00000000	31.61909000	10.67298000
-3.49999962	0.00000000	31.61909000	11.00517000
-3.29999963	0.00000000	31.61909000	11.04823000
-3.09999964	0.00000000	31.61909000	11.04823000
-2.89999965	0.00000000	31.61909000	11.04823000
-2.69999966	0.00000000	31.57603000	11.04823000
-2.49999968	0.00000000	31.24384000	11.04823000
-2.29999969	0.00000000	30.87475000	11.04823000
-2.09999970	0.00000000	31.24384000	11.04823000
-1.89999971	0.00000000	31.57603000	11.04823000
-1.69999972	0.00000000	31.61909000	11.00517000
-1.49999973	0.00000000	31.61909000	10.62992000
-1.29999975	0.00000000	31.61909000	9.89173200
-1.09999976	0.00000000	31.57603000	9.51648500
-0.89999977	0.00000000	31.24384000	9.51648500
-0.69999978	0.00000000	30.87475000	9.84867000
-0.49999979	0.00000000	31.24384000	10.21161000
-0.29999981	0.31803640	31.57603000	9.84867000
-0.09999982	0.63668800	31.61909000	9.56569900
0.10000017	0.95533960	31.61909000	9.89173200
0.30000016	0.95533960	31.57603000	10.58686000
0.50000015	0.79601380	31.24384000	10.62992000
0.70000013	0.31803640	30.87475000	10.26698000
0.90000012	-0.47736220	31.24384000	10.30389000
1.10000011	-1.43331700	31.57603000	10.26698000
1.30000010	-2.38927200	31.61909000	10.67298000
1.50000009	-2.70792300	31.61909000	11.00517000
1.70000008	-2.54859700	31.61909000	11.04823000
1.90000006	-1.27399100	31.61909000	11.04823000
2.10000005	0.47736220	31.61909000	11.04823000
2.30000004	2.54859700	31.61909000	11.04823000
2.50000003	4.45989200	31.61909000	11.00517000
2.70000002	5.25652100	31.61909000	10.62992000
2.90000000	4.93786900	31.61909000	9.89173200
3.09999999	3.02657500	31.61909000	9.51648500
3.29999998	0.00000000	31.61909000	9.51648500
3.49999997	-3.34522600	31.61909000	9.89173200
3.69999996	-6.37180100	31.61909000	10.62992000
3.89999994	-7.96444400	31.61909000	11.04823000
4.09999993	-7.48646600	31.61909000	11.42347000
4.29999992	-5.09719500	31.61909000	11.83563000
4.49999991	-1.27399100	31.61909000	11.79872000
4.69999990	3.18590100	31.61909000	11.83563000
4.89999989	7.00848900	31.61909000	11.42347000
5.09999987	9.23905000	31.61909000	11.04823000
5.29999986	9.07972400	31.61909000	10.67298000
5.49999985	6.69045300	31.61909000	10.26698000
5.69999984	2.54859700	31.61909000	10.25467000
5.89999983	-2.22994600	31.61909000	9.84867000
6.09999981	-6.53112700	31.61909000	9.56569900
6.29999980	-9.07972400	31.61909000	9.89173200
6.49999979	-9.23905000	31.66215000	10.62992000
6.69999978	-7.16781500	31.99434000	11.00517000
6.89999977	-3.50393700	32.36343000	11.04823000
7.09999975	0.79601380	31.99434000	11.04823000
7.29999974	4.77854300	31.66215000	11.04823000
7.49999973	7.16781500	31.61909000	11.04823000
7.69999972	7.64579200	31.61909000	11.00517000
7.89999971	6.21247500	31.61909000	10.62992000
8.09999970	3.50393700	31.61909000	9.84867000
8.29999968	0.15871060	31.61909000	9.14124000
8.49999967	-2.70792300	31.61909000	8.77829600
8.69999966	-4.61921700	31.61909000	9.51648500
8.89999965	-5.25652100	31.61909000	10.58686000
9.09999964	-4.45989200	31.61909000	11.00517000
9.29999962	-2.70792300	31.61909000	11.00517000
9.49999961	-0.79601380	31.61909000	10.67298000
9.69999960	1.11466500	31.61909000	10.31004000
9.89999959	2.22994600	31.61909000	10.62992000
10.09999958	2.54859700	31.61909000	10.62992000
10.29999956	2.22994600	31.61909000	10.26698000
10.49999955	1.43331700	31.61909000	10.25467000
10.69999954	0.47736220	31.61909000	9.84867000
10.89999953	-0.15871060	31.61909000	9.51648500
11.09999952	-0.79601380	31.61909000	9.47342500
11.29999951	-0.95533960	31.61909000	9.51648500
11.49999949	-0.95533960	31.61909000	9.89173200
11.69999948	-0.79601380	31.61909000	10.58686000
11.89999947	-0.47736220	31.61909000	10.62992000
12.09999946	-0.15871060	31.61909000	10.31004000
12.29999945	-0.15871060	31.61909000	10.67298000
12.49999943	0.00000000	31.61909000	11.00517000
12.69999942	0.00000000	31.61909000	11.04823000
12.89999941	0.00000000	31.61909000	11.04823000
13.09999940	0.00000000	31.61909000	11.04823000
13.29999939	0.15871060	31.61909000	11.04823000
13.49999937	0.00000000	31.61909000	11.04823000
13.69999936	0.00000000	31.61909000	11.04823000
13.89999935	0.00000000	31.61909000	11.04823000
14.09999934	-0.15871060	31.61909000	11.04823000
14.29999933	-0.15871060	31.61909000	11.04823000
14.49999932	-0.15871060	31.61909000	11.04823000
14.69999930	0.00000000	31.61909000	11.04823000
14.89999929	0.00000000	31.57603000	11.04823000
15.09999928	0.00000000	31.24384000	11.04823000
15.29999927	0.00000000	30.87475000	11.04823000
15.49999926	0.00000000	31.24384000	11.04823000
15.69999924	0.00000000	31.57603000	11.04823000
15.89999923	0.00000000	31.61909000	11.04823000
16.09999922	0.00000000	31.61909000	11.04823000
16.29999921	0.00000000	31.61909000	11.04823000
16.49999920	-0.15871060	31.61909000	11.04823000
16.69999919	-0.15871060	31.61909000	11.04823000
16.89999917	-0.15871060	31.66215000	11.04823000
17.09999916	0.00000000	32.03740000	11.00517000
17.29999915	0.00000000	32.78174000	10.67298000
17.49999914	0.00000000	33.15699000	10.31004000
17.69999913	0.00000000	33.15699000	10.67298000
17.89999911	0.00000000	32.73252000	11.00517000
18.09999910	0.00000000	31.57603000	11.04823000
18.29999909	0.00000000	30.03814000	11.04823000
18.49999908	0.00000000	28.50024000	11.04823000
18.69999907	0.00000000	27.29453000	11.04823000
18.89999905	0.00000000	26.54404000	11.00517000
19.09999904	0.00000000	26.18110000	10.67298000
19.29999903	0.00000000	27.05462000	10.26698000
19.49999902	0.00000000	29.34301000	10.30389000
19.69999901	0.00000000	32.87401000	10.26698000
19.89999900	0.00000000	36.69414000	10.67298000
20.09999898	0.00000000	40.18209000	11.00517000
20.29999897	0.00000000	42.04601000	11.00517000
20.49999896	0.00000000	41.67076000	10.67298000
20.69999895	0.00000000	38.88410000	10.31004000
20.89999894	0.00000000	33.80905000	10.62992000
21.09999892	0.00000000	26.79011000	10.58686000
21.29999891	0.00000000	19.10679000	9.89173200
21.49999890	0.00000000	12.64149000	9.51648500
21.69999889	0.00000000	10.03322000	9.47342500
21.89999888	0.00000000	12.72761000	9.51648500
22.09999886	0.00000000	20.07874000	9.84867000
22.29999885	0.00000000	30.64099000	10.25467000
22.49999884	0.00000000	42.97490000	10.21776000
22.69999883	0.00000000	54.50910000	10.25467000
22.89999882	0.00000000	61.39886000	9.84867000
23.09999881	0.00000000	62.14320000	9.60875900
23.29999879	0.00000000	55.81939000	10.26698000
23.49999878	0.00000000	42.65502000	11.37426000
23.69999877	0.00000000	25.29527000	11.42347000
23.89999876	0.00000000	7.89862200	11.46653000
24.09999875	0.00000000	-5.54872000	11.79257000
24.29999873	0.00000000	-11.59572000	11.38041000
24.49999872	0.00000000	-7.32037400	10.62992000
24.69999871	0.00000000	6.58833600	9.42421200
24.89999870	0.00000000	26.69168000	7.89247000
25.09999869	0.00000000	49.11417000	6.36072800
25.29999867	0.00000000	68.38091000	5.19808000
25.49999866	0.00000000	79.96431000	4.87204700
25.69999865	0.00000000	81.03469000	5.66560000
25.89999864	0.00000000	70.52164000	8.02780400
26.09999863	0.00000000	50.09227000	11.51575000
26.29999862	0.00000000	24.64321000	15.74188000
26.49999860	0.00000000	0.72588580	19.59892000
26.69999859	0.00000000	-16.33858000	21.88115000
26.89999858	0.00000000	-22.85925000	22.24409000
27.09999857	0.00000000	-17.45817000	19.83883000
27.29999856	0.00000000	-0.85506890	14.76993000
27.49999854	0.00000000	22.64394000	7.43110200
27.69999853	0.00000000	47.39788000	-0.64591530
27.89999852	0.00000000	67.91338000	-7.16043300
28.09999851	0.00000000	79.92126000	-10.59301000
28.29999850	0.00000000	81.08390000	-9.38730200
28.49999848	0.00000000	71.07529000	-3.53715500
28.69999847	0.00000000	52.55905000	6.12696800
28.89999846	0.00000000	30.17347000	18.15330000
29.09999845	0.00000000	8.87057000	29.68750000
29.29999844	0.00000000	-6.62524600	38.50886000
29.49999843	0.00000000	-13.64419000	41.48622000
29.69999841	0.00000000	-10.94365000	37.26009000
29.89999840	0.00000000	0.59055110	26.80241000
30.09999839	0.00000000	17.94414000	12.11860000
30.29999838	0.00000000	36.88484000	-3.72170300
30.49999837	0.00000000	53.21112000	-17.24286000
30.69999835	0.00000000	64.05635000	-25.74434000
30.89999834	0.00000000	67.58735000	-27.18381000
31.09999833	0.00000000	63.02903000	-20.54011000
31.29999832	0.00000000	52.55905000	-6.27460600
31.49999831	0.00000000	38.22588000	12.21087000
31.69999829	0.00000000	22.41018000	30.37647000
31.89999828	0.00000000	9.70103300	44.64198000
32.09999827	0.00000000	2.59596400	51.61171000
32.29999826	0.00000000	1.79626000	49.71087000
32.49999825	0.00000000	6.82824800	40.04060000
32.69999824	0.00000000	16.87377000	24.15723000
32.89999822	0.00000000	29.57677000	5.24729300
33.09999821	0.00000000	41.53543000	-12.50615000
33.29999820	0.00000000	50.09227000	-25.27682000
33.49999819	0.00000000	53.58636000	-30.29650000
33.69999818	0.00000000	51.72244000	-26.85777000
33.89999816	0.00000000	45.16486000	-15.66191000
34.09999815	0.00000000	35.94980000	0.55364170
34.29999814	0.00000000	26.27337000	18.30093000
34.49999813	0.00000000	18.59006000	33.77214000
34.69999812	0.00000000	14.68381000	43.44242000
34.89999810	0.00000000	15.42815000	45.80462000
35.09999809	0.00000000	19.99262000	40.41584000
35.29999808	0.00000000	26.92544000	28.84473000
35.49999807	0.00000000	34.23351000	13.79183000
35.69999806	0.00000000	40.00369000	-1.63016700
35.89999805	0.00000000	42.74114000	-13.57037000
36.09999803	0.00000000	41.95989000	-19.37746000
36.29999802	0.00000000	38.13361000	-17.88878000
36.49999801	0.00000000	31.99434000	-9.85482200
36.69999800	0.00000000	25.89198000	2.04232300
36.89999799	0.00000000	21.61663000	14.76993000
37.09999797	0.00000000	20.07874000	25.17839000
37.29999796	0.00000000	21.61663000	30.98548000
37.49999795	0.00000000	25.80585000	30.98548000
37.69999794	0.00000000	31.15772000	25.22145000
37.89999793	0.00000000	35.81446000	15.32357000
38.09999791	0.00000000	38.97638000	4.63828700
38.29999790	0.00000000	40.51427000	-3.11884800
38.49999789	0.00000000	40.08981000	-6.56373000
38.69999788	0.00000000	37.39542000	-4.97662400
38.89999787	0.00000000	33.15699000	2.26377900
39.09999786	0.00000000	28.54946000	12.11860000
39.29999784	0.00000000	24.68627000	20.95226000
39.49999783	0.00000000	22.68701000	26.34104000
39.69999782	0.00000000	22.26870000	26.71629000
39.89999781	0.00000000	23.06225000	22.10876000
40.09999780	0.00000000	25.43061000	13.65650000
40.29999778	0.00000000	28.83243000	3.70939900
40.49999777	0.00000000	32.36343000	-4.74286400
40.69999776	0.00000000	35.07013000	-9.29502900
40.89999775	0.00000000	37.06324000	-8.55068800
41.09999774	0.00000000	37.85679000	-2.38065900
41.29999772	0.00000000	37.85679000	7.19734200
41.49999771	0.00000000	37.06324000	17.92569000
41.69999770	0.00000000	35.11319000	26.38410000
41.89999769	0.00000000	32.78174000	30.29035000
42.09999768	0.00000000	30.03814000	29.53986000
42.29999767	0.00000000	27.34375000	24.10802000
42.49999765	0.00000000	25.38755000	15.28051000
42.69999764	0.00000000	24.22490000	5.29035400
42.89999763	0.00000000	24.22490000	-3.11884800
43.09999762	0.00000000	25.33834000	-7.39419200
43.29999761	0.00000000	26.91929000	-6.74212600
43.49999759	0.00000000	28.87549000	-2.55905500
43.69999758	0.00000000	31.20078000	3.66633800
43.89999757	0.00000000	33.11393000	11.00517000
44.09999756	0.00000000	34.31963000	17.88263000
44.29999755	0.00000000	34.74409000	22.10876000
44.49999753	0.00000000	34.83022000	22.61934000
44.69999752	0.00000000	35.16240000	20.34941000
44.89999751	0.00000000	35.53149000	16.52928000
45.09999750	0.00000000	35.07013000	11.84178000
45.29999749	0.00000000	33.94439000	7.60949800
45.49999748	0.00000000	31.90822000	4.12770700
45.69999746	0.00000000	29.20152000	2.54675200
45.89999745	0.00000000	25.71358000	2.91584600
46.09999744	0.00000000	22.64394000	4.41067900
46.29999743	0.00000000	20.68774000	7.14197800
46.49999742	0.00000000	19.94340000	9.79945900
46.69999740	0.00000000	21.19833000	12.21087000
46.89999739	0.00000000	24.68627000	14.11786000
47.09999738	0.00000000	30.13041000	15.27436000
47.29999737	0.00000000	36.31890000	15.23130000
47.49999736	0.00000000	42.09522000	13.69956000
47.69999734	0.00000000	45.90305000	11.04823000
47.89999733	0.00000000	46.27829000	8.31077700
48.09999732	0.00000000	43.16560000	5.98548200
48.29999731	0.00000000	36.92790000	4.08464600
48.49999730	0.00000000	28.45718000	3.75246000
48.69999729	0.00000000	19.99262000	5.19808000
48.89999727	0.00000000	13.80413000	7.56643700
49.09999726	0.00000000	11.10359000	10.31004000
49.29999725	0.00000000	12.72761000	13.79183000
49.49999724	0.00000000	18.92224000	16.76919000
49.69999723	0.00000000	28.50640000	17.97490000
49.89999721	0.00000000	38.50886000	17.18750000
50.09999720	0.00000000	46.23523000	14.85605000
50.29999719	0.00000000	50.14148000	11.00517000
50.49999718	0.00000000	49.35408000	6.82209600
50.69999717	0.00000000	44.32209000	3.70939900
50.89999715	0.00000000	35.85752000	2.12844500
51.09999714	0.00000000	26.27337000	2.17150600
51.29999713	0.00000000	18.54700000	4.12770700
51.49999712	0.00000000	14.26550000	7.98474400
51.69999711	0.00000000	14.30856000	12.53691000
51.89999710	0.00000000	18.87303000	16.39395000
52.09999708	0.00000000	26.50098000	18.35015000
52.29999707	0.00000000	34.23351000	18.43627000
52.49999706	0.00000000	40.42199000	17.18750000
52.69999705	0.00000000	43.86073000	14.48696000
52.89999704	0.00000000	43.07332000	10.26698000
53.09999702	0.00000000	38.55192000	6.48991100
53.29999701	0.00000000	32.03740000	4.12770700
53.49999700	0.00000000	25.84892000	3.75246000
53.69999699	0.00000000	21.24139000	5.24729300
53.89999698	0.00000000	19.34055000	7.89247000
54.09999696	0.00000000	21.24139000	10.58686000
54.29999695	0.00000000	25.80585000	12.49385000
54.49999694	0.00000000	31.57603000	13.28125000
54.69999693	0.00000000	36.97096000	12.53691000
54.89999692	0.00000000	40.42199000	11.00517000
55.09999691	0.00000000	41.20940000	9.09817800
55.29999689	0.00000000	38.88410000	7.24040300
55.49999688	0.00000000	34.27657000	6.86515700
55.69999687	0.00000000	28.54946000	7.98474400
55.89999686	0.00000000	23.57283000	9.93479300
56.09999685	0.00000000	21.19833000	12.58612000
56.29999683	0.00000000	21.19833000	14.85605000
56.49999682	0.00000000	23.52977000	15.60654000
56.69999681	0.00000000	28.12500000	14.81299000
56.89999680	0.00000000	33.06471000	12.07554000
57.09999679	0.00000000	36.97096000	7.89247000
57.29999677	0.00000000	38.88410000	3.66633800
57.49999676	0.00000000	38.55807000	0.59670270
57.69999675	0.00000000	36.23277000	-0.51673230
57.89999674	0.00000000	32.78174000	1.06422200
58.09999673	0.00000000	28.92470000	5.33341500
58.29999672	0.00000000	25.84892000	11.42347000
58.49999670	0.00000000	24.26796000	17.55044000
58.69999669	0.00000000	24.26796000	21.41363000
58.89999668	0.00000000	25.80585000	22.61934000
59.09999667	0.00000000	28.45718000	20.99532000
59.29999666	0.00000000	31.15157000	16.35089000
59.49999664	0.00000000	33.11393000	9.42421200
59.69999663	0.00000000	34.23351000	2.12844500
59.89999662	0.00000000	33.85827000	-3.58636800
60.09999661	0.00000000	32.03740000	-5.90551100
60.29999660	0.00000000	30.50566000	-3.95546200
60.49999658	0.00000000	29.66289000	1.39025600
60.69999657	0.00000000	28.87549000	9.09817800
60.89999656	0.00000000	28.54946000	16.81225000
61.09999655	0.00000000	28.92470000	22.99459000
61.29999654	0.00000000	30.08120000	26.38410000
61.49999653	0.00000000	31.57603000	25.22145000
61.69999651	0.00000000	32.68946000	19.92495000
61.89999650	0.00000000	32.68946000	12.58612000
62.09999649	0.00000000	31.57603000	4.87204700
62.29999648	0.00000000	30.03814000	-1.67322800
62.49999647	0.00000000	28.45718000	-5.16117100
62.69999645	0.00000000	26.96850000	-5.16117100
62.89999644	0.00000000	26.18110000	-1.71628900
63.09999643	0.00000000	26.59326000	4.49680100
63.29999642	0.00000000	27.76206000	11.79872000
63.49999641	0.00000000	30.08120000	19.13140000
63.69999639	0.00000000	32.73868000	24.06496000
63.89999638	0.00000000	34.69488000	25.31373000
64.09999637	0.00000000	35.85752000	23.03765000
64.29999636	0.00000000	35.81446000	18.43627000
64.49999635	0.00000000	34.27657000	12.58612000
64.69999634	0.00000000	31.61909000	6.44685000
64.89999632	0.00000000	28.92470000	1.43946800
65.09999631	0.00000000	26.96850000	-0.93503930
65.29999630	0.00000000	25.80585000	-0.97810030
65.49999629	0.00000000	25.84892000	0.97194880
65.69999628	0.00000000	27.34375000	4.77977300
65.89999626	0.00000000	29.61983000	9.00590400
66.09999625	0.00000000	31.52682000	12.53691000
66.29999624	0.00000000	32.73252000	15.32357000
66.49999623	0.00000000	33.06471000	17.23056000
66.69999622	0.00000000	32.31422000	18.06102000
66.89999620	0.00000000	30.41338000	17.69808000
67.09999619	0.00000000	28.54946000	16.89837000
67.29999618	0.00000000	27.38681000	15.27436000
67.49999617	0.00000000	27.38681000	12.58612000
67.69999616	0.00000000	28.54946000	9.47342500
67.89999615	0.00000000	30.50566000	6.31151500
68.09999613	0.00000000	33.20005000	3.24803100
68.29999612	0.00000000	35.81446000	0.97194880
68.49999611	0.00000000	36.97712000	0.59670270
68.69999610	0.00000000	36.18971000	2.08538400
68.89999609	0.00000000	33.85827000	4.82283400
69.09999607	0.00000000	29.95201000	8.35998900
69.29999606	0.00000000	25.38755000	12.67224000
69.49999605	0.00000000	21.52436000	17.23056000
69.69999604	0.00000000	19.66043000	20.71235000
69.89999603	0.00000000	20.41092000	21.83194000
70.09999601	0.00000000	23.89271000	20.66314000
70.29999600	0.00000000	28.92470000	16.76919000
70.49999599	0.00000000	34.73794000	11.04823000
70.69999598	0.00000000	40.08981000	5.24729300
70.89999597	0.00000000	43.16560000	0.59670270
71.09999596	0.00000000	43.16560000	-2.09153500
71.29999594	0.00000000	40.04675000	-2.09153500
71.49999593	0.00000000	34.27657000	0.59670270
71.69999592	0.00000000	27.34375000	5.19808000
71.89999591	0.00000000	21.14911000	10.58686000
72.09999590	0.00000000	16.87377000	15.18824000
72.29999588	0.00000000	15.33587000	17.88263000
72.49999587	0.00000000	16.91683000	17.97490000
72.69999586	0.00000000	21.57357000	16.11712000
72.89999585	0.00000000	28.45718000	13.79183000
73.09999584	0.00000000	35.39001000	11.04823000
73.29999582	0.00000000	40.46506000	8.35383800
73.49999581	0.00000000	43.20866000	6.48991100
73.69999580	0.00000000	43.16560000	6.08390700
73.89999579	0.00000000	40.08981000	7.56643700
74.09999578	0.00000000	34.69488000	9.38115100
74.29999577	0.00000000	28.54946000	10.58686000
74.49999575	0.00000000	23.15453000	10.91289000
74.69999574	0.00000000	20.03568000	10.16855000
74.89999573	0.00000000	19.56816000	8.26771600
75.09999572	0.00000000	21.10605000	6.40378900
75.29999571	0.00000000	24.22490000	5.24729300
75.49999569	0.00000000	28.45718000	5.29035400
75.69999568	0.00000000	32.68946000	6.86515700
75.89999567	0.00000000	35.76525000	9.93479300
76.09999566	0.00000000	36.97712000	13.79183000
76.29999565	0.00000000	36.23277000	17.23056000
76.49999563	0.00000000	34.36884000	19.50664000
76.69999562	0.00000000	32.03740000	19.46358000
76.89999561	0.00000000	30.08120000	16.76919000
77.09999560	0.00000000	28.54946000	12.11860000
77.29999559	0.00000000	27.76206000	6.36072800
77.49999558	0.00000000	28.12500000	0.97194880
77.69999556	0.00000000	28.83243000	-2.46678100
77.89999555	0.00000000	29.61983000	-3.25418300
78.09999554	0.00000000	29.94586000	-0.93503930
78.29999553	0.00000000	29.61983000	3.70939900
78.49999552	0.00000000	28.87549000	9.89173200
78.69999550	0.00000000	28.50024000	16.39395000
78.89999549	0.00000000	28.50024000	21.03838000
79.09999548	0.00000000	28.92470000	22.99459000
79.29999547	0.00000000	30.08120000	22.24409000
79.49999546	0.00000000	31.66215000	18.76845000
79.69999544	0.00000000	33.53223000	13.74262000
79.89999543	0.00000000	35.06397000	7.93553100
80.09999542	0.00000000	35.02707000	2.59596400
80.29999541	0.00000000	33.90133000	-0.51673230
80.49999540	0.00000000	31.53297000	-0.97810030
80.69999539	0.00000000	28.50024000	0.55364170
80.89999537	0.00000000	25.80585000	3.62327700
81.09999536	0.00000000	24.26796000	7.51722400
81.29999535	0.00000000	24.26796000	11.38041000
81.49999534	0.00000000	25.80585000	14.90526000
81.69999533	0.00000000	28.45718000	17.23056000
81.89999531	0.00000000	31.20078000	18.43627000
82.09999530	0.00000000	33.53223000	18.43627000
82.29999529	0.00000000	35.43922000	17.27362000
82.49999528	0.00000000	35.81446000	15.32357000
82.69999527	0.00000000	34.73794000	12.53691000
82.89999525	0.00000000	33.15699000	9.09817800
83.09999524	0.00000000	31.20078000	5.57332700
83.29999523	0.00000000	28.87549000	2.87278500
83.49999522	0.00000000	27.01156000	0.97194880
83.69999521	0.00000000	26.22416000	0.97194880
83.89999520	0.00000000	26.91929000	2.82972400
84.09999518	0.00000000	28.03888000	5.19808000
84.29999517	0.00000000	28.87549000	8.40305000
84.49999516	0.00000000	30.03814000	12.62918000
84.69999515	0.00000000	31.10851000	16.81225000
84.89999514	0.00000000	31.15157000	19.50664000
85.09999512	0.00000000	30.45644000	19.93110000
85.29999511	0.00000000	30.13041000	18.39321000
85.49999510	0.00000000	30.45644000	15.23130000
85.69999509	0.00000000	31.20078000	10.58686000
85.89999508	0.00000000	31.61909000	5.24729300
86.09999506	0.00000000	31.99434000	1.02116100
86.29999505	0.00000000	32.31422000	-0.93503930
86.49999504	0.00000000	31.52682000	-0.60285430
86.69999503	0.00000000	30.03814000	1.75935000
86.89999502	0.00000000	28.45718000	5.61638700
87.09999501	0.00000000	26.96850000	10.62992000
87.29999499	0.00000000	26.18110000	15.23130000
87.49999498	0.00000000	26.54404000	18.35015000
87.69999497	0.00000000	27.29453000	19.46358000
87.89999496	0.00000000	28.50024000	17.93184000
88.09999495	0.00000000	30.03814000	14.11786000
88.29999493	0.00000000	31.57603000	9.51648500
88.49999492	0.00000000	32.73252000	5.24729300
88.69999491	0.00000000	33.10777000	2.17765700
88.89999490	0.00000000	32.73252000	1.01501000
89.09999489	0.00000000	31.57603000	2.17765700
89.29999487	0.00000000	30.03814000	5.24729300
89.49999486	0.00000000	28.45718000	9.47342500
89.69999485	0.00000000	26.96850000	13.69956000
89.89999484	0.00000000	26.22416000	16.76919000
90.09999483	0.00000000	26.91929000	17.88263000
90.29999482	0.00000000	28.03888000	16.35089000
90.49999480	0.00000000	28.87549000	12.58612000
90.69999479	0.00000000	30.03814000	8.35998900
90.89999478	0.00000000	31.15157000	4.87204700
91.09999477	0.00000000	31.57603000	2.54675200
91.29999476	0.00000000	31.57603000	2.17150600
91.49999474	0.00000000	31.20078000	3.70939900
91.69999473	0.00000000	30.45644000	6.82209600
91.89999472	0.00000000	30.08120000	11.04823000
92.09999471	0.00000000	30.03814000	15.23130000
92.29999470	0.00000000	30.03814000	17.88263000
92.49999468	0.00000000	30.03814000	17.88263000
92.69999467	0.00000000	29.99508000	15.23130000
92.89999466	0.00000000	29.61983000	11.04823000
93.09999465	0.00000000	28.87549000	6.82209600
93.29999464	0.00000000	28.45718000	3.70939900
93.49999463	0.00000000	28.08194000	2.17150600
93.69999461	0.00000000	27.71284000	2.59596400
93.89999460	0.00000000	28.12500000	5.29035400
94.09999459	0.00000000	28.92470000	9.47342500
94.29999458	0.00000000	30.50566000	13.65650000
94.49999457	0.00000000	32.73868000	16.39395000
94.69999455	0.00000000	34.27657000	17.18750000
94.89999454	0.00000000	34.69488000	16.39395000
95.09999453	0.00000000	34.27657000	13.65650000
95.29999452	0.00000000	32.73868000	9.47342500
95.49999451	0.00000000	30.37032000	5.29035400
95.69999449	0.00000000	27.66363000	2.59596400
95.89999448	0.00000000	24.60015000	2.17150600
96.09999447	0.00000000	22.68701000	3.70939900
96.29999446	0.00000000	22.26870000	6.77903500
96.49999445	0.00000000	23.10531000	10.58686000
96.69999444	0.00000000	25.80585000	13.69956000
96.89999442	0.00000000	29.66289000	15.64960000
97.09999441	0.00000000	33.53223000	16.39395000
97.29999440	0.00000000	37.02018000	15.23130000
97.49999439	0.00000000	38.88410000	12.58612000
97.69999438	0.00000000	38.55807000	9.51648500
97.89999436	0.00000000	36.23277000	6.82209600
98.09999435	0.00000000	32.78174000	5.29035400
98.29999434	0.00000000	28.87549000	5.29035400
98.49999433	0.00000000	25.38755000	6.77903500
98.69999432	0.00000000	22.68701000	9.00590400
98.89999430	0.00000000	21.52436000	10.53765000
99.09999429	0.00000000	22.26870000	11.00517000
99.29999428	0.00000000	24.22490000	11.04823000
99.49999427	0.00000000	27.38681000	11.04823000
99.69999426	0.00000000	31.57603000	11.04823000
99.89999425	0.00000000	35.39001000	11.04823000
100.09999423	0.00000000	37.39542000	11.09129000
100.29999422	0.00000000	37.81373000	11.46653000
100.49999421	0.00000000	37.02018000	12.21087000
100.69999420	0.00000000	34.69488000	12.53691000
100.89999419	0.00000000	31.66830000	12.16166000
101.09999417	0.00000000	28.87549000	11.00517000
101.29999416	0.00000000	26.54404000	9.47342500
101.49999415	0.00000000	24.60015000	7.89247000
101.69999414	0.00000000	23.84965000	6.36072800
101.89999413	0.00000000	24.22490000	5.24729300
102.09999411	0.00000000	25.76279000	5.29035400
102.29999410	0.00000000	28.08194000	6.82209600
102.49999409	0.00000000	30.41338000	9.47342500
102.69999408	0.00000000	32.73868000	12.16781000
102.89999407	0.00000000	34.27657000	14.11786000
103.09999406	0.00000000	34.69488000	15.27436000
103.29999404	0.00000000	34.31963000	15.23130000
103.49999403	0.00000000	33.11393000	13.69956000
103.69999402	0.00000000	31.20078000	11.00517000
103.89999401	0.00000000	28.87549000	7.93553100
104.09999400	0.00000000	26.96850000	5.19808000
104.29999398	0.00000000	25.80585000	3.29109200
104.49999397	0.00000000	25.71358000	2.50369100
104.69999396	0.00000000	26.12574000	3.33415300
104.89999395	0.00000000	26.55635000	5.61638700
105.09999394	0.00000000	28.12500000	9.05511800
105.29999392	0.00000000	29.94586000	12.07554000
105.49999391	0.00000000	31.15157000	13.69956000
105.69999390	0.00000000	31.52682000	14.07480000
105.89999389	0.00000000	31.20078000	13.32431000
106.09999388	0.00000000	30.41338000	11.38041000
106.29999387	0.00000000	29.66289000	9.09817800
106.49999385	0.00000000	28.87549000	6.77903500
106.69999384	0.00000000	28.50024000	5.29035400
106.89999383	0.00000000	28.50024000	5.24729300
107.09999382	0.00000000	28.87549000	6.36072800
107.29999381	0.00000000	29.61983000	7.89247000
107.49999379	0.00000000	30.03814000	9.47342500
107.69999378	0.00000000	30.41338000	10.96211000
107.89999377	0.00000000	30.78248000	11.74336000
108.09999376	0.00000000	30.37032000	11.38041000
108.29999375	0.00000000	29.61983000	10.62992000
108.49999374	0.00000000	28.45718000	9.42421200
108.69999372	0.00000000	27.34375000	7.93553100
108.89999371	0.00000000	26.96850000	6.82209600
109.09999370	0.00000000	27.29453000	6.82209600
109.29999369	0.00000000	28.08194000	7.93553100
109.49999368	0.00000000	28.87549000	9.47342500
109.69999366	0.00000000	30.03814000	11.00517000
109.89999365	0.00000000	31.15157000	12.21087000
110.09999364	0.00000000	31.57603000	12.96137000
110.29999363	0.00000000	31.57603000	13.32431000
110.49999362	0.00000000	31.15157000	12.53691000
110.69999360	0.00000000	30.03814000	11.04823000
110.89999359	0.00000000	28.87549000	9.51648500
111.09999358	0.00000000	28.08194000	8.31077700
111.29999357	0.00000000	27.29453000	7.56028500
111.49999356	0.00000000	26.96850000	7.14812900
111.69999355	0.00000000	27.34375000	7.56028500
111.89999353	0.00000000	28.45718000	8.31077700
112.09999352	0.00000000	29.61983000	9.51648500
112.29999351	0.00000000	30.41338000	11.00517000
112.49999350	0.00000000	31.20078000	12.11860000
112.69999349	0.00000000	31.52682000	12.16166000
112.89999347	0.00000000	31.15157000	11.51575000
113.09999346	0.00000000	30.08120000	11.42347000
113.29999345	0.00000000	29.29380000	11.41732000
113.49999344	0.00000000	29.24459000	10.64222000
113.69999343	0.00000000	28.83243000	10.30389000
113.89999341	0.00000000	28.50024000	9.84867000
114.09999340	0.00000000	28.50024000	9.51648500
114.29999339	0.00000000	28.87549000	9.43036400
114.49999338	0.00000000	29.61983000	9.05511800
114.69999337	0.00000000	29.99508000	8.31077700
114.89999336	0.00000000	30.03814000	7.93553100
115.09999334	0.00000000	30.03814000	7.89247000
115.29999333	0.00000000	30.03814000	7.89247000
115.49999332	0.00000000	30.03814000	7.93553100
115.69999331	0.00000000	29.99508000	8.31077700
115.89999330	0.00000000	29.61983000	9.09817800
116.09999328	0.00000000	28.87549000	9.84867000
116.29999327	0.00000000	28.50024000	10.62992000
116.49999326	0.00000000	28.45718000	11.00517000
116.69999325	0.00000000	28.45718000	11.04823000
116.89999324	0.00000000	28.45718000	11.00517000
117.09999322	0.00000000	28.50024000	10.58686000
117.29999321	0.00000000	28.87549000	9.47342500
117.49999320	0.00000000	29.66289000	8.31077700
117.69999319	0.00000000	30.41338000	7.51722400
117.89999318	0.00000000	31.20078000	6.77903500
118.09999317	0.00000000	31.52682000	6.77903500
118.29999315	0.00000000	31.15157000	7.47416300
118.49999314	0.00000000	30.08120000	7.89247000
118.69999313	0.00000000	29.25074000	8.35998900
118.89999312	0.00000000	28.82628000	9.47342500
119.09999311	0.00000000	27.66978000	10.58686000
119.29999309	0.00000000	26.96850000	11.00517000
119.49999308	0.00000000	26.91929000	11.04823000
119.69999307	0.00000000	27.29453000	11.00517000
119.89999306	0.00000000	28.08194000	10.62992000
120.09999305	0.00000000	28.87549000	9.89173200
120.29999303	0.00000000	30.03814000	9.51648500
120.49999302	0.00000000	31.15157000	9.43036400
120.69999301	0.00000000	31.57603000	9.09817800
120.89999300	0.00000000	31.57603000	8.68602300
121.09999299	0.00000000	31.20078000	8.67987200
121.29999298	0.00000000	30.41338000	8.26771600
121.49999296	0.00000000	29.61983000	7.98474400
121.69999295	0.00000000	28.45718000	8.26771600
121.89999294	0.00000000	27.34375000	8.67987200
122.09999293	0.00000000	26.91929000	8.68602300
122.29999292	0.00000000	26.91929000	9.14124000
122.49999290	0.00000000	27.29453000	9.84867000
122.69999289	0.00000000	28.08194000	10.62992000
122.89999288	0.00000000	28.83243000	11.00517000
123.09999287	0.00000000	29.66289000	11.04823000
123.29999286	0.00000000	30.41338000	11.00517000
123.49999284	0.00000000	31.20078000	10.62992000
123.69999283	0.00000000	31.52682000	9.89173200
123.89999282	0.00000000	31.20078000	9.47342500
124.09999281	0.00000000	30.41338000	9.05511800
124.29999280	0.00000000	29.66289000	8.31077700
124.49999279	0.00000000	28.87549000	7.98474400
124.69999277	0.00000000	28.50024000	8.31077700
124.89999276	0.00000000	28.41412000	9.05511800
125.09999275	0.00000000	28.03888000	9.43036400
125.29999274	0.00000000	27.34375000	9.51648500
125.49999273	0.00000000	27.34375000	9.89173200
125.69999271	0.00000000	28.08194000	10.62992000
125.89999270	0.00000000	28.87549000	11.00517000
126.09999269	0.00000000	30.03814000	11.04823000
126.29999268	0.00000000	31.15157000	11.00517000
126.49999267	0.00000000	31.57603000	10.62992000
126.69999265	0.00000000	31.57603000	9.89173200
126.89999264	0.00000000	31.20078000	9.51648500
127.09999263	0.00000000	30.41338000	9.47342500
127.29999262	0.00000000	29.61983000	9.43036400
127.49999261	0.00000000	28.50024000	9.05511800
127.69999260	0.00000000	27.71284000	8.35998900
127.89999258	0.00000000	27.70669000	8.35998900
128.09999257	0.00000000	27.66978000	9.05511800
128.29999256	0.00000000	28.12500000	9.43036400
128.49999255	0.00000000	28.87549000	9.51648500
128.69999254	0.00000000	30.03814000	9.84867000
128.89999252	0.00000000	31.15157000	10.21161000
129.09999251	0.00000000	31.52682000	9.84867000
129.29999250	0.00000000	31.20078000	9.51648500
129.49999249	0.00000000	30.41338000	9.43036400
129.69999248	0.00000000	29.61983000	9.09817800
129.89999246	0.00000000	28.45718000	8.72908400
130.09999245	0.00000000	27.34375000	9.09817800
130.29999244	0.00000000	26.96850000	9.43036400
130.49999243	0.00000000	27.29453000	9.47342500
130.69999242	0.00000000	28.03888000	9.47342500
130.89999241	0.00000000	28.45718000	9.47342500
131.09999239	0.00000000	28.92470000	9.47342500
131.29999238	0.00000000	30.03814000	9.47342500
131.49999237	0.00000000	31.10851000	9.47342500
131.69999236	0.00000000	31.15157000	9.43036400
131.89999235	0.00000000	30.41338000	9.05511800
132.09999233	0.00000000	29.66289000	8.31077700
132.29999232	0.00000000	28.83243000	7.93553100
132.49999231	0.00000000	28.12500000	7.89247000
132.69999230	0.00000000	27.71284000	7.93553100
132.89999229	0.00000000	28.08194000	8.31077700
133.09999227	0.00000000	28.41412000	9.09817800
133.29999226	0.00000000	28.50024000	9.84867000
133.49999225	0.00000000	28.87549000	10.62992000
133.69999224	0.00000000	29.61983000	11.00517000
133.89999223	0.00000000	29.99508000	11.00517000
134.09999222	0.00000000	29.99508000	10.58686000
134.29999220	0.00000000	29.61983000	9.47342500
134.49999219	0.00000000	28.87549000	8.31077700
134.69999218	0.00000000	28.50024000	7.56028500
134.89999217	0.00000000	28.50024000	7.14812900
135.09999216	0.00000000	28.87549000	7.51722400
135.29999214	0.00000000	29.61983000	7.84940900
135.49999213	0.00000000	29.94586000	7.93553100
135.69999212	0.00000000	29.61983000	8.31077700
135.89999211	0.00000000	28.87549000	9.09817800
136.09999210	0.00000000	28.50024000	9.84867000
136.29999208	0.00000000	28.45718000	10.62992000
136.49999207	0.00000000	28.41412000	10.95595000
136.69999206	0.00000000	28.08194000	10.62992000
136.89999205	0.00000000	27.71284000	9.89173200
137.09999204	0.00000000	28.08194000	9.51648500
137.29999203	0.00000000	28.45718000	9.43036400
137.49999201	0.00000000	28.87549000	9.05511800
137.69999200	0.00000000	29.61983000	8.31077700
137.89999199	0.00000000	29.99508000	7.93553100
138.09999198	0.00000000	30.03814000	7.89247000
138.29999197	0.00000000	29.99508000	7.89247000
138.49999195	0.00000000	29.61983000	7.89247000
138.69999194	0.00000000	28.87549000	7.93553100
138.89999193	0.00000000	28.50024000	8.31077700
139.09999192	0.00000000	28.41412000	9.09817800
139.29999191	0.00000000	28.08194000	9.84867000
139.49999189	0.00000000	27.71284000	10.62992000
139.69999188	0.00000000	28.08194000	11.00517000
139.89999187	0.00000000	28.45718000	11.00517000
140.09999186	0.00000000	28.87549000	10.62992000
140.29999185	0.00000000	29.61983000	9.89173200
140.49999184	0.00000000	29.99508000	9.47342500
140.69999182	0.00000000	29.99508000	9.05511800
140.89999181	0.00000000	29.61983000	8.26771600
141.09999180	0.00000000	28.87549000	7.56028500
141.29999179	0.00000000	28.50024000	7.14812900
141.49999178	0.00000000	28.45718000	7.56028500
141.69999176	0.00000000	28.45718000	8.31077700
141.89999175	0.00000000	28.45718000	9.47342500
142.09999174	0.00000000	28.45718000	10.58686000
142.29999173	0.00000000	28.50024000	11.00517000
142.49999172	0.00000000	28.87549000	11.00517000
142.69999170	0.00000000	29.61983000	10.62992000
142.89999169	0.00000000	29.94586000	9.89173200
143.09999168	0.00000000	29.61983000	9.47342500
143.29999167	0.00000000	28.87549000	9.05511800
143.49999166	0.00000000	28.50024000	8.31077700
143.69999165	0.00000000	28.45718000	7.93553100
143.89999163	0.00000000	28.45718000	7.89247000
144.09999162	0.00000000	28.45718000	7.93553100
144.29999161	0.00000000	28.45718000	8.31077700
144.49999160	0.00000000	28.45718000	9.05511800
144.69999159	0.00000000	28.45718000	9.47342500
144.89999157	0.00000000	28.45718000	9.84867000
145.09999156	0.00000000	28.45718000	10.25467000
145.29999155	0.00000000	28.45718000	10.21776000
145.49999154	0.00000000	28.45718000	10.25467000
145.69999153	0.00000000	28.45718000	9.79945900
145.89999151	0.00000000	28.41412000	9.09817800
146.09999150	0.00000000	28.08194000	8.31077700
146.29999149	0.00000000	27.71284000	7.93553100
146.49999148	0.00000000	28.08194000	7.89247000
146.69999147	0.00000000	28.41412000	7.89247000
146.89999146	0.00000000	28.50024000	7.93553100
147.09999144	0.00000000	28.87549000	8.31077700
147.29999143	0.00000000	29.61983000	9.05511800
147.49999142	0.00000000	29.99508000	9.47342500
147.69999141	0.00000000	29.99508000	9.84867000
147.89999140	0.00000000	29.61983000	10.21161000
148.09999138	0.00000000	28.87549000	9.84867000
148.29999137	0.00000000	28.50024000	9.51648500
148.49999136	0.00000000	28.45718000	9.47342500
148.69999135	0.00000000	28.45718000	9.47342500
148.89999134	0.00000000	28.45718000	9.47342500
149.09999132	0.00000000	28.45718000	9.43036400
149.29999131	0.00000000	28.50024000	9.05511800
149.49999130	0.00000000	28.87549000	8.31077700
149.69999129	0.00000000	29.61983000	7.98474400
149.89999128	0.00000000	29.99508000	8.31077700
150.09999127	0.00000000	29.99508000	9.05511800
150.29999125	0.00000000	29.61983000	9.43036400
150.49999124	0.00000000	28.87549000	9.47342500
150.69999123	0.00000000	28.50024000	9.47342500
150.89999122	0.00000000	28.45718000	9.47342500
151.09999121	0.00000000	28.45718000	9.51648500
151.29999119	0.00000000	28.45718000	9.84867000
151.49999118	0.00000000	28.45718000	10.21161000
151.69999117	0.00000000	28.45718000	9.84867000
151.89999116	0.00000000	28.45718000	9.47342500
152.09999115	0.00000000	28.50024000	9.05511800
152.29999113	0.00000000	28.87549000	8.31077700
152.49999112	0.00000000	29.61983000	7.93553100
152.69999111	0.00000000	29.99508000	7.89247000
152.89999110	0.00000000	29.99508000	7.93553100
153.09999109	0.00000000	29.66289000	8.31077700
153.29999108	0.00000000	29.25074000	9.05511800
153.49999106	0.00000000	29.24459000	9.43036400
153.69999105	0.00000000	28.83243000	9.47342500
153.89999104	0.00000000	28.50024000	9.47342500
154.09999103	0.00000000	28.41412000	9.47342500
154.29999102	0.00000000	28.08194000	9.47342500
154.49999100	0.00000000	27.71284000	9.47342500
154.69999099	0.00000000	28.08194000	9.47342500
154.89999098	0.00000000	28.41412000	9.43036400
155.09999097	0.00000000	28.50024000	9.05511800
155.29999096	0.00000000	28.87549000	8.31077700
155.49999094	0.00000000	29.61983000	7.93553100
155.69999093	0.00000000	29.99508000	7.93553100
155.89999092	0.00000000	29.99508000	8.31077700
156.09999091	0.00000000	29.61983000	9.05511800
156.29999090	0.00000000	28.87549000	9.43036400
156.49999089	0.00000000	28.45718000	9.47342500
156.69999087	0.00000000	28.03888000	9.47342500
156.89999086	0.00000000	27.29453000	9.51648500
157.09999085	0.00000000	26.91929000	9.84867000
157.29999084	0.00000000	26.91929000	10.21161000
157.49999083	0.00000000	27.29453000	9.84867000
157.69999081	0.00000000	28.03888000	9.47342500
157.89999080	0.00000000	28.41412000	9.09817800
158.09999079	0.00000000	28.50024000	8.72908400
158.29999078	0.00000000	28.87549000	9.05511800
158.49999077	0.00000000	29.57062000	9.00590400
158.69999075	0.00000000	29.57062000	8.31077700
158.89999074	0.00000000	28.87549000	7.93553100
159.09999073	0.00000000	28.50024000	7.93553100
159.29999072	0.00000000	28.45718000	8.31077700
159.49999071	0.00000000	28.41412000	9.05511800
159.69999070	0.00000000	28.03888000	9.43036400
159.89999068	0.00000000	27.34375000	9.47342500
160.09999067	0.00000000	27.34375000	9.47342500
160.29999066	0.00000000	28.03888000	9.47342500
160.49999065	0.00000000	28.41412000	9.47342500
160.69999064	0.00000000	28.45718000	9.43036400
160.89999062	0.00000000	28.45718000	9.05511800
161.09999061	0.00000000	28.45718000	8.31077700
161.29999060	0.00000000	28.45718000	7.93553100
161.49999059	0.00000000	28.45718000	7.89247000
161.69999058	0.00000000	28.45718000	7.89247000
161.89999056	0.00000000	28.45718000	7.93553100
162.09999055	0.00000000	28.45718000	8.31077700
162.29999054	0.00000000	28.45718000	9.05511800
162.49999053	0.00000000	28.45718000	9.43036400
162.69999052	0.00000000	28.45718000	9.47342500
162.89999051	0.00000000	28.45718000	9.47342500
163.09999049	0.00000000	28.45718000	9.47342500
163.29999048	0.00000000	28.41412000	9.43036400
163.49999047	0.00000000	28.03888000	9.09817800
163.69999046	0.00000000	27.29453000	8.68602300
163.89999045	0.00000000	26.96850000	8.67987200
164.09999043	0.00000000	27.29453000	8.26771600
164.29999042	0.00000000	28.03888000	7.93553100
164.49999041	0.00000000	28.45718000	7.93553100
164.69999040	0.00000000	28.83243000	8.26771600
164.89999039	0.00000000	29.24459000	8.63681000
165.09999037	0.00000000	29.20767000	8.31077700
165.29999036	0.00000000	29.24459000	8.35998900
165.49999035	0.00000000	28.83243000	9.05511800
165.69999034	0.00000000	28.50024000	9.43036400
165.89999033	0.00000000	28.45718000	9.47342500
166.09999032	0.00000000	28.41412000	9.47342500
166.29999030	0.00000000	28.03888000	9.47342500
166.49999029	0.00000000	27.29453000	9.47342500
166.69999028	0.00000000	26.96850000	9.47342500
166.89999027	0.00000000	27.29453000	9.47342500
167.09999026	0.00000000	28.03888000	9.47342500
167.29999024	0.00000000	28.41412000	9.43036400
167.49999023	0.00000000	28.45718000	9.05511800
167.69999022	0.00000000	28.45718000	8.31077700
167.89999021	0.00000000	28.45718000	7.98474400
168.09999020	0.00000000	28.45718000	8.31077700
168.29999018	0.00000000	28.45718000	9.05511800
168.49999017	0.00000000	28.45718000	9.38115100
168.69999016	0.00000000	28.45718000	9.09817800
168.89999015	0.00000000	28.45718000	8.72908400
169.09999014	0.00000000	28.45718000	9.09817800
169.29999013	0.00000000	28.45718000	9.38115100
169.49999011	0.00000000	28.41412000	9.05511800
169.69999010	0.00000000	28.08194000	8.35998900
169.89999009	0.00000000	27.71284000	8.35998900
170.09999008	0.00000000	28.08194000	9.05511800
170.29999007	0.00000000	28.41412000	9.43036400
170.49999005	0.00000000	28.45718000	9.47342500
170.69999004	0.00000000	28.45718000	9.47342500
170.89999003	0.00000000	28.45718000	9.47342500
171.09999002	0.00000000	28.45718000	9.43036400
171.29999001	0.00000000	28.45718000	9.05511800
171.49998999	0.00000000	28.45718000	8.31077700
171.69998998	0.00000000	28.45718000	7.93553100
171.89998997	0.00000000	28.45718000	7.93553100
172.09998996	0.00000000	28.45718000	8.26771600
172.29998995	0.00000000	28.45718000	8.63681000
172.49998994	0.00000000	28.45718000	8.31077700
172.69998992	0.00000000	28.41412000	8.31077700
172.89998991	0.00000000	28.08194000	8.67987200
173.09998990	0.00000000	27.71284000	8.68602300
173.29998989	0.00000000	28.08194000	9.09817800
173.49998988	0.00000000	28.41412000	9.43036400
173.69998986	0.00000000	28.45718000	9.43036400
173.89998985	0.00000000	28.45718000	9.09817800
174.09998984	0.00000000	28.45718000	8.72908400
174.29998983	0.00000000	28.45718000	9.05511800
174.49998982	0.00000000	28.45718000	9.00590400
174.69998980	0.00000000	28.41412000	8.31077700
174.89998979	0.00000000	28.08194000	7.93553100
175.09998978	0.00000000	27.71284000	7.93553100
175.29998977	0.00000000	28.08194000	8.31077700
175.49998976	0.00000000	28.41412000	9.05511800
175.69998975	0.00000000	28.45718000	9.43036400
175.89998973	0.00000000	28.45718000	9.43036400
176.09998972	0.00000000	28.45718000	9.09817800
176.29998971	0.00000000	28.45718000	8.72908400
176.49998970	0.00000000	28.45718000	9.09817800
176.69998969	0.00000000	28.45718000	9.38115100
176.89998967	0.00000000	28.45718000	9.05511800
177.09998966	0.00000000	28.45718000	8.31077700
177.29998965	0.00000000	28.45718000	7.93553100
177.49998964	0.00000000	28.45718000	7.89247000
177.69998963	0.00000000	28.45718000	7.89247000
177.89998961	0.00000000	28.45718000	7.89247000
178.09998960	0.00000000	28.41412000	7.93553100
178.29998959	0.00000000	28.03888000	8.31077700
178.49998958	0.00000000	27.34375000	9.05511800
178.69998957	0.00000000	27.34375000	9.43036400
178.89998956	0.00000000	28.03888000	9.47342500
179.09998954	0.00000000	28.41412000	9.43036400
179.29998953	0.00000000	28.45718000	9.09817800
179.49998952	0.00000000	28.45718000	8.72908400
179.69998951	0.00000000	28.45718000	9.05511800
179.89998950	0.00000000	28.45718000	9.00590400
180.09998948	0.00000000	28.45718000	8.31077700
180.29998947	0.00000000	28.45718000	7.93553100
180.49998946	0.00000000	28.45718000	7.89247000
180.69998945	0.00000000	28.45718000	7.89247000
180.89998944	0.00000000	28.45718000	7.89247000
181.09998942	0.00000000	28.41412000	7.89247000
181.29998941	0.00000000	28.08194000	7.93553100
181.49998940	0.00000000	27.71284000	8.31077700
181.69998939	0.00000000	28.08194000	9.05511800
181.89998938	0.00000000	28.41412000	9.43036400
182.09998937	0.00000000	28.45718000	9.43036400
182.29998935	0.00000000	28.45718000	9.09817800
182.49998934	0.00000000	28.45718000	8.68602300
182.69998933	0.00000000	28.45718000	8.67987200
182.89998932	0.00000000	28.45718000	8.26771600
183.09998931	0.00000000	28.45718000	7.93553100
183.29998929	0.00000000	28.45718000	7.89247000
183.49998928	0.00000000	28.45718000	7.89247000
183.69998927	0.00000000	28.45718000	7.89247000
183.89998926	0.00000000	28.45718000	7.93553100
184.09998925	0.00000000	28.41412000	8.31077700
184.29998923	0.00000000	28.03888000	9.05511800
184.49998922	0.00000000	27.29453000	9.43036400
184.69998921	0.00000000	26.91929000	9.47342500
184.89998920	0.00000000	26.91929000	9.47342500
185.09998919	0.00000000	27.29453000	9.47342500
185.29998918	0.00000000	28.03888000	9.47342500
185.49998916	0.00000000	28.41412000	9.47342500
185.69998915	0.00000000	28.45718000	9.43036400
185.89998914	0.00000000	28.45718000	9.05511800
186.09998913	0.00000000	28.45718000	8.31077700
186.29998912	0.00000000	28.45718000	7.93553100
186.49998910	0.00000000	28.45718000	7.89247000
186.69998909	0.00000000	28.45718000	7.89247000
186.89998908	0.00000000	28.41412000	7.89247000
187.09998907	0.00000000	28.03888000	7.93553100
187.29998906	0.00000000	27.29453000	8.31077700
187.49998904	0.00000000	26.91929000	9.09817800
187.69998903	0.00000000	26.91929000	9.79945900
187.89998902	0.00000000	27.29453000	10.21161000
188.09998901	0.00000000	28.03888000	9.84867000
188.29998900	0.00000000	28.41412000	9.47342500
188.49998899	0.00000000	28.45718000	9.05511800
188.69998897	0.00000000	28.45718000	8.31077700
188.89998896	0.00000000	28.45718000	7.93553100
189.09998895	0.00000000	28.45718000	7.89247000
189.29998894	0.00000000	28.45718000	7.89247000
189.49998893	0.00000000	28.41412000	7.89247000
189.69998891	0.00000000	28.08194000	7.89247000
189.89998890	0.00000000	27.66978000	7.89247000
190.09998889	0.00000000	27.66363000	7.93553100
190.29998888	0.00000000	27.25147000	8.31077700
190.49998887	0.00000000	26.91929000	9.05511800
190.69998885	0.00000000	26.87623000	9.43036400
190.89998884	0.00000000	26.87623000	9.47342500
191.09998883	0.00000000	26.87623000	9.43036400
191.29998882	0.00000000	26.91929000	9.09817800
191.49998881	0.00000000	27.29453000	8.68602300
191.69998880	0.00000000	27.98966000	8.67987200
191.89998878	0.00000000	28.03888000	8.26771600
192.09998877	0.00000000	27.71284000	7.93553100
192.29998876	0.00000000	28.03888000	7.89247000
192.49998875	0.00000000	27.98966000	7.89247000
192.69998874	0.00000000	27.29453000	7.89247000
192.89998872	0.00000000	26.91929000	7.89247000
193.09998871	0.00000000	26.87623000	7.89247000
193.29998870	0.00000000	26.87623000	7.93553100
193.49998869	0.00000000	26.87623000	8.26771600
193.69998868	0.00000000	26.91929000	8.67987200
193.89998866	0.00000000	27.29453000	8.68602300
194.09998865	0.00000000	28.03888000	9.09817800
194.29998864	0.00000000	28.41412000	9.43036400
194.49998863	0.00000000	28.45718000	9.47342500
194.69998862	0.00000000	28.45718000	9.43036400
194.89998861	0.00000000	28.41412000	9.05511800
195.09998859	0.00000000	28.03888000	8.31077700
195.29998858	0.00000000	27.29453000	7.93553100
195.49998857	0.00000000	26.91929000	7.89247000
195.69998856	0.00000000	26.87623000	7.89247000
195.89998855	0.00000000	26.87623000	7.89247000
196.09998853	0.00000000	26.87623000	7.89247000
