Time	Channel A	Channel B	Channel C
(us)	(V)	(mV)	(mV)

-4.59999956	0.00000000	22.13336000	6.68676100
-4.39999957	0.00000000	22.13336000	6.35457700
-4.19999958	0.00000000	22.13336000	6.31151500
-3.99999959	0.00000000	22.13336000	6.31151500
-3.79999960	0.00000000	22.13336000	6.31151500
-3.59999962	0.00000000	22.13336000	6.31151500
-3.39999963	0.00000000	22.13336000	6.31151500
-3.19999964	0.00000000	22.13336000	6.31151500
-2.99999965	0.00000000	22.13336000	6.31151500
-2.79999966	0.00000000	22.13336000	6.31151500
-2.59999968	0.00000000	22.13336000	6.31151500
-2.39999969	0.00000000	22.13336000	6.31151500
-2.19999970	0.00000000	22.13336000	6.31151500
-1.99999971	0.00000000	22.13336000	6.31151500
-1.79999972	0.00000000	22.13336000	6.31151500
-1.59999973	0.00000000	22.13336000	6.31151500
-1.39999975	0.00000000	22.13336000	6.31151500
-1.19999976	0.00000000	22.13336000	6.31151500
-0.99999977	0.00000000	22.13336000	6.31151500
-0.79999978	0.00000000	22.17643000	6.31151500
-0.59999979	0.00000000	22.46555000	6.31151500
-0.39999981	0.00000000	22.50246000	6.31151500
-0.19999982	0.31803640	21.76427000	6.31151500
0.00000017	0.79601380	21.80118000	6.31151500
0.20000016	0.95533960	22.09030000	6.31151500
0.40000015	0.95533960	22.13336000	6.31151500
0.60000013	0.79601380	22.13336000	6.31151500
0.80000012	0.15871060	22.13336000	6.31151500
1.00000011	-0.79601380	22.13336000	6.31151500
1.20000010	-1.75196900	22.13336000	6.31151500
1.40000009	-2.54859700	22.13336000	6.31151500
1.60000008	-2.70792300	22.13336000	6.31151500
1.80000006	-2.22994600	22.13336000	6.31151500
2.00000005	-0.79601380	22.13336000	6.31151500
2.20000004	1.11466500	22.13336000	6.31151500
2.40000003	3.18590100	22.13336000	6.31151500
2.60000002	4.77854300	22.13336000	6.31151500
2.80000000	5.41584600	22.13336000	6.31151500
2.99999999	4.45989200	22.13336000	6.26845500
3.19999998	2.22994600	22.13336000	5.89320800
3.39999997	-0.95533960	22.13336000	5.19808000
3.59999996	-4.30056600	22.13336000	5.19808000
3.79999994	-7.00848900	22.13336000	5.93626900
3.99999993	-7.96444400	22.13336000	6.68676100
4.19999992	-7.00848900	22.13336000	7.47416300
4.39999991	-4.14124000	22.13336000	7.80019600
4.59999990	0.00000000	22.13336000	7.47416300
4.79999989	4.45989200	22.13336000	6.72982200
4.99999987	7.80511800	22.13336000	6.35457700
5.19999986	9.39837600	22.13336000	6.26845500
5.39999985	8.60174700	22.13336000	5.89320800
5.59999984	5.57517200	22.13336000	5.15501900
5.79999983	1.27399100	22.13336000	4.82898600
5.99999981	-3.50393700	22.13336000	5.15501900
6.19999980	-7.48646600	22.13336000	5.89320800
6.39999979	-9.39837600	22.13336000	6.26845500
6.59999978	-8.92039900	22.13336000	6.31151500
6.79999977	-6.37180100	22.13336000	6.31151500
6.99999975	-2.38927200	22.13336000	6.31151500
7.19999974	2.07062000	22.13336000	6.31151500
7.39999973	5.57517200	22.13336000	6.31151500
7.59999972	7.48646600	22.13336000	6.31151500
7.79999971	7.48646600	22.13336000	6.31151500
7.99999970	5.73449800	22.13336000	6.31151500
8.19999968	2.54859700	22.13336000	6.31151500
8.39999967	-0.63668800	22.13336000	6.31151500
8.59999966	-3.34522600	22.13336000	6.31151500
8.79999965	-4.93786900	22.13336000	6.31151500
8.99999964	-5.09719500	22.13336000	6.31151500
9.19999962	-3.98191400	22.13336000	6.31151500
9.39999961	-2.22994600	22.13336000	6.31151500
9.59999960	-0.15871060	22.13336000	6.31151500
9.79999959	1.43331700	22.13336000	6.31151500
9.99999958	2.38927200	22.13336000	6.31151500
10.19999956	2.54859700	22.13336000	6.31151500
10.39999955	2.07062000	22.13336000	6.31151500
10.59999954	1.27399100	22.13336000	6.31151500
10.79999953	0.31803640	22.13336000	6.31151500
10.99999952	-0.47736220	22.13336000	6.31151500
11.19999951	-0.79601380	22.13336000	6.31151500
11.39999949	-0.95533960	22.13336000	6.31151500
11.59999948	-0.95533960	22.13336000	6.31151500
11.79999947	-0.63668800	22.13336000	6.31151500
11.99999946	-0.31803640	22.13336000	6.31151500
12.19999945	-0.15871060	22.13336000	6.31151500
12.39999943	-0.15871060	22.13336000	6.31151500
12.59999942	0.00000000	22.13336000	6.31151500
12.79999941	0.00000000	22.13336000	6.31151500
12.99999940	0.00000000	22.13336000	6.31151500
13.19999939	0.15871060	22.13336000	6.31151500
13.39999937	0.00000000	22.13336000	6.31151500
13.59999936	0.00000000	22.13336000	6.31151500
13.79999935	0.00000000	22.13336000	6.31151500
13.99999934	0.00000000	22.13336000	6.31151500
14.19999933	-0.15871060	22.13336000	6.31151500
14.39999932	-0.15871060	22.13336000	6.31151500
14.59999930	-0.15871060	22.13336000	6.31151500
14.79999929	0.00000000	22.09030000	6.31151500
14.99999928	0.00000000	21.75812000	6.31151500
15.19999927	0.00000000	21.38902000	6.31151500
15.39999926	0.00000000	21.75812000	6.31151500
15.59999924	0.00000000	22.09030000	6.31151500
15.79999923	0.00000000	22.13336000	6.31151500
15.99999922	0.00000000	22.13336000	6.31151500
16.19999921	0.00000000	22.13336000	6.31151500
16.39999920	0.00000000	22.13336000	6.31151500
16.59999919	0.00000000	22.13336000	6.31151500
16.79999917	-0.15871060	22.17643000	6.31151500
16.99999916	-0.15871060	22.55167000	6.31151500
17.19999915	0.00000000	23.29601000	6.31151500
17.39999914	0.00000000	23.67126000	6.31151500
17.59999913	0.00000000	23.67126000	6.31151500
17.79999911	0.00000000	23.29601000	6.31151500
17.99999910	0.00000000	22.50861000	6.31151500
18.19999909	0.00000000	21.71506000	6.31151500
18.39999908	0.00000000	20.50935000	6.31151500
18.59999907	-0.15871060	18.97145000	6.31151500
18.79999905	0.00000000	17.43356000	6.31151500
18.99999904	0.00000000	16.36319000	6.31151500
19.19999903	0.00000000	16.73843000	6.31151500
19.39999902	0.00000000	18.68848000	6.31151500
19.59999901	0.00000000	21.38902000	6.31151500
19.79999900	0.00000000	24.92003000	6.31151500
19.99999898	0.00000000	28.41412000	6.31151500
20.19999897	0.00000000	31.48376000	6.31151500
20.39999896	0.00000000	33.34769000	6.31151500
20.59999895	0.00000000	32.51107000	6.31151500
20.79999894	0.00000000	28.97392000	6.31151500
20.99999892	0.00000000	22.74237000	6.31151500
21.19999891	0.00000000	14.69611000	6.31151500
21.39999890	0.00000000	7.38804100	6.31151500
21.59999889	0.00000000	2.73745100	6.31151500
21.79999888	0.00000000	1.61786400	6.31151500
21.99999886	0.00000000	4.82283400	6.31151500
22.19999885	0.00000000	12.64149000	6.31151500
22.39999884	0.00000000	24.26796000	6.31151500
22.59999883	0.00000000	37.30315000	6.31151500
22.79999882	0.00000000	48.09301000	6.31151500
22.99999881	0.00000000	53.40797000	6.31151500
23.19999879	0.00000000	51.81471000	6.35457700
23.39999878	0.00000000	42.51968000	6.72982200
23.59999877	0.00000000	27.81742000	7.47416300
23.79999876	0.00000000	10.73450000	7.84940900
23.99999875	0.00000000	-5.81938900	7.89247000
24.19999873	0.00000000	-17.31668000	7.84940900
24.39999872	0.00000000	-20.34326000	7.42495000
24.59999871	0.00000000	-13.68725000	6.26845500
24.79999870	0.00000000	2.17150600	4.73671200
24.99999869	0.00000000	23.80659000	3.15575800
25.19999867	0.00000000	46.14296000	1.62401600
25.39999866	0.00000000	63.91486000	0.51058070
25.59999865	0.00000000	72.34866000	0.55364170
25.79999864	0.00000000	69.64198000	2.08538400
25.99999863	0.00000000	55.68405000	4.82283400
26.19999862	0.00000000	33.72293000	8.35998900
26.39999860	0.00000000	8.96899500	12.58612000
26.59999859	0.00000000	-13.08440000	16.39395000
26.79999858	0.00000000	-27.73745000	18.30093000
26.99999857	0.00000000	-31.55143000	17.88263000
27.19999856	0.00000000	-23.04380000	14.67766000
27.39999854	0.00000000	-4.19537400	8.50147600
27.59999853	0.00000000	20.13410000	0.41830710
27.79999852	0.00000000	44.10064000	-7.29576700
27.99999851	0.00000000	62.70300000	-13.05364000
28.19999850	0.00000000	71.96727000	-15.28666000
28.39999848	0.00000000	70.06028000	-12.54921000
28.59999847	0.00000000	57.35728000	-5.20423200
28.79999846	0.00000000	37.30315000	5.29035400
28.99999845	0.00000000	14.87451000	17.27977000
29.19999844	0.00000000	-5.26574800	28.42643000
29.39999843	0.00000000	-18.80536000	35.67913000
29.59999841	0.00000000	-23.12992000	36.79257000
29.79999840	0.00000000	-17.77805000	30.94242000
29.99999839	0.00000000	-4.61368100	18.95300000
30.19999838	0.00000000	13.53346000	3.11269700
30.39999837	0.00000000	32.83710000	-13.05979000
30.59999835	0.00000000	48.28986000	-25.78740000
30.79999834	0.00000000	56.93282000	-31.96973000
30.99999833	0.00000000	57.77559000	-30.38878000
31.19999832	0.00000000	51.58710000	-21.05069000
31.39999831	0.00000000	39.62844000	-5.20423200
31.59999829	0.00000000	24.50787000	13.65650000
31.79999828	0.00000000	9.84251900	31.03469000
31.99999827	0.00000000	-1.82086600	43.02411000
32.19999826	0.00000000	-7.55413300	47.29330000
32.39999825	0.00000000	-6.52066900	43.06717000
32.59999824	0.00000000	0.82431100	31.45300000
32.79999822	0.00000000	11.99557000	14.76993000
32.99999821	0.00000000	24.74163000	-4.14000900
33.19999820	0.00000000	35.90674000	-21.09375000
33.39999819	0.00000000	42.56274000	-31.92052000
33.59999818	0.00000000	44.19291000	-34.65797000
33.79999816	0.00000000	41.07406000	-28.85088000
33.99999815	0.00000000	33.72293000	-15.74803000
34.19999814	0.00000000	23.76353000	1.58095500
34.39999813	0.00000000	14.13017000	19.00221000
34.59999812	0.00000000	7.56643700	32.94168000
34.79999810	0.00000000	5.15501900	41.06791000
34.99999809	0.00000000	7.05585600	41.44316000
35.19999808	0.00000000	12.03863000	34.14124000
35.39999807	0.00000000	19.01451000	21.03838000
35.59999806	0.00000000	26.27953000	5.24729300
35.79999805	0.00000000	31.67446000	-9.43036400
35.99999803	0.00000000	33.58760000	-19.84498000
36.19999802	0.00000000	31.71752000	-23.73892000
36.39999801	0.00000000	26.74089000	-20.30635000
36.59999800	0.00000000	20.64468000	-11.10359000
36.79999799	0.00000000	15.20054000	1.57480300
36.99999797	0.00000000	11.75566000	14.25935000
37.19999796	0.00000000	10.96826000	23.51132000
37.39999795	0.00000000	13.24434000	27.41142000
37.59999794	0.00000000	17.48277000	25.13533000
37.79999793	0.00000000	22.50861000	17.88263000
37.99999791	0.00000000	27.52830000	7.89247000
38.19999790	0.00000000	30.97318000	-2.04847400
38.39999789	0.00000000	32.17888000	-8.92593500
38.59999788	0.00000000	30.97318000	-10.50074000
38.79999787	0.00000000	27.57136000	-6.69291300
38.99999786	0.00000000	22.92692000	0.97194880
39.19999784	0.00000000	18.68848000	10.54380000
39.39999783	0.00000000	15.15748000	18.90994000
39.59999782	0.00000000	13.24434000	23.13607000
39.79999781	0.00000000	13.15822000	21.97957000
39.99999780	0.00000000	14.36393000	15.84030000
40.19999778	0.00000000	16.69537000	6.26845500
40.39999777	0.00000000	20.17716000	-3.67249000
40.59999776	0.00000000	23.62205000	-11.01132000
40.79999775	0.00000000	26.40871000	-14.03789000
40.99999774	0.00000000	28.32185000	-11.75566000
41.19999772	0.00000000	29.10925000	-4.42298200
41.39999771	0.00000000	28.36491000	5.53026500
41.59999770	0.00000000	26.83317000	15.93258000
41.79999769	0.00000000	24.82775000	23.55438000
41.99999768	0.00000000	22.13336000	26.29798000
42.19999767	0.00000000	19.38976000	23.64665000
42.39999765	0.00000000	17.01525000	16.72613000
42.59999764	0.00000000	14.73917000	7.51722400
42.79999763	0.00000000	13.61959000	-1.72244100
42.99999762	0.00000000	14.36393000	-8.27386800
43.19999761	0.00000000	16.22785000	-11.05438000
43.39999759	0.00000000	18.55315000	-9.89788300
43.59999758	0.00000000	20.55241000	-5.29650500
43.79999757	0.00000000	22.50861000	1.62401600
43.99999756	0.00000000	24.40945000	8.91978400
44.19999755	0.00000000	25.25221000	14.72687000
44.39999753	0.00000000	25.67052000	17.83957000
44.59999752	0.00000000	26.08268000	17.88263000
44.79999751	0.00000000	26.04577000	15.18824000
44.99999750	0.00000000	26.03961000	10.62992000
45.19999749	0.00000000	25.20300000	5.61638700
45.39999748	0.00000000	23.67126000	1.71013800
45.59999746	0.00000000	21.66585000	-1.02116100
45.79999745	0.00000000	18.92839000	-2.18380900
45.99999744	0.00000000	15.85261000	-1.43946800
46.19999743	0.00000000	13.11516000	0.51058070
46.39999742	0.00000000	11.20202000	3.62327700
46.59999740	0.00000000	10.50689000	7.38188900
46.79999739	0.00000000	12.17397000	10.11934000
46.99999738	0.00000000	16.78149000	11.33120000
47.19999737	0.00000000	23.33907000	11.74336000
47.39999736	0.00000000	29.90280000	10.91289000
47.59999734	0.00000000	35.30389000	9.00590400
47.79999733	0.00000000	37.95522000	6.26845500
47.99999732	0.00000000	36.79257000	3.24803100
48.19999731	0.00000000	32.18504000	0.92888770
48.39999730	0.00000000	25.15994000	0.13533460
48.59999729	0.00000000	17.01525000	0.46136810
48.79999727	0.00000000	8.92593500	1.71013800
48.99999726	0.00000000	3.24188000	4.03543200
49.19999725	0.00000000	2.03617100	7.47416300
49.39999724	0.00000000	5.52411400	10.53765000
49.59999723	0.00000000	12.46309000	12.49385000
49.79999721	0.00000000	21.75812000	13.23819000
49.99999720	0.00000000	30.97933000	12.03248000
50.19999719	0.00000000	37.95522000	9.00590400
50.39999718	0.00000000	40.98179000	5.15501900
50.59999717	0.00000000	39.06865000	1.66707700
50.79999715	0.00000000	32.51107000	-1.07037400
50.99999714	0.00000000	23.33907000	-2.55905500
51.19999713	0.00000000	14.08710000	-2.14074800
51.39999712	0.00000000	7.52337600	0.55364170
51.59999711	0.00000000	4.77977300	4.73671200
51.79999710	0.00000000	6.31766700	9.00590400
51.99999708	0.00000000	11.71260000	12.45079000
52.19999707	0.00000000	19.38976000	14.39468000
52.39999706	0.00000000	27.44217000	13.98253000
52.59999705	0.00000000	33.21235000	11.74951000
52.79999704	0.00000000	35.16855000	8.22465500
52.99999702	0.00000000	33.25541000	4.40452700
53.19999701	0.00000000	27.90354000	0.92888770
53.39999700	0.00000000	21.01993000	-0.93503930
53.59999699	0.00000000	14.82529000	-0.60285430
53.79999698	0.00000000	10.59301000	1.66707700
53.99999696	0.00000000	9.47957600	4.68750000
54.19999695	0.00000000	12.13091000	7.38188900
54.39999694	0.00000000	17.43356000	8.91978400
54.59999693	0.00000000	23.20374000	8.96284400
54.79999692	0.00000000	27.90354000	7.84940900
54.99999691	0.00000000	30.88705000	6.31151500
55.19999689	0.00000000	30.87475000	4.73671200
55.39999688	0.00000000	27.11614000	3.24803100
55.59999687	0.00000000	22.17643000	2.54675200
55.79999686	0.00000000	17.43356000	3.70939900
55.99999685	0.00000000	13.24434000	6.31151500
56.19999683	0.00000000	10.96826000	9.00590400
56.39999682	0.00000000	11.75566000	10.91289000
56.59999681	0.00000000	15.11442000	11.65723000
56.79999680	0.00000000	19.75886000	10.45152000
56.99999679	0.00000000	23.99729000	7.38188900
57.19999677	0.00000000	27.52830000	3.15575800
57.39999676	0.00000000	29.39222000	-1.02116100
57.59999675	0.00000000	29.01698000	-3.71555100
57.79999674	0.00000000	26.36565000	-4.04773600
57.99999673	0.00000000	22.55167000	-1.72244100
58.19999672	0.00000000	19.06373000	3.29109200
58.39999670	0.00000000	16.32013000	9.38115100
58.59999669	0.00000000	14.82529000	14.81299000
58.79999668	0.00000000	15.20054000	18.25787000
58.99999667	0.00000000	17.48277000	19.00221000
59.19999666	0.00000000	20.46014000	16.25861000
59.39999664	0.00000000	22.82849000	10.49459000
59.59999663	0.00000000	24.04650000	3.19881900
59.79999662	0.00000000	24.82775000	-3.72170300
59.99999661	0.00000000	24.74163000	-8.31692900
60.19999660	0.00000000	23.24680000	-9.47957600
60.39999658	0.00000000	21.01993000	-6.78518600
60.59999657	0.00000000	19.48204000	-0.97810030
60.79999656	0.00000000	19.06373000	6.72982200
60.99999655	0.00000000	19.43897000	14.76993000
61.19999654	0.00000000	20.59547000	20.48474000
61.39999653	0.00000000	22.09030000	22.10876000
61.59999651	0.00000000	23.24680000	19.78961000
61.79999650	0.00000000	23.62205000	14.39468000
61.99999649	0.00000000	23.24680000	6.64370100
62.19999648	0.00000000	22.09030000	-1.35334600
62.39999647	0.00000000	20.55241000	-7.57258800
62.59999645	0.00000000	18.97145000	-10.27313000
62.79999644	0.00000000	17.48277000	-9.52263600
62.99999643	0.00000000	16.73843000	-5.25344500
63.19999642	0.00000000	17.48277000	1.66707700
63.39999641	0.00000000	19.06373000	9.38115100
63.59999639	0.00000000	21.34596000	16.25861000
63.79999638	0.00000000	23.99114000	20.11565000
63.99999637	0.00000000	25.15994000	19.83883000
64.19999636	0.00000000	25.25221000	16.76919000
64.39999635	0.00000000	24.78469000	11.74951000
64.59999634	0.00000000	23.24680000	5.57332700
64.79999632	0.00000000	20.92766000	0.17839570
64.99999631	0.00000000	18.63927000	-3.76476400
65.19999630	0.00000000	16.69537000	-5.67175200
65.39999629	0.00000000	15.98794000	-5.29650500
65.59999628	0.00000000	16.73843000	-2.60211600
65.79999626	0.00000000	19.01451000	1.57480300
65.99999625	0.00000000	21.66585000	5.85014700
66.19999624	0.00000000	23.57899000	9.38115100
66.39999623	0.00000000	24.36639000	12.11860000
66.59999622	0.00000000	23.62205000	13.69956000
66.79999620	0.00000000	22.13336000	14.11786000
66.99999619	0.00000000	20.55241000	13.69956000
67.19999618	0.00000000	19.01451000	12.16781000
67.39999617	0.00000000	17.90108000	9.84867000
67.59999616	0.00000000	17.90108000	7.47416300
67.79999615	0.00000000	19.10679000	4.68750000
67.99999613	0.00000000	21.38902000	1.62401600
68.19999612	0.00000000	24.40945000	-1.11343500
68.39999611	0.00000000	26.32259000	-3.02042300
68.59999610	0.00000000	26.74089000	-3.76476400
68.79999609	0.00000000	25.90428000	-2.55905500
68.99999607	0.00000000	23.16068000	0.51058070
69.19999606	0.00000000	18.97145000	4.82898600
69.39999605	0.00000000	14.73917000	9.79945900
69.59999604	0.00000000	11.66339000	14.43775000
69.79999603	0.00000000	10.50689000	17.09523000
69.99999601	0.00000000	11.75566000	17.50738000
70.19999600	0.00000000	15.62500000	15.18824000
70.39999599	0.00000000	21.75812000	10.95595000
70.59999598	0.00000000	27.86048000	5.89320800
70.79999597	0.00000000	32.13582000	0.46136810
70.99999596	0.00000000	33.71678000	-4.09079700
71.19999594	0.00000000	32.51107000	-6.40994000
71.39999593	0.00000000	28.64173000	-5.62253900
71.59999592	0.00000000	22.46555000	-2.22687000
71.79999591	0.00000000	15.94488000	2.78051200
71.99999590	0.00000000	10.45768000	7.75713500
72.19999588	0.00000000	7.01279500	11.65723000
72.39999587	0.00000000	6.27460600	13.61343000
72.59999586	0.00000000	9.01205700	13.65650000
72.79999585	0.00000000	14.73917000	12.07554000
72.99999584	0.00000000	21.66585000	9.05511800
73.19999582	0.00000000	27.90354000	5.61638700
73.39999581	0.00000000	32.56028000	3.33415300
73.59999580	0.00000000	34.83636000	2.46063000
73.79999579	0.00000000	33.67372000	2.87278500
73.99999578	0.00000000	29.48450000	3.99237200
74.19999577	0.00000000	23.71432000	5.89320800
74.39999575	0.00000000	17.90108000	7.33882900
74.59999574	0.00000000	13.24434000	7.38188900
74.79999573	0.00000000	10.50689000	6.22539300
74.99999572	0.00000000	10.13164000	4.31840500
75.19999571	0.00000000	12.03863000	2.04232300
75.39999569	0.00000000	15.90182000	0.59670270
75.59999568	0.00000000	20.46014000	0.97194880
75.79999567	0.00000000	24.36639000	3.29109200
75.99999566	0.00000000	26.69783000	6.72982200
76.19999565	0.00000000	27.52830000	10.58686000
76.39999563	0.00000000	26.74089000	13.65650000
76.59999562	0.00000000	24.87697000	15.14518000
76.79999561	0.00000000	22.55167000	14.34547000
76.99999560	0.00000000	20.59547000	10.86983000
77.19999559	0.00000000	19.01451000	5.89320800
77.39999558	0.00000000	17.90108000	0.46136810
77.59999556	0.00000000	17.90108000	-4.14000900
77.79999555	0.00000000	18.97145000	-6.82824800
77.99999554	0.00000000	20.04183000	-6.78518600
78.19999553	0.00000000	20.08489000	-3.72170300
78.39999552	0.00000000	19.38976000	1.66707700
78.59999550	0.00000000	19.01451000	7.84940900
78.79999549	0.00000000	18.97145000	13.65650000
78.99999548	0.00000000	19.01451000	17.83957000
79.19999547	0.00000000	19.48204000	19.04527000
79.39999546	0.00000000	20.97072000	17.14444000
79.59999544	0.00000000	22.87770000	13.28125000
79.79999543	0.00000000	24.04650000	7.84940900
79.99999542	0.00000000	24.82775000	2.08538400
80.19999541	0.00000000	24.74163000	-2.55905500
80.39999540	0.00000000	23.20374000	-5.29650500
80.59999539	0.00000000	20.55241000	-5.67175200
80.79999537	0.00000000	17.85802000	-3.80782500
80.99999536	0.00000000	15.90182000	-0.33218500
81.19999535	0.00000000	14.73917000	3.53100400
81.39999534	0.00000000	14.78223000	7.47416300
81.59999533	0.00000000	16.32013000	10.91289000
81.79999531	0.00000000	19.01451000	13.28125000
81.99999530	0.00000000	22.09030000	14.07480000
82.19999529	0.00000000	24.78469000	13.74262000
82.39999528	0.00000000	26.32259000	12.49385000
82.59999527	0.00000000	26.36565000	10.21161000
82.79999525	0.00000000	25.20300000	7.06200700
82.99999524	0.00000000	23.29601000	3.98622000
83.19999523	0.00000000	20.97072000	0.83661410
83.39999522	0.00000000	19.06373000	-1.43946800
83.59999521	0.00000000	17.85802000	-2.64517700
83.79999520	0.00000000	17.48277000	-2.60211600
83.99999518	0.00000000	17.85802000	-1.02116100
84.19999517	0.00000000	18.97145000	2.04232300
84.39999516	0.00000000	20.13410000	5.93626900
84.59999515	0.00000000	20.92766000	9.79945900
84.79999514	0.00000000	21.71506000	13.28125000
84.99999512	0.00000000	22.04109000	15.18824000
85.19999511	0.00000000	21.75812000	15.18824000
85.39999510	0.00000000	21.34596000	13.23819000
85.59999509	0.00000000	21.38287000	9.38115100
85.79999508	0.00000000	21.34596000	4.77977300
85.99999506	0.00000000	21.75812000	0.46751960
86.19999505	0.00000000	22.09030000	-2.97736200
86.39999504	0.00000000	22.09030000	-4.87819900
86.59999503	0.00000000	21.62278000	-4.09079700
86.79999502	0.00000000	20.17716000	-1.02116100
86.99999501	0.00000000	18.65157000	3.62327700
87.19999499	0.00000000	18.17790000	8.96284400
87.39999498	0.00000000	17.39050000	13.18898000
87.59999497	0.00000000	16.73843000	15.14518000
87.79999496	0.00000000	17.52584000	14.81299000
87.99999495	0.00000000	19.34670000	12.45079000
88.19999493	0.00000000	21.29675000	8.63681000
88.39999492	0.00000000	22.50861000	3.94931100
88.59999491	0.00000000	23.67126000	-0.23991140
88.79999490	0.00000000	24.36639000	-3.29724400
88.99999489	0.00000000	23.62205000	-3.67249000
89.19999487	0.00000000	22.13336000	-1.39640700
89.39999486	0.00000000	20.55241000	2.41756900
89.59999485	0.00000000	19.01451000	7.05585600
89.79999484	0.00000000	17.85802000	10.86983000
89.99999483	0.00000000	17.48277000	13.23819000
90.19999482	0.00000000	17.85802000	13.56422000
90.39999480	0.00000000	19.01451000	11.65723000
90.59999479	0.00000000	20.50935000	7.80019600
90.79999478	0.00000000	21.66585000	3.24803100
90.99999477	0.00000000	22.09030000	-0.60285430
91.19999476	0.00000000	22.13336000	-2.50984200
91.39999474	0.00000000	22.09030000	-2.14074800
91.59999473	0.00000000	21.75812000	0.55364170
91.79999472	0.00000000	21.38902000	4.73671200
91.99999471	0.00000000	21.71506000	8.96284400
92.19999470	0.00000000	21.66585000	12.07554000
92.39999468	0.00000000	20.97072000	13.56422000
92.59999467	0.00000000	20.55241000	12.81988000
92.79999466	0.00000000	20.13410000	9.71333600
92.99999465	0.00000000	19.38976000	5.51796200
93.19999464	0.00000000	18.97145000	0.92888770
93.39999463	0.00000000	18.55315000	-2.14074800
93.59999461	0.00000000	17.85802000	-2.93430100
93.79999460	0.00000000	17.90108000	-1.76550200
93.99999459	0.00000000	19.01451000	1.71013800
94.19999458	0.00000000	20.55241000	6.21924200
94.39999457	0.00000000	22.13336000	10.11934000
94.59999455	0.00000000	23.67126000	12.45079000
94.79999454	0.00000000	24.82775000	13.18898000
94.99999453	0.00000000	25.20300000	11.61417000
95.19999452	0.00000000	24.78469000	7.84940900
95.39999451	0.00000000	23.20374000	3.66633800
95.59999449	0.00000000	20.46014000	0.51058070
95.79999448	0.00000000	17.10753000	-1.39640700
95.99999447	0.00000000	14.37008000	-1.76550200
96.19999446	0.00000000	13.57037000	0.17839570
96.39999445	0.00000000	13.53346000	3.57406500
96.59999444	0.00000000	14.82529000	7.42495000
96.79999442	0.00000000	17.85802000	10.49459000
96.99999441	0.00000000	21.71506000	12.07554000
97.19999440	0.00000000	25.20300000	12.07554000
97.39999439	0.00000000	27.90354000	10.49459000
97.59999438	0.00000000	29.06619000	7.47416300
97.79999436	0.00000000	28.27879000	4.08464600
97.99999435	0.00000000	25.94734000	2.12844500
98.19999434	0.00000000	22.09030000	1.61786400
98.39999433	0.00000000	17.85802000	1.66707700
98.59999432	0.00000000	14.36393000	2.46063000
98.79999430	0.00000000	12.03863000	4.36146600
98.99999429	0.00000000	11.66339000	6.22539300
99.19999428	0.00000000	13.15822000	7.42495000
99.39999427	0.00000000	15.90182000	7.80019600
99.59999426	0.00000000	19.38976000	7.47416300
99.79999425	0.00000000	23.24680000	6.72982200
99.99999423	0.00000000	26.32259000	6.35457700
100.19999422	0.00000000	27.90354000	6.35457700
100.39999421	0.00000000	27.90354000	6.72982200
100.59999420	0.00000000	26.36565000	7.47416300
100.79999419	0.00000000	23.67126000	7.80019600
100.99999417	0.00000000	20.59547000	7.42495000
101.19999416	0.00000000	17.85802000	6.26845500
101.39999415	0.00000000	15.90182000	4.73671200
101.59999414	0.00000000	14.69611000	3.15575800
101.79999413	0.00000000	14.36393000	1.66707700
101.99999411	0.00000000	15.11442000	0.92888770
102.19999410	0.00000000	17.05832000	1.71013800
102.39999409	0.00000000	19.34670000	3.57406500
102.59999408	0.00000000	21.71506000	5.93626900
102.79999407	0.00000000	23.62205000	8.26771600
102.99999406	0.00000000	24.78469000	10.53765000
103.19999404	0.00000000	24.82775000	11.65723000
103.39999403	0.00000000	24.04650000	10.91289000
103.59999402	0.00000000	22.87770000	8.96284400
103.79999401	0.00000000	20.92766000	5.89320800
103.99999400	0.00000000	19.01451000	2.46063000
104.19999398	0.00000000	17.43356000	0.13533460
104.39999397	0.00000000	16.32013000	-1.06422200
104.59999396	0.00000000	16.27707000	-1.02116100
104.79999395	0.00000000	17.01525000	0.51058070
104.99999394	0.00000000	17.80881000	3.19881900
105.19999392	0.00000000	19.01451000	6.26845500
105.39999391	0.00000000	20.50935000	8.96284400
105.59999390	0.00000000	21.66585000	10.49459000
105.79999389	0.00000000	22.04109000	10.53765000
105.99999388	0.00000000	21.71506000	9.38115100
106.19999387	0.00000000	20.92766000	7.47416300
106.39999385	0.00000000	20.13410000	5.15501900
106.59999384	0.00000000	19.01451000	3.24803100
106.79999383	0.00000000	18.27633000	2.08538400
106.99999382	0.00000000	18.63927000	2.08538400
107.19999381	0.00000000	19.34670000	3.19881900
107.39999379	0.00000000	20.17716000	4.73671200
107.59999378	0.00000000	20.92766000	6.26845500
107.79999377	0.00000000	21.66585000	7.42495000
107.99999376	0.00000000	21.66585000	7.80019600
108.19999375	0.00000000	20.92766000	7.42495000
108.39999374	0.00000000	20.13410000	6.26845500
108.59999372	0.00000000	18.97145000	4.77977300
108.79999371	0.00000000	17.85802000	3.62327700
108.99999370	0.00000000	17.48277000	3.24803100
109.19999369	0.00000000	17.85802000	3.62327700
109.39999368	0.00000000	19.01451000	4.77977300
109.59999366	0.00000000	20.50935000	6.26845500
109.79999365	0.00000000	21.71506000	7.47416300
109.99999364	0.00000000	22.46555000	8.22465500
110.19999363	0.00000000	22.87770000	8.58759800
110.39999362	0.00000000	22.46555000	7.84940900
110.59999360	0.00000000	21.71506000	6.72982200
110.79999359	0.00000000	20.50935000	5.89320800
110.99999358	0.00000000	19.01451000	4.68750000
111.19999357	0.00000000	17.85802000	3.24803100
111.39999356	0.00000000	17.43356000	2.46063000
111.59999355	0.00000000	17.43356000	2.82357300
111.79999353	0.00000000	17.85802000	3.53100400
111.99999352	0.00000000	18.97145000	4.36146600
112.19999351	0.00000000	20.13410000	5.11195900
112.39999350	0.00000000	20.92766000	5.89320800
112.59999349	0.00000000	21.71506000	6.26845500
112.79999347	0.00000000	22.04109000	6.31151500
112.99999346	0.00000000	21.71506000	6.31151500
113.19999345	0.00000000	20.92766000	6.31151500
113.39999344	0.00000000	20.17716000	6.26845500
113.59999343	0.00000000	19.38976000	5.89320800
113.79999341	0.00000000	19.01451000	5.15501900
113.99999340	0.00000000	18.97145000	4.77977300
114.19999339	0.00000000	18.97145000	4.73671200
114.39999338	0.00000000	19.01451000	4.73671200
114.59999337	0.00000000	19.38976000	4.73671200
114.79999336	0.00000000	20.13410000	4.69365100
114.99999334	0.00000000	20.50935000	4.31840500
115.19999333	0.00000000	20.55241000	3.62327700
115.39999332	0.00000000	20.55241000	3.62327700
115.59999331	0.00000000	20.55241000	4.31840500
115.79999330	0.00000000	20.50935000	4.73671200
115.99999328	0.00000000	20.13410000	5.15501900
116.19999327	0.00000000	19.38976000	5.93626900
116.39999326	0.00000000	19.01451000	6.68676100
116.59999325	0.00000000	18.97145000	7.47416300
116.79999324	0.00000000	18.97145000	7.80019600
116.99999322	0.00000000	18.97145000	7.42495000
117.19999321	0.00000000	19.01451000	6.31151500
117.39999320	0.00000000	19.43897000	5.15501900
117.59999319	0.00000000	20.55241000	4.36146600
117.79999318	0.00000000	21.66585000	3.57406500
117.99999317	0.00000000	22.09030000	3.19881900
118.19999315	0.00000000	22.09030000	3.19881900
118.39999314	0.00000000	21.66585000	3.57406500
118.59999313	0.00000000	20.55241000	4.36146600
118.79999312	0.00000000	19.38976000	5.15501900
118.99999311	0.00000000	18.59621000	6.31151500
119.19999309	0.00000000	17.80881000	7.38188900
119.39999308	0.00000000	17.43356000	7.42495000
119.59999307	0.00000000	17.43356000	6.72982200
119.79999306	0.00000000	17.85802000	6.35457700
119.99999305	0.00000000	19.01451000	6.31151500
120.19999303	0.00000000	20.50935000	6.26845500
120.39999302	0.00000000	21.71506000	5.89320800
120.59999301	0.00000000	22.46555000	5.15501900
120.79999300	0.00000000	22.87770000	4.77977300
120.99999299	0.00000000	22.46555000	4.69365100
121.19999298	0.00000000	21.75812000	4.31840500
121.39999296	0.00000000	20.92766000	3.57406500
121.59999295	0.00000000	20.13410000	3.24803100
121.79999294	0.00000000	18.97145000	3.57406500
121.99999293	0.00000000	17.85802000	4.31840500
122.19999292	0.00000000	17.43356000	4.73671200
122.39999290	0.00000000	17.43356000	5.15501900
122.59999289	0.00000000	17.85802000	5.89320800
122.79999288	0.00000000	18.97145000	6.26845500
122.99999287	0.00000000	20.13410000	6.31151500
123.19999286	0.00000000	20.92766000	6.31151500
123.39999284	0.00000000	21.71506000	6.26845500
123.59999283	0.00000000	22.04109000	5.89320800
123.79999282	0.00000000	21.75812000	5.15501900
123.99999281	0.00000000	21.34596000	4.77977300
124.19999280	0.00000000	21.33981000	4.73671200
124.39999279	0.00000000	20.88459000	4.73671200
124.59999277	0.00000000	20.17716000	4.73671200
124.79999276	0.00000000	19.34670000	4.73671200
124.99999275	0.00000000	18.59621000	4.73671200
125.19999274	0.00000000	17.80881000	4.77977300
125.39999273	0.00000000	17.48277000	5.15501900
125.59999271	0.00000000	17.80881000	5.89320800
125.79999270	0.00000000	18.59621000	6.26845500
125.99999269	0.00000000	19.34670000	6.31151500
126.19999268	0.00000000	20.17716000	6.31151500
126.39999267	0.00000000	20.92766000	6.31151500
126.59999265	0.00000000	21.71506000	6.31151500
126.79999264	0.00000000	22.04109000	6.26845500
126.99999263	0.00000000	21.71506000	5.89320800
127.19999262	0.00000000	20.92766000	5.15501900
127.39999261	0.00000000	20.13410000	4.77977300
127.59999260	0.00000000	18.97145000	4.73671200
127.79999258	0.00000000	17.85802000	4.73671200
127.99999257	0.00000000	17.48277000	4.73671200
128.19999256	0.00000000	17.80881000	4.77977300
128.39999255	0.00000000	18.59621000	5.15501900
128.59999254	0.00000000	19.38976000	5.89320800
128.79999252	0.00000000	20.55241000	6.26845500
128.99999251	0.00000000	21.66585000	6.26845500
129.19999250	0.00000000	22.09030000	5.89320800
129.39999249	0.00000000	22.04109000	5.15501900
129.59999248	0.00000000	21.29675000	4.77977300
129.79999246	0.00000000	19.76501000	4.73671200
129.99999245	0.00000000	18.59621000	4.73671200
130.19999244	0.00000000	17.43356000	4.73671200
130.39999243	0.00000000	16.69537000	4.77977300
130.59999242	0.00000000	17.05832000	5.15501900
130.79999241	0.00000000	17.80881000	5.89320800
130.99999239	0.00000000	18.97145000	6.26845500
131.19999238	0.00000000	20.13410000	6.26845500
131.39999237	0.00000000	20.88459000	5.89320800
131.59999236	0.00000000	21.29675000	5.15501900
131.79999235	0.00000000	20.92766000	4.73671200
131.99999233	0.00000000	20.55241000	4.36146600
132.19999232	0.00000000	20.08489000	3.94931100
132.39999231	0.00000000	19.01451000	3.94315900
132.59999230	0.00000000	18.22711000	3.57406500
132.79999229	0.00000000	18.22096000	3.62327700
132.99999227	0.00000000	18.18405000	4.36146600
133.19999226	0.00000000	18.63927000	5.11195900
133.39999225	0.00000000	19.34670000	5.89320800
133.59999224	0.00000000	20.13410000	6.26845500
133.79999223	0.00000000	20.50935000	6.31151500
133.99999222	0.00000000	20.50935000	6.26845500
134.19999220	0.00000000	20.13410000	5.89320800
134.39999219	0.00000000	19.38976000	5.11195900
134.59999218	0.00000000	19.06373000	4.36146600
134.79999217	0.00000000	19.34670000	3.57406500
134.99999216	0.00000000	19.75886000	3.19881900
135.19999214	0.00000000	19.76501000	3.19881900
135.39999213	0.00000000	20.17716000	3.57406500
135.59999212	0.00000000	20.46014000	4.36146600
135.79999211	0.00000000	20.13410000	5.11195900
135.99999210	0.00000000	19.38976000	5.89320800
136.19999208	0.00000000	19.01451000	6.31151500
136.39999207	0.00000000	18.97145000	6.68676100
136.59999206	0.00000000	18.92839000	7.05585600
136.79999205	0.00000000	18.59621000	6.68676100
136.99999204	0.00000000	18.22711000	6.35457700
137.19999203	0.00000000	18.63927000	6.26845500
137.39999201	0.00000000	19.34670000	5.89320800
137.59999200	0.00000000	20.13410000	5.15501900
137.79999199	0.00000000	20.50935000	4.73671200
137.99999198	0.00000000	20.55241000	4.31840500
138.19999197	0.00000000	20.55241000	3.57406500
138.39999195	0.00000000	20.50935000	3.19881900
138.59999194	0.00000000	20.13410000	3.19881900
138.79999193	0.00000000	19.34670000	3.57406500
138.99999192	0.00000000	18.59621000	4.31840500
139.19999191	0.00000000	17.85802000	4.73671200
139.39999189	0.00000000	17.85802000	5.15501900
139.59999188	0.00000000	18.55315000	5.89320800
139.79999187	0.00000000	18.97145000	6.26845500
139.99999186	0.00000000	19.38976000	6.31151500
140.19999185	0.00000000	20.13410000	6.26845500
140.39999184	0.00000000	20.50935000	5.89320800
140.59999182	0.00000000	20.55241000	5.11195900
140.79999181	0.00000000	20.50935000	4.36146600
140.99999180	0.00000000	20.13410000	3.57406500
141.19999179	0.00000000	19.38976000	3.19881900
141.39999178	0.00000000	19.01451000	3.19881900
141.59999176	0.00000000	18.97145000	3.57406500
141.79999175	0.00000000	18.97145000	4.36146600
141.99999174	0.00000000	19.01451000	5.11195900
142.19999173	0.00000000	19.38976000	5.93626900
142.39999172	0.00000000	20.13410000	6.68676100
142.59999170	0.00000000	20.50935000	7.42495000
142.79999169	0.00000000	20.55241000	7.38188900
142.99999168	0.00000000	20.50935000	6.31151500
143.19999167	0.00000000	20.13410000	5.15501900
143.39999166	0.00000000	19.38976000	4.36146600
143.59999165	0.00000000	19.01451000	3.57406500
143.79999163	0.00000000	18.97145000	3.19881900
143.99999162	0.00000000	18.97145000	3.19881900
144.19999161	0.00000000	18.97145000	3.57406500
144.39999160	0.00000000	19.01451000	4.36146600
144.59999159	0.00000000	19.34670000	5.11195900
144.79999157	0.00000000	19.75886000	5.89320800
144.99999156	0.00000000	19.76501000	6.26845500
145.19999155	0.00000000	20.13410000	6.31151500
145.39999154	0.00000000	20.08489000	6.26845500
145.59999153	0.00000000	19.38976000	5.89320800
145.79999151	0.00000000	19.01451000	5.15501900
145.99999150	0.00000000	18.97145000	4.73671200
146.19999149	0.00000000	18.97145000	4.36146600
146.39999148	0.00000000	18.97145000	3.94931100
146.59999147	0.00000000	18.97145000	3.94315900
146.79999146	0.00000000	19.01451000	3.57406500
146.99999144	0.00000000	19.38976000	3.62327700
147.19999143	0.00000000	20.13410000	4.31840500
147.39999142	0.00000000	20.46014000	4.73671200
147.59999141	0.00000000	20.13410000	5.15501900
147.79999140	0.00000000	19.38976000	5.89320800
147.99999138	0.00000000	19.01451000	6.26845500
148.19999137	0.00000000	18.97145000	6.26845500
148.39999136	0.00000000	18.97145000	5.89320800
148.59999135	0.00000000	18.97145000	5.15501900
148.79999134	0.00000000	18.97145000	4.77977300
148.99999132	0.00000000	18.97145000	4.73671200
149.19999131	0.00000000	19.01451000	4.73671200
149.39999130	0.00000000	19.38976000	4.73671200
149.59999129	0.00000000	20.13410000	4.73671200
149.79999128	0.00000000	20.50935000	4.73671200
149.99999127	0.00000000	20.50935000	4.73671200
150.19999125	0.00000000	20.13410000	4.73671200
150.39999124	0.00000000	19.38976000	4.73671200
150.59999123	0.00000000	19.01451000	4.77977300
150.79999122	0.00000000	18.97145000	5.11195900
150.99999121	0.00000000	18.97145000	5.51796200
151.19999119	0.00000000	18.92839000	5.48105300
151.39999118	0.00000000	18.59621000	5.51796200
151.59999117	0.00000000	18.22711000	5.11195900
151.79999116	0.00000000	18.59621000	4.77977300
151.99999115	0.00000000	18.92839000	4.73671200
152.19999113	0.00000000	19.01451000	4.73671200
152.39999112	0.00000000	19.34670000	4.73671200
152.59999111	0.00000000	19.75886000	4.73671200
152.79999110	0.00000000	19.76501000	4.73671200
152.99999109	0.00000000	20.13410000	4.73671200
153.19999108	0.00000000	20.08489000	4.77977300
153.39999106	0.00000000	19.38976000	5.11195900
153.59999105	0.00000000	19.01451000	5.51796200
153.79999104	0.00000000	18.92839000	5.53026500
153.99999103	0.00000000	18.59621000	5.93626900
154.19999102	0.00000000	18.18405000	6.21924200
154.39999100	0.00000000	18.22096000	5.89320800
154.59999099	0.00000000	18.18405000	5.15501900
154.79999098	0.00000000	18.59621000	4.77977300
154.99999097	0.00000000	18.92839000	4.73671200
155.19999096	0.00000000	19.01451000	4.73671200
155.39999094	0.00000000	19.38976000	4.73671200
155.59999093	0.00000000	20.13410000	4.73671200
155.79999092	0.00000000	20.50935000	4.73671200
155.99999091	0.00000000	20.50935000	4.73671200
156.19999090	0.00000000	20.13410000	4.73671200
156.39999089	0.00000000	19.38976000	4.73671200
156.59999087	0.00000000	19.01451000	4.77977300
156.79999086	0.00000000	18.97145000	5.15501900
156.99999085	0.00000000	18.92839000	5.89320800
157.19999084	0.00000000	18.55315000	6.21924200
157.39999083	0.00000000	17.85802000	5.93626900
157.59999081	0.00000000	17.85802000	5.53026500
157.79999080	0.00000000	18.55315000	5.51796200
157.99999079	0.00000000	18.92839000	5.11195900
158.19999078	0.00000000	19.01451000	4.77977300
158.39999077	0.00000000	19.38976000	4.73671200
158.59999075	0.00000000	20.13410000	4.73671200
158.79999074	0.00000000	20.46014000	4.73671200
158.99999073	0.00000000	20.13410000	4.73671200
159.19999072	0.00000000	19.38976000	4.73671200
159.39999071	0.00000000	19.01451000	4.73671200
159.59999070	0.00000000	18.97145000	4.77977300
159.79999068	0.00000000	18.92839000	5.11195900
159.99999067	0.00000000	18.59621000	5.51796200
160.19999066	0.00000000	18.22711000	5.48105300
160.39999065	0.00000000	18.59621000	5.51796200
160.59999064	0.00000000	18.92839000	5.11195900
160.79999062	0.00000000	18.97145000	4.77977300
160.99999061	0.00000000	18.97145000	4.73671200
161.19999060	0.00000000	18.97145000	4.73671200
161.39999059	0.00000000	18.97145000	4.73671200
161.59999058	0.00000000	18.97145000	4.73671200
161.79999056	0.00000000	18.97145000	4.73671200
161.99999055	0.00000000	18.97145000	4.73671200
162.19999054	0.00000000	18.97145000	4.73671200
162.39999053	0.00000000	18.97145000	4.77977300
162.59999052	0.00000000	18.97145000	5.11195900
162.79999051	0.00000000	18.97145000	5.51796200
162.99999049	0.00000000	18.97145000	5.48105300
163.19999048	0.00000000	18.97145000	5.51796200
163.39999047	0.00000000	18.97145000	5.11195900
163.59999046	0.00000000	18.97145000	4.77977300
163.79999045	0.00000000	18.92839000	4.73671200
163.99999043	0.00000000	18.59621000	4.73671200
164.19999042	0.00000000	18.22711000	4.73671200
164.39999041	0.00000000	18.59621000	4.73671200
164.59999040	0.00000000	18.92839000	4.73671200
164.79999039	0.00000000	18.97145000	4.73671200
164.99999037	0.00000000	18.97145000	4.73671200
165.19999036	0.00000000	18.97145000	4.73671200
165.39999035	0.00000000	18.97145000	4.73671200
165.59999034	0.00000000	18.97145000	4.73671200
165.79999033	0.00000000	18.97145000	4.73671200
165.99999032	0.00000000	18.97145000	4.73671200
166.19999030	0.00000000	18.97145000	4.73671200
166.39999029	0.00000000	18.97145000	4.73671200
166.59999028	0.00000000	18.97145000	4.73671200
166.79999027	0.00000000	18.92839000	4.73671200
166.99999026	0.00000000	18.55315000	4.73671200
167.19999024	0.00000000	17.85802000	4.73671200
167.39999023	0.00000000	17.85802000	4.73671200
167.59999022	0.00000000	18.55315000	4.73671200
167.79999021	0.00000000	18.92839000	4.73671200
167.99999020	0.00000000	18.97145000	4.73671200
168.19999018	0.00000000	18.97145000	4.73671200
168.39999017	0.00000000	18.97145000	4.73671200
168.59999016	0.00000000	18.97145000	4.73671200
168.79999015	0.00000000	18.97145000	4.73671200
168.99999014	0.00000000	18.97145000	4.73671200
169.19999013	0.00000000	18.97145000	4.73671200
169.39999011	0.00000000	18.97145000	4.73671200
169.59999010	0.00000000	18.97145000	4.73671200
169.79999009	0.00000000	18.97145000	4.73671200
169.99999008	0.00000000	18.97145000	4.73671200
170.19999007	0.00000000	18.97145000	4.73671200
170.39999005	0.00000000	18.97145000	4.73671200
170.59999004	0.00000000	18.97145000	4.73671200
170.79999003	0.00000000	18.97145000	4.73671200
170.99999002	0.00000000	18.97145000	4.73671200
171.19999001	0.00000000	18.97145000	4.73671200
171.39998999	0.00000000	19.01451000	4.73671200
171.59998998	0.00000000	19.34670000	4.73671200
171.79998997	0.00000000	19.71580000	4.73671200
171.99998996	0.00000000	19.34670000	4.73671200
172.19998995	0.00000000	19.01451000	4.73671200
172.39998994	0.00000000	18.97145000	4.73671200
172.59998992	0.00000000	18.97145000	4.73671200
172.79998991	0.00000000	18.97145000	4.73671200
172.99998990	0.00000000	18.97145000	4.73671200
173.19998989	0.00000000	18.97145000	4.73671200
173.39998988	0.00000000	18.97145000	4.73671200
173.59998986	0.00000000	18.97145000	4.73671200
173.79998985	0.00000000	18.97145000	4.73671200
173.99998984	0.00000000	18.97145000	4.73671200
174.19998983	0.00000000	18.97145000	4.73671200
174.39998982	0.00000000	18.97145000	4.73671200
174.59998980	0.00000000	18.97145000	4.73671200
174.79998979	0.00000000	18.97145000	4.73671200
174.99998978	0.00000000	18.97145000	4.73671200
175.19998977	0.00000000	18.97145000	4.73671200
175.39998976	0.00000000	18.97145000	4.73671200
175.59998975	0.00000000	18.97145000	4.73671200
175.79998973	0.00000000	18.97145000	4.73671200
175.99998972	0.00000000	18.97145000	4.73671200
176.19998971	0.00000000	18.97145000	4.73671200
176.39998970	0.00000000	18.97145000	4.73671200
176.59998969	0.00000000	18.97145000	4.73671200
176.79998967	0.00000000	18.97145000	4.73671200
176.99998966	0.00000000	18.97145000	4.73671200
177.19998965	0.00000000	18.92839000	4.73671200
177.39998964	0.00000000	18.59621000	4.73671200
177.59998963	0.00000000	18.22711000	4.73671200
177.79998961	0.00000000	18.59621000	4.73671200
177.99998960	0.00000000	18.92839000	4.73671200
178.19998959	0.00000000	18.97145000	4.73671200
178.39998958	0.00000000	18.97145000	4.73671200
178.59998957	0.00000000	18.97145000	4.73671200
178.79998956	0.00000000	18.97145000	4.73671200
178.99998954	0.00000000	18.97145000	4.73671200
179.19998953	0.00000000	18.97145000	4.73671200
179.39998952	0.00000000	18.97145000	4.73671200
179.59998951	0.00000000	18.97145000	4.73671200
179.79998950	0.00000000	18.97145000	4.73671200
179.99998948	0.00000000	18.97145000	4.73671200
180.19998947	0.00000000	18.92839000	4.69365100
180.39998946	0.00000000	18.59621000	4.36146600
180.59998945	0.00000000	18.22711000	3.99237200
180.79998944	0.00000000	18.59621000	4.36146600
180.99998942	0.00000000	18.92839000	4.69365100
181.19998941	0.00000000	18.97145000	4.73671200
181.39998940	0.00000000	18.97145000	4.73671200
181.59998939	0.00000000	19.01451000	4.73671200
181.79998938	0.00000000	19.34670000	4.73671200
181.99998937	0.00000000	19.71580000	4.73671200
182.19998935	0.00000000	19.34670000	4.73671200
182.39998934	0.00000000	19.01451000	4.73671200
182.59998933	0.00000000	18.97145000	4.73671200
182.79998932	0.00000000	18.92839000	4.73671200
182.99998931	0.00000000	18.59621000	4.73671200
183.19998929	0.00000000	18.22711000	4.69365100
183.39998928	0.00000000	18.59621000	4.36146600
183.59998927	0.00000000	18.92839000	3.99237200
183.79998926	0.00000000	18.97145000	4.36146600
183.99998925	0.00000000	18.97145000	4.69365100
184.19998923	0.00000000	18.92839000	4.73671200
184.39998922	0.00000000	18.59621000	4.73671200
184.59998921	0.00000000	18.22711000	4.77977300
184.79998920	0.00000000	18.59621000	5.11195900
184.99998919	0.00000000	18.92839000	5.51796200
185.19998918	0.00000000	18.97145000	5.48105300
185.39998916	0.00000000	18.97145000	5.51796200
185.59998915	0.00000000	18.97145000	5.11195900
185.79998914	0.00000000	18.97145000	4.77977300
185.99998913	0.00000000	18.97145000	4.69365100
186.19998912	0.00000000	18.97145000	4.31840500
186.39998910	0.00000000	18.97145000	3.57406500
186.59998909	0.00000000	18.97145000	3.24803100
186.79998908	0.00000000	18.97145000	3.57406500
186.99998907	0.00000000	18.92839000	4.31840500
187.19998906	0.00000000	18.55315000	4.69365100
187.39998904	0.00000000	17.80881000	4.73671200
187.59998903	0.00000000	17.48277000	4.73671200
187.79998902	0.00000000	17.80881000	4.73671200
187.99998901	0.00000000	18.55315000	4.73671200
188.19998900	0.00000000	18.92839000	4.73671200
188.39998899	0.00000000	18.97145000	4.73671200
188.59998897	0.00000000	18.97145000	4.73671200
188.79998896	0.00000000	18.97145000	4.69365100
188.99998895	0.00000000	18.97145000	4.31840500
189.19998894	0.00000000	18.97145000	3.57406500
189.39998893	0.00000000	18.97145000	3.24803100
189.59998891	0.00000000	18.97145000	3.57406500
189.79998890	0.00000000	18.92839000	4.31840500
189.99998889	0.00000000	18.59621000	4.69365100
190.19998888	0.00000000	18.22711000	4.73671200
190.39998887	0.00000000	18.59621000	4.73671200
190.59998885	0.00000000	18.87918000	4.73671200
190.79998884	0.00000000	18.59621000	4.73671200
190.99998883	0.00000000	18.22711000	4.73671200
191.19998882	0.00000000	18.59621000	4.73671200
191.39998881	0.00000000	18.92839000	4.73671200
191.59998880	0.00000000	18.97145000	4.73671200
191.79998878	0.00000000	18.92839000	4.73671200
191.99998877	0.00000000	18.59621000	4.73671200
192.19998876	0.00000000	18.22711000	4.73671200
192.39998875	0.00000000	18.59621000	4.73671200
192.59998874	0.00000000	18.92839000	4.73671200
192.79998872	0.00000000	18.97145000	4.73671200
192.99998871	0.00000000	18.92839000	4.73671200
193.19998870	0.00000000	18.55315000	4.73671200
193.39998869	0.00000000	17.80881000	4.73671200
193.59998868	0.00000000	17.43356000	4.73671200
193.79998866	0.00000000	17.43356000	4.73671200
193.99998865	0.00000000	17.80881000	4.73671200
194.19998864	0.00000000	18.55315000	4.73671200
194.39998863	0.00000000	18.92839000	4.73671200
194.59998862	0.00000000	18.97145000	4.73671200
194.79998861	0.00000000	18.97145000	4.73671200
194.99998859	0.00000000	18.97145000	4.73671200
195.19998858	0.00000000	18.97145000	4.73671200
195.39998857	0.00000000	18.97145000	4.73671200
195.59998856	0.00000000	18.92839000	4.73671200
195.79998855	0.00000000	18.55315000	4.73671200
195.99998853	0.00000000	17.85802000	4.73671200
