Time	Channel A	Channel B	Channel C
(us)	(V)	(mV)	(mV)

-4.49999956	0.00000000	-47.43479000	-25.26452000
-4.29999957	0.00000000	-47.43479000	-25.26452000
-4.09999958	0.00000000	-47.43479000	-25.26452000
-3.89999959	0.00000000	-47.43479000	-25.26452000
-3.69999960	0.00000000	-47.47785000	-25.26452000
-3.49999962	0.00000000	-47.85310000	-25.26452000
-3.29999963	0.00000000	-48.54823000	-25.26452000
-3.09999964	0.00000000	-48.54823000	-25.26452000
-2.89999965	0.00000000	-47.85310000	-25.26452000
-2.69999966	0.00000000	-47.47785000	-25.26452000
-2.49999968	0.00000000	-47.47785000	-25.26452000
-2.29999969	0.00000000	-47.81004000	-25.26452000
-2.09999970	0.00000000	-48.17913000	-25.26452000
-1.89999971	0.00000000	-47.81004000	-25.30758000
-1.69999972	0.00000000	-47.52707000	-25.63976000
-1.49999973	0.00000000	-47.85310000	-26.00270000
-1.29999975	0.00000000	-48.54823000	-25.63976000
-1.09999976	0.00000000	-48.59744000	-25.30758000
-0.89999977	0.00000000	-48.22834000	-25.26452000
-0.69999978	0.00000000	-48.22219000	-25.26452000
-0.49999979	0.00000000	-47.81004000	-25.26452000
-0.29999981	0.31803640	-47.52707000	-25.26452000
-0.09999982	0.63668800	-47.81004000	-25.26452000
0.10000017	0.95533960	-48.17913000	-25.26452000
0.30000016	0.95533960	-47.81004000	-25.26452000
0.50000015	0.95533960	-47.52707000	-25.26452000
0.70000013	0.31803640	-47.81004000	-25.26452000
0.90000012	-0.47736220	-48.17913000	-25.26452000
1.10000011	-1.43331700	-47.85310000	-25.26452000
1.30000010	-2.38927200	-47.85310000	-25.22145000
1.50000009	-2.70792300	-48.17913000	-24.84621000
1.70000008	-2.54859700	-47.81004000	-24.10187000
1.90000006	-1.43331700	-47.47785000	-23.72662000
2.10000005	0.47736220	-47.43479000	-23.68356000
2.30000004	2.54859700	-47.43479000	-23.72662000
2.50000003	4.45989200	-47.47785000	-24.10187000
2.70000002	5.25652100	-47.85310000	-24.84621000
2.90000000	4.93786900	-48.54823000	-25.22145000
3.09999999	3.02657500	-48.59744000	-25.26452000
3.29999998	0.15871060	-48.27140000	-25.26452000
3.49999997	-3.34522600	-48.59744000	-25.26452000
3.69999996	-6.21247500	-48.54823000	-25.22145000
3.89999994	-7.96444400	-47.85310000	-24.84621000
4.09999993	-7.48646600	-47.47785000	-24.10187000
4.29999992	-5.25652100	-47.43479000	-23.72662000
4.49999991	-1.43331700	-47.43479000	-23.68356000
4.69999990	3.02657500	-47.43479000	-23.72662000
4.89999989	7.00848900	-47.47785000	-24.10187000
5.09999987	9.23905000	-47.85310000	-24.84621000
5.29999986	9.07972400	-48.54823000	-25.22145000
5.49999985	6.84916400	-48.59744000	-25.26452000
5.69999984	2.70792300	-48.27140000	-25.26452000
5.89999983	-2.07062000	-48.59744000	-25.22145000
6.09999981	-6.37180100	-48.59744000	-24.84621000
6.29999980	-8.92039900	-48.22834000	-24.10187000
6.49999979	-9.39837600	-48.22219000	-23.72662000
6.69999978	-7.32714100	-47.85310000	-23.68356000
6.89999977	-3.66326300	-47.85310000	-23.68356000
7.09999975	0.79601380	-48.17913000	-23.68356000
7.29999974	4.61921700	-47.81004000	-23.72662000
7.49999973	7.16781500	-47.52707000	-24.10187000
7.69999972	7.80511800	-47.85310000	-24.88927000
7.89999971	6.37180100	-48.54823000	-25.59055000
8.09999970	3.50393700	-48.54823000	-26.00270000
8.29999968	0.31803640	-47.90231000	-25.63976000
8.49999967	-2.70792300	-47.90231000	-25.30758000
8.69999966	-4.61921700	-48.59744000	-25.26452000
8.89999965	-5.25652100	-48.97269000	-25.26452000
9.09999964	-4.45989200	-48.97269000	-25.26452000
9.29999962	-2.70792300	-48.64050000	-25.26452000
9.49999961	-0.79601380	-48.22834000	-25.26452000
9.69999960	0.95533960	-48.26525000	-25.26452000
9.89999959	2.07062000	-48.22834000	-25.26452000
10.09999958	2.54859700	-48.64050000	-25.26452000
10.29999956	2.22994600	-48.97269000	-25.26452000
10.49999955	1.43331700	-49.01575000	-25.26452000
10.69999954	0.63668800	-49.01575000	-25.26452000
10.89999953	-0.15871060	-49.01575000	-25.26452000
11.09999952	-0.79601380	-49.01575000	-25.26452000
11.29999951	-0.95533960	-49.01575000	-25.26452000
11.49999949	-0.95533960	-49.01575000	-25.26452000
11.69999948	-0.79601380	-49.01575000	-25.30758000
11.89999947	-0.47736220	-49.01575000	-25.63976000
12.09999946	-0.15871060	-49.01575000	-26.00270000
12.29999945	-0.15871060	-49.01575000	-25.68282000
12.49999943	0.00000000	-48.97269000	-25.68282000
12.69999942	0.00000000	-48.59744000	-26.00270000
12.89999941	0.00000000	-47.90231000	-25.63976000
13.09999940	0.00000000	-47.90231000	-25.35679000
13.29999939	0.00000000	-48.59744000	-25.63976000
13.49999937	0.00000000	-48.97269000	-26.00270000
13.69999936	0.00000000	-49.01575000	-25.63976000
13.89999935	0.00000000	-49.01575000	-25.30758000
14.09999934	-0.15871060	-49.01575000	-25.26452000
14.29999933	-0.15871060	-49.01575000	-25.26452000
14.49999932	-0.15871060	-49.01575000	-25.26452000
14.69999930	0.00000000	-49.01575000	-25.26452000
14.89999929	0.00000000	-49.01575000	-25.26452000
15.09999928	0.00000000	-49.01575000	-25.26452000
15.29999927	0.00000000	-49.01575000	-25.26452000
15.49999926	0.00000000	-49.01575000	-25.26452000
15.69999924	0.00000000	-49.01575000	-25.26452000
15.89999923	0.00000000	-49.01575000	-25.26452000
16.09999922	0.00000000	-49.01575000	-25.26452000
16.29999921	0.00000000	-49.01575000	-25.26452000
16.49999920	0.00000000	-49.01575000	-25.26452000
16.69999919	0.00000000	-48.97269000	-25.26452000
16.89999917	0.00000000	-48.59744000	-25.26452000
17.09999916	0.00000000	-47.85310000	-25.26452000
17.29999915	0.00000000	-47.47785000	-25.26452000
17.49999914	0.00000000	-47.43479000	-25.26452000
17.69999913	0.00000000	-47.43479000	-25.26452000
17.89999911	0.00000000	-47.47785000	-25.26452000
18.09999910	0.00000000	-47.90231000	-25.26452000
18.29999909	0.00000000	-49.05881000	-25.26452000
18.49999908	0.00000000	-50.59670000	-25.26452000
18.69999907	0.00000000	-52.17765000	-25.26452000
18.89999905	0.00000000	-53.66634000	-25.26452000
19.09999904	0.00000000	-54.36761000	-25.26452000
19.29999903	0.00000000	-53.20496000	-25.26452000
19.49999902	0.00000000	-50.50443000	-25.26452000
19.69999901	0.00000000	-47.01648000	-25.26452000
19.89999900	0.00000000	-43.11023000	-25.26452000
20.09999898	0.00000000	-39.66535000	-25.26452000
20.29999897	0.00000000	-37.38927000	-25.26452000
20.49999896	0.00000000	-37.47539000	-25.26452000
20.69999895	0.00000000	-40.59424000	-25.26452000
20.89999894	0.00000000	-46.40748000	-25.26452000
21.09999892	0.00000000	-53.75861000	-25.26452000
21.29999891	0.00000000	-61.10974000	-25.26452000
21.49999890	0.00000000	-66.87991000	-25.26452000
21.69999889	0.00000000	-69.49433000	-25.26452000
21.89999888	0.00000000	-67.48892000	-25.26452000
22.09999886	0.00000000	-60.46383000	-25.26452000
22.29999885	0.00000000	-49.62475000	-25.26452000
22.49999884	0.00000000	-36.87869000	-25.26452000
22.69999883	0.00000000	-25.33218000	-25.26452000
22.89999882	0.00000000	-18.07332000	-25.26452000
23.09999881	0.00000000	-17.37820000	-25.22145000
23.29999879	0.00000000	-24.39714000	-24.84621000
23.49999878	0.00000000	-37.94291000	-24.10187000
23.69999877	0.00000000	-55.33957000	-23.72662000
23.89999876	0.00000000	-72.69930000	-23.68356000
24.09999875	0.00000000	-85.77140000	-23.68356000
24.29999873	0.00000000	-91.12327000	-23.72662000
24.49999872	0.00000000	-86.84178000	-24.19414000
24.69999871	0.00000000	-73.67741000	-25.72589000
24.89999870	0.00000000	-54.27534000	-28.00197000
25.09999869	0.00000000	-32.26501000	-29.90895000
25.29999867	0.00000000	-12.63533000	-31.06545000
25.49999866	0.00000000	-0.71973420	-31.06545000
25.69999865	0.00000000	0.39370070	-29.90895000
25.89999864	0.00000000	-10.07013000	-27.90969000
26.09999863	0.00000000	-30.12426000	-24.75394000
26.29999862	0.00000000	-54.82898000	-20.57087000
26.49999860	0.00000000	-78.42027000	-16.76304000
26.69999859	0.00000000	-95.82307000	-14.76378000
26.89999858	0.00000000	-103.08810000	-14.43159000
27.09999857	0.00000000	-98.10531000	-16.11097000
27.29999856	0.00000000	-81.91437000	-21.21678000
27.49999854	0.00000000	-59.11048000	-28.83858000
27.69999853	0.00000000	-34.35654000	-36.96481000
27.89999852	0.00000000	-13.14591000	-43.47933000
28.09999851	0.00000000	-0.76279520	-46.95497000
28.29999850	0.00000000	0.44291340	-46.08144000
28.49999848	0.00000000	-9.55954600	-40.59424000
28.69999847	0.00000000	-28.03272000	-30.56102000
28.89999846	0.00000000	-50.08612000	-18.20251000
29.09999845	0.00000000	-71.02608000	-6.67445900
29.29999844	0.00000000	-86.89099000	1.82086600
29.49999843	0.00000000	-94.24212000	4.47219400
29.69999841	0.00000000	-91.58464000	0.94119090
29.89999840	0.00000000	-80.09350000	-8.81520600
30.09999839	0.00000000	-63.06594000	-23.81890000
30.29999838	0.00000000	-44.49434000	-39.99138000
30.49999837	0.00000000	-27.79896000	-53.56176000
30.69999835	0.00000000	-16.58464000	-62.01402000
30.89999834	0.00000000	-12.67840000	-63.12745000
31.09999833	0.00000000	-16.91068000	-56.11466000
31.29999832	0.00000000	-28.03272000	-42.21825000
31.49999831	0.00000000	-42.69193000	-24.05881000
31.69999829	0.00000000	-57.48647000	-5.93626900
31.89999828	0.00000000	-69.86343000	8.37229300
32.09999827	0.00000000	-77.62672000	15.71112000
32.29999826	0.00000000	-78.79552000	14.55463000
32.49999825	0.00000000	-73.81274000	5.25959600
32.69999824	0.00000000	-63.76107000	-10.58071000
32.89999822	0.00000000	-51.06422000	-29.49065000
33.09999821	0.00000000	-39.09941000	-47.24409000
33.29999820	0.00000000	-30.54257000	-60.01476000
33.49999819	0.00000000	-27.00541000	-65.08366000
33.69999818	0.00000000	-28.49409000	-62.01402000
33.89999816	0.00000000	-34.35654000	-51.55635000
34.09999815	0.00000000	-43.57160000	-35.71604000
34.29999814	0.00000000	-53.90009000	-17.96260000
34.49999813	0.00000000	-61.62647000	-2.17150600
34.69999812	0.00000000	-65.20669000	7.90477300
34.89999810	0.00000000	-64.83144000	10.27928000
35.09999809	0.00000000	-60.59916000	5.30265700
35.29999808	0.00000000	-53.71555000	-5.93626900
35.49999807	0.00000000	-46.40748000	-20.94611000
35.69999806	0.00000000	-40.63730000	-36.36811000
35.89999805	0.00000000	-37.89985000	-48.31446000
36.09999803	0.00000000	-38.63804000	-54.16461000
36.29999802	0.00000000	-42.08292000	-53.00197000
36.49999801	0.00000000	-47.52707000	-45.33095000
36.69999800	0.00000000	-53.62328000	-33.06471000
36.89999799	0.00000000	-58.59990000	-20.01107000
37.09999797	0.00000000	-60.50689000	-9.59645700
37.29999796	0.00000000	-59.06127000	-4.16461600
37.49999795	0.00000000	-55.20423000	-4.85974400
37.69999794	0.00000000	-50.22145000	-10.62377000
37.89999793	0.00000000	-45.20177000	-19.87574000
38.09999791	0.00000000	-41.70767000	-30.56102000
38.29999790	0.00000000	-40.12672000	-38.97022000
38.49999789	0.00000000	-40.55118000	-42.45817000
38.69999788	0.00000000	-43.24557000	-40.55118000
38.89999787	0.00000000	-47.43479000	-33.67372000
39.09999786	0.00000000	-51.71013000	-24.10187000
39.29999784	0.00000000	-55.20423000	-14.94217000
39.49999783	0.00000000	-57.57259000	-8.81520600
39.69999782	0.00000000	-58.32308000	-8.06471300
39.89999781	0.00000000	-57.57259000	-12.66609000
40.09999780	0.00000000	-55.24729000	-21.49975000
40.29999778	0.00000000	-52.17765000	-32.18504000
40.49999777	0.00000000	-49.05881000	-41.06176000
40.69999776	0.00000000	-46.32135000	-46.03838000
40.89999775	0.00000000	-44.36515000	-45.98302000
41.09999774	0.00000000	-43.20251000	-39.85605000
41.29999772	0.00000000	-43.20251000	-29.95817000
41.49999771	0.00000000	-44.36515000	-19.54355000
41.69999770	0.00000000	-46.32135000	-11.04823000
41.89999769	0.00000000	-49.01575000	-6.44069800
42.09999768	0.00000000	-51.71013000	-6.85900500
42.29999767	0.00000000	-53.71555000	-12.57382000
42.49999765	0.00000000	-55.33957000	-21.77042000
42.69999764	0.00000000	-56.82825000	-31.39763000
42.89999763	0.00000000	-57.52953000	-39.53002000
43.09999762	0.00000000	-56.40993000	-44.13140000
43.29999761	0.00000000	-54.17691000	-44.17446000
43.49999759	0.00000000	-52.17765000	-39.99138000
43.69999758	0.00000000	-50.22145000	-33.07087000
43.89999757	0.00000000	-48.27140000	-25.35064000
44.09999756	0.00000000	-47.10260000	-18.43012000
44.29999755	0.00000000	-46.27214000	-14.15477000
44.49999753	0.00000000	-45.89690000	-13.31816000
44.69999752	0.00000000	-45.85384000	-15.18209000
44.89999751	0.00000000	-45.89690000	-19.03912000
45.09999750	0.00000000	-46.32135000	-23.68356000
45.29999749	0.00000000	-47.52707000	-28.32800000
45.49999748	0.00000000	-49.48326000	-32.14198000
45.69999746	0.00000000	-52.17765000	-33.71678000
45.89999745	0.00000000	-54.92125000	-33.02165000
46.09999744	0.00000000	-57.29576000	-31.11466000
46.29999743	0.00000000	-59.57185000	-28.37721000
46.49999742	0.00000000	-60.64222000	-25.30758000
46.69999740	0.00000000	-59.43651000	-22.57013000
46.89999739	0.00000000	-55.94857000	-20.66314000
47.09999738	0.00000000	-50.50443000	-19.83268000
47.29999737	0.00000000	-44.31594000	-20.24483000
47.49999736	0.00000000	-38.54576000	-21.40748000
47.69999734	0.00000000	-34.73179000	-23.77584000
47.89999733	0.00000000	-34.35654000	-26.79626000
48.09999732	0.00000000	-37.47539000	-29.49065000
48.29999731	0.00000000	-43.71309000	-31.06545000
48.49999730	0.00000000	-52.17765000	-31.44069000
48.69999729	0.00000000	-60.64837000	-30.64714000
48.89999727	0.00000000	-66.83685000	-28.32800000
49.09999726	0.00000000	-69.49433000	-25.26452000
49.29999725	0.00000000	-67.58119000	-22.15182000
49.49999724	0.00000000	-61.39271000	-19.45743000
49.69999723	0.00000000	-52.87278000	-17.96260000
49.89999721	0.00000000	-43.20251000	-18.33784000
50.09999720	0.00000000	-34.81791000	-20.66314000
50.29999719	0.00000000	-30.58563000	-24.15108000
50.49999718	0.00000000	-31.65600000	-28.37721000
50.69999717	0.00000000	-37.05708000	-32.18504000
50.89999715	0.00000000	-45.15871000	-34.09203000
51.09999714	0.00000000	-54.41068000	-33.76599000
51.29999713	0.00000000	-62.09399000	-31.44069000
51.49999712	0.00000000	-66.37549000	-27.95275000
51.69999711	0.00000000	-66.37549000	-23.72662000
51.89999710	0.00000000	-62.13705000	-19.91880000
52.09999708	0.00000000	-54.82898000	-17.96260000
52.29999707	0.00000000	-46.40748000	-17.91953000
52.49999706	0.00000000	-39.52387000	-19.50049000
52.69999705	0.00000000	-36.40502000	-22.57013000
52.89999704	0.00000000	-37.52460000	-26.42101000
53.09999702	0.00000000	-42.08292000	-29.86589000
53.29999701	0.00000000	-48.64050000	-32.18504000
53.49999700	0.00000000	-55.16117000	-32.56028000
53.69999699	0.00000000	-60.18085000	-31.06545000
53.89999698	0.00000000	-62.08784000	-28.42027000
54.09999696	0.00000000	-60.55610000	-25.72589000
54.29999695	0.00000000	-55.99163000	-23.81890000
54.49999694	0.00000000	-49.85236000	-22.98843000
54.69999693	0.00000000	-44.45127000	-23.40059000
54.89999692	0.00000000	-40.63730000	-24.52018000
55.09999691	0.00000000	-39.89911000	-26.46407000
55.29999689	0.00000000	-42.91954000	-28.32800000
55.49999688	0.00000000	-47.85310000	-29.44759000
55.69999687	0.00000000	-53.29109000	-29.02928000
55.89999686	0.00000000	-57.90477000	-26.75320000
56.09999685	0.00000000	-60.59916000	-23.72662000
56.29999683	0.00000000	-60.59916000	-21.08145000
56.49999682	0.00000000	-57.90477000	-19.96801000
56.69999681	0.00000000	-53.34030000	-21.12451000
56.89999680	0.00000000	-48.32062000	-24.19414000
57.09999679	0.00000000	-44.45127000	-28.42027000
57.29999677	0.00000000	-42.13213000	-32.64640000
57.49999676	0.00000000	-42.17519000	-35.71604000
57.69999675	0.00000000	-44.78346000	-36.82948000
57.89999674	0.00000000	-48.59744000	-35.24852000
58.09999673	0.00000000	-52.08538000	-31.02239000
58.29999672	0.00000000	-54.82898000	-25.26452000
58.49999670	0.00000000	-56.36687000	-19.45743000
58.69999669	0.00000000	-56.36687000	-14.84990000
58.89999668	0.00000000	-54.87204000	-12.62303000
59.09999667	0.00000000	-52.55290000	-14.20399000
59.29999666	0.00000000	-50.26451000	-19.54355000
59.49999664	0.00000000	-48.32062000	-26.83932000
59.69999663	0.00000000	-47.57013000	-34.14124000
59.89999662	0.00000000	-47.90231000	-39.53002000
60.09999661	0.00000000	-49.05881000	-41.48006000
60.29999660	0.00000000	-50.55364000	-39.94832000
60.49999658	0.00000000	-51.75935000	-35.25467000
60.69999657	0.00000000	-52.50984000	-27.90969000
60.89999656	0.00000000	-52.87278000	-19.50049000
61.09999655	0.00000000	-52.08538000	-12.62303000
61.29999654	0.00000000	-50.63976000	-9.51033400
61.49999653	0.00000000	-49.43405000	-10.62377000
61.69999651	0.00000000	-48.68356000	-15.27436000
61.89999650	0.00000000	-48.32062000	-22.61319000
62.09999649	0.00000000	-49.15108000	-31.02239000
62.29999648	0.00000000	-51.01501000	-37.94907000
62.49999647	0.00000000	-53.29109000	-41.48006000
62.69999645	0.00000000	-54.82898000	-41.48006000
62.89999644	0.00000000	-55.24729000	-37.99213000
63.09999643	0.00000000	-54.82898000	-31.48991000
63.29999642	0.00000000	-53.29109000	-24.14493000
63.49999641	0.00000000	-50.97194000	-17.54429000
63.69999639	0.00000000	-48.68356000	-12.57382000
63.89999638	0.00000000	-46.73966000	-11.04208000
64.09999637	0.00000000	-45.98917000	-13.27510000
64.29999636	0.00000000	-46.36442000	-17.87647000
64.49999635	0.00000000	-47.90231000	-23.72662000
64.69999634	0.00000000	-50.22145000	-29.86589000
64.89999632	0.00000000	-52.55290000	-34.87943000
65.09999631	0.00000000	-54.82898000	-37.20472000
65.29999630	0.00000000	-55.94857000	-36.92175000
65.49999629	0.00000000	-55.24729000	-34.60261000
65.69999628	0.00000000	-53.71555000	-31.15772000
65.89999626	0.00000000	-51.75935000	-27.25763000
66.09999625	0.00000000	-49.48326000	-23.72662000
66.29999624	0.00000000	-47.98843000	-20.61393000
66.49999623	0.00000000	-47.94537000	-18.29478000
66.69999622	0.00000000	-49.10802000	-17.50123000
66.89999620	0.00000000	-50.97194000	-17.87647000
67.09999619	0.00000000	-52.92200000	-19.40822000
67.29999618	0.00000000	-54.04158000	-21.68430000
67.49999617	0.00000000	-54.41068000	-23.72662000
67.69999616	0.00000000	-53.20496000	-26.14419000
67.89999615	0.00000000	-50.59670000	-29.58292000
68.09999613	0.00000000	-47.90231000	-32.64640000
68.29999612	0.00000000	-45.94611000	-34.64567000
68.49999611	0.00000000	-44.82652000	-35.75910000
68.69999610	0.00000000	-45.29404000	-35.24852000
68.89999609	0.00000000	-47.98843000	-32.22810000
69.09999607	0.00000000	-52.17765000	-27.63287000
69.29999606	0.00000000	-56.40993000	-23.30832000
69.49999605	0.00000000	-59.52879000	-18.98991000
69.69999604	0.00000000	-61.06668000	-15.22515000
69.89999603	0.00000000	-60.59916000	-13.73647000
70.09999601	0.00000000	-57.52953000	-15.22515000
70.29999600	0.00000000	-52.50984000	-19.12524000
70.49999599	0.00000000	-47.10260000	-24.52018000
70.69999598	0.00000000	-42.08292000	-30.69636000
70.89999597	0.00000000	-39.05635000	-35.67298000
71.09999596	0.00000000	-39.05635000	-38.41043000
71.29999594	0.00000000	-42.13213000	-38.41043000
71.49999593	0.00000000	-47.52707000	-35.71604000
71.69999592	0.00000000	-53.75861000	-31.11466000
71.89999591	0.00000000	-59.94709000	-25.72589000
72.09999590	0.00000000	-64.92371000	-21.12451000
72.29999588	0.00000000	-66.79379000	-18.38706000
72.49999587	0.00000000	-64.92371000	-17.96260000
72.69999586	0.00000000	-59.90403000	-19.50049000
72.89999585	0.00000000	-53.34030000	-22.52091000
73.09999584	0.00000000	-46.36442000	-25.95964000
73.29999582	0.00000000	-40.63730000	-28.28494000
73.49999581	0.00000000	-37.89985000	-29.53371000
73.69999580	0.00000000	-38.59498000	-29.86589000
73.89999579	0.00000000	-41.70767000	-29.11540000
74.09999578	0.00000000	-46.73966000	-27.25763000
74.29999577	0.00000000	-52.92200000	-25.77510000
74.49999575	0.00000000	-58.27386000	-25.39985000
74.69999574	0.00000000	-61.80487000	-26.14419000
74.89999573	0.00000000	-62.59842000	-28.04503000
75.09999572	0.00000000	-61.10974000	-29.90895000
75.29999571	0.00000000	-57.99089000	-31.06545000
75.49999569	0.00000000	-53.75861000	-31.02239000
75.69999568	0.00000000	-49.52633000	-29.49065000
75.89999567	0.00000000	-46.45054000	-26.75320000
76.09999566	0.00000000	-45.24483000	-23.30832000
76.29999565	0.00000000	-45.94611000	-19.82652000
76.49999563	0.00000000	-47.43479000	-17.59350000
76.69999562	0.00000000	-49.05881000	-17.22441000
76.89999561	0.00000000	-50.97194000	-19.58661000
77.09999560	0.00000000	-52.87278000	-24.19414000
77.29999559	0.00000000	-53.66634000	-29.95201000
77.49999558	0.00000000	-53.75861000	-35.34079000
77.69999556	0.00000000	-53.71555000	-38.78568000
77.89999555	0.00000000	-53.34030000	-39.57308000
78.09999554	0.00000000	-52.64517000	-37.25394000
78.29999553	0.00000000	-52.64517000	-32.60334000
78.49999552	0.00000000	-53.34030000	-26.42101000
78.69999550	0.00000000	-53.66634000	-19.87574000
78.89999549	0.00000000	-53.29109000	-14.89911000
79.09999548	0.00000000	-52.13459000	-12.53076000
79.29999547	0.00000000	-50.59670000	-13.31816000
79.49999546	0.00000000	-49.05881000	-16.75689000
79.69999544	0.00000000	-47.85310000	-22.14567000
79.89999543	0.00000000	-47.10260000	-27.90969000
80.09999542	0.00000000	-46.78272000	-32.60334000
80.29999541	0.00000000	-47.98843000	-35.71604000
80.49999540	0.00000000	-50.63976000	-36.87254000
80.69999539	0.00000000	-53.66634000	-35.71604000
80.89999537	0.00000000	-56.03469000	-32.68946000
81.09999536	0.00000000	-57.20349000	-28.79552000
81.29999535	0.00000000	-57.57259000	-24.88927000
81.49999534	0.00000000	-56.36687000	-21.03838000
81.69999533	0.00000000	-53.71555000	-18.33784000
81.89999531	0.00000000	-50.63976000	-17.50123000
82.09999530	0.00000000	-47.94537000	-17.83341000
82.29999529	0.00000000	-46.36442000	-19.03912000
82.49999528	0.00000000	-45.98917000	-20.98917000
82.69999527	0.00000000	-46.73966000	-23.72662000
82.89999525	0.00000000	-48.68356000	-26.83932000
83.09999524	0.00000000	-50.97194000	-29.95201000
83.29999523	0.00000000	-53.29109000	-32.64640000
83.49999522	0.00000000	-54.82898000	-34.22736000
83.69999521	0.00000000	-55.24729000	-34.60261000
83.89999520	0.00000000	-54.87204000	-33.80905000
84.09999518	0.00000000	-53.75861000	-31.44069000
84.29999517	0.00000000	-52.59596000	-27.95275000
84.49999516	0.00000000	-51.80241000	-23.72662000
84.69999515	0.00000000	-51.01501000	-19.87574000
84.89999514	0.00000000	-50.68897000	-17.54429000
85.09999512	0.00000000	-51.01501000	-16.75689000
85.29999511	0.00000000	-51.75935000	-17.96260000
85.49999510	0.00000000	-52.08538000	-21.08145000
85.69999509	0.00000000	-51.75935000	-25.68282000
85.89999508	0.00000000	-51.01501000	-30.69636000
86.09999506	0.00000000	-50.63976000	-34.55955000
86.29999505	0.00000000	-50.63976000	-36.87869000
86.49999504	0.00000000	-51.06422000	-36.87869000
86.69999503	0.00000000	-52.17765000	-34.55955000
86.89999502	0.00000000	-53.34030000	-30.69636000
87.09999501	0.00000000	-54.13385000	-25.68282000
87.29999499	0.00000000	-54.92125000	-21.08145000
87.49999498	0.00000000	-55.24729000	-17.96260000
87.69999497	0.00000000	-54.87204000	-16.84916000
87.89999496	0.00000000	-53.71555000	-18.38090000
88.09999495	0.00000000	-52.17765000	-22.19488000
88.29999493	0.00000000	-50.59670000	-26.83932000
88.49999492	0.00000000	-49.10802000	-31.44069000
88.69999491	0.00000000	-48.36368000	-34.92249000
88.89999490	0.00000000	-49.10802000	-36.04207000
89.09999489	0.00000000	-50.59670000	-34.92249000
89.29999487	0.00000000	-52.17765000	-31.44069000
89.49999486	0.00000000	-53.75861000	-26.88238000
89.69999485	0.00000000	-55.29650000	-22.61319000
89.89999484	0.00000000	-56.40993000	-19.54355000
90.09999483	0.00000000	-56.40993000	-18.43012000
90.29999482	0.00000000	-55.29650000	-19.96186000
90.49999480	0.00000000	-53.75861000	-23.72662000
90.69999479	0.00000000	-52.22071000	-27.95275000
90.89999478	0.00000000	-51.06422000	-31.44069000
91.09999477	0.00000000	-50.59670000	-33.76599000
91.29999476	0.00000000	-50.22145000	-34.14124000
91.49999474	0.00000000	-49.90157000	-32.56028000
91.69999473	0.00000000	-50.63976000	-29.11540000
91.89999472	0.00000000	-51.71013000	-24.52018000
92.09999471	0.00000000	-52.13459000	-20.70620000
92.29999470	0.00000000	-52.17765000	-18.38706000
92.49999468	0.00000000	-52.17765000	-18.43012000
92.69999467	0.00000000	-52.22071000	-21.08145000
92.89999466	0.00000000	-52.59596000	-25.26452000
93.09999465	0.00000000	-53.38336000	-29.53371000
93.29999464	0.00000000	-54.13385000	-32.97859000
93.49999463	0.00000000	-54.87204000	-34.87943000
93.69999461	0.00000000	-54.82898000	-34.09203000
93.89999460	0.00000000	-53.75861000	-31.06545000
94.09999459	0.00000000	-52.59596000	-26.83932000
94.29999458	0.00000000	-51.71013000	-22.61319000
94.49999457	0.00000000	-50.12918000	-19.54355000
94.69999455	0.00000000	-47.90231000	-18.38706000
94.89999454	0.00000000	-46.45054000	-19.54355000
95.09999453	0.00000000	-46.78272000	-22.57013000
95.29999452	0.00000000	-48.68356000	-26.42101000
95.49999451	0.00000000	-51.01501000	-29.86589000
95.69999449	0.00000000	-53.80167000	-32.22810000
95.89999448	0.00000000	-56.82825000	-32.97859000
96.09999447	0.00000000	-59.11048000	-32.18504000
96.29999446	0.00000000	-59.48573000	-29.49065000
96.49999445	0.00000000	-57.99089000	-25.72589000
96.69999444	0.00000000	-55.29650000	-22.61319000
96.89999442	0.00000000	-52.13459000	-20.66314000
97.09999441	0.00000000	-48.64050000	-19.91880000
97.29999440	0.00000000	-45.20177000	-21.08145000
97.49999439	0.00000000	-43.28863000	-23.72662000
97.69999438	0.00000000	-43.28863000	-26.75320000
97.89999436	0.00000000	-45.24483000	-29.07234000
98.09999435	0.00000000	-49.05881000	-29.90895000
98.29999434	0.00000000	-53.29109000	-29.95817000
98.49999433	0.00000000	-56.82825000	-29.53371000
98.69999432	0.00000000	-59.52879000	-28.37721000
98.89999430	0.00000000	-60.69144000	-26.88853000
99.09999429	0.00000000	-59.94709000	-25.72589000
99.29999428	0.00000000	-57.99089000	-25.30758000
99.49999427	0.00000000	-54.87204000	-25.26452000
99.69999426	0.00000000	-51.01501000	-25.26452000
99.89999425	0.00000000	-47.57013000	-25.26452000
100.09999423	0.00000000	-45.24483000	-25.26452000
100.29999422	0.00000000	-44.82652000	-25.22145000
100.49999421	0.00000000	-45.94611000	-24.88927000
100.69999420	0.00000000	-47.90231000	-24.52018000
100.89999419	0.00000000	-50.63976000	-24.93233000
101.09999417	0.00000000	-53.71555000	-25.68282000
101.29999416	0.00000000	-56.40993000	-26.88853000
101.49999415	0.00000000	-57.99089000	-28.42027000
101.69999414	0.00000000	-58.40920000	-29.95201000
101.89999413	0.00000000	-57.99089000	-31.06545000
102.09999411	0.00000000	-56.40993000	-31.02239000
102.29999410	0.00000000	-53.80167000	-29.53371000
102.49999409	0.00000000	-51.48252000	-27.21457000
102.69999408	0.00000000	-50.26451000	-24.88927000
102.89999407	0.00000000	-49.39099000	-22.57013000
103.09999406	0.00000000	-48.68356000	-21.08145000
103.29999404	0.00000000	-48.32062000	-21.08145000
103.49999403	0.00000000	-49.15108000	-22.61319000
103.69999402	0.00000000	-51.01501000	-25.30758000
103.89999401	0.00000000	-53.34030000	-28.37721000
104.09999400	0.00000000	-55.24729000	-31.11466000
104.29999398	0.00000000	-56.40993000	-33.02165000
104.49999397	0.00000000	-56.45300000	-33.76599000
104.69999396	0.00000000	-55.71481000	-32.60334000
104.89999395	0.00000000	-54.92125000	-30.00123000
105.09999394	0.00000000	-53.75861000	-27.25763000
105.29999392	0.00000000	-52.59596000	-24.93233000
105.49999391	0.00000000	-51.80241000	-23.03149000
105.69999390	0.00000000	-51.06422000	-22.65625000
105.89999389	0.00000000	-51.06422000	-23.77584000
106.09999388	0.00000000	-51.80241000	-25.68282000
106.29999387	0.00000000	-52.59596000	-28.00197000
106.49999385	0.00000000	-53.75861000	-29.90895000
106.69999384	0.00000000	-54.87204000	-31.06545000
106.89999383	0.00000000	-55.24729000	-31.06545000
107.09999382	0.00000000	-54.87204000	-29.95201000
107.29999381	0.00000000	-53.75861000	-28.37721000
107.49999379	0.00000000	-52.64517000	-26.46407000
107.69999378	0.00000000	-52.22071000	-24.61245000
107.89999377	0.00000000	-52.17765000	-24.19414000
108.09999376	0.00000000	-52.22071000	-24.88927000
108.29999375	0.00000000	-52.64517000	-25.68282000
108.49999374	0.00000000	-53.75861000	-26.88853000
108.69999372	0.00000000	-54.87204000	-28.37721000
108.89999371	0.00000000	-55.29650000	-29.49065000
109.09999370	0.00000000	-55.29650000	-29.49065000
109.29999369	0.00000000	-54.87204000	-28.37721000
109.49999368	0.00000000	-53.71555000	-26.83932000
109.69999366	0.00000000	-52.22071000	-25.30758000
109.89999365	0.00000000	-51.01501000	-24.10187000
110.09999364	0.00000000	-50.22145000	-23.35138000
110.29999363	0.00000000	-49.52633000	-22.98843000
110.49999362	0.00000000	-49.94463000	-23.77584000
110.69999360	0.00000000	-51.75935000	-25.26452000
110.89999359	0.00000000	-53.29109000	-26.83932000
111.09999358	0.00000000	-54.09079000	-28.32800000
111.29999357	0.00000000	-54.50295000	-29.11540000
111.49999356	0.00000000	-54.13385000	-28.75246000
111.69999355	0.00000000	-53.75861000	-28.04503000
111.89999353	0.00000000	-53.34030000	-27.21457000
112.09999352	0.00000000	-52.55290000	-26.46407000
112.29999351	0.00000000	-51.80241000	-25.68282000
112.49999350	0.00000000	-51.01501000	-25.30758000
112.69999349	0.00000000	-50.63976000	-25.26452000
112.89999347	0.00000000	-50.63976000	-25.26452000
113.09999346	0.00000000	-51.01501000	-25.30758000
113.29999345	0.00000000	-51.80241000	-25.63976000
113.49999344	0.00000000	-52.55290000	-26.04577000
113.69999343	0.00000000	-53.34030000	-26.05807000
113.89999341	0.00000000	-53.71555000	-26.46407000
114.09999340	0.00000000	-53.75861000	-26.83932000
114.29999339	0.00000000	-53.75861000	-27.25763000
114.49999338	0.00000000	-53.71555000	-28.00197000
114.69999337	0.00000000	-53.34030000	-28.37721000
114.89999336	0.00000000	-52.59596000	-28.42027000
115.09999334	0.00000000	-52.22071000	-28.42027000
115.29999333	0.00000000	-52.17765000	-28.42027000
115.49999332	0.00000000	-52.17765000	-28.37721000
115.69999331	0.00000000	-52.22071000	-28.00197000
115.89999330	0.00000000	-52.59596000	-27.21457000
116.09999328	0.00000000	-53.38336000	-26.46407000
116.29999327	0.00000000	-54.13385000	-25.68282000
116.49999326	0.00000000	-54.92125000	-25.30758000
116.69999325	0.00000000	-55.24729000	-25.30758000
116.89999324	0.00000000	-54.92125000	-25.68282000
117.09999322	0.00000000	-54.17691000	-26.46407000
117.29999321	0.00000000	-53.75861000	-27.25763000
117.49999320	0.00000000	-53.34030000	-28.42027000
117.69999319	0.00000000	-52.55290000	-29.53371000
117.89999318	0.00000000	-51.80241000	-29.95817000
118.09999317	0.00000000	-51.06422000	-29.95817000
118.29999315	0.00000000	-51.10728000	-29.58292000
118.49999314	0.00000000	-52.22071000	-28.79552000
118.69999313	0.00000000	-53.71555000	-28.04503000
118.89999312	0.00000000	-54.92125000	-27.21457000
119.09999311	0.00000000	-55.71481000	-26.46407000
119.29999309	0.00000000	-56.45300000	-25.68282000
119.49999308	0.00000000	-56.45300000	-25.35679000
119.69999307	0.00000000	-55.71481000	-25.68282000
119.89999306	0.00000000	-54.92125000	-26.42101000
120.09999305	0.00000000	-53.71555000	-26.83932000
120.29999303	0.00000000	-52.22071000	-27.25763000
120.49999302	0.00000000	-51.06422000	-28.00197000
120.69999301	0.00000000	-50.63976000	-28.37721000
120.89999300	0.00000000	-50.63976000	-28.42027000
121.09999299	0.00000000	-51.06422000	-28.42027000
121.29999298	0.00000000	-52.22071000	-28.42027000
121.49999296	0.00000000	-53.71555000	-28.42027000
121.69999295	0.00000000	-54.92125000	-28.42027000
121.89999294	0.00000000	-55.67175000	-28.37721000
122.09999293	0.00000000	-56.12696000	-28.00197000
122.29999292	0.00000000	-56.09006000	-27.25763000
122.49999290	0.00000000	-56.08390000	-26.83932000
122.69999289	0.00000000	-55.29650000	-26.42101000
122.89999288	0.00000000	-54.17691000	-25.68282000
123.09999287	0.00000000	-53.38336000	-25.35679000
123.29999286	0.00000000	-52.59596000	-25.68282000
123.49999284	0.00000000	-52.22071000	-26.42101000
123.69999283	0.00000000	-52.17765000	-26.83932000
123.89999282	0.00000000	-52.17765000	-27.25763000
124.09999281	0.00000000	-52.22071000	-28.00197000
124.29999280	0.00000000	-52.59596000	-28.37721000
124.49999279	0.00000000	-53.34030000	-28.42027000
124.69999277	0.00000000	-53.75861000	-28.37721000
124.89999276	0.00000000	-54.17691000	-28.00197000
125.09999275	0.00000000	-54.92125000	-27.25763000
125.29999274	0.00000000	-55.29650000	-26.88238000
125.49999273	0.00000000	-55.29650000	-26.79626000
125.69999271	0.00000000	-54.92125000	-26.42101000
125.89999270	0.00000000	-54.13385000	-25.68282000
126.09999269	0.00000000	-53.38336000	-25.30758000
126.29999268	0.00000000	-52.55290000	-25.30758000
126.49999267	0.00000000	-51.80241000	-25.68282000
126.69999265	0.00000000	-51.06422000	-26.42101000
126.89999264	0.00000000	-51.10728000	-26.83932000
127.09999263	0.00000000	-52.17765000	-27.21457000
127.29999262	0.00000000	-53.34030000	-27.58366000
127.49999261	0.00000000	-54.13385000	-27.21457000
127.69999260	0.00000000	-54.92125000	-26.88238000
127.89999258	0.00000000	-55.29650000	-26.83932000
128.09999257	0.00000000	-55.29650000	-26.83932000
128.29999256	0.00000000	-54.87204000	-26.83932000
128.49999255	0.00000000	-53.75861000	-26.79626000
128.69999254	0.00000000	-52.59596000	-26.46407000
128.89999252	0.00000000	-51.80241000	-26.10113000
129.09999251	0.00000000	-51.06422000	-26.46407000
129.29999250	0.00000000	-51.10728000	-26.79626000
129.49999249	0.00000000	-52.17765000	-26.83932000
129.69999248	0.00000000	-53.34030000	-26.83932000
129.89999246	0.00000000	-54.13385000	-26.88238000
130.09999245	0.00000000	-54.92125000	-27.25763000
130.29999244	0.00000000	-55.29650000	-27.95275000
130.49999243	0.00000000	-55.29650000	-27.95275000
130.69999242	0.00000000	-54.92125000	-27.21457000
130.89999241	0.00000000	-54.13385000	-26.46407000
131.09999239	0.00000000	-53.38336000	-25.72589000
131.29999238	0.00000000	-52.59596000	-25.72589000
131.49999237	0.00000000	-52.22071000	-26.46407000
131.69999236	0.00000000	-52.17765000	-27.21457000
131.89999235	0.00000000	-52.22071000	-28.00197000
132.09999233	0.00000000	-52.59596000	-28.42027000
132.29999232	0.00000000	-53.38336000	-28.79552000
132.49999231	0.00000000	-54.13385000	-29.16461000
132.69999230	0.00000000	-54.92125000	-28.75246000
132.89999229	0.00000000	-55.24729000	-28.04503000
133.09999227	0.00000000	-54.92125000	-27.21457000
133.29999226	0.00000000	-54.17691000	-26.46407000
133.49999225	0.00000000	-53.80167000	-25.68282000
133.69999224	0.00000000	-53.75861000	-25.35679000
133.89999223	0.00000000	-53.75861000	-25.68282000
134.09999222	0.00000000	-53.75861000	-26.46407000
134.29999220	0.00000000	-53.80167000	-27.21457000
134.49999219	0.00000000	-54.13385000	-28.04503000
134.69999218	0.00000000	-54.50295000	-28.79552000
134.89999217	0.00000000	-54.13385000	-29.58292000
135.09999216	0.00000000	-53.80167000	-29.90895000
135.29999214	0.00000000	-53.75861000	-29.58292000
135.49999213	0.00000000	-53.75861000	-28.79552000
135.69999212	0.00000000	-53.75861000	-28.04503000
135.89999211	0.00000000	-53.80167000	-27.25763000
136.09999210	0.00000000	-54.17691000	-26.88238000
136.29999208	0.00000000	-54.92125000	-26.83932000
136.49999207	0.00000000	-55.29650000	-26.83932000
136.69999206	0.00000000	-55.33957000	-26.83932000
136.89999205	0.00000000	-55.33957000	-26.88238000
137.09999204	0.00000000	-55.29650000	-27.25763000
137.29999203	0.00000000	-54.92125000	-28.00197000
137.49999201	0.00000000	-54.13385000	-28.37721000
137.69999200	0.00000000	-53.38336000	-28.42027000
137.89999199	0.00000000	-52.64517000	-28.42027000
138.09999198	0.00000000	-52.64517000	-28.42027000
138.29999197	0.00000000	-53.34030000	-28.42027000
138.49999195	0.00000000	-53.75861000	-28.42027000
138.69999194	0.00000000	-54.17691000	-28.42027000
138.89999193	0.00000000	-54.92125000	-28.37721000
139.09999192	0.00000000	-55.29650000	-28.00197000
139.29999191	0.00000000	-55.33957000	-27.21457000
139.49999189	0.00000000	-55.29650000	-26.46407000
139.69999188	0.00000000	-54.92125000	-25.68282000
139.89999187	0.00000000	-54.13385000	-25.30758000
140.09999186	0.00000000	-53.42642000	-25.30758000
140.29999185	0.00000000	-52.97121000	-25.72589000
140.49999184	0.00000000	-53.00812000	-26.83932000
140.69999182	0.00000000	-52.97121000	-27.95275000
140.89999181	0.00000000	-53.38336000	-28.42027000
141.09999180	0.00000000	-53.75861000	-28.79552000
141.29999179	0.00000000	-54.17691000	-29.16461000
141.49999178	0.00000000	-54.87204000	-28.75246000
141.69999176	0.00000000	-54.87204000	-28.00197000
141.89999175	0.00000000	-54.17691000	-26.83932000
142.09999174	0.00000000	-53.80167000	-25.72589000
142.29999173	0.00000000	-53.75861000	-25.30758000
142.49999172	0.00000000	-53.75861000	-25.26452000
142.69999170	0.00000000	-53.75861000	-25.26452000
142.89999169	0.00000000	-53.75861000	-25.30758000
143.09999168	0.00000000	-53.75861000	-25.72589000
143.29999167	0.00000000	-53.80167000	-26.83932000
143.49999166	0.00000000	-54.17691000	-27.95275000
143.69999165	0.00000000	-54.87204000	-28.37721000
143.89999163	0.00000000	-54.87204000	-28.42027000
144.09999162	0.00000000	-54.17691000	-28.37721000
144.29999161	0.00000000	-53.80167000	-28.00197000
144.49999160	0.00000000	-53.75861000	-27.25763000
144.69999159	0.00000000	-53.75861000	-26.83932000
144.89999157	0.00000000	-53.75861000	-26.42101000
145.09999156	0.00000000	-53.75861000	-25.68282000
145.29999155	0.00000000	-53.75861000	-25.35679000
145.49999154	0.00000000	-53.80167000	-25.72589000
145.69999153	0.00000000	-54.17691000	-26.83932000
145.89999151	0.00000000	-54.92125000	-27.95275000
146.09999150	0.00000000	-55.24729000	-28.37721000
146.29999149	0.00000000	-54.92125000	-28.42027000
146.49999148	0.00000000	-54.17691000	-28.42027000
146.69999147	0.00000000	-53.80167000	-28.42027000
146.89999146	0.00000000	-53.75861000	-28.42027000
147.09999144	0.00000000	-53.75861000	-28.37721000
147.29999143	0.00000000	-53.75861000	-28.00197000
147.49999142	0.00000000	-53.80167000	-27.25763000
147.69999141	0.00000000	-54.17691000	-26.88238000
147.89999140	0.00000000	-54.92125000	-26.83932000
148.09999138	0.00000000	-55.29650000	-26.83932000
148.29999137	0.00000000	-55.33957000	-26.83932000
148.49999136	0.00000000	-55.33957000	-26.88238000
148.69999135	0.00000000	-55.33957000	-27.25763000
148.89999134	0.00000000	-55.33957000	-28.00197000
149.09999132	0.00000000	-55.29650000	-28.37721000
149.29999131	0.00000000	-54.92125000	-28.42027000
149.49999130	0.00000000	-54.17691000	-28.42027000
149.69999129	0.00000000	-53.80167000	-28.42027000
149.89999128	0.00000000	-53.75861000	-28.42027000
150.09999127	0.00000000	-53.75861000	-28.42027000
150.29999125	0.00000000	-53.80167000	-28.37721000
150.49999124	0.00000000	-54.17691000	-28.00197000
150.69999123	0.00000000	-54.92125000	-27.25763000
150.89999122	0.00000000	-55.29650000	-26.88238000
151.09999121	0.00000000	-55.33957000	-26.83932000
151.29999119	0.00000000	-55.33957000	-26.83932000
151.49999118	0.00000000	-55.33957000	-26.88238000
151.69999117	0.00000000	-55.33957000	-27.25763000
151.89999116	0.00000000	-55.33957000	-28.00197000
152.09999115	0.00000000	-55.29650000	-28.37721000
152.29999113	0.00000000	-54.92125000	-28.42027000
152.49999112	0.00000000	-54.17691000	-28.42027000
152.69999111	0.00000000	-53.80167000	-28.42027000
152.89999110	0.00000000	-53.75861000	-28.42027000
153.09999109	0.00000000	-53.75861000	-28.42027000
153.29999108	0.00000000	-53.80167000	-28.37721000
153.49999106	0.00000000	-54.17691000	-28.00197000
153.69999105	0.00000000	-54.92125000	-27.25763000
153.89999104	0.00000000	-55.29650000	-26.88238000
154.09999103	0.00000000	-55.38263000	-26.83932000
154.29999102	0.00000000	-55.71481000	-26.88238000
154.49999100	0.00000000	-56.08390000	-27.21457000
154.69999099	0.00000000	-55.71481000	-27.58366000
154.89999098	0.00000000	-55.38263000	-27.25763000
155.09999097	0.00000000	-55.29650000	-27.25763000
155.29999096	0.00000000	-54.92125000	-27.62672000
155.49999094	0.00000000	-54.17691000	-27.63287000
155.69999093	0.00000000	-53.80167000	-28.04503000
155.89999092	0.00000000	-53.75861000	-28.32800000
156.09999091	0.00000000	-53.80167000	-28.00197000
156.29999090	0.00000000	-54.17691000	-27.25763000
156.49999089	0.00000000	-54.92125000	-26.88238000
156.69999087	0.00000000	-55.29650000	-26.83932000
156.89999086	0.00000000	-55.33957000	-26.83932000
157.09999085	0.00000000	-55.33957000	-26.83932000
157.29999084	0.00000000	-55.33957000	-26.83932000
157.49999083	0.00000000	-55.33957000	-26.83932000
157.69999081	0.00000000	-55.29650000	-26.83932000
157.89999080	0.00000000	-54.92125000	-26.83932000
158.09999079	0.00000000	-54.17691000	-26.88238000
158.29999078	0.00000000	-53.80167000	-27.25763000
158.49999077	0.00000000	-53.75861000	-28.00197000
158.69999075	0.00000000	-53.75861000	-28.32800000
158.89999074	0.00000000	-53.75861000	-28.00197000
159.09999073	0.00000000	-53.80167000	-27.25763000
159.29999072	0.00000000	-54.17691000	-26.88238000
159.49999071	0.00000000	-54.92125000	-26.83932000
159.69999070	0.00000000	-55.29650000	-26.79626000
159.89999068	0.00000000	-55.33957000	-26.42101000
160.09999067	0.00000000	-55.33957000	-25.72589000
160.29999066	0.00000000	-55.33957000	-25.72589000
160.49999065	0.00000000	-55.33957000	-26.42101000
160.69999064	0.00000000	-55.29650000	-26.79626000
160.89999062	0.00000000	-54.96432000	-26.88238000
161.09999061	0.00000000	-54.59522000	-27.25763000
161.29999060	0.00000000	-54.96432000	-28.00197000
161.49999059	0.00000000	-55.29650000	-28.37721000
161.69999058	0.00000000	-55.29650000	-28.42027000
161.89999056	0.00000000	-54.96432000	-28.37721000
162.09999055	0.00000000	-54.59522000	-28.00197000
162.29999054	0.00000000	-54.96432000	-27.25763000
162.49999053	0.00000000	-55.29650000	-26.88238000
162.69999052	0.00000000	-55.33957000	-26.83932000
162.89999051	0.00000000	-55.33957000	-26.83932000
163.09999049	0.00000000	-55.33957000	-26.83932000
163.29999048	0.00000000	-55.33957000	-26.88238000
163.49999047	0.00000000	-55.38263000	-27.25763000
163.69999046	0.00000000	-55.71481000	-28.00197000
163.89999045	0.00000000	-56.08390000	-28.37721000
164.09999043	0.00000000	-55.71481000	-28.42027000
164.29999042	0.00000000	-55.38263000	-28.42027000
164.49999041	0.00000000	-55.33957000	-28.42027000
164.69999040	0.00000000	-55.33957000	-28.42027000
164.89999039	0.00000000	-55.33957000	-28.42027000
165.09999037	0.00000000	-55.33957000	-28.42027000
165.29999036	0.00000000	-55.33957000	-28.42027000
165.49999035	0.00000000	-55.33957000	-28.42027000
165.69999034	0.00000000	-55.33957000	-28.42027000
165.89999033	0.00000000	-55.33957000	-28.42027000
166.09999032	0.00000000	-55.38263000	-28.42027000
166.29999030	0.00000000	-55.71481000	-28.42027000
166.49999029	0.00000000	-56.12696000	-28.42027000
166.69999028	0.00000000	-56.09006000	-28.42027000
166.89999027	0.00000000	-56.12696000	-28.42027000
167.09999026	0.00000000	-55.71481000	-28.42027000
167.29999024	0.00000000	-55.38263000	-28.42027000
167.49999023	0.00000000	-55.33957000	-28.42027000
167.69999022	0.00000000	-55.33957000	-28.42027000
167.89999021	0.00000000	-55.33957000	-28.42027000
168.09999020	0.00000000	-55.33957000	-28.42027000
168.29999018	0.00000000	-55.33957000	-28.42027000
168.49999017	0.00000000	-55.33957000	-28.42027000
168.69999016	0.00000000	-55.33957000	-28.37721000
168.89999015	0.00000000	-55.33957000	-28.04503000
169.09999014	0.00000000	-55.38263000	-27.63287000
169.29999013	0.00000000	-55.71481000	-27.66978000
169.49999011	0.00000000	-56.08390000	-27.58981000
169.69999010	0.00000000	-55.71481000	-27.66978000
169.89999009	0.00000000	-55.38263000	-27.58981000
170.09999008	0.00000000	-55.33957000	-27.62672000
170.29999007	0.00000000	-55.33957000	-27.21457000
170.49999005	0.00000000	-55.33957000	-26.88238000
170.69999004	0.00000000	-55.33957000	-26.83932000
170.89999003	0.00000000	-55.33957000	-26.83932000
171.09999002	0.00000000	-55.33957000	-26.88238000
171.29999001	0.00000000	-55.33957000	-27.25763000
171.49998999	0.00000000	-55.33957000	-28.00197000
171.69998998	0.00000000	-55.33957000	-28.37721000
171.89998997	0.00000000	-55.33957000	-28.42027000
172.09998996	0.00000000	-55.33957000	-28.42027000
172.29998995	0.00000000	-55.33957000	-28.37721000
172.49998994	0.00000000	-55.33957000	-28.00197000
172.69998992	0.00000000	-55.33957000	-27.25763000
172.89998991	0.00000000	-55.33957000	-26.88238000
173.09998990	0.00000000	-55.33957000	-26.83932000
173.29998989	0.00000000	-55.33957000	-26.83932000
173.49998988	0.00000000	-55.33957000	-26.88238000
173.69998986	0.00000000	-55.33957000	-27.25763000
173.89998985	0.00000000	-55.33957000	-28.00197000
174.09998984	0.00000000	-55.33957000	-28.37721000
174.29998983	0.00000000	-55.33957000	-28.42027000
174.49998982	0.00000000	-55.33957000	-28.42027000
174.69998980	0.00000000	-55.33957000	-28.42027000
174.89998979	0.00000000	-55.33957000	-28.42027000
175.09998978	0.00000000	-55.29650000	-28.37721000
175.29998977	0.00000000	-54.96432000	-28.04503000
175.49998976	0.00000000	-54.59522000	-27.67593000
175.69998975	0.00000000	-54.96432000	-28.04503000
175.89998973	0.00000000	-55.29650000	-28.32800000
176.09998972	0.00000000	-55.33957000	-28.04503000
176.29998971	0.00000000	-55.33957000	-27.67593000
176.49998970	0.00000000	-55.33957000	-28.04503000
176.69998969	0.00000000	-55.33957000	-28.37721000
176.89998967	0.00000000	-55.33957000	-28.42027000
177.09998966	0.00000000	-55.33957000	-28.42027000
177.29998965	0.00000000	-55.33957000	-28.42027000
177.49998964	0.00000000	-55.38263000	-28.42027000
177.69998963	0.00000000	-55.71481000	-28.42027000
177.89998961	0.00000000	-56.08390000	-28.42027000
178.09998960	0.00000000	-55.71481000	-28.42027000
178.29998959	0.00000000	-55.38263000	-28.42027000
178.49998958	0.00000000	-55.33957000	-28.42027000
178.69998957	0.00000000	-55.33957000	-28.42027000
178.89998956	0.00000000	-55.33957000	-28.42027000
179.09998954	0.00000000	-55.33957000	-28.42027000
179.29998953	0.00000000	-55.33957000	-28.42027000
179.49998952	0.00000000	-55.33957000	-28.42027000
179.69998951	0.00000000	-55.33957000	-28.42027000
179.89998950	0.00000000	-55.33957000	-28.42027000
180.09998948	0.00000000	-55.33957000	-28.42027000
180.29998947	0.00000000	-55.33957000	-28.42027000
180.49998946	0.00000000	-55.38263000	-28.42027000
180.69998945	0.00000000	-55.75787000	-28.42027000
180.89998944	0.00000000	-56.50221000	-28.42027000
181.09998942	0.00000000	-56.82825000	-28.42027000
181.29998941	0.00000000	-56.50221000	-28.42027000
181.49998940	0.00000000	-55.75787000	-28.42027000
181.69998939	0.00000000	-55.38263000	-28.42027000
181.89998938	0.00000000	-55.38263000	-28.42027000
182.09998937	0.00000000	-55.71481000	-28.42027000
182.29998935	0.00000000	-56.08390000	-28.42027000
182.49998934	0.00000000	-55.75787000	-28.42027000
182.69998933	0.00000000	-55.75787000	-28.42027000
182.89998932	0.00000000	-56.08390000	-28.42027000
183.09998931	0.00000000	-55.71481000	-28.42027000
183.29998929	0.00000000	-55.38263000	-28.46333000
183.49998928	0.00000000	-55.38263000	-28.79552000
183.69998927	0.00000000	-55.75787000	-29.16461000
183.89998926	0.00000000	-56.50221000	-28.79552000
184.09998925	0.00000000	-56.87746000	-28.46333000
184.29998923	0.00000000	-56.92052000	-28.42027000
184.49998922	0.00000000	-56.92052000	-28.42027000
184.69998921	0.00000000	-56.92052000	-28.42027000
184.89998920	0.00000000	-56.92052000	-28.37721000
185.09998919	0.00000000	-56.87746000	-28.00197000
185.29998918	0.00000000	-56.50221000	-27.30684000
185.49998916	0.00000000	-55.80708000	-27.30684000
185.69998915	0.00000000	-55.80708000	-28.00197000
185.89998914	0.00000000	-56.45300000	-28.42027000
186.09998913	0.00000000	-56.45300000	-28.79552000
186.29998912	0.00000000	-55.75787000	-29.16461000
186.49998910	0.00000000	-55.43184000	-28.79552000
186.69998909	0.00000000	-55.75787000	-28.46333000
186.89998908	0.00000000	-56.45300000	-28.42027000
187.09998907	0.00000000	-56.50221000	-28.37721000
187.29998906	0.00000000	-56.17618000	-28.00197000
187.49998904	0.00000000	-56.54527000	-27.25763000
187.69998903	0.00000000	-56.87746000	-26.88238000
187.89998902	0.00000000	-56.87746000	-26.83932000
188.09998901	0.00000000	-56.50221000	-26.83932000
188.29998900	0.00000000	-55.75787000	-26.88238000
188.49998899	0.00000000	-55.38263000	-27.25763000
188.69998897	0.00000000	-55.33957000	-28.00197000
188.89998896	0.00000000	-55.33957000	-28.37721000
189.09998895	0.00000000	-55.33957000	-28.42027000
189.29998894	0.00000000	-55.38263000	-28.42027000
189.49998893	0.00000000	-55.75787000	-28.42027000
189.69998891	0.00000000	-56.50221000	-28.42027000
189.89998890	0.00000000	-56.82825000	-28.42027000
190.09998889	0.00000000	-56.50221000	-28.37721000
190.29998888	0.00000000	-55.80708000	-28.00197000
190.49998887	0.00000000	-55.80708000	-27.25763000
190.69998885	0.00000000	-56.50221000	-26.88238000
190.89998884	0.00000000	-56.82825000	-26.83932000
191.09998883	0.00000000	-56.54527000	-26.83932000
191.29998882	0.00000000	-56.13312000	-26.88238000
191.49998881	0.00000000	-56.12696000	-27.25763000
191.69998880	0.00000000	-55.71481000	-28.00197000
191.89998878	0.00000000	-55.38263000	-28.37721000
192.09998877	0.00000000	-55.33957000	-28.42027000
192.29998876	0.00000000	-55.33957000	-28.42027000
192.49998875	0.00000000	-55.33957000	-28.42027000
192.69998874	0.00000000	-55.38263000	-28.42027000
192.89998872	0.00000000	-55.75787000	-28.42027000
193.09998871	0.00000000	-56.50221000	-28.42027000
193.29998870	0.00000000	-56.87746000	-28.42027000
193.49998869	0.00000000	-56.92052000	-28.42027000
193.69998868	0.00000000	-56.92052000	-28.42027000
193.89998866	0.00000000	-56.92052000	-28.42027000
194.09998865	0.00000000	-56.92052000	-28.42027000
194.29998864	0.00000000	-56.92052000	-28.42027000
194.49998863	0.00000000	-56.87746000	-28.42027000
194.69998862	0.00000000	-56.54527000	-28.42027000
194.89998861	0.00000000	-56.17618000	-28.46333000
195.09998859	0.00000000	-56.54527000	-28.79552000
195.29998858	0.00000000	-56.87746000	-29.16461000
195.49998857	0.00000000	-56.92052000	-28.79552000
195.69998856	0.00000000	-56.92052000	-28.46333000
195.89998855	0.00000000	-56.92052000	-28.42027000
196.09998853	0.00000000	-56.92052000	-28.42027000
