Time	Channel A	Channel B	Channel C
(us)	(V)	(mV)	(mV)

-4.59999956	0.00000000	24.13263000	7.89247000
-4.39999957	0.00000000	24.18184000	7.89247000
-4.19999958	0.00000000	24.82775000	7.89247000
-3.99999959	0.00000000	24.87697000	7.89247000
-3.79999960	0.00000000	24.55093000	7.89247000
-3.59999962	0.00000000	24.87697000	7.84940900
-3.39999963	0.00000000	24.87697000	7.51722400
-3.19999964	0.00000000	24.55093000	7.10506800
-2.99999965	0.00000000	24.87697000	7.14197800
-2.79999966	0.00000000	24.82775000	7.10506800
-2.59999968	0.00000000	24.13263000	7.47416300
-2.39999969	0.00000000	23.75738000	7.47416300
-2.19999970	0.00000000	23.75738000	7.14812900
-1.99999971	0.00000000	24.08957000	7.51722400
-1.79999972	0.00000000	24.50172000	7.84940900
-1.59999973	0.00000000	24.50787000	7.89247000
-1.39999975	0.00000000	24.92003000	7.89247000
-1.19999976	0.00000000	25.20300000	7.89247000
-0.99999977	0.00000000	24.92003000	7.89247000
-0.79999978	0.00000000	24.55093000	7.89247000
-0.59999979	0.00000000	24.92003000	7.89247000
-0.39999981	0.15871060	25.20300000	7.89247000
-0.19999982	0.47736220	24.87697000	7.89247000
0.00000017	0.79601380	24.18184000	7.89247000
0.20000016	0.95533960	24.13263000	7.84940900
0.40000015	0.95533960	24.45866000	7.47416300
0.60000013	0.63668800	24.08957000	6.72982200
0.80000012	0.00000000	23.75738000	6.35457700
1.00000011	-0.95533960	23.71432000	6.35457700
1.20000010	-1.91129400	23.75738000	6.72982200
1.40000009	-2.54859700	24.08957000	7.47416300
1.60000008	-2.70792300	24.45866000	7.84940900
1.80000006	-2.07062000	24.08957000	7.89247000
2.00000005	-0.63668800	23.80659000	7.89247000
2.20000004	1.43331700	24.13263000	7.89247000
2.40000003	3.50393700	24.82775000	7.89247000
2.60000002	4.93786900	24.82775000	7.84940900
2.80000000	5.41584600	24.13263000	7.47416300
2.99999999	4.30056600	23.75738000	6.72982200
3.19999998	1.75196900	23.71432000	6.35457700
3.39999997	-1.43331700	23.71432000	6.35457700
3.59999996	-4.77854300	23.71432000	6.72982200
3.79999994	-7.16781500	23.75738000	7.47416300
3.99999993	-7.96444400	24.13263000	7.84940900
4.19999992	-6.69045300	24.87697000	7.89247000
4.39999991	-3.50393700	25.20300000	7.89247000
4.59999990	0.63668800	24.92003000	7.89247000
4.79999989	4.93786900	24.55093000	7.84940900
4.99999987	8.12377000	24.87697000	7.47416300
5.19999986	9.55770200	24.82775000	6.72982200
5.39999985	8.28309500	24.13263000	6.35457700
5.59999984	5.09719500	23.75738000	6.31151500
5.79999983	0.47736220	23.71432000	6.31151500
5.99999981	-4.14124000	23.71432000	6.35457700
6.19999980	-7.80511800	23.71432000	6.72982200
6.39999979	-9.39837600	23.75738000	7.47416300
6.59999978	-8.76107300	24.13263000	7.84940900
6.79999977	-5.89382400	24.87697000	7.89247000
6.99999975	-1.75196900	25.20300000	7.89247000
7.19999974	2.54859700	24.87697000	7.84940900
7.39999973	6.05315000	24.13263000	7.51722400
7.59999972	7.64579200	23.80659000	7.10506800
7.79999971	7.32714100	24.08957000	7.09891700
7.99999970	5.25652100	24.45866000	6.68676100
8.19999968	2.07062000	24.08957000	6.35457700
8.39999967	-1.11466500	23.75738000	6.31151500
8.59999966	-3.66326300	23.71432000	6.35457700
8.79999965	-5.09719500	23.71432000	6.72982200
8.99999964	-5.09719500	23.71432000	7.47416300
9.19999962	-3.82258900	23.71432000	7.84940900
9.39999961	-1.91129400	23.71432000	7.89247000
9.59999960	0.00000000	23.71432000	7.89247000
9.79999959	1.59264300	23.71432000	7.89247000
9.99999958	2.38927200	23.71432000	7.89247000
10.19999956	2.38927200	23.71432000	7.89247000
10.39999955	1.91129400	23.71432000	7.84940900
10.59999954	1.11466500	23.71432000	7.51722400
10.79999953	0.15871060	23.71432000	7.14812900
10.99999952	-0.47736220	23.71432000	7.51722400
11.19999951	-0.79601380	23.71432000	7.84940900
11.39999949	-0.95533960	23.71432000	7.89247000
11.59999948	-0.79601380	23.71432000	7.89247000
11.79999947	-0.63668800	23.71432000	7.89247000
11.99999946	-0.31803640	23.71432000	7.89247000
12.19999945	-0.15871060	23.71432000	7.84940900
12.39999943	-0.15871060	23.71432000	7.47416300
12.59999942	0.00000000	23.71432000	6.72982200
12.79999941	0.00000000	23.71432000	6.40378900
12.99999940	0.00000000	23.71432000	6.68676100
13.19999939	0.00000000	23.71432000	7.09891700
13.39999937	0.00000000	23.75738000	7.10506800
13.59999936	0.00000000	24.08957000	7.51722400
13.79999935	0.00000000	24.50172000	7.84940900
13.99999934	-0.15871060	24.46481000	7.84940900
14.19999933	-0.15871060	24.50172000	7.51722400
14.39999932	-0.15871060	24.08957000	7.14812900
14.59999930	-0.15871060	23.75738000	7.47416300
14.79999929	0.00000000	23.71432000	7.47416300
14.99999928	0.00000000	23.71432000	7.14812900
15.19999927	0.00000000	23.71432000	7.47416300
15.39999926	0.00000000	23.71432000	7.42495000
15.59999924	0.00000000	23.71432000	6.72982200
15.79999923	0.00000000	23.71432000	6.35457700
15.99999922	0.00000000	23.71432000	6.35457700
16.19999921	0.00000000	23.71432000	6.68676100
16.39999920	-0.15871060	23.71432000	7.09891700
16.59999919	-0.15871060	23.75738000	7.10506800
16.79999917	0.00000000	24.13263000	7.51722400
16.99999916	0.00000000	24.87697000	7.84940900
17.19999915	0.00000000	25.25221000	7.89247000
17.39999914	0.00000000	25.29527000	7.89247000
17.59999913	0.00000000	25.29527000	7.89247000
17.79999911	0.00000000	25.25221000	7.84940900
17.99999910	0.00000000	24.82775000	7.47416300
18.19999909	0.00000000	23.67126000	6.72982200
18.39999908	0.00000000	22.13336000	6.35457700
18.59999907	-0.15871060	20.59547000	6.35457700
18.79999905	0.00000000	19.43897000	6.72982200
18.99999904	0.00000000	19.06373000	7.42495000
19.19999903	0.00000000	19.48204000	7.47416300
19.39999902	0.00000000	21.10605000	7.10506800
19.59999901	0.00000000	24.18184000	7.14197800
19.79999900	0.00000000	28.03888000	7.10506800
19.99999898	0.00000000	31.53297000	7.47416300
20.19999897	0.00000000	34.23351000	7.42495000
20.39999896	0.00000000	35.30389000	6.72982200
20.59999895	0.00000000	33.67372000	6.40378900
20.79999894	0.00000000	29.02313000	6.68676100
20.99999892	0.00000000	22.09030000	7.05585600
21.19999891	0.00000000	14.69611000	6.68676100
21.39999890	0.00000000	8.13238100	6.35457700
21.59999889	0.00000000	3.61712600	6.31151500
21.79999888	0.00000000	3.70939900	6.31151500
21.99999886	0.00000000	9.10433000	6.31151500
22.19999885	0.00000000	18.45472000	6.31151500
22.39999884	0.00000000	30.45644000	6.31151500
22.59999883	0.00000000	42.79035000	6.35457700
22.79999882	0.00000000	52.00541000	6.72982200
22.99999881	0.00000000	55.81939000	7.47416300
23.19999879	0.00000000	52.56520000	7.84940900
23.39999878	0.00000000	41.72613000	7.93553100
23.59999877	0.00000000	25.11688000	8.31077700
23.79999876	0.00000000	7.01279500	9.05511800
23.99999875	0.00000000	-8.42765700	9.38115100
24.19999873	0.00000000	-17.26747000	9.05511800
24.39999872	0.00000000	-17.22441000	8.26771600
24.59999871	0.00000000	-7.87401500	7.42495000
24.79999870	0.00000000	9.56569900	5.85014700
24.99999869	0.00000000	31.53297000	3.61712600
25.19999867	0.00000000	52.79281000	2.08538400
25.39999866	0.00000000	68.20251000	1.66707700
25.59999865	0.00000000	74.33562000	2.08538400
25.79999864	0.00000000	68.85458000	3.70939900
25.99999863	0.00000000	52.65748000	6.77903500
26.19999862	0.00000000	29.44143000	10.62992000
26.39999860	0.00000000	4.40452700	14.16092000
26.59999859	0.00000000	-16.47392000	17.23056000
26.79999858	0.00000000	-28.02042000	19.04527000
26.99999857	0.00000000	-28.05733000	17.83957000
27.19999856	0.00000000	-16.06176000	13.56422000
27.39999854	0.00000000	4.73671200	7.01279500
27.59999853	0.00000000	29.48450000	-0.73818890
27.79999852	0.00000000	52.65748000	-7.67101300
27.99999851	0.00000000	68.89763000	-12.63533000
28.19999850	0.00000000	74.71087000	-13.70571000
28.39999848	0.00000000	68.98991000	-9.80561000
28.59999847	0.00000000	53.58636000	-1.67322800
28.79999846	0.00000000	32.68946000	9.56569900
28.99999845	0.00000000	10.64222000	21.50590000
29.19999844	0.00000000	-7.91707600	31.49606000
29.39999843	0.00000000	-18.76230000	36.84178000
29.59999841	0.00000000	-20.01107000	35.63607000
29.79999840	0.00000000	-11.92175000	27.91584000
29.99999839	0.00000000	3.11269700	15.10212000
30.19999838	0.00000000	21.62278000	-0.33218500
30.39999837	0.00000000	39.06865000	-15.37894000
30.59999835	0.00000000	51.91314000	-26.11343000
30.79999834	0.00000000	58.51377000	-30.01353000
30.99999833	0.00000000	57.35728000	-26.11343000
31.19999832	0.00000000	48.93578000	-15.24360000
31.39999831	0.00000000	35.81446000	1.02116100
31.59999829	0.00000000	21.10605000	19.46358000
31.79999828	0.00000000	7.89862200	35.30389000
31.99999827	0.00000000	-1.36565000	44.97416000
32.19999826	0.00000000	-4.89050100	46.91806000
32.39999825	0.00000000	-1.82701800	40.32357000
32.59999824	0.00000000	6.22539300	26.85162000
32.79999822	0.00000000	17.48277000	9.43036400
32.99999821	0.00000000	29.39837000	-8.36614100
33.19999820	0.00000000	39.06865000	-23.04995000
33.39999819	0.00000000	44.14370000	-31.50221000
33.59999818	0.00000000	44.23597000	-31.55143000
33.79999816	0.00000000	39.95448000	-23.46826000
33.99999815	0.00000000	32.27116000	-9.57185000
34.19999814	0.00000000	23.01919000	7.43110200
34.39999813	0.00000000	14.91757000	23.64665000
34.59999812	0.00000000	9.47957600	35.67913000
34.79999810	0.00000000	7.94168200	41.48622000
34.99999809	0.00000000	10.59301000	39.90526000
35.19999808	0.00000000	16.36319000	31.07775000
35.39999807	0.00000000	23.62205000	17.23056000
35.59999806	0.00000000	30.17962000	2.17765700
35.79999805	0.00000000	34.04897000	-10.96826000
35.99999803	0.00000000	34.83636000	-19.46973000
36.19999802	0.00000000	32.13582000	-21.41978000
36.39999801	0.00000000	26.83317000	-16.81841000
36.59999800	0.00000000	21.06299000	-6.83439900
36.79999799	0.00000000	16.40625000	5.85014700
36.99999797	0.00000000	13.71186000	17.74729000
37.19999796	0.00000000	13.71186000	25.87352000
37.39999795	0.00000000	16.36319000	28.20497000
37.59999794	0.00000000	20.64468000	24.76009000
37.79999793	0.00000000	25.62746000	16.35089000
37.99999791	0.00000000	30.22268000	5.66560000
38.19999790	0.00000000	32.55413000	-3.53715500
38.39999789	0.00000000	32.64640000	-8.96899500
38.59999788	0.00000000	31.06545000	-9.34424200
38.79999787	0.00000000	27.94660000	-4.74286400
38.99999786	0.00000000	23.71432000	3.70939900
39.19999784	0.00000000	19.48204000	13.61343000
39.39999783	0.00000000	16.36319000	21.60433000
39.59999782	0.00000000	14.78223000	24.66781000
39.79999781	0.00000000	14.78223000	22.06570000
39.99999780	0.00000000	16.36319000	15.14518000
40.19999778	0.00000000	19.43897000	5.89320800
40.39999777	0.00000000	23.29601000	-3.67249000
40.59999776	0.00000000	26.78395000	-10.54995000
40.79999775	0.00000000	29.57062000	-12.45694000
40.99999774	0.00000000	31.48376000	-9.01205700
41.19999772	0.00000000	32.27116000	-0.97810030
41.39999771	0.00000000	31.44069000	9.01205700
41.59999770	0.00000000	29.15231000	18.25787000
41.79999769	0.00000000	25.67052000	24.76009000
41.99999768	0.00000000	22.17643000	26.29183000
42.19999767	0.00000000	19.06373000	22.52707000
42.39999765	0.00000000	16.73843000	15.23130000
42.59999764	0.00000000	15.94488000	6.36072800
42.79999763	0.00000000	16.32013000	-2.09768700
42.99999762	0.00000000	17.85802000	-7.85556000
43.19999761	0.00000000	20.17716000	-9.43036400
43.39999759	0.00000000	22.50861000	-6.82824800
43.59999758	0.00000000	24.82775000	-1.43946800
43.79999757	0.00000000	26.40871000	5.11195900
43.99999756	0.00000000	27.20841000	11.65723000
44.19999755	0.00000000	27.62057000	16.25861000
44.39999753	0.00000000	27.20841000	17.92569000
44.59999752	0.00000000	26.54404000	17.18750000
44.79999751	0.00000000	26.08883000	14.81299000
44.99999750	0.00000000	26.08268000	10.58686000
45.19999749	0.00000000	25.62746000	5.66560000
45.39999748	0.00000000	24.82775000	2.17765700
45.59999746	0.00000000	23.20374000	0.51058070
45.79999745	0.00000000	20.50935000	0.13533460
45.99999744	0.00000000	17.43356000	0.92888770
46.19999743	0.00000000	14.73917000	3.24803100
46.39999742	0.00000000	13.24434000	6.26845500
46.59999740	0.00000000	13.61959000	9.00590400
46.79999739	0.00000000	16.03715000	10.91289000
46.99999738	0.00000000	20.31865000	11.74336000
47.19999737	0.00000000	26.50098000	11.38041000
47.39999736	0.00000000	32.64640000	10.58686000
47.59999734	0.00000000	37.30315000	8.96284400
47.79999733	0.00000000	39.53617000	6.31151500
47.99999732	0.00000000	37.91216000	3.61712600
48.19999731	0.00000000	32.13582000	1.71013800
48.39999730	0.00000000	23.67126000	0.92888770
48.59999729	0.00000000	14.82529000	1.71013800
48.79999727	0.00000000	7.85556000	3.61712600
48.99999726	0.00000000	4.36146600	6.36072800
49.19999725	0.00000000	4.77977300	9.42421200
49.39999724	0.00000000	9.47957600	12.11860000
49.59999723	0.00000000	17.90108000	13.65650000
49.79999721	0.00000000	27.57751000	13.61343000
49.99999720	0.00000000	36.05438000	11.70029000
50.19999719	0.00000000	41.81225000	8.22465500
50.39999718	0.00000000	42.56274000	4.40452700
50.59999717	0.00000000	38.37352000	0.88582670
50.79999715	0.00000000	30.64714000	-1.35334600
50.99999714	0.00000000	21.01993000	-1.76550200
51.19999713	0.00000000	12.22318000	0.17839570
51.39999712	0.00000000	6.77903500	3.62327700
51.59999711	0.00000000	5.98548200	7.89247000
51.79999710	0.00000000	9.43651600	12.07554000
51.99999708	0.00000000	16.36319000	14.81299000
52.19999707	0.00000000	24.78469000	15.60654000
52.39999706	0.00000000	32.13582000	14.81299000
52.59999705	0.00000000	36.74950000	12.07554000
52.79999704	0.00000000	37.53691000	7.89247000
52.99999702	0.00000000	34.09818000	3.66633800
53.19999701	0.00000000	27.94660000	0.59670270
53.39999700	0.00000000	20.64468000	-0.55979330
53.59999699	0.00000000	14.17938000	0.55364170
53.79999698	0.00000000	11.06053000	3.15575800
53.99999696	0.00000000	11.79872000	5.89320800
54.19999695	-0.15871060	15.62500000	8.21850300
54.39999694	0.00000000	21.75812000	10.11934000
54.59999693	0.00000000	27.86048000	10.49459000
54.79999692	0.00000000	32.13582000	9.38115100
54.99999691	0.00000000	33.67372000	7.51722400
55.19999689	0.00000000	32.18504000	5.57332700
55.39999688	0.00000000	28.32185000	4.45374000
55.59999687	0.00000000	23.29601000	4.08464600
55.79999686	0.00000000	17.94414000	5.29035400
55.99999685	0.00000000	14.13017000	7.89247000
56.19999683	0.00000000	13.29355000	10.53765000
56.39999682	0.00000000	14.82529000	12.07554000
56.59999681	0.00000000	18.31939000	12.03248000
56.79999680	0.00000000	23.29601000	10.11934000
56.99999679	0.00000000	27.90354000	6.64370100
57.19999677	0.00000000	30.97318000	2.82972400
57.39999676	0.00000000	31.76058000	-0.64591530
57.59999675	0.00000000	29.90280000	-2.50984200
57.79999674	0.00000000	26.87623000	-2.09153500
57.99999673	0.00000000	23.71432000	1.01501000
58.19999672	0.00000000	20.64468000	6.36072800
58.39999670	0.00000000	18.31939000	12.11860000
58.59999669	0.00000000	17.56890000	16.76919000
58.79999668	0.00000000	18.27633000	19.42052000
58.99999667	0.00000000	20.22022000	19.00221000
59.19999666	0.00000000	22.46555000	15.10212000
59.39999664	0.00000000	24.45866000	8.58759800
59.59999663	0.00000000	25.62746000	0.92888770
59.79999662	0.00000000	26.40871000	-5.20423200
59.99999661	0.00000000	26.36565000	-8.31692900
60.19999660	0.00000000	25.25221000	-7.89862200
60.39999658	0.00000000	23.75738000	-3.67249000
60.59999657	0.00000000	22.60088000	3.24803100
60.79999656	0.00000000	22.17643000	10.96211000
60.99999655	0.00000000	22.17643000	17.92569000
61.19999654	0.00000000	22.60088000	22.48400000
61.39999653	0.00000000	23.71432000	23.22835000
61.59999651	0.00000000	24.78469000	19.42052000
61.79999650	0.00000000	24.82775000	12.49385000
61.99999649	0.00000000	24.08957000	4.40452700
62.19999648	0.00000000	23.29601000	-3.29724400
62.39999647	0.00000000	22.13336000	-8.31692900
62.59999645	0.00000000	21.01993000	-9.89788300
62.79999644	0.00000000	20.59547000	-7.89862200
62.99999643	0.00000000	20.59547000	-2.14074800
63.19999642	0.00000000	21.01993000	5.89320800
63.39999641	0.00000000	22.22564000	13.56422000
63.59999639	0.00000000	24.08957000	19.04527000
63.79999638	0.00000000	25.99040000	21.37057000
63.99999637	0.00000000	26.78395000	20.62008000
64.19999636	0.00000000	26.78395000	16.76919000
64.39999635	0.00000000	25.99040000	11.00517000
64.59999634	0.00000000	24.08957000	4.82898600
64.79999632	0.00000000	22.17643000	-0.60285430
64.99999631	0.00000000	20.59547000	-4.09079700
65.19999630	0.00000000	19.48204000	-5.29650500
65.39999629	0.00000000	19.48204000	-4.13385800
65.59999628	0.00000000	20.59547000	-1.07037400
65.79999626	0.00000000	22.13336000	3.20497000
65.99999625	0.00000000	23.67126000	7.80019600
66.19999624	0.00000000	24.82775000	11.70029000
66.39999623	0.00000000	25.15994000	14.07480000
66.59999622	0.00000000	24.40945000	15.27436000
66.79999620	0.00000000	22.55167000	15.27436000
66.99999619	0.00000000	21.01993000	14.11786000
67.19999618	0.00000000	20.22022000	12.16781000
67.39999617	0.00000000	19.85728000	9.42421200
67.59999616	0.00000000	20.68774000	6.31151500
67.79999615	0.00000000	22.60088000	3.19881900
67.99999613	0.00000000	25.29527000	0.46751960
68.19999612	0.00000000	27.90354000	-1.48868100
68.39999611	0.00000000	29.06619000	-2.60211600
68.59999610	0.00000000	28.32185000	-2.18380900
68.79999609	0.00000000	26.36565000	0.13533460
68.99999607	0.00000000	23.20374000	3.62327700
69.19999606	0.00000000	19.01451000	7.93553100
69.39999605	0.00000000	15.20054000	12.53691000
69.59999604	0.00000000	13.29355000	16.39395000
69.79999603	0.00000000	13.66880000	18.30093000
69.99999601	0.00000000	16.40625000	17.88263000
70.19999600	0.00000000	21.01993000	14.76993000
70.39999599	0.00000000	26.40871000	9.42421200
70.59999598	0.00000000	31.06545000	3.66633800
70.79999597	0.00000000	34.14124000	-1.02116100
70.99999596	0.00000000	34.87943000	-4.09079700
71.19999594	0.00000000	32.56028000	-4.87819900
71.39999593	0.00000000	27.90354000	-2.97736200
71.59999592	0.00000000	21.71506000	0.51058070
71.79999591	0.00000000	15.20054000	5.15501900
71.99999590	0.00000000	10.59301000	10.11934000
72.19999588	0.00000000	8.96899500	13.60728000
72.39999587	0.00000000	10.13164000	15.18824000
72.59999586	0.00000000	13.66880000	14.81299000
72.79999585	0.00000000	19.43897000	12.49385000
72.99999584	0.00000000	25.94734000	9.09817800
73.19999582	0.00000000	31.02239000	5.61638700
73.39999581	0.00000000	34.14124000	3.33415300
73.59999580	0.00000000	34.87943000	2.50369100
73.79999579	0.00000000	32.56028000	3.33415300
73.99999578	0.00000000	27.98966000	5.43799200
74.19999577	0.00000000	22.60088000	7.37573800
74.39999575	0.00000000	17.94414000	7.38804100
74.59999574	0.00000000	14.78223000	7.09891700
74.79999573	0.00000000	13.24434000	6.22539300
74.99999572	0.00000000	13.66880000	4.73671200
75.19999571	0.00000000	16.32013000	3.24803100
75.39999569	0.00000000	20.13410000	2.50369100
75.59999568	0.00000000	23.67126000	3.29109200
75.79999567	0.00000000	26.74089000	5.24729300
75.99999566	0.00000000	28.64173000	8.31077700
76.19999565	0.00000000	28.32185000	11.74951000
76.39999563	0.00000000	26.83317000	14.03174000
76.59999562	0.00000000	24.87697000	14.76993000
76.79999561	0.00000000	22.60088000	13.18898000
76.99999560	0.00000000	21.06299000	9.38115100
77.19999559	0.00000000	20.64468000	4.73671200
77.39999558	0.00000000	20.97072000	0.09227362
77.59999556	0.00000000	21.71506000	-3.71555100
77.79999555	0.00000000	22.09030000	-5.25344500
77.99999554	0.00000000	22.09030000	-4.09079700
78.19999553	0.00000000	21.71506000	-0.60285430
78.39999552	0.00000000	20.97072000	4.77977300
78.59999550	0.00000000	20.59547000	10.53765000
78.79999549	0.00000000	20.59547000	15.18824000
78.99999548	0.00000000	21.01993000	17.92569000
79.19999547	0.00000000	22.22564000	18.30093000
79.39999546	0.00000000	24.08957000	16.35089000
79.59999544	0.00000000	25.99040000	12.11860000
79.79999543	0.00000000	26.78395000	6.72982200
79.99999542	0.00000000	26.78395000	1.71013800
80.19999541	0.00000000	25.99040000	-2.14074800
80.39999540	0.00000000	24.04650000	-3.71555100
80.59999539	0.00000000	21.75812000	-3.02042300
80.79999537	0.00000000	19.38976000	-1.07037400
80.99999536	0.00000000	17.52584000	2.08538400
81.19999535	0.00000000	16.73843000	6.26845500
81.39999534	0.00000000	17.52584000	10.11934000
81.59999533	0.00000000	19.43897000	12.49385000
81.79999531	0.00000000	22.13336000	13.74262000
81.99999530	0.00000000	24.82775000	14.07480000
82.19999529	0.00000000	26.74089000	13.32431000
82.39999528	0.00000000	27.52830000	11.38041000
82.59999527	0.00000000	26.78395000	9.05511800
82.79999525	0.00000000	25.25221000	6.26845500
82.99999524	0.00000000	23.29601000	3.19881900
83.19999523	0.00000000	21.01993000	0.51058070
83.39999522	0.00000000	19.48204000	-1.06422200
83.59999521	0.00000000	19.06373000	-1.43946800
83.79999520	0.00000000	19.38976000	-0.64591530
83.99999518	0.00000000	20.17716000	1.66707700
84.19999517	0.00000000	20.97072000	4.77977300
84.39999516	0.00000000	22.13336000	8.31077700
84.59999515	0.00000000	23.24680000	12.16166000
84.79999514	0.00000000	23.67126000	15.18824000
84.99999512	0.00000000	23.67126000	16.34473000
85.19999511	0.00000000	23.29601000	15.23130000
85.39999510	0.00000000	22.60088000	12.49385000
85.59999509	0.00000000	22.60088000	8.58759800
85.79999508	0.00000000	23.29601000	3.62327700
85.99999506	0.00000000	23.67126000	-0.60285430
86.19999505	0.00000000	23.67126000	-2.97736200
86.39999504	0.00000000	23.29601000	-3.71555100
86.59999503	0.00000000	22.50861000	-2.14074800
86.79999502	0.00000000	21.75812000	1.66707700
86.99999501	0.00000000	20.92766000	6.31151500
87.19999499	0.00000000	20.17716000	10.95595000
87.39999498	0.00000000	19.43897000	14.76993000
87.59999497	0.00000000	19.48204000	16.30167000
87.79999496	0.00000000	20.59547000	15.18824000
87.99999495	0.00000000	22.13336000	12.07554000
88.19999493	0.00000000	23.67126000	7.47416300
88.39999492	0.00000000	24.82775000	2.50369100
88.59999491	0.00000000	25.25221000	-0.97810030
88.79999490	0.00000000	25.20300000	-2.55905500
88.99999489	0.00000000	24.40945000	-2.14074800
89.19999487	0.00000000	22.50861000	0.59670270
89.39999486	0.00000000	20.64468000	5.15501900
89.59999485	0.00000000	19.43897000	10.11934000
89.79999484	0.00000000	19.06373000	13.60728000
89.99999483	0.00000000	19.43897000	15.18824000
90.19999482	0.00000000	20.55241000	14.72072000
90.39999480	0.00000000	21.71506000	11.65723000
90.59999479	0.00000000	22.55167000	6.72982200
90.79999478	0.00000000	23.67126000	2.12844500
90.99999477	0.00000000	24.40945000	-0.97810030
91.19999476	0.00000000	24.08957000	-2.13459600
91.39999474	0.00000000	23.71432000	-0.97810030
91.59999473	0.00000000	23.29601000	2.08538400
91.79999472	0.00000000	22.55167000	6.31151500
91.99999471	0.00000000	22.17643000	10.53765000
92.19999470	0.00000000	22.13336000	13.60728000
92.39999468	0.00000000	22.13336000	14.76993000
92.59999467	0.00000000	22.13336000	13.56422000
92.79999466	0.00000000	22.09030000	10.11934000
92.99999465	0.00000000	21.71506000	5.15501900
93.19999464	0.00000000	20.92766000	0.59670270
93.39999463	0.00000000	20.17716000	-2.09153500
93.59999461	0.00000000	19.43897000	-2.14074800
93.79999460	0.00000000	19.48204000	0.13533460
93.99999459	0.00000000	20.59547000	3.62327700
94.19999458	0.00000000	22.13336000	7.84940900
94.39999457	0.00000000	23.75738000	11.65723000
94.59999455	0.00000000	25.67052000	13.61343000
94.79999454	0.00000000	27.52830000	13.61343000
94.99999453	0.00000000	27.86048000	11.65723000
95.19999452	0.00000000	26.36565000	7.84940900
95.39999451	0.00000000	23.71432000	3.70939900
95.59999449	0.00000000	20.97072000	0.92888770
95.79999448	0.00000000	18.59621000	-0.23991140
95.99999447	0.00000000	16.27707000	-0.18454720
96.19999446	0.00000000	14.82529000	2.08538400
96.39999445	0.00000000	15.20054000	5.47490100
96.59999444	0.00000000	17.52584000	8.21850300
96.79999442	0.00000000	20.97072000	10.53765000
96.99999441	0.00000000	24.87697000	11.65723000
97.19999440	0.00000000	28.32185000	10.91289000
97.39999439	0.00000000	30.64714000	9.05511800
97.59999438	0.00000000	31.02239000	6.72982200
97.79999436	0.00000000	29.48450000	4.82283400
97.99999435	0.00000000	26.40871000	3.62327700
98.19999434	0.00000000	22.50861000	3.24803100
98.39999433	0.00000000	18.63927000	3.57406500
98.59999432	0.00000000	15.15748000	4.36146600
98.79999430	0.00000000	13.24434000	5.15501900
98.99999429	0.00000000	13.24434000	6.31151500
99.19999428	0.00000000	15.15748000	7.42495000
99.39999427	0.00000000	18.63927000	7.84940900
99.59999426	0.00000000	22.46555000	7.89247000
99.79999425	0.00000000	25.99040000	7.89247000
99.99999423	0.00000000	28.32185000	7.89247000
100.19999422	0.00000000	29.52756000	7.93553100
100.39999421	0.00000000	29.48450000	8.26771600
100.59999420	0.00000000	27.94660000	8.63681000
100.79999419	0.00000000	25.25221000	8.22465500
100.99999417	0.00000000	22.13336000	7.47416300
101.19999416	0.00000000	19.06373000	6.26845500
101.39999415	0.00000000	16.73843000	4.73671200
101.59999414	0.00000000	15.94488000	3.19881900
101.79999413	0.00000000	16.27707000	2.08538400
101.99999411	0.00000000	17.48277000	2.08538400
102.19999410	0.00000000	19.38976000	3.24803100
102.39999409	0.00000000	21.75812000	5.19808000
102.59999408	0.00000000	24.04650000	7.89247000
102.79999407	0.00000000	25.99040000	10.53765000
102.99999406	0.00000000	26.74089000	12.11860000
103.19999404	0.00000000	26.40871000	12.45079000
103.39999403	0.00000000	25.25221000	11.28199000
103.59999402	0.00000000	23.71432000	8.26771600
103.79999401	0.00000000	22.13336000	5.19808000
103.99999400	0.00000000	20.55241000	2.82972400
104.19999398	0.00000000	19.06373000	0.87967510
104.39999397	0.00000000	18.27633000	0.17839570
104.59999396	0.00000000	18.63927000	0.92888770
104.79999395	0.00000000	19.38976000	3.24803100
104.99999394	0.00000000	20.59547000	6.26845500
105.19999392	0.00000000	22.09030000	9.00590400
105.39999391	0.00000000	23.24680000	10.91289000
105.59999390	0.00000000	23.67126000	11.70029000
105.79999389	0.00000000	23.67126000	10.91289000
105.99999388	0.00000000	23.29601000	9.05511800
106.19999387	0.00000000	22.50861000	6.72982200
106.39999385	0.00000000	21.75812000	4.77977300
106.59999384	0.00000000	20.97072000	3.24803100
106.79999383	0.00000000	20.59547000	2.50369100
106.99999382	0.00000000	20.59547000	3.24803100
107.19999381	0.00000000	21.01993000	4.73671200
107.39999379	0.00000000	22.13336000	6.31151500
107.59999378	0.00000000	23.24680000	7.84940900
107.79999377	0.00000000	23.62205000	8.96284400
107.99999376	0.00000000	23.29601000	8.96284400
108.19999375	0.00000000	22.50861000	7.84940900
108.39999374	0.00000000	21.75812000	6.31151500
108.59999372	0.00000000	20.92766000	4.77977300
108.79999371	0.00000000	20.22022000	3.62327700
108.99999370	0.00000000	19.80807000	3.24803100
109.19999369	0.00000000	20.22022000	3.62327700
109.39999368	0.00000000	20.97072000	4.77977300
109.59999366	0.00000000	22.13336000	6.31151500
109.79999365	0.00000000	23.24680000	7.84940900
109.99999364	0.00000000	23.67126000	9.00590400
110.19999363	0.00000000	23.71432000	9.38115100
110.39999362	0.00000000	23.67126000	9.00590400
110.59999360	0.00000000	23.24680000	7.84940900
110.79999359	0.00000000	22.09030000	6.31151500
110.99999358	0.00000000	20.59547000	4.77977300
111.19999357	0.00000000	19.48204000	3.62327700
111.39999356	0.00000000	19.43897000	3.19881900
111.59999355	0.00000000	20.13410000	3.19881900
111.79999353	0.00000000	20.55241000	3.62327700
111.99999352	0.00000000	20.97072000	4.73671200
112.19999351	0.00000000	21.75812000	5.89320800
112.39999350	0.00000000	22.50861000	6.68676100
112.59999349	0.00000000	23.29601000	7.47416300
112.79999347	0.00000000	23.62205000	7.84940900
112.99999346	0.00000000	23.29601000	7.89247000
113.19999345	0.00000000	22.50861000	7.84940900
113.39999344	0.00000000	21.75812000	7.51722400
113.59999343	0.00000000	20.97072000	7.10506800
113.79999341	0.00000000	20.59547000	7.09891700
113.99999340	0.00000000	20.59547000	6.64370100
114.19999339	0.00000000	20.97072000	5.93626900
114.39999338	0.00000000	21.71506000	5.15501900
114.59999337	0.00000000	22.09030000	4.77977300
114.79999336	0.00000000	22.17643000	4.73671200
114.99999334	0.00000000	22.50861000	4.73671200
115.19999333	0.00000000	22.87770000	4.73671200
115.39999332	0.00000000	22.50861000	4.77977300
115.59999331	0.00000000	22.17643000	5.19808000
115.79999330	0.00000000	22.13336000	6.31151500
115.99999328	0.00000000	22.09030000	7.47416300
116.19999327	0.00000000	21.71506000	8.22465500
116.39999326	0.00000000	20.97072000	8.63681000
116.59999325	0.00000000	20.59547000	8.26771600
116.79999324	0.00000000	20.55241000	7.89247000
116.99999322	0.00000000	20.59547000	7.42495000
117.19999321	0.00000000	20.97072000	6.31151500
117.39999320	0.00000000	21.71506000	5.15501900
117.59999319	0.00000000	22.13336000	4.36146600
117.79999318	0.00000000	22.55167000	3.57406500
117.99999317	0.00000000	23.29601000	3.24803100
118.19999315	0.00000000	23.62205000	3.57406500
118.39999314	0.00000000	23.29601000	4.36146600
118.59999313	0.00000000	22.50861000	5.15501900
118.79999312	0.00000000	21.71506000	6.31151500
118.99999311	0.00000000	20.55241000	7.42495000
119.19999309	0.00000000	19.43897000	7.84940900
119.39999308	0.00000000	19.01451000	7.89247000
119.59999307	0.00000000	19.01451000	7.84940900
119.79999306	0.00000000	19.43897000	7.47416300
119.99999305	0.00000000	20.59547000	6.72982200
120.19999303	0.00000000	22.09030000	6.31151500
120.39999302	0.00000000	23.29601000	5.93626900
120.59999301	0.00000000	24.04650000	5.53026500
120.79999300	0.00000000	24.45866000	5.51796200
120.99999299	0.00000000	24.04650000	5.11195900
121.19999298	0.00000000	23.29601000	4.77977300
121.39999296	0.00000000	22.09030000	4.73671200
121.59999295	0.00000000	20.59547000	4.77977300
121.79999294	0.00000000	19.43897000	5.15501900
121.99999293	0.00000000	19.01451000	5.89320800
122.19999292	0.00000000	19.01451000	6.26845500
122.39999290	0.00000000	19.38976000	6.35457700
122.59999289	0.00000000	20.17716000	6.72982200
122.79999288	0.00000000	20.97072000	7.47416300
122.99999287	0.00000000	22.13336000	7.84940900
123.19999286	0.00000000	23.24680000	7.84940900
123.39999284	0.00000000	23.67126000	7.47416300
123.59999283	0.00000000	23.71432000	6.72982200
123.79999282	0.00000000	23.67126000	6.31151500
123.99999281	0.00000000	23.29601000	5.89320800
124.19999280	0.00000000	22.50861000	5.15501900
124.39999279	0.00000000	21.75812000	4.77977300
124.59999277	0.00000000	20.97072000	4.73671200
124.79999276	0.00000000	20.55241000	4.73671200
124.99999275	0.00000000	20.13410000	4.77977300
125.19999274	0.00000000	19.43897000	5.15501900
125.39999273	0.00000000	19.43897000	5.93626900
125.59999271	0.00000000	20.17716000	6.68676100
125.79999270	0.00000000	20.92766000	7.47416300
125.99999269	0.00000000	21.71506000	7.80019600
126.19999268	0.00000000	22.13336000	7.47416300
126.39999267	0.00000000	22.55167000	6.72982200
126.59999265	0.00000000	23.24680000	6.35457700
126.79999264	0.00000000	23.24680000	6.26845500
126.99999263	0.00000000	22.50861000	5.89320800
127.19999262	0.00000000	21.75812000	5.15501900
127.39999261	0.00000000	20.92766000	4.77977300
127.59999260	0.00000000	20.17716000	4.77977300
127.79999258	0.00000000	19.38976000	5.15501900
127.99999257	0.00000000	19.06373000	5.89320800
128.19999256	0.00000000	19.43897000	6.26845500
128.39999255	0.00000000	20.55241000	6.31151500
128.59999254	0.00000000	21.71506000	6.31151500
128.79999252	0.00000000	22.50861000	6.31151500
128.99999251	0.00000000	23.29601000	6.31151500
129.19999250	0.00000000	23.67126000	6.31151500
129.39999249	0.00000000	23.67126000	6.31151500
129.59999248	0.00000000	23.24680000	6.31151500
129.79999246	0.00000000	22.09030000	6.26845500
129.99999245	0.00000000	20.59547000	5.93626900
130.19999244	0.00000000	19.43897000	5.57332700
130.39999243	0.00000000	19.06373000	5.93626900
130.59999242	0.00000000	19.43897000	6.26845500
130.79999241	0.00000000	20.55241000	6.31151500
130.99999239	0.00000000	21.66585000	6.31151500
131.19999238	0.00000000	22.13336000	6.31151500
131.39999237	0.00000000	22.55167000	6.26845500
131.59999236	0.00000000	23.24680000	5.89320800
131.79999235	0.00000000	23.24680000	5.15501900
131.99999233	0.00000000	22.50861000	4.77977300
132.19999232	0.00000000	21.75812000	4.73671200
132.39999231	0.00000000	20.97072000	4.73671200
132.59999230	0.00000000	20.59547000	4.77977300
132.79999229	0.00000000	20.55241000	5.15501900
132.99999227	0.00000000	20.55241000	5.89320800
133.19999226	0.00000000	20.59547000	6.31151500
133.39999225	0.00000000	20.97072000	6.72982200
133.59999224	0.00000000	21.71506000	7.47416300
133.79999223	0.00000000	22.09030000	7.80019600
133.99999222	0.00000000	22.09030000	7.47416300
134.19999220	0.00000000	21.71506000	6.68676100
134.39999219	0.00000000	20.97072000	5.93626900
134.59999218	0.00000000	20.59547000	5.15501900
134.79999217	0.00000000	20.59547000	4.77977300
134.99999216	0.00000000	20.97072000	4.73671200
135.19999214	0.00000000	21.71506000	4.73671200
135.39999213	0.00000000	22.09030000	4.77977300
135.59999212	0.00000000	22.13336000	5.15501900
135.79999211	0.00000000	22.09030000	5.93626900
135.99999210	0.00000000	21.71506000	6.68676100
136.19999208	0.00000000	20.97072000	7.47416300
136.39999207	0.00000000	20.59547000	7.84940900
136.59999206	0.00000000	20.55241000	7.84940900
136.79999205	0.00000000	20.55241000	7.47416300
136.99999204	0.00000000	20.55241000	6.72982200
137.19999203	0.00000000	20.59547000	6.31151500
137.39999201	0.00000000	20.97072000	5.89320800
137.59999200	0.00000000	21.71506000	5.15501900
137.79999199	0.00000000	22.13336000	4.77977300
137.99999198	0.00000000	22.50861000	4.73671200
138.19999197	0.00000000	22.87770000	4.73671200
138.39999195	0.00000000	22.46555000	4.73671200
138.59999194	0.00000000	21.75812000	4.77977300
138.79999193	0.00000000	20.97072000	5.15501900
138.99999192	0.00000000	20.59547000	5.93626900
139.19999191	0.00000000	20.55241000	6.68676100
139.39999189	0.00000000	20.55241000	7.47416300
139.59999188	0.00000000	20.59547000	7.84940900
139.79999187	0.00000000	20.97072000	7.89247000
139.99999186	0.00000000	21.71506000	7.84940900
140.19999185	0.00000000	22.09030000	7.42495000
140.39999184	0.00000000	22.13336000	6.31151500
140.59999182	0.00000000	22.09030000	5.19808000
140.79999181	0.00000000	21.71506000	4.77977300
140.99999180	0.00000000	20.97072000	4.73671200
141.19999179	0.00000000	20.59547000	4.73671200
141.39999178	0.00000000	20.55241000	4.77977300
141.59999176	0.00000000	20.55241000	5.15501900
141.79999175	0.00000000	20.59547000	5.93626900
141.99999174	0.00000000	20.97072000	6.68676100
142.19999173	0.00000000	21.71506000	7.47416300
142.39999172	0.00000000	22.09030000	7.84940900
142.59999170	0.00000000	22.13336000	7.84940900
142.79999169	0.00000000	22.13336000	7.47416300
142.99999168	0.00000000	22.09030000	6.68676100
143.19999167	0.00000000	21.71506000	5.93626900
143.39999166	0.00000000	20.97072000	5.11195900
143.59999165	0.00000000	20.55241000	4.36146600
143.79999163	0.00000000	20.17716000	3.62327700
143.99999162	0.00000000	19.80807000	3.62327700
144.19999161	0.00000000	20.22022000	4.36146600
144.39999160	0.00000000	20.92766000	5.15501900
144.59999159	0.00000000	21.71506000	6.31151500
144.79999157	0.00000000	22.09030000	7.42495000
144.99999156	0.00000000	22.13336000	7.84940900
145.19999155	0.00000000	22.09030000	7.84940900
145.39999154	0.00000000	21.71506000	7.47416300
145.59999153	0.00000000	20.97072000	6.72982200
145.79999151	0.00000000	20.59547000	6.31151500
145.99999150	0.00000000	20.55241000	5.89320800
146.19999149	0.00000000	20.55241000	5.15501900
146.39999148	0.00000000	20.55241000	4.77977300
146.59999147	0.00000000	20.59547000	4.73671200
146.79999146	0.00000000	20.97072000	4.73671200
146.99999144	0.00000000	21.71506000	4.77977300
147.19999143	0.00000000	22.09030000	5.15501900
147.39999142	0.00000000	22.13336000	5.89320800
147.59999141	0.00000000	22.09030000	6.26845500
147.79999140	0.00000000	21.71506000	6.31151500
147.99999138	0.00000000	20.97072000	6.31151500
148.19999137	0.00000000	20.59547000	6.31151500
148.39999136	0.00000000	20.55241000	6.31151500
148.59999135	0.00000000	20.55241000	6.31151500
148.79999134	0.00000000	20.55241000	6.26845500
148.99999132	0.00000000	20.55241000	5.89320800
149.19999131	0.00000000	20.59547000	5.15501900
149.39999130	0.00000000	20.92766000	4.77977300
149.59999129	0.00000000	21.33981000	4.73671200
149.79999128	0.00000000	21.34596000	4.77977300
149.99999127	0.00000000	21.75812000	5.15501900
150.19999125	0.00000000	22.04109000	5.89320800
150.39999124	0.00000000	21.71506000	6.26845500
150.59999123	0.00000000	20.97072000	6.31151500
150.79999122	0.00000000	20.59547000	6.31151500
150.99999121	0.00000000	20.55241000	6.31151500
151.19999119	0.00000000	20.55241000	6.31151500
151.39999118	0.00000000	20.55241000	6.31151500
151.59999117	0.00000000	20.55241000	6.26845500
151.79999116	0.00000000	20.59547000	5.89320800
151.99999115	0.00000000	20.97072000	5.19808000
152.19999113	0.00000000	21.71506000	5.19808000
152.39999112	0.00000000	22.09030000	5.85014700
152.59999111	0.00000000	22.13336000	5.89320800
152.79999110	0.00000000	22.13336000	5.57332700
152.99999109	0.00000000	22.13336000	5.93626900
153.19999108	0.00000000	22.09030000	6.26845500
153.39999106	0.00000000	21.71506000	6.31151500
153.59999105	0.00000000	20.97072000	6.31151500
153.79999104	0.00000000	20.59547000	6.31151500
153.99999103	0.00000000	20.55241000	6.31151500
154.19999102	0.00000000	20.55241000	6.31151500
154.39999100	0.00000000	20.55241000	6.26845500
154.59999099	0.00000000	20.55241000	5.93626900
154.79999098	0.00000000	20.55241000	5.53026500
154.99999097	0.00000000	20.59547000	5.51796200
155.19999096	0.00000000	20.97072000	5.11195900
155.39999094	0.00000000	21.71506000	4.77977300
155.59999093	0.00000000	22.09030000	4.73671200
155.79999092	0.00000000	22.13336000	4.77977300
155.99999091	0.00000000	22.09030000	5.15501900
156.19999090	0.00000000	21.71506000	5.89320800
156.39999089	0.00000000	20.97072000	6.26845500
156.59999087	0.00000000	20.59547000	6.31151500
156.79999086	0.00000000	20.50935000	6.31151500
156.99999085	0.00000000	20.17716000	6.31151500
157.19999084	0.00000000	19.80807000	6.31151500
157.39999083	0.00000000	20.17716000	6.31151500
157.59999081	0.00000000	20.50935000	6.31151500
157.79999080	0.00000000	20.55241000	6.26845500
157.99999079	0.00000000	20.59547000	5.89320800
158.19999078	0.00000000	20.97072000	5.19808000
158.39999077	0.00000000	21.71506000	5.15501900
158.59999075	0.00000000	22.09030000	5.51796200
158.79999074	0.00000000	22.13336000	5.53026500
158.99999073	0.00000000	22.09030000	5.93626900
159.19999072	0.00000000	21.71506000	6.26845500
159.39999071	0.00000000	20.97072000	6.31151500
159.59999070	0.00000000	20.59547000	6.31151500
159.79999068	0.00000000	20.55241000	6.31151500
159.99999067	0.00000000	20.55241000	6.31151500
160.19999066	0.00000000	20.55241000	6.31151500
160.39999065	0.00000000	20.55241000	6.31151500
160.59999064	0.00000000	20.55241000	6.26845500
160.79999062	0.00000000	20.55241000	5.89320800
160.99999061	0.00000000	20.55241000	5.15501900
161.19999060	0.00000000	20.55241000	4.77977300
161.39999059	0.00000000	20.59547000	4.73671200
161.59999058	0.00000000	20.97072000	4.73671200
161.79999056	0.00000000	21.66585000	4.77977300
161.99999055	0.00000000	21.66585000	5.15501900
162.19999054	0.00000000	20.97072000	5.89320800
162.39999053	0.00000000	20.59547000	6.26845500
162.59999052	0.00000000	20.55241000	6.31151500
162.79999051	0.00000000	20.55241000	6.31151500
162.99999049	0.00000000	20.55241000	6.31151500
163.19999048	0.00000000	20.55241000	6.31151500
163.39999047	0.00000000	20.50935000	6.31151500
163.59999046	0.00000000	20.17716000	6.26845500
163.79999045	0.00000000	19.80807000	5.89320800
163.99999043	0.00000000	20.17716000	5.15501900
164.19999042	0.00000000	20.50935000	4.82898600
164.39999041	0.00000000	20.55241000	5.11195900
164.59999040	0.00000000	20.59547000	5.47490100
164.79999039	0.00000000	20.92766000	5.11195900
164.99999037	0.00000000	21.33981000	4.82898600
165.19999036	0.00000000	21.30290000	5.15501900
165.39999035	0.00000000	21.33981000	5.89320800
165.59999034	0.00000000	20.92766000	6.26845500
165.79999033	0.00000000	20.59547000	6.31151500
165.99999032	0.00000000	20.55241000	6.31151500
166.19999030	0.00000000	20.55241000	6.31151500
166.39999029	0.00000000	20.55241000	6.31151500
166.59999028	0.00000000	20.55241000	6.31151500
166.79999027	0.00000000	20.55241000	6.26845500
166.99999026	0.00000000	20.55241000	5.89320800
167.19999024	0.00000000	20.55241000	5.15501900
167.39999023	0.00000000	20.55241000	4.77977300
167.59999022	0.00000000	20.55241000	4.73671200
167.79999021	0.00000000	20.55241000	4.73671200
167.99999020	0.00000000	20.55241000	4.73671200
168.19999018	0.00000000	20.55241000	4.77977300
168.39999017	0.00000000	20.55241000	5.11195900
168.59999016	0.00000000	20.55241000	5.51796200
168.79999015	0.00000000	20.55241000	5.53026500
168.99999014	0.00000000	20.55241000	5.93626900
169.19999013	0.00000000	20.55241000	6.21924200
169.39999011	0.00000000	20.55241000	5.89320800
169.59999010	0.00000000	20.55241000	5.19808000
169.79999009	0.00000000	20.55241000	5.19808000
169.99999008	0.00000000	20.55241000	5.89320800
170.19999007	0.00000000	20.55241000	6.26845500
170.39999005	0.00000000	20.55241000	6.31151500
170.59999004	0.00000000	20.55241000	6.31151500
170.79999003	0.00000000	20.55241000	6.31151500
170.99999002	0.00000000	20.55241000	6.31151500
171.19999001	0.00000000	20.55241000	6.31151500
171.39998999	0.00000000	20.55241000	6.26845500
171.59998998	0.00000000	20.55241000	5.89320800
171.79998997	0.00000000	20.55241000	5.15501900
171.99998996	0.00000000	20.55241000	4.77977300
172.19998995	-0.15871060	20.55241000	4.73671200
172.39998994	0.00000000	20.55241000	4.77977300
172.59998992	0.00000000	20.55241000	5.15501900
172.79998991	0.00000000	20.55241000	5.89320800
172.99998990	0.00000000	20.55241000	6.26845500
173.19998989	0.00000000	20.55241000	6.31151500
173.39998988	0.00000000	20.55241000	6.26845500
173.59998986	0.00000000	20.55241000	5.93626900
173.79998985	0.00000000	20.55241000	5.53026500
173.99998984	0.00000000	20.55241000	5.56717500
174.19998983	0.00000000	20.55241000	5.48105300
174.39998982	0.00000000	20.55241000	5.51796200
174.59998980	0.00000000	20.55241000	5.11195900
174.79998979	0.00000000	20.55241000	4.77977300
174.99998978	0.00000000	20.55241000	4.77977300
175.19998977	0.00000000	20.55241000	5.11195900
175.39998976	0.00000000	20.50935000	5.47490100
175.59998975	0.00000000	20.17716000	5.15501900
175.79998973	0.00000000	19.80807000	5.19808000
175.99998972	0.00000000	20.17716000	5.89320800
176.19998971	0.00000000	20.50935000	6.21924200
176.39998970	0.00000000	20.55241000	5.89320800
176.59998969	0.00000000	20.55241000	5.15501900
176.79998967	0.00000000	20.55241000	4.82898600
176.99998966	0.00000000	20.55241000	5.15501900
177.19998965	0.00000000	20.55241000	5.85014700
177.39998964	0.00000000	20.55241000	5.85014700
177.59998963	0.00000000	20.55241000	5.15501900
177.79998961	0.00000000	20.55241000	4.82898600
177.99998960	0.00000000	20.55241000	5.11195900
178.19998959	0.00000000	20.55241000	5.51796200
178.39998958	0.00000000	20.55241000	5.53026500
178.59998957	0.00000000	20.55241000	5.93626900
178.79998956	0.00000000	20.55241000	6.26845500
178.99998954	0.00000000	20.55241000	6.31151500
179.19998953	0.00000000	20.55241000	6.26845500
179.39998952	0.00000000	20.55241000	5.93626900
179.59998951	0.00000000	20.55241000	5.53026500
179.79998950	0.00000000	20.55241000	5.51796200
179.99998948	0.00000000	20.55241000	5.11195900
180.19998947	0.00000000	20.55241000	4.77977300
180.39998946	0.00000000	20.55241000	4.73671200
180.59998945	0.00000000	20.55241000	4.73671200
180.79998944	0.00000000	20.55241000	4.73671200
180.99998942	0.00000000	20.55241000	4.77977300
181.19998941	0.00000000	20.55241000	5.15501900
181.39998940	0.00000000	20.55241000	5.89320800
181.59998939	0.00000000	20.55241000	6.26845500
181.79998938	0.00000000	20.55241000	6.31151500
181.99998937	0.00000000	20.55241000	6.31151500
182.19998935	0.00000000	20.55241000	6.31151500
182.39998934	0.00000000	20.55241000	6.26845500
182.59998933	0.00000000	20.55241000	5.89320800
182.79998932	0.00000000	20.55241000	5.15501900
182.99998931	0.00000000	20.55241000	4.77977300
183.19998929	0.00000000	20.55241000	4.73671200
183.39998928	0.00000000	20.55241000	4.73671200
183.59998927	0.00000000	20.55241000	4.73671200
183.79998926	0.00000000	20.55241000	4.77977300
183.99998925	0.00000000	20.55241000	5.15501900
184.19998923	0.00000000	20.50935000	5.89320800
184.39998922	0.00000000	20.17716000	6.26845500
184.59998921	0.00000000	19.80807000	6.31151500
184.79998920	0.00000000	20.17716000	6.31151500
184.99998919	0.00000000	20.50935000	6.31151500
185.19998918	0.00000000	20.55241000	6.31151500
185.39998916	0.00000000	20.55241000	6.26845500
185.59998915	0.00000000	20.55241000	5.89320800
185.79998914	0.00000000	20.55241000	5.15501900
185.99998913	0.00000000	20.55241000	4.77977300
186.19998912	0.00000000	20.55241000	4.73671200
186.39998910	0.00000000	20.55241000	4.73671200
186.59998909	0.00000000	20.55241000	4.73671200
186.79998908	0.00000000	20.55241000	4.77977300
186.99998907	0.00000000	20.55241000	5.15501900
187.19998906	0.00000000	20.55241000	5.89320800
187.39998904	0.00000000	20.50935000	6.26845500
187.59998903	0.00000000	20.17716000	6.31151500
187.79998902	0.00000000	19.80807000	6.31151500
187.99998901	0.00000000	20.17716000	6.31151500
188.19998900	0.00000000	20.50935000	6.31151500
188.39998899	0.00000000	20.55241000	6.26845500
188.59998897	0.00000000	20.55241000	5.89320800
188.79998896	0.00000000	20.55241000	5.15501900
188.99998895	0.00000000	20.55241000	4.77977300
189.19998894	0.00000000	20.55241000	4.73671200
189.39998893	0.00000000	20.55241000	4.73671200
189.59998891	0.00000000	20.55241000	4.73671200
189.79998890	0.00000000	20.55241000	4.77977300
189.99998889	0.00000000	20.50935000	5.15501900
190.19998888	0.00000000	20.17716000	5.89320800
190.39998887	0.00000000	19.80807000	6.26845500
190.59998885	0.00000000	20.17716000	6.31151500
190.79998884	0.00000000	20.50935000	6.31151500
190.99998883	0.00000000	20.55241000	6.26845500
191.19998882	0.00000000	20.55241000	5.93626900
191.39998881	0.00000000	20.55241000	5.57332700
191.59998880	0.00000000	20.55241000	5.89320800
191.79998878	0.00000000	20.55241000	5.85014700
191.99998877	0.00000000	20.55241000	5.15501900
192.19998876	0.00000000	20.55241000	4.77977300
192.39998875	0.00000000	20.55241000	4.73671200
192.59998874	0.00000000	20.55241000	4.73671200
192.79998872	0.00000000	20.50935000	4.73671200
192.99998871	0.00000000	20.13410000	4.73671200
193.19998870	0.00000000	19.38976000	4.73671200
193.39998869	0.00000000	19.01451000	4.73671200
193.59998868	0.00000000	19.01451000	4.77977300
193.79998866	0.00000000	19.38976000	5.15501900
193.99998865	0.00000000	20.13410000	5.89320800
194.19998864	0.00000000	20.50935000	6.26845500
194.39998863	0.00000000	20.55241000	6.31151500
194.59998862	0.00000000	20.55241000	6.26845500
194.79998861	0.00000000	20.55241000	5.89320800
194.99998859	0.00000000	20.55241000	5.15501900
195.19998858	0.00000000	20.55241000	4.77977300
195.39998857	0.00000000	20.55241000	4.73671200
195.59998856	0.00000000	20.55241000	4.73671200
195.79998855	0.00000000	20.55241000	4.73671200
195.99998853	0.00000000	20.55241000	4.73671200
