Time	Channel A	Channel B	Channel C
(us)	(V)	(mV)	(mV)

-4.49999956	0.00000000	-9.48572700	-6.35457700
-4.29999957	0.00000000	-9.48572700	-6.31151500
-4.09999958	0.00000000	-9.48572700	-6.31151500
-3.89999959	0.00000000	-9.48572700	-6.31151500
-3.69999960	0.00000000	-9.48572700	-6.31151500
-3.49999962	0.00000000	-9.48572700	-6.31151500
-3.29999963	0.00000000	-9.48572700	-6.31151500
-3.09999964	0.00000000	-9.48572700	-6.31151500
-2.89999965	0.00000000	-9.48572700	-6.31151500
-2.69999966	0.00000000	-9.48572700	-6.31151500
-2.49999968	0.00000000	-9.48572700	-6.31151500
-2.29999969	0.00000000	-9.48572700	-6.35457700
-2.09999970	0.00000000	-9.48572700	-6.68676100
-1.89999971	0.00000000	-9.48572700	-7.05585600
-1.69999972	0.00000000	-9.48572700	-6.68676100
-1.49999973	0.00000000	-9.48572700	-6.35457700
-1.29999975	0.00000000	-9.48572700	-6.31151500
-1.09999976	0.00000000	-9.52879000	-6.31151500
-0.89999977	0.00000000	-9.86097400	-6.31151500
-0.69999978	0.00000000	-10.23007000	-6.31151500
-0.49999979	0.00000000	-9.86097400	-6.31151500
-0.29999981	0.15871060	-9.52879000	-6.31151500
-0.09999982	0.63668800	-9.48572700	-6.31151500
0.10000017	0.95533960	-9.48572700	-6.31151500
0.30000016	1.11466500	-9.48572700	-6.31151500
0.50000015	0.95533960	-9.48572700	-6.35457700
0.70000013	0.47736220	-9.48572700	-6.72982200
0.90000012	-0.31803640	-9.48572700	-7.42495000
1.10000011	-1.27399100	-9.48572700	-7.42495000
1.30000010	-2.22994600	-9.48572700	-6.72982200
1.50000009	-2.70792300	-9.48572700	-6.35457700
1.70000008	-2.54859700	-9.48572700	-6.31151500
1.90000006	-1.59264300	-9.48572700	-6.31151500
2.10000005	0.15871060	-9.48572700	-6.31151500
2.30000004	2.22994600	-9.48572700	-6.35457700
2.50000003	4.14124000	-9.48572700	-6.72982200
2.70000002	5.25652100	-9.48572700	-7.47416300
2.90000000	5.09719500	-9.48572700	-7.84940900
3.09999999	3.34522600	-9.48572700	-7.89247000
3.29999998	0.47736220	-9.48572700	-7.84940900
3.49999997	-2.86724900	-9.48572700	-7.51722400
3.69999996	-5.89382400	-9.48572700	-7.10506800
3.89999994	-7.80511800	-9.48572700	-7.09891700
4.09999993	-7.80511800	-9.48572700	-6.68676100
4.29999992	-5.57517200	-9.48572700	-6.31151500
4.49999991	-1.91129400	-9.48572700	-5.93626900
4.69999990	2.54859700	-9.48572700	-5.57332700
4.89999989	6.53112700	-9.48572700	-5.93626900
5.09999987	9.07972400	-9.48572700	-6.31151500
5.29999986	9.23905000	-9.48572700	-6.72982200
5.49999985	7.16781500	-9.48572700	-7.47416300
5.69999984	3.34522600	-9.48572700	-7.84940900
5.89999983	-1.43331700	-9.48572700	-7.89247000
6.09999981	-5.89382400	-9.48572700	-7.84940900
6.29999980	-8.76107300	-9.48572700	-7.47416300
6.49999979	-9.39837600	-9.48572700	-6.72982200
6.69999978	-7.80511800	-9.48572700	-6.35457700
6.89999977	-4.30056600	-9.48572700	-6.31151500
7.09999975	0.15871060	-9.48572700	-6.31151500
7.29999974	4.14124000	-9.48572700	-6.35457700
7.49999973	6.84916400	-9.48572700	-6.68676100
7.69999972	7.80511800	-9.48572700	-7.09891700
7.89999971	6.69045300	-9.48572700	-7.10506800
8.09999970	3.98191400	-9.48572700	-7.47416300
8.29999968	0.63668800	-9.48572700	-7.47416300
8.49999967	-2.22994600	-9.48572700	-7.10506800
8.69999966	-4.45989200	-9.48572700	-7.09891700
8.89999965	-5.25652100	-9.48572700	-6.68676100
9.09999964	-4.61921700	-9.48572700	-6.35457700
9.29999962	-3.02657500	-9.48572700	-6.31151500
9.49999961	-1.11466500	-9.48572700	-6.31151500
9.69999960	0.79601380	-9.48572700	-6.35457700
9.89999959	2.07062000	-9.48572700	-6.68676100
10.09999958	2.54859700	-9.48572700	-7.09891700
10.29999956	2.22994600	-9.48572700	-7.06200700
10.49999955	1.59264300	-9.48572700	-7.09891700
10.69999954	0.79601380	-9.48572700	-6.68676100
10.89999953	-0.15871060	-9.48572700	-6.40378900
11.09999952	-0.63668800	-9.48572700	-6.68676100
11.29999951	-0.95533960	-9.48572700	-7.09891700
11.49999949	-0.95533960	-9.48572700	-7.06200700
11.69999948	-0.79601380	-9.48572700	-7.09891700
11.89999947	-0.47736220	-9.48572700	-6.68676100
12.09999946	-0.15871060	-9.48572700	-6.40378900
12.29999945	-0.15871060	-9.48572700	-6.68676100
12.49999943	-0.15871060	-9.48572700	-7.05585600
12.69999942	0.00000000	-9.48572700	-6.72982200
12.89999941	0.00000000	-9.48572700	-6.72982200
13.09999940	0.00000000	-9.48572700	-7.09891700
13.29999939	0.00000000	-9.48572700	-7.06200700
13.49999937	0.00000000	-9.48572700	-7.09891700
13.69999936	0.00000000	-9.48572700	-6.68676100
13.89999935	0.00000000	-9.48572700	-6.35457700
14.09999934	-0.15871060	-9.48572700	-6.31151500
14.29999933	-0.15871060	-9.48572700	-6.31151500
14.49999932	-0.15871060	-9.48572700	-6.31151500
14.69999930	0.00000000	-9.48572700	-6.31151500
14.89999929	0.00000000	-9.48572700	-6.31151500
15.09999928	0.00000000	-9.48572700	-6.31151500
15.29999927	0.00000000	-9.48572700	-6.31151500
15.49999926	0.00000000	-9.48572700	-6.35457700
15.69999924	0.00000000	-9.48572700	-6.68676100
15.89999923	0.00000000	-9.48572700	-7.09891700
16.09999922	0.00000000	-9.48572700	-7.10506800
16.29999921	0.00000000	-9.48572700	-7.47416300
16.49999920	-0.15871060	-9.48572700	-7.47416300
16.69999919	0.00000000	-9.44266700	-7.10506800
16.89999917	-0.15871060	-9.06742000	-7.09891700
17.09999916	0.00000000	-8.32308000	-6.68676100
17.29999915	0.00000000	-7.90477300	-6.35457700
17.49999914	0.00000000	-7.52952700	-6.31151500
17.69999913	0.00000000	-7.16043300	-6.31151500
17.89999911	0.00000000	-7.57258800	-6.31151500
18.09999910	0.00000000	-8.32308000	-6.31151500
18.29999909	0.00000000	-9.57800100	-6.35457700
18.49999908	0.00000000	-11.44193000	-6.72982200
18.69999907	0.00000000	-13.39198000	-7.47416300
18.89999905	0.00000000	-14.51156000	-7.80019600
19.09999904	0.00000000	-14.92372000	-7.51722400
19.29999903	0.00000000	-14.05020000	-7.14812900
19.49999902	0.00000000	-11.76181000	-7.51722400
19.69999901	0.00000000	-8.23695900	-7.84940900
19.89999900	0.00000000	-4.36761800	-7.89247000
20.09999898	0.00000000	-0.51058070	-7.89247000
20.29999897	0.00000000	2.09768700	-7.84940900
20.49999896	0.00000000	2.05462600	-7.51722400
20.69999895	0.00000000	-1.06422200	-7.14812900
20.89999894	0.00000000	-6.87746000	-7.51722400
21.09999892	0.00000000	-14.22859000	-7.84940900
21.29999891	-0.15871060	-21.57972000	-7.84940900
21.49999890	0.00000000	-27.34990000	-7.51722400
21.69999889	0.00000000	-29.95817000	-7.10506800
21.89999888	0.00000000	-27.95275000	-7.14197800
22.09999886	0.00000000	-20.97687000	-7.10506800
22.29999885	0.00000000	-10.51304000	-7.51722400
22.49999884	0.00000000	1.53789400	-7.84940900
22.69999883	0.00000000	13.02903000	-7.84940900
22.89999882	0.00000000	20.65699000	-7.47416300
23.09999881	0.00000000	21.35827000	-6.72982200
23.29999879	0.00000000	14.75148000	-6.31151500
23.49999878	0.00000000	1.58710600	-5.89320800
23.69999877	0.00000000	-15.43430000	-5.15501900
23.89999876	0.00000000	-32.46801000	-4.77977300
24.09999875	0.00000000	-46.28445000	-4.77977300
24.29999873	0.00000000	-52.70669000	-5.19808000
24.49999872	0.00000000	-48.80659000	-6.36072800
24.69999871	0.00000000	-35.31004000	-7.89247000
24.89999870	0.00000000	-15.16978000	-9.47342500
25.09999869	0.00000000	7.25885800	-11.00517000
25.29999867	0.00000000	27.26993000	-12.11860000
25.49999866	0.00000000	39.50541000	-12.16166000
25.69999865	0.00000000	39.96678000	-11.33120000
25.89999864	0.00000000	29.13386000	-9.70103300
26.09999863	0.00000000	9.76870100	-6.21924200
26.29999862	0.00000000	-14.97293000	-2.04232300
26.49999860	0.00000000	-38.84719000	1.44562000
26.69999859	0.00000000	-56.24384000	3.76476400
26.89999858	0.00000000	-63.17667000	4.04773600
27.09999857	0.00000000	-57.78174000	1.67322800
27.29999856	0.00000000	-41.59080000	-3.75246000
27.49999854	0.00000000	-18.41781000	-11.04823000
27.69999853	0.00000000	6.28690900	-18.43627000
27.89999852	0.00000000	26.80241000	-24.57554000
28.09999851	0.00000000	38.81028000	-27.96506000
28.29999850	0.00000000	40.01599000	-26.75935000
28.49999848	0.00000000	30.33957000	-20.95226000
28.69999847	0.00000000	12.23548000	-11.61417000
28.89999846	0.00000000	-10.18086000	0.00000000
29.09999845	0.00000000	-31.40379000	11.52190000
29.29999844	0.00000000	-46.93651000	19.98031000
29.49999843	0.00000000	-53.54945000	23.00074000
29.69999841	0.00000000	-50.56594000	19.46973000
29.89999840	0.00000000	-39.35777000	9.38730200
30.09999839	0.00000000	-22.74237000	-5.24729300
30.29999838	0.00000000	-4.18307100	-21.08760000
30.49999837	0.00000000	12.05709000	-34.60876000
30.69999835	0.00000000	22.57013000	-43.06717000
30.89999834	0.00000000	25.73203000	-44.13755000
31.09999833	0.00000000	21.49360000	-36.79257000
31.29999832	0.00000000	11.07283000	-22.53322000
31.49999831	0.00000000	-3.20497000	-4.77977300
31.69999829	0.00000000	-17.90723000	12.63533000
31.89999828	0.00000000	-29.91511000	26.16265000
32.09999827	0.00000000	-36.93405000	33.12623000
32.29999826	0.00000000	-37.73376000	31.92052000
32.49999825	0.00000000	-32.74483000	22.63164000
32.69999824	0.00000000	-23.07455000	6.83439900
32.89999822	0.00000000	-11.15896000	-11.70029000
33.09999821	0.00000000	0.09842519	-28.71555000
33.29999820	0.00000000	8.19389700	-41.11097000
33.49999819	0.00000000	11.72490000	-46.13681000
33.69999818	0.00000000	9.82406400	-43.06717000
33.89999816	0.00000000	3.72170300	-32.65871000
34.09999815	0.00000000	-4.78592500	-17.18750000
34.29999814	0.00000000	-13.67495000	-0.17839570
34.49999813	-0.15871060	-20.97687000	15.24360000
34.69999812	0.00000000	-24.84006000	25.27682000
34.89999810	0.00000000	-24.13878000	27.65133000
35.09999809	0.00000000	-19.95571000	22.67470000
35.29999808	0.00000000	-13.76107000	11.47884000
35.49999807	0.00000000	-6.83439900	-3.15575800
35.69999806	0.00000000	-1.10728300	-17.83957000
35.89999805	0.00000000	1.63016700	-29.40452000
36.09999803	0.00000000	0.89197830	-35.21161000
36.29999802	0.00000000	-2.55290300	-34.09818000
36.49999801	0.00000000	-7.94783400	-26.80241000
36.69999800	0.00000000	-13.67495000	-15.27436000
36.89999799	0.00000000	-17.90723000	-2.59596400
37.09999797	0.00000000	-19.48819000	7.81250000
37.29999796	0.00000000	-18.37475000	13.61343000
37.49999795	0.00000000	-15.25591000	13.61343000
37.69999794	0.00000000	-10.59916000	7.89862200
37.89999793	0.00000000	-5.25344500	-1.66707700
38.09999791	0.00000000	-1.06422200	-11.98327000
38.29999790	0.00000000	0.55979330	-20.06643000
38.49999789	0.00000000	-0.17839570	-23.51132000
38.69999788	0.00000000	-2.50984200	-21.64739000
38.89999787	0.00000000	-6.41609200	-15.09596000
39.09999786	0.00000000	-11.02362000	-5.98548200
39.29999784	0.00000000	-15.29897000	2.83587600
39.49999783	0.00000000	-18.37475000	8.18774500
39.69999782	0.00000000	-19.53125000	8.96899500
39.89999781	0.00000000	-18.41781000	4.69365100
40.09999780	0.00000000	-15.71727000	-3.66633800
40.29999778	0.00000000	-12.22933000	-13.28125000
40.49999777	0.00000000	-8.32308000	-21.32751000
40.69999776	0.00000000	-4.83513700	-25.91658000
40.89999775	0.00000000	-2.09153500	-25.13533000
41.09999774	0.00000000	-0.55364170	-19.42052000
41.29999772	0.00000000	-0.55364170	-10.54380000
41.49999771	0.00000000	-2.13459600	-0.55364170
41.69999770	0.00000000	-5.21038300	7.85556000
41.89999769	0.00000000	-9.06742000	12.13091000
42.09999768	0.00000000	-12.55536000	11.38656000
42.29999767	0.00000000	-15.29897000	6.40994000
42.49999765	0.00000000	-16.87992000	-1.71013800
42.69999764	0.00000000	-17.25517000	-10.91289000
42.89999763	0.00000000	-16.46161000	-18.95300000
43.09999762	0.00000000	-14.18553000	-23.22835000
43.29999761	0.00000000	-11.48499000	-22.95152000
43.49999759	0.00000000	-9.15354300	-19.46358000
43.69999758	0.00000000	-7.16043300	-13.33046000
43.89999757	0.00000000	-5.99163300	-6.04084600
44.09999756	0.00000000	-5.21038300	-0.27066930
44.29999755	0.00000000	-5.21038300	3.29724400
44.49999753	0.00000000	-5.90551100	4.04773600
44.69999752	0.00000000	-6.28075700	2.18380900
44.89999751	0.00000000	-6.36687900	-1.66707700
45.09999750	0.00000000	-6.74212600	-6.26845500
45.29999749	0.00000000	-7.57258800	-10.49459000
45.49999748	0.00000000	-8.74138700	-13.23819000
45.69999746	0.00000000	-10.78371000	-14.07480000
45.89999745	0.00000000	-13.44119000	-13.69956000
46.09999744	0.00000000	-16.55389000	-12.11860000
46.29999743	0.00000000	-18.79306000	-9.42421200
46.49999742	0.00000000	-19.58046000	-6.36072800
46.69999740	0.00000000	-18.32554000	-3.66633800
46.89999739	0.00000000	-14.83760000	-2.08538400
47.09999738	0.00000000	-9.39345400	-1.71013800
47.29999737	0.00000000	-3.25418300	-2.46063000
47.49999736	0.00000000	2.18996000	-4.40452700
47.69999734	0.00000000	5.63484200	-6.72982200
47.89999733	0.00000000	6.32997000	-9.42421200
48.09999732	0.00000000	3.16806100	-11.70029000
48.29999731	0.00000000	-3.75861200	-12.49385000
48.49999730	0.00000000	-12.60458000	-12.16166000
48.69999729	0.00000000	-21.06914000	-10.91289000
48.89999727	0.00000000	-26.88238000	-8.63681000
49.09999726	0.00000000	-28.79552000	-5.53026500
49.29999725	0.00000000	-26.46407000	-2.82972400
49.49999724	0.00000000	-19.90650000	-0.51058070
49.69999723	0.00000000	-11.02362000	0.55979330
49.89999721	0.00000000	-1.75935000	-0.59670270
50.09999720	0.00000000	5.91166300	-3.62327700
50.29999719	0.00000000	9.35654400	-7.47416300
50.49999718	0.00000000	7.86786400	-11.00517000
50.69999717	0.00000000	2.09768700	-14.07480000
50.89999715	0.00000000	-6.36687900	-15.92642000
51.09999714	0.00000000	-15.25591000	-15.18824000
51.29999713	0.00000000	-22.55782000	-12.53691000
51.49999712	0.00000000	-26.42101000	-9.00590400
51.69999711	0.00000000	-25.63361000	-4.77977300
51.89999710	0.00000000	-20.69390000	-0.97194880
52.09999708	0.00000000	-12.97982000	0.97810030
52.29999707	0.00000000	-4.92125900	1.02116100
52.49999706	0.00000000	1.63016700	-0.55364170
52.69999705	0.00000000	4.66289300	-3.62327700
52.89999704	0.00000000	3.21112200	-7.47416300
53.09999702	0.00000000	-1.75935000	-10.91289000
53.29999701	0.00000000	-8.32308000	-13.23819000
53.49999700	0.00000000	-15.25591000	-13.65650000
53.69999699	0.00000000	-20.55856000	-12.49385000
53.89999698	0.00000000	-22.09646000	-10.21161000
54.09999696	0.00000000	-19.48819000	-7.14812900
54.29999695	0.00000000	-14.13632000	-4.87204700
54.49999694	0.00000000	-7.99704600	-3.66633800
54.69999693	0.00000000	-2.60211600	-3.70939900
54.89999692	0.00000000	0.47367120	-5.19808000
55.09999691	0.00000000	0.51673230	-7.47416300
55.29999689	0.00000000	-2.17765700	-9.33809000
55.49999688	0.00000000	-6.79133800	-10.11934000
55.69999687	0.00000000	-12.18012000	-9.33809000
55.89999686	0.00000000	-16.79380000	-7.47416300
56.09999685	0.00000000	-19.48819000	-5.15501900
56.29999683	0.00000000	-19.48819000	-3.24803100
56.49999682	0.00000000	-16.83686000	-2.12844500
56.69999681	0.00000000	-12.60458000	-2.59596400
56.89999680	0.00000000	-7.99704600	-5.24729300
57.09999679	0.00000000	-4.09079700	-9.05511800
57.29999677	0.00000000	-1.80856300	-12.53691000
57.49999676	0.00000000	-1.39640700	-15.23130000
57.69999675	0.00000000	-3.38951800	-16.30167000
57.89999674	0.00000000	-7.11737200	-14.72072000
58.09999673	0.00000000	-11.34350000	-10.49459000
58.29999672	0.00000000	-14.05020000	-4.73671200
58.49999670	0.00000000	-15.29897000	1.02116100
58.69999669	0.00000000	-15.29897000	5.20423200
58.89999668	0.00000000	-14.13632000	6.36687900
59.09999667	0.00000000	-12.22933000	4.04773600
59.29999666	0.00000000	-9.90403500	-0.97194880
59.49999664	0.00000000	-7.99704600	-7.93553100
59.69999663	0.00000000	-6.83439900	-15.18824000
59.89999662	0.00000000	-6.83439900	-20.57702000
60.09999661	0.00000000	-7.90477300	-22.48400000
60.29999660	0.00000000	-9.06742000	-20.57702000
60.49999658	0.00000000	-9.86097400	-15.14518000
60.69999657	0.00000000	-10.64838000	-7.47416300
60.89999656	0.00000000	-10.97441000	0.60285430
61.09999655	0.00000000	-10.64838000	6.74212600
61.29999654	0.00000000	-9.86097400	9.47957600
61.49999653	0.00000000	-9.11048200	8.27386800
61.69999651	0.00000000	-8.37229300	3.25418300
61.89999650	0.00000000	-8.37229300	-4.77977300
62.09999649	0.00000000	-9.11048200	-13.23819000
62.29999648	0.00000000	-9.90403500	-19.83883000
62.49999647	0.00000000	-11.06668000	-23.68971000
62.69999645	0.00000000	-12.18012000	-23.64665000
62.89999644	0.00000000	-12.55536000	-19.46358000
63.09999643	0.00000000	-12.18012000	-12.54306000
63.29999642	0.00000000	-11.02362000	-4.82898600
63.49999641	0.00000000	-9.48572700	2.14074800
63.69999639	0.00000000	-7.94783400	6.74212600
63.89999638	0.00000000	-6.79133800	7.94783400
64.09999637	0.00000000	-6.41609200	5.62253900
64.29999636	0.00000000	-6.79133800	0.64591530
64.49999635	0.00000000	-7.94783400	-5.89320800
64.69999634	0.00000000	-9.48572700	-12.03248000
64.89999632	0.00000000	-11.06668000	-16.39395000
65.09999631	0.00000000	-12.55536000	-18.71924000
65.29999630	0.00000000	-13.34276000	-19.08834000
65.49999629	0.00000000	-12.93061000	-16.76919000
65.69999628	0.00000000	-11.81102000	-12.58612000
65.89999626	0.00000000	-9.86097400	-7.93553100
66.09999625	0.00000000	-8.04010800	-3.66633800
66.29999624	0.00000000	-7.20964500	-0.55364170
66.49999623	0.00000000	-7.62180000	1.02116100
66.69999622	0.00000000	-8.74138700	1.06422200
66.89999620	0.00000000	-10.64838000	-0.04306102
67.09999619	0.00000000	-12.13706000	-1.62401600
67.29999618	0.00000000	-12.55536000	-3.61712600
67.49999617	0.00000000	-12.18012000	-6.36072800
67.69999616	0.00000000	-10.97441000	-9.47342500
67.89999615	0.00000000	-9.01820900	-12.58612000
68.09999613	0.00000000	-6.36687900	-15.27436000
68.29999612	0.00000000	-4.13385800	-16.81225000
68.49999611	0.00000000	-3.75861200	-16.81225000
68.69999610	0.00000000	-5.25344500	-15.23130000
68.89999609	0.00000000	-7.99704600	-12.11860000
69.09999607	0.00000000	-11.48499000	-7.84940900
69.29999606	0.00000000	-15.34203000	-3.20497000
69.49999605	0.00000000	-18.37475000	1.02116100
69.69999604	0.00000000	-19.53125000	3.71555100
69.89999603	0.00000000	-18.32554000	4.14000900
70.09999601	0.00000000	-14.83760000	2.55905500
70.29999600	0.00000000	-9.48572700	-0.97194880
70.49999599	0.00000000	-4.09079700	-6.36072800
70.69999598	0.00000000	-0.17839570	-12.07554000
70.89999597	0.00000000	2.09768700	-16.35089000
71.09999596	0.00000000	1.67938000	-18.35015000
71.29999594	0.00000000	-1.75935000	-18.30093000
71.49999593	0.00000000	-6.79133800	-15.97564000
71.69999592	0.00000000	-12.64764000	-11.38041000
71.89999591	0.00000000	-18.41781000	-6.40378900
72.09999590	0.00000000	-22.60704000	-2.12844500
72.29999588	0.00000000	-23.72047000	0.55979330
72.49999587	0.00000000	-21.11220000	0.97810030
72.69999586	0.00000000	-16.09252000	-0.51058070
72.89999585	0.00000000	-10.27313000	-3.19881900
73.09999584	0.00000000	-4.09079700	-6.26845500
73.29999582	0.00000000	0.51673230	-8.96284400
73.49999581	0.00000000	2.47293300	-10.49459000
73.69999580	0.00000000	1.72244100	-10.53765000
73.89999579	0.00000000	-1.75935000	-9.42421200
74.09999578	0.00000000	-6.74212600	-7.93553100
74.29999577	0.00000000	-12.18012000	-6.77903500
74.49999575	0.00000000	-16.79380000	-6.40378900
74.69999574	0.00000000	-19.53125000	-6.77903500
74.89999573	0.00000000	-19.90650000	-7.93553100
75.09999572	0.00000000	-18.04257000	-9.42421200
75.29999571	0.00000000	-14.56078000	-10.53765000
75.49999569	0.00000000	-10.69144000	-10.49459000
75.69999568	0.00000000	-6.83439900	-8.96284400
75.89999567	0.00000000	-4.18307100	-6.26845500
76.09999566	0.00000000	-3.71555100	-3.19881900
76.29999565	0.00000000	-4.78592500	-0.51058070
76.49999563	0.00000000	-6.36687900	0.97810030
76.69999562	0.00000000	-8.28001900	0.55979330
76.89999561	0.00000000	-10.18086000	-2.12844500
77.09999560	0.00000000	-10.97441000	-6.35457700
77.29999559	0.00000000	-11.06668000	-11.00517000
77.49999558	0.00000000	-11.06668000	-15.27436000
77.69999556	0.00000000	-11.06668000	-18.30093000
77.89999555	0.00000000	-11.06668000	-19.04527000
78.09999554	0.00000000	-11.06668000	-16.72613000
78.29999553	0.00000000	-11.10974000	-12.11860000
78.49999552	0.00000000	-11.48499000	-6.31151500
78.69999550	0.00000000	-12.18012000	-0.55364170
78.89999549	0.00000000	-12.13706000	3.67249000
79.09999548	0.00000000	-11.02362000	5.25344500
79.29999547	0.00000000	-9.48572700	4.09079700
79.49999546	0.00000000	-7.90477300	0.64591530
79.69999544	0.00000000	-6.36687900	-4.36146600
79.89999543	0.00000000	-5.25344500	-9.38115100
80.09999542	0.00000000	-5.29650500	-13.69956000
80.29999541	0.00000000	-6.79133800	-16.76919000
80.49999540	0.00000000	-9.11048200	-17.92569000
80.69999539	0.00000000	-11.44193000	-16.76919000
80.89999537	0.00000000	-13.81028000	-13.69956000
81.09999536	0.00000000	-15.63115000	-9.47342500
81.29999535	0.00000000	-16.04331000	-5.24729300
81.49999534	0.00000000	-14.51156000	-2.08538400
81.69999533	0.00000000	-12.22933000	-0.09227362
81.89999531	0.00000000	-9.48572700	1.06422200
82.09999530	0.00000000	-6.83439900	1.02116100
82.29999529	0.00000000	-5.29650500	-0.51058070
82.49999528	0.00000000	-5.25344500	-3.15575800
82.69999527	0.00000000	-6.36687900	-5.89320800
82.89999525	0.00000000	-7.94783400	-8.31077700
83.09999524	0.00000000	-9.90403500	-11.04823000
83.29999523	0.00000000	-12.18012000	-13.69956000
83.49999522	0.00000000	-13.67495000	-15.23130000
83.69999521	0.00000000	-13.71801000	-15.23130000
83.89999520	0.00000000	-12.64764000	-13.69956000
84.09999518	0.00000000	-11.48499000	-10.96211000
84.29999517	0.00000000	-10.69144000	-7.47416300
84.49999516	0.00000000	-9.90403500	-3.62327700
84.69999515	0.00000000	-9.52879000	-0.51058070
84.89999514	0.00000000	-9.48572700	1.43946800
85.09999512	0.00000000	-9.48572700	2.13459600
85.29999511	0.00000000	-9.48572700	0.55979330
85.49999510	0.00000000	-9.48572700	-3.24803100
85.69999509	0.00000000	-9.44266700	-7.84940900
85.89999508	0.00000000	-9.11048200	-12.16166000
86.09999506	0.00000000	-8.74138700	-15.60654000
86.29999505	0.00000000	-9.11048200	-17.50738000
86.49999504	0.00000000	-9.48572700	-16.76919000
86.69999503	0.00000000	-9.95324800	-14.07480000
86.89999502	0.00000000	-11.06668000	-10.16855000
87.09999501	0.00000000	-12.22933000	-5.15501900
87.29999499	0.00000000	-12.97982000	-0.59670270
87.49999498	0.00000000	-13.34276000	2.14074800
87.69999497	0.00000000	-12.55536000	2.50984200
87.89999496	0.00000000	-11.06668000	0.60285430
88.09999495	0.00000000	-9.48572700	-3.24803100
88.29999493	0.00000000	-7.94783400	-7.84940900
88.49999492	0.00000000	-6.83439900	-12.11860000
88.69999491	0.00000000	-6.83439900	-15.18824000
88.89999490	0.00000000	-7.94783400	-16.30167000
89.09999489	0.00000000	-9.48572700	-14.76993000
89.29999487	0.00000000	-11.02362000	-10.95595000
89.49999486	0.00000000	-12.18012000	-6.35457700
89.69999485	0.00000000	-12.60458000	-2.08538400
89.89999484	0.00000000	-12.60458000	0.93503930
90.09999483	0.00000000	-12.22933000	1.71628900
90.29999482	0.00000000	-11.39887000	-0.17839570
90.49999480	0.00000000	-10.27313000	-3.62327700
90.69999479	0.00000000	-8.74138700	-7.89247000
90.89999478	0.00000000	-7.99704600	-12.11860000
91.09999477	0.00000000	-7.90477300	-15.14518000
91.29999476	0.00000000	-7.94783400	-15.88336000
91.49999474	0.00000000	-8.32308000	-13.61343000
91.69999473	0.00000000	-9.06742000	-9.43036400
91.89999472	0.00000000	-9.44266700	-4.82898600
92.09999471	0.00000000	-9.48572700	-0.97194880
92.29999470	0.00000000	-9.48572700	0.97810030
92.49999468	0.00000000	-9.48572700	0.97810030
92.69999467	0.00000000	-9.52879000	-0.97194880
92.89999466	0.00000000	-9.90403500	-4.82898600
93.09999465	0.00000000	-10.69144000	-9.38115100
93.29999464	0.00000000	-11.44193000	-13.23819000
93.49999463	0.00000000	-12.22933000	-15.14518000
93.69999461	0.00000000	-12.55536000	-14.76993000
93.89999460	0.00000000	-12.18012000	-12.07554000
94.09999459	0.00000000	-10.97441000	-7.89247000
94.29999458	0.00000000	-9.11048200	-3.70939900
94.49999457	0.00000000	-7.16043300	-0.97194880
94.69999455	0.00000000	-5.99163300	-0.17839570
94.89999454	0.00000000	-5.21038300	-0.97194880
95.09999453	0.00000000	-5.29650500	-3.66633800
95.29999452	0.00000000	-6.83439900	-7.47416300
95.49999451	0.00000000	-9.52879000	-10.96211000
95.69999449	0.00000000	-12.60458000	-13.65650000
95.89999448	0.00000000	-15.29897000	-14.76993000
96.09999447	0.00000000	-16.87992000	-13.60728000
96.29999446	0.00000000	-17.25517000	-10.58686000
96.49999445	0.00000000	-16.41855000	-6.77903500
96.69999444	0.00000000	-13.71801000	-3.70939900
96.89999442	0.00000000	-9.86097400	-2.12844500
97.09999441	0.00000000	-5.99163300	-2.08538400
97.29999440	0.00000000	-2.50984200	-3.24803100
97.49999439	0.00000000	-0.64591530	-5.15501900
97.69999438	0.00000000	-1.02116100	-7.47416300
97.89999436	0.00000000	-3.67249000	-9.38115100
98.09999435	0.00000000	-7.52952700	-10.58686000
98.29999434	0.00000000	-11.39887000	-10.95595000
98.49999433	0.00000000	-14.92372000	-10.58686000
98.69999432	0.00000000	-17.25517000	-9.42421200
98.89999430	0.00000000	-18.41781000	-7.93553100
99.09999429	0.00000000	-17.99951000	-6.77903500
99.29999428	0.00000000	-15.67421000	-6.35457700
99.49999427	0.00000000	-12.22933000	-6.31151500
99.69999426	0.00000000	-8.37229300	-6.31151500
99.89999425	0.00000000	-5.25344500	-6.31151500
100.09999423	0.00000000	-3.29724400	-6.26845500
100.29999422	0.00000000	-2.50984200	-5.89320800
100.49999421	0.00000000	-3.29724400	-5.15501900
100.69999420	0.00000000	-5.21038300	-4.82898600
100.89999419	0.00000000	-7.94783400	-5.19808000
101.09999417	0.00000000	-11.02362000	-6.36072800
101.29999416	0.00000000	-13.71801000	-7.89247000
101.49999415	0.00000000	-15.29897000	-9.47342500
101.69999414	0.00000000	-15.71727000	-10.96211000
101.89999413	0.00000000	-15.34203000	-11.70029000
102.09999411	0.00000000	-14.13632000	-10.96211000
102.29999410	0.00000000	-12.18012000	-9.42421200
102.49999409	0.00000000	-9.52879000	-7.43110200
102.69999408	0.00000000	-7.20964500	-4.73671200
102.89999407	0.00000000	-5.99163300	-2.08538400
103.09999406	0.00000000	-5.21038300	-0.55364170
103.29999404	0.00000000	-5.29650500	-0.55364170
103.49999403	0.00000000	-6.79133800	-2.12844500
103.69999402	0.00000000	-9.06742000	-5.19808000
103.89999401	0.00000000	-11.02362000	-9.00590400
104.09999400	0.00000000	-12.60458000	-12.07554000
104.29999398	0.00000000	-13.76107000	-13.65650000
104.49999397	0.00000000	-14.13632000	-13.65650000
104.69999396	0.00000000	-13.76107000	-12.11860000
104.89999395	0.00000000	-12.60458000	-9.42421200
105.09999394	0.00000000	-11.06668000	-6.36072800
105.29999392	0.00000000	-9.52879000	-3.66633800
105.49999391	0.00000000	-8.37229300	-2.12844500
105.69999390	0.00000000	-7.94783400	-2.08538400
105.89999389	0.00000000	-7.94783400	-3.24803100
106.09999388	0.00000000	-8.37229300	-5.15501900
106.29999387	0.00000000	-9.48572700	-7.47416300
106.49999385	0.00000000	-10.64838000	-9.38115100
106.69999384	0.00000000	-11.39887000	-10.58686000
106.89999383	0.00000000	-11.81102000	-10.91289000
107.09999382	0.00000000	-11.39887000	-10.16855000
107.29999381	0.00000000	-10.69144000	-8.26771600
107.49999379	0.00000000	-9.86097400	-6.40378900
107.69999378	0.00000000	-9.15354300	-5.19808000
107.89999377	0.00000000	-8.74138700	-4.82898600
108.09999376	0.00000000	-9.15354300	-5.19808000
108.29999375	0.00000000	-9.90403500	-6.36072800
108.49999374	0.00000000	-11.06668000	-7.84940900
108.69999372	0.00000000	-12.18012000	-9.00590400
108.89999371	0.00000000	-12.60458000	-9.43036400
109.09999370	0.00000000	-12.60458000	-9.43036400
109.29999369	0.00000000	-12.18012000	-9.00590400
109.49999368	0.00000000	-11.02362000	-7.84940900
109.69999366	0.00000000	-9.52879000	-6.36072800
109.89999365	0.00000000	-8.37229300	-5.19808000
110.09999364	0.00000000	-7.94783400	-4.77977300
110.29999363	0.00000000	-7.94783400	-4.77977300
110.49999362	0.00000000	-8.37229300	-5.19808000
110.69999360	0.00000000	-9.48572700	-6.36072800
110.89999359	0.00000000	-10.64838000	-7.89247000
111.09999358	0.00000000	-11.44193000	-9.38115100
111.29999357	0.00000000	-12.22933000	-10.16855000
111.49999356	0.00000000	-12.55536000	-9.84867000
111.69999355	0.00000000	-12.22933000	-9.47342500
111.89999353	0.00000000	-11.44193000	-9.05511800
112.09999352	0.00000000	-10.69144000	-8.26771600
112.29999351	0.00000000	-9.86097400	-7.51722400
112.49999350	0.00000000	-9.15354300	-6.72982200
112.69999349	0.00000000	-8.74138700	-6.35457700
112.89999347	0.00000000	-9.15354300	-6.31151500
113.09999346	0.00000000	-9.81791200	-6.31151500
113.29999345	0.00000000	-10.27313000	-6.31151500
113.49999344	0.00000000	-10.27928000	-6.35457700
113.69999343	0.00000000	-10.69144000	-6.72982200
113.89999341	0.00000000	-11.02362000	-7.47416300
114.09999340	0.00000000	-11.02362000	-7.84940900
114.29999339	0.00000000	-10.69144000	-7.93553100
114.49999338	0.00000000	-10.27928000	-8.31077700
114.69999337	0.00000000	-10.27313000	-9.05511800
114.89999336	0.00000000	-9.86097400	-9.43036400
115.09999334	0.00000000	-9.52879000	-9.47342500
115.29999333	0.00000000	-9.48572700	-9.43036400
115.49999332	0.00000000	-9.48572700	-9.05511800
115.69999331	0.00000000	-9.48572700	-8.26771600
115.89999330	0.00000000	-9.48572700	-7.51722400
116.09999328	0.00000000	-9.52879000	-6.68676100
116.29999327	0.00000000	-9.90403500	-5.93626900
116.49999326	0.00000000	-10.64838000	-5.15501900
116.69999325	0.00000000	-11.02362000	-4.82898600
116.89999324	0.00000000	-11.06668000	-5.15501900
117.09999322	0.00000000	-11.02362000	-5.93626900
117.29999321	0.00000000	-10.64838000	-6.72982200
117.49999320	0.00000000	-9.86097400	-7.89247000
117.69999319	0.00000000	-9.11048200	-9.00590400
117.89999318	0.00000000	-8.32308000	-9.43036400
118.09999317	0.00000000	-7.99704600	-9.43036400
118.29999315	0.00000000	-8.32308000	-9.05511800
118.49999314	0.00000000	-9.11048200	-8.26771600
118.69999313	0.00000000	-9.90403500	-7.51722400
118.89999312	0.00000000	-11.06668000	-6.72982200
119.09999311	0.00000000	-12.18012000	-6.31151500
119.29999309	0.00000000	-12.60458000	-5.93626900
119.49999308	0.00000000	-12.60458000	-5.57332700
119.69999307	0.00000000	-12.22933000	-5.93626900
119.89999306	0.00000000	-11.44193000	-6.31151500
120.09999305	0.00000000	-10.64838000	-6.72982200
120.29999303	0.00000000	-9.48572700	-7.47416300
120.49999302	0.00000000	-8.32308000	-7.84940900
120.69999301	0.00000000	-7.57258800	-7.89247000
120.89999300	0.00000000	-7.16043300	-7.89247000
121.09999299	0.00000000	-7.62180000	-7.89247000
121.29999298	0.00000000	-8.69832600	-7.89247000
121.49999296	0.00000000	-10.27313000	-7.89247000
121.69999295	0.00000000	-11.39887000	-7.89247000
121.89999294	0.00000000	-12.27239000	-7.89247000
122.09999293	0.00000000	-12.93061000	-7.84940900
122.29999292	0.00000000	-13.01673000	-7.47416300
122.49999290	0.00000000	-12.23548000	-6.72982200
122.69999289	0.00000000	-11.85408000	-6.35457700
122.89999288	0.00000000	-11.02362000	-6.31151500
123.09999287	0.00000000	-9.90403500	-6.31151500
123.29999286	0.00000000	-9.11048200	-6.31151500
123.49999284	0.00000000	-8.32308000	-6.35457700
123.69999283	0.00000000	-7.99704600	-6.72982200
123.89999282	0.00000000	-8.32308000	-7.47416300
124.09999281	0.00000000	-9.11048200	-7.84940900
124.29999280	0.00000000	-9.86097400	-7.93553100
124.49999279	0.00000000	-10.64838000	-8.31077700
124.69999277	0.00000000	-11.02362000	-9.00590400
124.89999276	0.00000000	-11.10974000	-9.00590400
125.09999275	0.00000000	-11.48499000	-8.26771600
125.29999274	0.00000000	-12.18012000	-7.51722400
125.49999273	0.00000000	-12.18012000	-6.72982200
125.69999271	0.00000000	-11.44193000	-6.35457700
125.89999270	0.00000000	-10.69144000	-6.31151500
126.09999269	0.00000000	-9.90403500	-6.31151500
126.29999268	0.00000000	-9.48572700	-6.31151500
126.49999267	0.00000000	-9.06742000	-6.35457700
126.69999265	0.00000000	-8.37229300	-6.72982200
126.89999264	0.00000000	-8.37229300	-7.47416300
127.09999263	0.00000000	-9.11048200	-7.84940900
127.29999262	0.00000000	-9.90403500	-7.93553100
127.49999261	0.00000000	-11.06668000	-8.26771600
127.69999260	0.00000000	-12.18012000	-8.63681000
127.89999258	0.00000000	-12.60458000	-8.26771600
128.09999257	0.00000000	-12.60458000	-7.89247000
128.29999256	0.00000000	-12.18012000	-7.47416300
128.49999255	0.00000000	-11.02362000	-6.72982200
128.69999254	0.00000000	-9.52879000	-6.35457700
128.89999252	0.00000000	-8.37229300	-6.31151500
129.09999251	0.00000000	-7.94783400	-6.31151500
129.29999250	0.00000000	-7.94783400	-6.35457700
129.49999249	0.00000000	-8.37229300	-6.72982200
129.69999248	0.00000000	-9.48572700	-7.47416300
129.89999246	0.00000000	-10.64838000	-7.84940900
130.09999245	0.00000000	-11.44193000	-7.89247000
130.29999244	0.00000000	-12.22933000	-7.89247000
130.49999243	0.00000000	-12.55536000	-7.84940900
130.69999242	0.00000000	-12.18012000	-7.47416300
130.89999241	0.00000000	-11.06668000	-6.72982200
131.09999239	0.00000000	-9.95324800	-6.35457700
131.29999238	0.00000000	-9.48572700	-6.35457700
131.49999237	0.00000000	-9.11048200	-6.72982200
131.69999236	0.00000000	-8.74138700	-7.47416300
131.89999235	0.00000000	-9.15354300	-7.89247000
132.09999233	0.00000000	-9.86097400	-8.31077700
132.29999232	0.00000000	-10.64838000	-9.05511800
132.49999231	0.00000000	-11.02362000	-9.38115100
132.69999230	0.00000000	-11.06668000	-9.05511800
132.89999229	0.00000000	-11.06668000	-8.26771600
133.09999227	0.00000000	-11.06668000	-7.51722400
133.29999226	0.00000000	-11.02362000	-6.72982200
133.49999225	0.00000000	-10.64838000	-6.35457700
133.69999224	0.00000000	-9.90403500	-6.31151500
133.89999223	0.00000000	-9.57800100	-6.35457700
134.09999222	0.00000000	-9.90403500	-6.72982200
134.29999220	0.00000000	-10.64838000	-7.47416300
134.49999219	0.00000000	-11.02362000	-7.89247000
134.69999218	0.00000000	-11.02362000	-8.31077700
134.89999217	0.00000000	-10.64838000	-9.05511800
135.09999216	0.00000000	-9.90403500	-9.38115100
135.29999214	0.00000000	-9.52879000	-9.05511800
135.49999213	0.00000000	-9.48572700	-8.31077700
135.69999212	0.00000000	-9.52879000	-7.89247000
135.89999211	0.00000000	-9.90403500	-7.47416300
136.09999210	0.00000000	-10.64838000	-6.72982200
136.29999208	0.00000000	-11.02362000	-6.35457700
136.49999207	0.00000000	-11.10974000	-6.31151500
136.69999206	0.00000000	-11.44193000	-6.31151500
136.89999205	0.00000000	-11.81102000	-6.35457700
137.09999204	0.00000000	-11.39887000	-6.72982200
137.29999203	0.00000000	-10.69144000	-7.47416300
137.49999201	0.00000000	-9.90403500	-7.89247000
137.69999200	0.00000000	-9.52879000	-8.31077700
137.89999199	0.00000000	-9.48572700	-9.00590400
138.09999198	0.00000000	-9.48572700	-9.05511800
138.29999197	0.00000000	-9.52879000	-8.68602300
138.49999195	0.00000000	-9.90403500	-8.67987200
138.69999194	0.00000000	-10.64838000	-8.26771600
138.89999193	0.00000000	-11.06668000	-7.89247000
139.09999192	0.00000000	-11.44193000	-7.47416300
139.29999191	0.00000000	-11.81102000	-6.72982200
139.49999189	0.00000000	-11.39887000	-6.35457700
139.69999188	0.00000000	-10.69144000	-6.31151500
139.89999187	0.00000000	-9.90403500	-6.31151500
140.09999186	0.00000000	-9.52879000	-6.35457700
140.29999185	0.00000000	-9.48572700	-6.72982200
140.49999184	0.00000000	-9.48572700	-7.47416300
140.69999182	0.00000000	-9.52879000	-7.89247000
140.89999181	0.00000000	-9.90403500	-8.31077700
141.09999180	0.00000000	-10.64838000	-9.00590400
141.29999179	0.00000000	-11.02362000	-9.00590400
141.49999178	0.00000000	-11.06668000	-8.26771600
141.69999176	0.00000000	-11.06668000	-7.51722400
141.89999175	0.00000000	-11.02362000	-6.72982200
142.09999174	0.00000000	-10.64838000	-6.35457700
142.29999173	0.00000000	-9.90403500	-6.26845500
142.49999172	0.00000000	-9.52879000	-5.93626900
142.69999170	0.00000000	-9.48572700	-5.57332700
142.89999169	0.00000000	-9.48572700	-5.98548200
143.09999168	0.00000000	-9.48572700	-6.72982200
143.29999167	0.00000000	-9.52879000	-7.89247000
143.49999166	0.00000000	-9.90403500	-9.00590400
143.69999165	0.00000000	-10.64838000	-9.43036400
143.89999163	0.00000000	-11.02362000	-9.43036400
144.09999162	0.00000000	-11.02362000	-9.05511800
144.29999161	0.00000000	-10.64838000	-8.26771600
144.49999160	0.00000000	-9.90403500	-7.51722400
144.69999159	0.00000000	-9.52879000	-6.72982200
144.89999157	0.00000000	-9.48572700	-6.31151500
145.09999156	0.00000000	-9.52879000	-5.93626900
145.29999155	0.00000000	-9.90403500	-5.57332700
145.49999154	0.00000000	-10.64838000	-5.98548200
145.69999153	0.00000000	-11.02362000	-6.68676100
145.89999151	0.00000000	-11.06668000	-7.47416300
146.09999150	0.00000000	-11.06668000	-7.89247000
146.29999149	0.00000000	-11.06668000	-8.31077700
146.49999148	0.00000000	-11.02362000	-9.00590400
146.69999147	0.00000000	-10.64838000	-9.00590400
146.89999146	0.00000000	-9.90403500	-8.31077700
147.09999144	0.00000000	-9.52879000	-7.89247000
147.29999143	0.00000000	-9.48572700	-7.47416300
147.49999142	0.00000000	-9.48572700	-6.72982200
147.69999141	0.00000000	-9.52879000	-6.35457700
147.89999140	0.00000000	-9.90403500	-6.31151500
148.09999138	0.00000000	-10.64838000	-6.31151500
148.29999137	0.00000000	-11.02362000	-6.35457700
148.49999136	0.00000000	-11.06668000	-6.72982200
148.69999135	0.00000000	-11.06668000	-7.47416300
148.89999134	0.00000000	-11.06668000	-7.84940900
149.09999132	0.00000000	-11.02362000	-7.93553100
149.29999131	0.00000000	-10.64838000	-8.26771600
149.49999130	0.00000000	-9.90403500	-8.63681000
149.69999129	0.00000000	-9.52879000	-8.26771600
149.89999128	0.00000000	-9.48572700	-7.93553100
150.09999127	0.00000000	-9.48572700	-7.84940900
150.29999125	0.00000000	-9.52879000	-7.47416300
150.49999124	0.00000000	-9.90403500	-6.72982200
150.69999123	0.00000000	-10.64838000	-6.35457700
150.89999122	0.00000000	-11.02362000	-6.31151500
151.09999121	0.00000000	-11.06668000	-6.35457700
151.29999119	0.00000000	-11.06668000	-6.72982200
151.49999118	0.00000000	-11.06668000	-7.47416300
151.69999117	0.00000000	-11.06668000	-7.84940900
151.89999116	0.00000000	-11.02362000	-7.89247000
152.09999115	0.00000000	-10.69144000	-7.89247000
152.29999113	0.00000000	-10.27928000	-7.89247000
152.49999112	0.00000000	-10.27313000	-7.89247000
152.69999111	0.00000000	-9.86097400	-7.89247000
152.89999110	0.00000000	-9.52879000	-7.89247000
153.09999109	0.00000000	-9.52879000	-7.89247000
153.29999108	0.00000000	-9.90403500	-7.84940900
153.49999106	0.00000000	-10.64838000	-7.47416300
153.69999105	0.00000000	-11.02362000	-6.72982200
153.89999104	0.00000000	-11.10974000	-6.40378900
154.09999103	0.00000000	-11.39887000	-6.68676100
154.29999102	0.00000000	-11.43578000	-7.09891700
154.49999100	0.00000000	-10.69759000	-7.10506800
154.69999099	0.00000000	-10.69144000	-7.47416300
154.89999098	0.00000000	-10.59916000	-7.47416300
155.09999097	0.00000000	-9.90403500	-7.14812900
155.29999096	0.00000000	-9.52879000	-7.51722400
155.49999094	0.00000000	-9.48572700	-7.84940900
155.69999093	0.00000000	-9.48572700	-7.89247000
155.89999092	0.00000000	-9.48572700	-7.89247000
156.09999091	0.00000000	-9.52879000	-7.89247000
156.29999090	0.00000000	-9.90403500	-7.89247000
156.49999089	0.00000000	-10.64838000	-7.84940900
156.69999087	0.00000000	-11.02362000	-7.47416300
156.89999086	0.00000000	-11.06668000	-6.72982200
157.09999085	0.00000000	-11.06668000	-6.35457700
157.29999084	0.00000000	-11.06668000	-6.31151500
157.49999083	0.00000000	-11.06668000	-6.35457700
157.69999081	0.00000000	-11.06668000	-6.72982200
157.89999080	0.00000000	-11.02362000	-7.47416300
158.09999079	0.00000000	-10.64838000	-7.84940900
158.29999078	0.00000000	-9.90403500	-7.89247000
158.49999077	0.00000000	-9.52879000	-7.89247000
158.69999075	0.00000000	-9.48572700	-7.89247000
158.89999074	0.00000000	-9.52879000	-7.89247000
159.09999073	0.00000000	-9.86097400	-7.89247000
159.29999072	0.00000000	-10.27313000	-7.89247000
159.49999071	0.00000000	-10.27928000	-7.84940900
159.69999070	0.00000000	-10.69144000	-7.47416300
159.89999068	0.00000000	-11.02362000	-6.72982200
160.09999067	0.00000000	-11.06668000	-6.35457700
160.29999066	0.00000000	-11.06668000	-6.35457700
160.49999065	0.00000000	-11.06668000	-6.72982200
160.69999064	0.00000000	-11.06668000	-7.47416300
160.89999062	0.00000000	-11.06668000	-7.84940900
161.09999061	0.00000000	-11.06668000	-7.89247000
161.29999060	0.00000000	-11.06668000	-7.89247000
161.49999059	0.00000000	-11.02362000	-7.89247000
161.69999058	0.00000000	-10.64838000	-7.89247000
161.89999056	0.00000000	-9.90403500	-7.89247000
162.09999055	0.00000000	-9.52879000	-7.84940900
162.29999054	0.00000000	-9.48572700	-7.51722400
162.49999053	0.00000000	-9.48572700	-7.10506800
162.69999052	0.00000000	-9.52879000	-7.09891700
162.89999051	0.00000000	-9.90403500	-6.68676100
163.09999049	0.00000000	-10.64838000	-6.35457700
163.29999048	0.00000000	-11.02362000	-6.35457700
163.49999047	0.00000000	-11.06668000	-6.72982200
163.69999046	0.00000000	-11.06668000	-7.47416300
163.89999045	0.00000000	-11.06668000	-7.84940900
164.09999043	0.00000000	-11.06668000	-7.89247000
164.29999042	0.00000000	-11.06668000	-7.89247000
164.49999041	0.00000000	-11.02362000	-7.89247000
164.69999040	0.00000000	-10.64838000	-7.89247000
164.89999039	0.00000000	-9.90403500	-7.89247000
165.09999037	0.00000000	-9.52879000	-7.89247000
165.29999036	0.00000000	-9.48572700	-7.89247000
165.49999035	0.00000000	-9.48572700	-7.89247000
165.69999034	0.00000000	-9.52879000	-7.89247000
165.89999033	0.00000000	-9.90403500	-7.89247000
166.09999032	0.00000000	-10.64838000	-7.89247000
166.29999030	0.00000000	-11.02362000	-7.89247000
166.49999029	0.00000000	-11.06668000	-7.89247000
166.69999028	0.00000000	-11.06668000	-7.89247000
166.89999027	0.00000000	-11.06668000	-7.89247000
167.09999026	0.00000000	-11.06668000	-7.89247000
167.29999024	0.00000000	-11.06668000	-7.89247000
167.49999023	0.00000000	-11.06668000	-7.89247000
167.69999022	0.00000000	-11.02362000	-7.89247000
167.89999021	0.00000000	-10.64838000	-7.89247000
168.09999020	0.00000000	-9.90403500	-7.89247000
168.29999018	0.00000000	-9.52879000	-7.89247000
168.49999017	0.00000000	-9.52879000	-7.89247000
168.69999016	0.00000000	-9.90403500	-7.89247000
168.89999015	0.00000000	-10.64838000	-7.89247000
169.09999014	0.00000000	-11.02362000	-7.89247000
169.29999013	0.00000000	-11.06668000	-7.89247000
169.49999011	0.00000000	-11.02362000	-7.89247000
169.69999010	0.00000000	-10.69144000	-7.89247000
169.89999009	0.00000000	-10.32234000	-7.89247000
170.09999008	0.00000000	-10.69144000	-7.89247000
170.29999007	0.00000000	-11.02362000	-7.89247000
170.49999005	0.00000000	-11.06668000	-7.89247000
170.69999004	0.00000000	-11.02362000	-7.89247000
170.89999003	0.00000000	-10.64838000	-7.89247000
171.09999002	0.00000000	-9.90403500	-7.89247000
171.29999001	0.00000000	-9.52879000	-7.89247000
171.49998999	0.00000000	-9.52879000	-7.89247000
171.69998998	0.00000000	-9.90403500	-7.89247000
171.89998997	0.00000000	-10.64838000	-7.89247000
172.09998996	0.00000000	-11.02362000	-7.89247000
172.29998995	0.00000000	-11.06668000	-7.89247000
172.49998994	0.00000000	-11.06668000	-7.89247000
172.69998992	0.00000000	-11.06668000	-7.89247000
172.89998991	0.00000000	-11.06668000	-7.84940900
173.09998990	0.00000000	-11.06668000	-7.51722400
173.29998989	0.00000000	-11.06668000	-7.14812900
173.49998988	0.00000000	-11.06668000	-7.51722400
173.69998986	0.00000000	-11.06668000	-7.84940900
173.89998985	0.00000000	-11.02362000	-7.89247000
174.09998984	0.00000000	-10.69144000	-7.89247000
174.29998983	0.00000000	-10.27928000	-7.89247000
174.49998982	0.00000000	-10.31619000	-7.89247000
174.69998980	0.00000000	-10.27928000	-7.89247000
174.89998979	0.00000000	-10.69144000	-7.89247000
175.09998978	0.00000000	-11.02362000	-7.89247000
175.29998977	0.00000000	-11.02362000	-7.89247000
175.49998976	0.00000000	-10.69144000	-7.89247000
175.69998975	0.00000000	-10.32234000	-7.89247000
175.89998973	0.00000000	-10.69144000	-7.89247000
176.09998972	0.00000000	-11.02362000	-7.89247000
176.29998971	0.00000000	-11.06668000	-7.89247000
176.49998970	0.00000000	-11.02362000	-7.89247000
176.69998969	0.00000000	-10.69144000	-7.89247000
176.89998967	0.00000000	-10.32234000	-7.89247000
177.09998966	0.00000000	-10.64838000	-7.89247000
177.29998965	0.00000000	-10.64838000	-7.89247000
177.49998964	0.00000000	-10.32234000	-7.89247000
177.69998963	0.00000000	-10.69144000	-7.89247000
177.89998961	0.00000000	-11.02362000	-7.89247000
178.09998960	0.00000000	-11.06668000	-7.89247000
178.29998959	0.00000000	-11.02362000	-7.89247000
178.49998958	0.00000000	-10.69144000	-7.89247000
178.69998957	0.00000000	-10.32234000	-7.84940900
178.89998956	0.00000000	-10.64838000	-7.47416300
179.09998954	0.00000000	-10.64838000	-6.77903500
179.29998953	0.00000000	-10.32234000	-6.77903500
179.49998952	0.00000000	-10.69144000	-7.47416300
179.69998951	0.00000000	-10.97441000	-7.84940900
179.89998950	0.00000000	-10.64838000	-7.89247000
180.09998948	0.00000000	-9.95324800	-7.89247000
180.29998947	0.00000000	-9.95324800	-7.89247000
180.49998946	0.00000000	-10.64838000	-7.89247000
180.69998945	0.00000000	-11.02362000	-7.89247000
180.89998944	0.00000000	-11.06668000	-7.89247000
181.09998942	0.00000000	-11.06668000	-7.89247000
181.29998941	0.00000000	-11.06668000	-7.84940900
181.49998940	0.00000000	-11.06668000	-7.47416300
181.69998939	0.00000000	-11.06668000	-6.77903500
181.89998938	0.00000000	-11.02362000	-6.77903500
182.09998937	0.00000000	-10.69144000	-7.42495000
182.29998935	0.00000000	-10.32234000	-7.47416300
182.49998934	0.00000000	-10.64838000	-7.14812900
182.69998933	0.00000000	-10.64838000	-7.51722400
182.89998932	0.00000000	-10.32234000	-7.84940900
183.09998931	0.00000000	-10.69144000	-7.89247000
183.29998929	0.00000000	-11.02362000	-7.89247000
183.49998928	0.00000000	-11.06668000	-7.89247000
183.69998927	0.00000000	-11.06668000	-7.89247000
183.89998926	0.00000000	-11.06668000	-7.89247000
184.09998925	0.00000000	-11.06668000	-7.84940900
184.29998923	0.00000000	-11.06668000	-7.51722400
184.49998922	0.00000000	-11.06668000	-7.10506800
184.69998921	0.00000000	-11.06668000	-7.09891700
184.89998920	0.00000000	-11.06668000	-6.68676100
185.09998919	0.00000000	-11.06668000	-6.35457700
185.29998918	0.00000000	-11.06668000	-6.35457700
185.49998916	0.00000000	-11.06668000	-6.72982200
185.69998915	0.00000000	-11.06668000	-7.47416300
185.89998914	0.00000000	-11.06668000	-7.89247000
186.09998913	0.00000000	-11.06668000	-8.26771600
186.29998912	0.00000000	-11.02362000	-8.63681000
186.49998910	0.00000000	-10.69144000	-8.26771600
186.69998909	0.00000000	-10.32234000	-7.93553100
186.89998908	0.00000000	-10.69144000	-7.89247000
187.09998907	0.00000000	-11.02362000	-7.89247000
187.29998906	0.00000000	-11.06668000	-7.89247000
187.49998904	0.00000000	-11.06668000	-7.84940900
187.69998903	0.00000000	-11.06668000	-7.47416300
187.89998902	0.00000000	-11.06668000	-6.72982200
188.09998901	0.00000000	-11.06668000	-6.40378900
188.29998900	0.00000000	-11.06668000	-6.72982200
188.49998899	0.00000000	-11.06668000	-7.47416300
188.69998897	0.00000000	-11.06668000	-7.84940900
188.89998896	0.00000000	-11.06668000	-7.89247000
189.09998895	0.00000000	-11.06668000	-7.89247000
189.29998894	0.00000000	-11.06668000	-7.89247000
189.49998893	0.00000000	-11.06668000	-7.89247000
189.69998891	0.00000000	-11.06668000	-7.89247000
189.89998890	0.00000000	-11.06668000	-7.84940900
190.09998889	0.00000000	-11.06668000	-7.47416300
190.29998888	0.00000000	-11.06668000	-6.72982200
190.49998887	0.00000000	-11.06668000	-6.35457700
190.69998885	0.00000000	-11.06668000	-6.31151500
190.89998884	0.00000000	-11.06668000	-6.35457700
191.09998883	0.00000000	-11.06668000	-6.72982200
191.29998882	0.00000000	-11.06668000	-7.47416300
191.49998881	0.00000000	-11.06668000	-7.84940900
191.69998880	0.00000000	-11.02362000	-7.89247000
191.89998878	0.00000000	-10.64838000	-7.89247000
192.09998877	0.00000000	-9.95324800	-7.89247000
192.29998876	0.00000000	-9.95324800	-7.89247000
192.49998875	0.00000000	-10.64838000	-7.89247000
192.69998874	0.00000000	-11.02362000	-7.89247000
192.89998872	0.00000000	-11.06668000	-7.89247000
193.09998871	0.00000000	-11.06668000	-7.89247000
193.29998870	0.00000000	-11.06668000	-7.89247000
193.49998869	0.00000000	-11.06668000	-7.89247000
193.69998868	0.00000000	-11.06668000	-7.89247000
193.89998866	0.00000000	-11.06668000	-7.89247000
194.09998865	0.00000000	-11.06668000	-7.84940900
194.29998864	0.00000000	-11.02362000	-7.51722400
194.49998863	0.00000000	-10.64838000	-7.14812900
194.69998862	0.00000000	-9.95324800	-7.51722400
194.89998861	0.00000000	-9.95324800	-7.84940900
195.09998859	0.00000000	-10.64838000	-7.89247000
195.29998858	0.00000000	-11.02362000	-7.89247000
195.49998857	0.00000000	-11.06668000	-7.89247000
195.69998856	0.00000000	-11.06668000	-7.89247000
195.89998855	0.00000000	-11.06668000	-7.89247000
196.09998853	0.00000000	-11.06668000	-7.89247000
