Time	Channel A	Channel B	Channel C
(us)	(V)	(mV)	(mV)

-4.49999956	0.00000000	34.41191000	11.79257000
-4.29999957	0.00000000	34.74409000	11.42347000
-4.09999958	0.00000000	34.78716000	11.09129000
-3.89999959	0.00000000	34.78716000	11.09129000
-3.69999960	0.00000000	34.78716000	11.42347000
-3.49999962	0.00000000	34.78716000	11.79257000
-3.29999963	0.00000000	34.78716000	11.42347000
-3.09999964	0.00000000	34.78716000	11.09129000
-2.89999965	0.00000000	34.78716000	11.04823000
-2.69999966	0.00000000	34.78716000	11.04823000
-2.49999968	0.00000000	34.78716000	11.04823000
-2.29999969	0.00000000	34.78716000	11.04823000
-2.09999970	0.00000000	34.78716000	11.04823000
-1.89999971	0.00000000	34.78716000	11.09129000
-1.69999972	0.00000000	34.78716000	11.42347000
-1.49999973	0.00000000	34.78716000	11.79257000
-1.29999975	0.00000000	34.74409000	11.42347000
-1.09999976	0.00000000	34.41191000	11.14050000
-0.89999977	0.00000000	34.04282000	11.42347000
-0.69999978	0.00000000	34.41191000	11.83563000
-0.49999979	0.00000000	34.74409000	11.79872000
-0.29999981	0.31803640	34.78716000	11.87869000
-0.09999982	0.63668800	34.78716000	11.84178000
0.10000017	0.95533960	34.78716000	12.21087000
0.30000016	0.95533960	34.74409000	12.16166000
0.50000015	0.79601380	34.41191000	11.46653000
0.70000013	0.31803640	33.99975000	11.04823000
0.90000012	-0.63668800	34.03666000	10.67298000
1.10000011	-1.59264300	33.99975000	10.35310000
1.30000010	-2.38927200	34.41191000	11.09744000
1.50000009	-2.86724900	34.74409000	12.16166000
1.70000008	-2.38927200	34.78716000	12.53691000
1.90000006	-1.11466500	34.78716000	12.25394000
2.10000005	0.63668800	34.78716000	11.88484000
2.30000004	2.86724900	34.78716000	12.21087000
2.50000003	4.61921700	34.78716000	12.16166000
2.70000002	5.41584600	34.74409000	11.46653000
2.90000000	4.77854300	34.41191000	11.09129000
3.09999999	2.70792300	33.99975000	11.00517000
3.29999998	-0.31803640	33.98745000	10.67298000
3.49999997	-3.82258900	33.61835000	10.35310000
3.69999996	-6.53112700	33.66756000	11.09744000
3.89999994	-7.96444400	34.36884000	12.16166000
4.09999993	-7.32714100	34.74409000	12.58612000
4.29999992	-4.77854300	34.78716000	12.62918000
4.49999991	-0.79601380	34.78716000	12.62918000
4.69999990	3.66326300	34.78716000	12.62918000
4.89999989	7.32714100	34.78716000	12.58612000
5.09999987	9.23905000	34.74409000	12.21087000
5.29999986	8.92039900	34.36884000	11.46653000
5.49999985	6.37180100	33.66756000	11.09129000
5.69999984	2.07062000	33.61835000	11.04823000
5.89999983	-2.70792300	33.98745000	11.04823000
6.09999981	-6.84916400	33.99975000	11.04823000
6.29999980	-9.23905000	34.41191000	11.09129000
6.49999979	-9.23905000	34.74409000	11.46653000
6.69999978	-7.00848900	34.78716000	12.21087000
6.89999977	-3.18590100	34.78716000	12.58612000
7.09999975	1.27399100	34.78716000	12.58612000
7.29999974	5.09719500	34.74409000	12.21087000
7.49999973	7.32714100	34.41191000	11.46653000
7.69999972	7.64579200	34.04282000	11.09129000
7.89999971	6.05315000	34.36884000	11.04823000
8.09999970	3.18590100	34.31963000	11.04823000
8.29999968	-0.15871060	33.66756000	11.09129000
8.49999967	-3.02657500	33.66756000	11.46653000
8.69999966	-4.77854300	34.36884000	12.21087000
8.89999965	-5.25652100	34.74409000	12.58612000
9.09999964	-4.30056600	34.78716000	12.62918000
9.29999962	-2.54859700	34.78716000	12.62918000
9.49999961	-0.47736220	34.78716000	12.58612000
9.69999960	1.27399100	34.78716000	12.21087000
9.89999959	2.22994600	34.74409000	11.46653000
10.09999958	2.54859700	34.41191000	11.09129000
10.29999956	2.22994600	33.99975000	11.04823000
10.49999955	1.43331700	33.98745000	11.04823000
10.69999954	0.47736220	33.61835000	11.04823000
10.89999953	-0.31803640	33.61835000	11.04823000
11.09999952	-0.79601380	33.94439000	11.04823000
11.29999951	-0.95533960	33.57529000	11.04823000
11.49999949	-0.95533960	33.29232000	11.04823000
11.69999948	-0.63668800	33.61835000	11.04823000
11.89999947	-0.31803640	34.31963000	11.04823000
12.09999946	-0.15871060	34.36884000	11.04823000
12.29999945	-0.15871060	33.99975000	11.04823000
12.49999943	-0.15871060	33.98745000	11.04823000
12.69999942	0.00000000	33.57529000	11.04823000
12.89999941	0.00000000	33.29232000	11.04823000
13.09999940	0.00000000	33.61835000	11.04823000
13.29999939	0.00000000	34.36884000	11.04823000
13.49999937	0.00000000	34.74409000	11.04823000
13.69999936	0.00000000	34.74409000	11.04823000
13.89999935	0.00000000	34.41191000	11.09129000
14.09999934	-0.15871060	34.04282000	11.46653000
14.29999933	-0.15871060	34.36884000	12.16166000
14.49999932	-0.15871060	34.36884000	12.16166000
14.69999930	0.00000000	34.04282000	11.55881000
14.89999929	0.00000000	34.41191000	11.84178000
15.09999928	0.00000000	34.69488000	12.57382000
15.29999927	0.00000000	34.41191000	12.21703000
15.49999926	0.00000000	33.99975000	12.29700000
15.69999924	0.00000000	33.98745000	12.53691000
15.89999923	0.00000000	33.57529000	12.25394000
16.09999922	0.00000000	33.29232000	11.88484000
16.29999921	-0.15871060	33.61835000	12.25394000
16.49999920	0.00000000	34.36884000	12.58612000
16.69999919	-0.15871060	34.74409000	12.62918000
16.89999917	0.00000000	34.83022000	12.62918000
17.09999916	0.00000000	35.20546000	12.58612000
17.29999915	0.00000000	35.94980000	12.21087000
17.49999914	0.00000000	36.27584000	11.46653000
17.69999913	0.00000000	35.94980000	11.09129000
17.89999911	0.00000000	35.16240000	11.04823000
18.09999910	0.00000000	34.41191000	11.04823000
18.29999909	0.00000000	33.48917000	11.04823000
18.49999908	0.00000000	31.98819000	11.09129000
18.69999907	0.00000000	29.71826000	11.46653000
18.89999905	0.00000000	28.63558000	12.21087000
19.09999904	0.00000000	28.92470000	12.53691000
19.29999903	0.00000000	30.17347000	12.25394000
19.49999902	0.00000000	32.54798000	11.88484000
19.69999901	0.00000000	36.41117000	12.21087000
19.89999900	0.00000000	40.60039000	12.16166000
20.09999898	0.00000000	43.71924000	11.46653000
20.29999897	0.00000000	45.25713000	11.09129000
20.49999896	0.00000000	44.74655000	11.04823000
20.69999895	0.00000000	41.20940000	11.04823000
20.89999894	0.00000000	34.65182000	11.04823000
21.09999892	0.00000000	26.92544000	11.04823000
21.29999891	0.00000000	19.56816000	11.04823000
21.49999890	0.00000000	14.22244000	11.04823000
21.69999889	0.00000000	12.77682000	11.04823000
21.89999888	0.00000000	16.31397000	11.04823000
22.09999886	0.00000000	24.82775000	11.04823000
22.29999885	0.00000000	36.45423000	11.04823000
22.49999884	0.00000000	48.83735000	11.04823000
22.69999883	0.00000000	59.58415000	11.04823000
22.89999882	0.00000000	65.30511000	11.09129000
23.09999881	0.00000000	64.09940000	11.46653000
23.29999879	0.00000000	55.86245000	12.21087000
23.49999878	0.00000000	41.16019000	12.58612000
23.69999877	0.00000000	23.06225000	12.67224000
23.89999876	0.00000000	6.45300100	13.00443000
24.09999875	0.00000000	-5.13041300	13.37352000
24.29999873	0.00000000	-8.85826700	12.96137000
24.49999872	0.00000000	-2.57751000	12.16166000
24.69999871	0.00000000	13.24434000	10.58686000
24.89999870	0.00000000	34.83022000	8.35383800
25.09999869	0.00000000	56.88361000	6.82209600
25.29999867	0.00000000	74.61245000	6.35457700
25.49999866	0.00000000	83.82751000	6.40378900
25.69999865	0.00000000	81.45914000	7.28346400
25.89999864	0.00000000	67.96260000	10.02707000
26.09999863	0.00000000	46.32751000	14.21014000
26.29999862	0.00000000	21.57357000	18.43627000
26.49999860	0.00000000	-0.80585630	21.54897000
26.69999859	0.00000000	-15.83415000	23.08686000
26.89999858	0.00000000	-19.32210000	22.61934000
27.09999857	0.00000000	-10.85753000	19.46358000
27.29999856	0.00000000	7.33882900	13.65650000
27.49999854	0.00000000	31.61909000	6.31766700
27.69999853	0.00000000	55.95472000	-1.02116100
27.89999852	0.00000000	74.52632000	-6.74212600
28.09999851	0.00000000	83.87056000	-9.01205700
28.29999850	0.00000000	81.92052000	-6.64985200
28.49999848	0.00000000	69.62967000	-0.04921259
28.69999847	0.00000000	49.90772000	10.07013000
28.89999846	0.00000000	27.52214000	22.01649000
29.09999845	0.00000000	7.38188900	33.16314000
29.29999844	0.00000000	-6.15772600	40.41584000
29.49999843	0.00000000	-10.48228000	41.57849000
29.69999841	0.00000000	-5.13041300	36.05438000
29.89999840	0.00000000	7.98474400	24.47712000
30.09999839	0.00000000	25.76279000	8.68602300
30.29999838	0.00000000	44.32209000	-6.74212600
30.49999837	0.00000000	59.44881000	-18.77460000
30.69999835	0.00000000	68.38091000	-25.27682000
30.89999834	0.00000000	69.58661000	-24.07111000
31.09999833	0.00000000	63.02903000	-15.19439000
31.29999832	0.00000000	50.73819000	-0.46751960
31.49999831	0.00000000	35.66683000	17.32283000
31.69999829	0.00000000	21.70891000	34.65182000
31.89999828	0.00000000	11.19587000	47.38558000
32.09999827	0.00000000	5.75787400	52.40526000
32.29999826	0.00000000	6.53912400	48.91732000
32.49999825	0.00000000	13.05979000	37.34621000
32.69999824	0.00000000	23.84965000	20.39247000
32.89999822	0.00000000	35.81446000	2.17765700
33.09999821	0.00000000	46.27829000	-14.08095000
33.29999820	0.00000000	53.25418000	-25.23376000
33.49999819	0.00000000	55.21038000	-28.29724000
33.69999818	0.00000000	52.18381000	-22.62549000
33.89999816	0.00000000	45.25713000	-10.23007000
34.09999815	0.00000000	36.36811000	5.99778500
34.29999814	0.00000000	27.47908000	23.40674000
34.49999813	0.00000000	20.54626000	37.63533000
34.69999812	0.00000000	17.47047000	45.80462000
34.89999810	0.00000000	18.96531000	46.17987000
35.09999809	0.00000000	24.26796000	38.92716000
35.29999808	0.00000000	31.20078000	26.19955000
35.49999807	0.00000000	37.77067000	11.14050000
35.69999806	0.00000000	42.79035000	-3.16806100
35.89999805	0.00000000	44.69734000	-13.57037000
36.09999803	0.00000000	43.20866000	-17.80266000
36.29999802	0.00000000	38.97638000	-14.77608000
36.49999801	0.00000000	33.24926000	-5.57947800
36.69999800	0.00000000	27.84818000	6.73597400
36.89999799	0.00000000	24.36024000	19.42052000
37.09999797	0.00000000	23.19759000	29.03543000
37.29999796	0.00000000	24.77854000	32.94168000
37.49999795	0.00000000	28.96776000	31.07775000
37.69999794	0.00000000	34.31963000	24.15723000
37.89999793	0.00000000	38.97638000	14.21014000
38.09999791	0.00000000	42.09522000	4.21998000
38.29999790	0.00000000	43.25172000	-3.03272600
38.49999789	0.00000000	42.09522000	-5.34571800
38.69999788	0.00000000	39.01944000	-1.91314000
38.89999787	0.00000000	34.78716000	5.70866100
39.09999786	0.00000000	30.50566000	15.28051000
39.29999784	0.00000000	27.01156000	23.68971000
39.49999783	0.00000000	24.68627000	28.29724000
39.69999782	0.00000000	24.26796000	27.87278000
39.89999781	0.00000000	25.43061000	22.15797000
40.09999780	0.00000000	27.80512000	12.96137000
40.29999778	0.00000000	31.66830000	3.38336600
40.49999777	0.00000000	35.90059000	-4.32455700
40.69999776	0.00000000	39.39468000	-7.72022600
40.89999775	0.00000000	41.76304000	-5.81323800
41.09999774	0.00000000	42.55659000	1.10728300
41.29999772	0.00000000	42.18134000	11.04823000
41.49999771	0.00000000	40.55733000	21.03838000
41.69999770	0.00000000	37.48154000	28.34030000
41.89999769	0.00000000	33.61835000	31.07775000
42.09999768	0.00000000	30.13041000	28.80167000
42.29999767	0.00000000	27.38681000	22.61934000
42.49999765	0.00000000	25.84892000	13.79183000
42.69999764	0.00000000	25.84892000	4.59522600
42.89999763	0.00000000	27.34375000	-2.00541300
43.09999762	0.00000000	29.66289000	-5.11195900
43.29999761	0.00000000	31.99434000	-4.32455700
43.49999759	0.00000000	34.36884000	0.59670270
43.69999758	0.00000000	36.27584000	7.47416300
43.89999757	0.00000000	37.43848000	14.07480000
44.09999756	0.00000000	37.48154000	19.50664000
44.29999755	0.00000000	36.78642000	22.57628000
44.49999753	0.00000000	36.41117000	22.61934000
44.69999752	0.00000000	36.36811000	19.97416000
44.89999751	0.00000000	36.36811000	15.78494000
45.09999750	0.00000000	36.32505000	11.51575000
45.29999749	0.00000000	35.85752000	7.98474400
45.49999748	0.00000000	34.27657000	5.29035400
45.69999746	0.00000000	31.57603000	4.12770700
45.89999745	0.00000000	28.50024000	4.91510800
46.09999744	0.00000000	25.76279000	7.14812900
46.29999743	0.00000000	23.89271000	10.25467000
46.49999742	0.00000000	23.52977000	12.95522000
46.69999740	0.00000000	25.52288000	15.32357000
46.89999739	0.00000000	29.38607000	16.81225000
47.09999738	0.00000000	34.87328000	16.85531000
47.29999737	0.00000000	41.01870000	15.69882000
47.49999736	0.00000000	46.41363000	13.74262000
47.69999734	0.00000000	49.44020000	11.04823000
47.89999733	0.00000000	49.02190000	8.35383800
48.09999732	0.00000000	44.74655000	6.40378900
48.29999731	0.00000000	37.39542000	5.29035400
48.49999730	0.00000000	28.54946000	5.70866100
48.69999729	0.00000000	20.45399000	7.98474400
48.89999727	0.00000000	15.42815000	11.04823000
49.09999726	0.00000000	14.26550000	14.16092000
49.29999725	0.00000000	17.42741000	16.85531000
49.49999724	0.00000000	24.73548000	18.39321000
49.69999723	0.00000000	34.36884000	18.39321000
49.89999721	0.00000000	43.62696000	16.85531000
50.09999720	0.00000000	50.55979000	14.11786000
50.29999719	0.00000000	53.21112000	10.62992000
50.49999718	0.00000000	50.55979000	6.77903500
50.69999717	0.00000000	43.67618000	3.75246000
50.89999715	0.00000000	34.78716000	2.59596400
51.09999714	0.00000000	25.89813000	3.75246000
51.29999713	0.00000000	19.00837000	6.82209600
51.49999712	0.00000000	16.31397000	11.04823000
51.69999711	0.00000000	18.54700000	15.27436000
51.89999710	0.00000000	24.31102000	18.39321000
52.09999708	0.00000000	32.03740000	19.93110000
52.29999707	0.00000000	40.08981000	19.55585000
52.49999706	0.00000000	45.81693000	17.23056000
52.69999705	0.00000000	47.39788000	13.79183000
52.89999704	0.00000000	44.74655000	9.93479300
53.09999702	0.00000000	39.01944000	6.86515700
53.29999701	0.00000000	32.08661000	5.29035400
53.49999700	0.00000000	25.94119000	5.29035400
53.69999699	0.00000000	22.08415000	6.82209600
53.89999698	0.00000000	21.65969000	9.47342500
54.09999696	0.00000000	24.36024000	12.16781000
54.29999695	0.00000000	29.34301000	14.11786000
54.49999694	0.00000000	35.48228000	15.23130000
54.69999693	0.00000000	40.46506000	14.85605000
54.89999692	0.00000000	43.20866000	13.00443000
55.09999691	0.00000000	43.16560000	11.09744000
55.29999689	0.00000000	40.08981000	9.55954600
55.49999688	0.00000000	34.73794000	8.82135800
55.69999687	0.00000000	29.06004000	9.60875900
55.89999686	0.00000000	25.15379000	11.51575000
56.09999685	0.00000000	23.94193000	14.16092000
56.29999683	0.00000000	24.68627000	16.39395000
56.49999682	0.00000000	27.42987000	16.76919000
56.69999681	0.00000000	31.66830000	15.27436000
56.89999680	0.00000000	36.27584000	12.49385000
57.09999679	0.00000000	40.08981000	8.67987200
57.29999677	0.00000000	41.67076000	4.50295200
57.49999676	0.00000000	40.93258000	2.26377900
57.69999675	0.00000000	38.64419000	2.59596400
57.89999674	0.00000000	35.16240000	5.29035400
58.09999673	0.00000000	31.71137000	9.56569900
58.29999672	0.00000000	28.96776000	14.62844000
58.49999670	0.00000000	27.42987000	19.97416000
58.69999669	0.00000000	27.42987000	23.73892000
58.89999668	0.00000000	28.96776000	24.10802000
59.09999667	0.00000000	31.61909000	21.03838000
59.29999666	0.00000000	34.27657000	15.23130000
59.49999664	0.00000000	35.85752000	7.93553100
59.69999663	0.00000000	36.32505000	1.06422200
59.89999662	0.00000000	36.27584000	-3.16190900
60.09999661	0.00000000	35.52534000	-3.58021600
60.29999660	0.00000000	33.99360000	-0.51673230
60.49999658	0.00000000	32.86786000	5.29035400
60.69999657	0.00000000	32.08661000	12.62918000
60.89999656	0.00000000	32.08661000	19.92495000
61.09999655	0.00000000	32.82480000	25.31373000
61.29999654	0.00000000	33.57529000	27.22072000
61.49999653	0.00000000	34.36884000	25.31373000
61.69999651	0.00000000	34.69488000	19.88189000
61.89999650	0.00000000	34.31963000	12.21087000
62.09999649	0.00000000	33.20005000	4.08464600
62.29999648	0.00000000	32.03740000	-2.42372000
62.49999647	0.00000000	31.24384000	-5.85629900
62.69999645	0.00000000	30.45644000	-4.69365100
62.89999644	0.00000000	30.13041000	0.59670270
63.09999643	0.00000000	30.54872000	7.93553100
63.29999642	0.00000000	32.08661000	15.64960000
63.49999641	0.00000000	34.31963000	22.20103000
63.69999639	0.00000000	35.90059000	25.73203000
63.89999638	0.00000000	36.70029000	26.10728000
64.09999637	0.00000000	37.06324000	23.40674000
64.29999636	0.00000000	36.23277000	17.60581000
64.49999635	0.00000000	34.36884000	10.76525000
64.69999634	0.00000000	32.08661000	4.54601300
64.89999632	0.00000000	30.54872000	0.64591530
65.09999631	0.00000000	30.08120000	-0.97810030
65.29999630	0.00000000	30.08120000	-0.55979330
65.49999629	0.00000000	30.50566000	2.12844500
65.69999628	0.00000000	31.66215000	6.35457700
65.89999626	0.00000000	33.20005000	11.00517000
66.09999625	0.00000000	34.69488000	15.27436000
66.29999624	0.00000000	35.48228000	18.39321000
66.49999623	0.00000000	35.11934000	20.01722000
66.69999622	0.00000000	34.31963000	20.39247000
66.89999620	0.00000000	32.78174000	19.64198000
67.09999619	0.00000000	30.92396000	17.69808000
67.29999618	0.00000000	30.17347000	15.32357000
67.49999617	0.00000000	30.54872000	12.21087000
67.69999616	0.00000000	32.12967000	8.72908400
67.89999615	0.00000000	34.78716000	5.98548200
68.09999613	0.00000000	37.43848000	3.61712600
68.29999612	0.00000000	38.97638000	2.12844500
68.49999611	0.00000000	38.97638000	2.12844500
68.69999610	0.00000000	37.39542000	3.70939900
68.89999609	0.00000000	34.31963000	6.86515700
69.09999607	0.00000000	30.45644000	11.46653000
69.29999606	0.00000000	26.96850000	16.48622000
69.49999605	0.00000000	24.31102000	20.34941000
69.69999604	0.00000000	23.57283000	22.71161000
69.89999603	0.00000000	25.52288000	22.99459000
70.09999601	0.00000000	29.38607000	20.71235000
70.29999600	0.00000000	34.78716000	16.06791000
70.49999599	0.00000000	40.13902000	10.67298000
70.69999598	0.00000000	43.62696000	5.24729300
70.89999597	0.00000000	44.83267000	1.10728300
71.09999596	0.00000000	43.62696000	-0.14148620
71.29999594	0.00000000	40.13902000	1.33489200
71.49999593	0.00000000	34.69488000	4.08464600
71.69999592	0.00000000	28.54946000	8.40305000
71.89999591	0.00000000	23.15453000	13.69956000
72.09999590	0.00000000	20.07874000	17.93184000
72.29999588	0.00000000	20.03568000	19.88189000
72.49999587	0.00000000	22.77928000	19.55585000
72.69999586	0.00000000	27.80512000	17.27977000
72.89999585	0.00000000	34.31963000	14.21014000
73.09999584	0.00000000	40.13902000	11.09744000
73.29999582	0.00000000	44.04527000	8.44611200
73.49999581	0.00000000	45.95226000	7.24040300
73.69999580	0.00000000	44.74655000	7.60949800
73.89999579	0.00000000	40.55733000	8.72908400
74.09999578	0.00000000	34.78716000	10.62992000
74.29999577	0.00000000	29.01082000	12.11860000
74.49999575	0.00000000	24.77854000	12.49385000
74.69999574	0.00000000	23.15453000	11.74951000
74.89999573	0.00000000	23.84965000	9.84867000
75.09999572	0.00000000	25.80585000	7.98474400
75.29999571	0.00000000	28.92470000	6.86515700
75.49999569	0.00000000	32.73868000	7.24040300
75.69999568	0.00000000	35.90059000	9.18430000
75.89999567	0.00000000	38.18897000	11.84178000
76.09999566	0.00000000	39.33932000	14.99139000
76.29999565	0.00000000	38.18897000	17.60581000
76.49999563	0.00000000	35.99286000	19.18061000
76.69999562	0.00000000	33.66756000	18.67618000
76.89999561	0.00000000	32.12967000	16.01870000
77.09999560	0.00000000	31.66215000	11.38041000
77.29999559	0.00000000	31.66215000	6.40378900
77.49999558	0.00000000	31.99434000	2.12844500
77.69999556	0.00000000	32.40649000	-0.51673230
77.89999555	0.00000000	32.36959000	-0.46751960
78.09999554	0.00000000	32.40649000	2.59596400
78.29999553	0.00000000	31.95128000	7.93553100
78.49999552	0.00000000	31.24384000	13.74262000
78.69999550	0.00000000	30.50566000	18.81152000
78.89999549	0.00000000	30.54872000	22.61934000
79.09999548	0.00000000	31.71137000	23.78199000
79.29999547	0.00000000	33.61835000	21.88115000
79.49999546	0.00000000	35.90059000	18.01796000
79.69999544	0.00000000	37.43848000	12.62918000
79.89999543	0.00000000	37.85679000	7.24040300
80.09999542	0.00000000	37.43848000	3.33415300
80.29999541	0.00000000	35.85752000	1.01501000
80.49999540	0.00000000	33.20005000	1.01501000
80.69999539	0.00000000	30.50566000	3.24803100
80.89999537	0.00000000	28.54946000	6.36072800
81.09999536	0.00000000	27.38681000	9.89173200
81.29999535	0.00000000	27.42987000	13.74262000
81.49999534	0.00000000	28.96776000	16.81225000
81.69999533	0.00000000	31.66830000	18.43627000
81.89999531	0.00000000	34.73794000	18.85458000
82.09999530	0.00000000	37.39542000	18.43627000
82.29999529	0.00000000	38.55807000	16.85531000
82.49999528	0.00000000	37.85679000	14.16092000
82.69999527	0.00000000	36.32505000	11.09744000
82.89999525	0.00000000	34.36884000	8.31077700
83.09999524	0.00000000	32.03740000	5.93626900
83.29999523	0.00000000	30.13041000	3.66633800
83.49999522	0.00000000	28.96776000	2.54675200
83.69999521	0.00000000	28.96776000	3.29109200
83.89999520	0.00000000	30.08120000	5.19808000
84.09999518	0.00000000	31.57603000	7.98474400
84.29999517	0.00000000	32.73252000	11.46653000
84.49999516	0.00000000	33.20005000	15.32357000
84.69999515	0.00000000	33.57529000	18.39321000
84.89999514	0.00000000	33.94439000	19.97416000
85.09999512	0.00000000	33.57529000	19.93110000
85.29999511	0.00000000	33.24311000	17.97490000
85.49999510	0.00000000	33.24311000	14.16708000
85.69999509	0.00000000	33.61835000	9.89173200
85.89999508	0.00000000	34.36884000	5.98548200
86.09999506	0.00000000	34.69488000	2.54675200
86.29999505	0.00000000	34.31963000	1.05807100
86.49999504	0.00000000	33.20005000	2.17765700
86.69999503	0.00000000	32.03740000	5.29035400
86.89999502	0.00000000	31.24384000	9.89173200
87.09999501	0.00000000	30.45644000	14.90526000
87.29999499	0.00000000	30.08120000	18.71924000
87.49999498	0.00000000	30.13041000	20.71235000
87.69999497	0.00000000	30.92396000	20.30020000
87.89999496	0.00000000	32.82480000	18.01796000
88.09999495	0.00000000	34.69488000	14.11786000
88.29999493	0.00000000	35.90059000	9.51648500
88.49999492	0.00000000	36.32505000	5.29035400
88.69999491	0.00000000	36.27584000	2.63902500
88.89999490	0.00000000	35.48228000	2.63902500
89.09999489	0.00000000	33.57529000	5.29035400
89.29999487	0.00000000	31.71137000	9.47342500
89.49999486	0.00000000	30.50566000	13.74262000
89.69999485	0.00000000	30.08120000	17.23056000
89.89999484	0.00000000	30.08120000	19.55585000
90.09999483	0.00000000	30.50566000	19.83883000
90.29999482	0.00000000	31.61909000	17.55659000
90.49999480	0.00000000	32.78174000	13.00443000
90.69999479	0.00000000	33.57529000	8.40305000
90.89999478	0.00000000	34.36884000	4.87204700
91.09999477	0.00000000	34.69488000	2.59596400
91.29999476	0.00000000	34.36884000	2.63902500
91.49999474	0.00000000	33.61835000	5.29035400
91.69999473	0.00000000	33.24311000	9.51648500
91.89999472	0.00000000	33.20005000	14.11786000
92.09999471	0.00000000	33.20005000	17.93184000
92.29999470	0.00000000	33.20005000	19.46358000
92.49999468	0.00000000	33.15699000	18.35015000
92.69999467	0.00000000	32.78174000	15.27436000
92.89999466	0.00000000	31.99434000	11.04823000
93.09999465	0.00000000	31.24384000	6.82209600
93.29999464	0.00000000	30.41338000	3.75246000
93.49999463	0.00000000	29.70595000	2.59596400
93.69999461	0.00000000	29.34301000	3.75246000
93.89999460	0.00000000	30.13041000	6.82209600
94.09999459	0.00000000	31.66215000	11.00517000
94.29999458	0.00000000	33.61835000	14.85605000
94.49999457	0.00000000	35.90059000	17.18750000
94.69999455	0.00000000	37.43848000	17.97490000
94.89999454	0.00000000	37.81373000	16.76919000
95.09999453	0.00000000	37.06324000	13.74262000
95.29999452	0.00000000	35.07013000	9.93479300
95.49999451	0.00000000	32.40649000	6.82209600
95.69999449	0.00000000	29.29380000	4.87204700
95.89999448	0.00000000	27.01156000	4.17691900
96.09999447	0.00000000	25.80585000	5.70866100
96.29999446	0.00000000	25.84892000	9.09817800
96.49999445	0.00000000	27.38681000	12.53691000
96.69999444	0.00000000	30.13041000	15.27436000
96.89999442	0.00000000	33.61835000	16.81225000
97.09999441	0.00000000	37.48154000	16.81225000
97.29999440	0.00000000	40.51427000	15.27436000
97.49999439	0.00000000	41.67076000	12.62918000
97.69999438	0.00000000	40.55733000	9.98400600
97.89999436	0.00000000	37.85679000	8.40305000
98.09999435	0.00000000	34.36884000	7.93553100
98.29999434	0.00000000	30.45644000	7.98474400
98.49999433	0.00000000	27.01156000	8.72908400
98.69999432	0.00000000	24.64321000	10.21161000
98.89999430	0.00000000	23.94193000	11.00517000
99.09999429	0.00000000	25.06151000	11.46653000
99.29999428	0.00000000	28.17421000	12.21087000
99.49999427	0.00000000	31.99434000	12.58612000
99.69999426	0.00000000	35.90059000	12.62918000
99.89999425	0.00000000	38.97638000	12.62918000
100.09999423	0.00000000	40.55733000	12.62918000
100.29999422	0.00000000	40.55733000	12.62918000
100.49999421	0.00000000	39.01944000	12.62918000
100.69999420	0.00000000	36.31890000	12.62918000
100.89999419	0.00000000	33.20005000	12.53691000
101.09999417	0.00000000	30.13041000	11.74951000
101.29999416	0.00000000	27.76206000	9.84867000
101.49999415	0.00000000	26.59326000	7.98474400
101.69999414	0.00000000	26.18110000	6.77903500
101.89999413	0.00000000	27.01156000	6.44685000
102.09999411	0.00000000	28.92470000	7.24040300
102.29999410	0.00000000	31.61909000	9.55954600
102.49999409	0.00000000	34.31963000	12.58612000
102.69999408	0.00000000	36.27584000	15.27436000
102.89999407	0.00000000	37.43848000	16.85531000
103.09999406	0.00000000	37.43848000	17.23056000
103.29999404	0.00000000	36.32505000	16.43701000
103.49999403	0.00000000	34.78716000	14.11786000
103.69999402	0.00000000	33.20005000	11.04823000
103.89999401	0.00000000	31.61909000	7.98474400
104.09999400	0.00000000	30.08120000	5.66560000
104.29999398	0.00000000	28.92470000	4.87204700
104.49999397	0.00000000	28.54946000	5.24729300
104.69999396	0.00000000	28.92470000	6.82209600
104.89999395	0.00000000	30.08120000	9.51648500
105.09999394	0.00000000	31.61909000	12.53691000
105.29999392	0.00000000	33.15699000	14.85605000
105.49999391	0.00000000	34.27657000	15.64960000
105.69999390	0.00000000	34.31963000	15.32357000
105.89999389	0.00000000	33.61835000	14.11786000
106.09999388	0.00000000	33.20005000	12.21087000
106.29999387	0.00000000	32.73252000	9.89173200
106.49999385	0.00000000	31.66215000	7.98474400
106.69999384	0.00000000	30.92396000	6.82209600
106.89999383	0.00000000	31.24384000	6.86515700
107.09999382	0.00000000	31.61909000	8.35383800
107.29999381	0.00000000	32.03740000	10.62992000
107.49999379	0.00000000	32.78174000	12.53691000
107.69999378	0.00000000	33.20005000	13.69956000
107.89999377	0.00000000	33.53223000	13.69956000
108.09999376	0.00000000	33.52608000	12.62918000
108.29999375	0.00000000	32.36959000	11.46653000
108.49999374	0.00000000	31.28691000	10.62992000
108.69999372	0.00000000	30.45644000	9.47342500
108.89999371	0.00000000	30.08120000	8.40305000
109.09999370	0.00000000	30.08120000	8.40305000
109.29999369	0.00000000	30.50566000	9.51648500
109.49999368	0.00000000	31.66215000	11.04823000
109.69999366	0.00000000	33.15699000	12.58612000
109.89999365	0.00000000	34.31963000	13.74262000
110.09999364	0.00000000	34.74409000	14.16708000
110.29999363	0.00000000	34.69488000	14.16708000
110.49999362	0.00000000	33.94439000	13.69956000
110.69999360	0.00000000	32.41265000	12.21087000
110.89999359	0.00000000	31.28691000	10.31004000
111.09999358	0.00000000	30.45644000	9.14124000
111.29999357	0.00000000	30.08120000	8.35998900
111.49999356	0.00000000	30.08120000	8.35998900
111.69999355	0.00000000	30.50566000	9.05511800
111.89999353	0.00000000	31.61909000	9.47342500
112.09999352	0.00000000	32.73252000	9.93479300
112.29999351	0.00000000	33.15699000	11.04823000
112.49999350	0.00000000	33.20005000	12.16166000
112.69999349	0.00000000	33.20005000	12.58612000
112.89999347	0.00000000	33.20005000	12.58612000
113.09999346	0.00000000	33.15699000	12.21087000
113.29999345	0.00000000	32.78174000	11.42347000
113.49999344	0.00000000	32.03740000	10.72219000
113.69999343	0.00000000	31.66215000	10.31004000
113.89999341	0.00000000	31.61909000	10.67298000
114.09999340	0.00000000	31.61909000	10.95595000
114.29999339	0.00000000	31.61909000	10.62992000
114.49999338	0.00000000	31.66215000	9.89173200
114.69999337	0.00000000	31.99434000	9.51648500
114.89999336	0.00000000	32.40649000	9.47342500
115.09999334	0.00000000	32.41265000	9.47342500
115.29999333	0.00000000	32.82480000	9.51648500
115.49999332	0.00000000	33.15699000	9.89173200
115.69999331	0.00000000	33.15699000	10.67298000
115.89999330	0.00000000	32.78174000	11.42347000
116.09999328	0.00000000	32.03740000	12.21087000
116.29999327	0.00000000	31.66215000	12.58612000
116.49999326	0.00000000	31.61909000	12.62918000
116.69999325	0.00000000	31.61909000	12.62918000
116.89999324	0.00000000	31.61909000	12.58612000
117.09999322	0.00000000	31.66215000	12.16166000
117.29999321	0.00000000	32.03740000	11.04823000
117.49999320	0.00000000	32.78174000	9.89173200
117.69999319	0.00000000	33.20005000	9.09817800
117.89999318	0.00000000	33.57529000	8.35998900
118.09999317	0.00000000	33.94439000	8.35998900
118.29999315	0.00000000	33.57529000	9.09817800
118.49999314	0.00000000	33.20005000	9.84867000
118.69999313	0.00000000	32.73252000	10.67298000
118.89999312	0.00000000	31.61909000	11.42347000
119.09999311	0.00000000	30.50566000	12.21087000
119.29999309	0.00000000	30.08120000	12.58612000
119.49999308	0.00000000	30.08120000	12.62918000
119.69999307	0.00000000	30.45644000	12.58612000
119.89999306	0.00000000	31.24384000	12.21087000
120.09999305	0.00000000	32.03740000	11.46653000
120.29999303	0.00000000	33.20005000	11.04823000
120.49999302	0.00000000	34.31963000	10.62992000
120.69999301	0.00000000	34.74409000	9.89173200
120.89999300	0.00000000	34.74409000	9.51648500
121.09999299	0.00000000	34.31963000	9.47342500
121.29999298	0.00000000	33.15699000	9.47342500
121.49999296	0.00000000	31.66215000	9.51648500
121.69999295	0.00000000	30.50566000	9.89173200
121.89999294	0.00000000	30.03814000	10.62992000
122.09999293	0.00000000	29.66289000	11.00517000
122.29999292	0.00000000	29.29380000	11.09129000
122.49999290	0.00000000	29.70595000	11.46653000
122.69999289	0.00000000	30.45644000	12.21087000
122.89999288	0.00000000	31.61909000	12.58612000
123.09999287	0.00000000	32.78174000	12.62918000
123.29999286	0.00000000	33.57529000	12.58612000
123.49999284	0.00000000	34.31963000	12.21087000
123.69999283	0.00000000	34.31963000	11.46653000
123.89999282	0.00000000	33.57529000	11.04823000
124.09999281	0.00000000	32.82480000	10.62992000
124.29999280	0.00000000	32.03740000	9.89173200
124.49999279	0.00000000	31.61909000	9.51648500
124.69999277	0.00000000	31.20078000	9.47342500
124.89999276	0.00000000	30.45644000	9.51648500
125.09999275	0.00000000	30.08120000	9.89173200
125.29999274	0.00000000	30.03814000	10.67298000
125.49999273	0.00000000	30.08120000	11.42347000
125.69999271	0.00000000	30.50566000	12.21087000
125.89999270	0.00000000	31.61909000	12.58612000
126.09999269	0.00000000	32.78174000	12.58612000
126.29999268	0.00000000	33.53223000	12.21087000
126.49999267	0.00000000	33.98745000	11.46653000
126.69999265	0.00000000	33.95054000	11.09129000
126.89999264	0.00000000	33.94439000	11.00517000
127.09999263	0.00000000	33.11393000	10.62992000
127.29999262	0.00000000	31.66215000	9.89173200
127.49999261	0.00000000	30.50566000	9.47342500
127.69999260	0.00000000	30.08120000	9.14124000
127.89999258	0.00000000	30.03814000	9.14739100
128.09999257	0.00000000	30.03814000	10.29774000
128.29999256	0.00000000	30.13041000	11.38041000
128.49999255	0.00000000	30.92396000	12.16166000
128.69999254	0.00000000	32.78174000	12.21087000
128.89999252	0.00000000	34.27657000	11.84178000
129.09999251	0.00000000	34.69488000	11.83563000
129.29999250	0.00000000	34.36884000	11.42347000
129.49999249	0.00000000	33.57529000	11.04823000
129.69999248	0.00000000	32.78174000	10.62992000
129.89999246	0.00000000	31.61909000	9.89173200
130.09999245	0.00000000	30.50566000	9.56569900
130.29999244	0.00000000	30.08120000	9.89173200
130.49999243	0.00000000	30.08120000	10.62992000
130.69999242	0.00000000	30.45644000	11.00517000
130.89999241	0.00000000	31.20078000	11.04823000
131.09999239	0.00000000	31.61909000	11.04823000
131.29999238	0.00000000	32.03740000	11.04823000
131.49999237	0.00000000	32.78174000	11.00517000
131.69999236	0.00000000	33.10777000	10.62992000
131.89999235	0.00000000	32.78174000	9.89173200
132.09999233	0.00000000	32.03740000	9.51648500
132.29999232	0.00000000	31.61909000	9.47342500
132.49999231	0.00000000	31.24384000	9.47342500
132.69999230	0.00000000	30.87475000	9.51648500
132.89999229	0.00000000	31.24384000	9.89173200
133.09999227	0.00000000	31.57603000	10.67298000
133.29999226	0.00000000	31.61909000	11.42347000
133.49999225	0.00000000	31.66215000	12.21087000
133.69999224	0.00000000	31.99434000	12.53691000
133.89999223	0.00000000	32.36343000	12.21087000
134.09999222	0.00000000	31.99434000	11.46653000
134.29999220	0.00000000	31.66215000	11.04823000
134.49999219	0.00000000	31.61909000	10.62992000
134.69999218	0.00000000	31.66215000	9.89173200
134.89999217	0.00000000	32.03740000	9.51648500
135.09999216	0.00000000	32.78174000	9.47342500
135.29999214	0.00000000	33.15699000	9.51648500
135.49999213	0.00000000	33.20005000	9.89173200
135.69999212	0.00000000	33.15699000	10.62992000
135.89999211	0.00000000	32.78174000	11.04823000
136.09999210	0.00000000	32.03740000	11.46653000
136.29999208	0.00000000	31.61909000	12.21087000
136.49999207	0.00000000	31.20078000	12.58612000
136.69999206	0.00000000	30.45644000	12.58612000
136.89999205	0.00000000	30.13041000	12.21087000
137.09999204	0.00000000	30.45644000	11.42347000
137.29999203	0.00000000	31.24384000	10.67298000
137.49999201	0.00000000	31.99434000	9.89173200
137.69999200	0.00000000	32.78174000	9.51648500
137.89999199	0.00000000	33.15699000	9.47342500
138.09999198	0.00000000	33.15699000	9.47342500
138.29999197	0.00000000	32.78174000	9.47342500
138.49999195	0.00000000	32.03740000	9.51648500
138.69999194	0.00000000	31.61909000	9.89173200
138.89999193	0.00000000	31.20078000	10.62992000
139.09999192	0.00000000	30.45644000	11.00517000
139.29999191	0.00000000	30.13041000	11.09129000
139.49999189	0.00000000	30.45644000	11.46653000
139.69999188	0.00000000	31.24384000	12.16166000
139.89999187	0.00000000	31.99434000	12.16166000
140.09999186	0.00000000	32.73252000	11.42347000
140.29999185	0.00000000	32.78174000	10.67298000
140.49999184	0.00000000	32.41265000	9.89173200
140.69999182	0.00000000	32.40649000	9.51648500
140.89999181	0.00000000	31.99434000	9.43036400
141.09999180	0.00000000	31.61909000	9.09817800
141.29999179	0.00000000	31.24384000	8.72908400
141.49999178	0.00000000	30.87475000	9.09817800
141.69999176	0.00000000	31.24384000	9.47342500
141.89999175	0.00000000	31.57603000	9.93479300
142.09999174	0.00000000	31.66215000	11.04823000
142.29999173	0.00000000	31.99434000	12.16166000
142.49999172	0.00000000	32.36343000	12.53691000
142.69999170	0.00000000	31.99434000	12.21087000
142.89999169	0.00000000	31.66215000	11.42347000
143.09999168	0.00000000	31.61909000	10.67298000
143.29999167	0.00000000	31.61909000	9.84867000
143.49999166	0.00000000	31.61909000	9.14124000
143.69999165	0.00000000	31.61909000	8.72908400
143.89999163	0.00000000	31.61909000	9.09817800
144.09999162	0.00000000	31.61909000	9.47342500
144.29999161	0.00000000	31.61909000	9.89173200
144.49999160	0.00000000	31.66215000	10.67298000
144.69999159	0.00000000	31.99434000	11.38041000
144.89999157	0.00000000	32.40649000	11.83563000
145.09999156	0.00000000	32.36959000	11.84178000
145.29999155	0.00000000	32.36343000	12.21087000
145.49999154	0.00000000	31.61909000	12.16166000
145.69999153	0.00000000	30.92396000	11.42347000
145.89999151	0.00000000	31.24384000	10.67298000
146.09999150	0.00000000	31.57603000	9.89173200
146.29999149	0.00000000	31.61909000	9.51648500
146.49999148	0.00000000	31.61909000	9.47342500
146.69999147	0.00000000	31.61909000	9.47342500
146.89999146	0.00000000	31.66215000	9.51648500
147.09999144	0.00000000	32.03740000	9.93479300
147.29999143	0.00000000	32.73252000	11.04823000
147.49999142	0.00000000	32.73252000	12.16166000
147.69999141	0.00000000	32.03740000	12.53691000
147.89999140	0.00000000	31.66215000	12.21087000
148.09999138	0.00000000	31.61909000	11.46653000
148.29999137	0.00000000	31.61909000	11.09129000
148.49999136	0.00000000	31.61909000	11.04823000
148.69999135	0.00000000	31.61909000	11.00517000
148.89999134	0.00000000	31.61909000	10.67298000
149.09999132	0.00000000	31.61909000	10.26698000
149.29999131	0.00000000	31.66215000	10.30389000
149.49999130	0.00000000	32.03740000	10.26698000
149.69999129	0.00000000	32.73252000	10.67298000
149.89999128	0.00000000	32.73252000	11.00517000
150.09999127	0.00000000	32.03740000	11.04823000
150.29999125	0.00000000	31.66215000	11.04823000
150.49999124	0.00000000	31.61909000	11.04823000
150.69999123	0.00000000	31.57603000	11.04823000
150.89999122	0.00000000	31.20078000	11.04823000
151.09999121	0.00000000	30.50566000	11.04823000
151.29999119	0.00000000	30.45644000	11.04823000
151.49999118	0.00000000	30.82554000	11.04823000
151.69999117	0.00000000	30.83169000	11.00517000
151.89999116	0.00000000	31.24384000	10.62992000
152.09999115	0.00000000	31.57603000	9.89173200
152.29999113	0.00000000	31.61909000	9.51648500
152.49999112	0.00000000	31.61909000	9.51648500
152.69999111	0.00000000	31.61909000	9.89173200
152.89999110	0.00000000	31.61909000	10.62992000
153.09999109	0.00000000	31.61909000	11.00517000
153.29999108	0.00000000	31.61909000	11.04823000
153.49999106	0.00000000	31.61909000	11.04823000
153.69999105	0.00000000	31.57603000	11.04823000
153.89999104	0.00000000	31.20078000	11.04823000
154.09999103	0.00000000	30.45644000	11.04823000
154.29999102	0.00000000	30.08120000	11.04823000
154.49999100	0.00000000	30.08120000	11.04823000
154.69999099	0.00000000	30.45644000	11.04823000
154.89999098	0.00000000	31.20078000	11.04823000
155.09999097	0.00000000	31.57603000	11.00517000
155.29999096	0.00000000	31.61909000	10.62992000
155.49999094	0.00000000	31.66215000	9.89173200
155.69999093	0.00000000	31.99434000	9.51648500
155.89999092	0.00000000	32.36343000	9.51648500
156.09999091	0.00000000	31.99434000	9.89173200
156.29999090	0.00000000	31.66215000	10.67298000
156.49999089	0.00000000	31.57603000	11.38041000
156.69999087	0.00000000	31.20078000	11.79257000
156.89999086	0.00000000	30.50566000	11.46653000
157.09999085	0.00000000	30.45644000	11.46653000
157.29999084	0.00000000	30.78248000	11.79257000
157.49999083	0.00000000	30.45644000	11.42347000
157.69999081	0.00000000	30.50566000	11.09129000
157.89999080	0.00000000	31.20078000	11.00517000
158.09999079	0.00000000	31.57603000	10.62992000
158.29999078	0.00000000	31.61909000	9.89173200
158.49999077	0.00000000	31.61909000	9.51648500
158.69999075	0.00000000	31.61909000	9.51648500
158.89999074	0.00000000	31.61909000	9.89173200
159.09999073	0.00000000	31.61909000	10.62992000
159.29999072	0.00000000	31.61909000	11.00517000
159.49999071	0.00000000	31.57603000	11.04823000
159.69999070	0.00000000	31.24384000	11.09129000
159.89999068	0.00000000	30.83169000	11.42347000
160.09999067	0.00000000	30.86860000	11.79257000
160.29999066	0.00000000	30.83169000	11.42347000
160.49999065	0.00000000	31.24384000	11.09129000
160.69999064	0.00000000	31.57603000	11.00517000
160.89999062	0.00000000	31.61909000	10.62992000
161.09999061	0.00000000	31.61909000	9.89173200
161.29999060	0.00000000	31.61909000	9.56569900
161.49999059	0.00000000	31.61909000	9.84867000
161.69999058	0.00000000	31.61909000	10.25467000
161.89999056	0.00000000	31.61909000	10.26698000
162.09999055	0.00000000	31.61909000	10.67298000
162.29999054	0.00000000	31.61909000	11.00517000
162.49999053	0.00000000	31.61909000	11.04823000
162.69999052	0.00000000	31.61909000	11.04823000
162.89999051	0.00000000	31.61909000	11.04823000
163.09999049	0.00000000	31.57603000	11.04823000
163.29999048	0.00000000	31.24384000	11.04823000
163.49999047	0.00000000	30.83169000	11.04823000
163.69999046	0.00000000	30.82554000	11.00517000
163.89999045	0.00000000	30.41338000	10.67298000
164.09999043	0.00000000	30.13041000	10.26698000
164.29999042	0.00000000	30.45644000	10.25467000
164.49999041	0.00000000	31.20078000	9.84867000
164.69999040	0.00000000	31.57603000	9.51648500
164.89999039	0.00000000	31.61909000	9.51648500
165.09999037	0.00000000	31.61909000	9.89173200
165.29999036	0.00000000	31.61909000	10.58686000
165.49999035	0.00000000	31.61909000	10.62992000
165.69999034	0.00000000	31.61909000	10.31004000
165.89999033	0.00000000	31.57603000	10.67298000
166.09999032	0.00000000	31.20078000	11.00517000
166.29999030	0.00000000	30.45644000	11.04823000
166.49999029	0.00000000	30.08120000	11.04823000
166.69999028	0.00000000	30.08120000	11.04823000
166.89999027	0.00000000	30.45644000	11.00517000
167.09999026	0.00000000	31.20078000	10.62992000
167.29999024	0.00000000	31.57603000	9.89173200
167.49999023	0.00000000	31.61909000	9.51648500
167.69999022	0.00000000	31.61909000	9.51648500
167.89999021	0.00000000	31.61909000	9.84867000
168.09999020	0.00000000	31.61909000	10.25467000
168.29999018	0.00000000	31.61909000	10.26698000
168.49999017	0.00000000	31.61909000	10.62992000
168.69999016	0.00000000	31.61909000	10.62992000
168.89999015	0.00000000	31.61909000	10.31004000
169.09999014	0.00000000	31.61909000	10.67298000
169.29999013	0.00000000	31.57603000	10.95595000
169.49999011	0.00000000	31.20078000	10.62992000
169.69999010	0.00000000	30.50566000	9.93479300
169.89999009	0.00000000	30.45644000	9.89173200
170.09999008	0.00000000	30.82554000	10.25467000
170.29999007	0.00000000	30.83169000	10.26698000
170.49999005	0.00000000	31.24384000	10.67298000
170.69999004	0.00000000	31.57603000	10.95595000
170.89999003	0.00000000	31.61909000	10.62992000
171.09999002	0.00000000	31.61909000	9.93479300
171.29999001	0.00000000	31.61909000	9.89173200
171.49998999	0.00000000	31.61909000	10.21161000
171.69998998	0.00000000	31.61909000	9.89173200
171.89998997	0.00000000	31.57603000	9.93479300
172.09998996	0.00000000	31.20078000	10.62992000
172.29998995	0.00000000	30.50566000	11.00517000
172.49998994	0.00000000	30.45644000	11.04823000
172.69998992	0.00000000	30.82554000	11.04823000
172.89998991	0.00000000	30.83169000	11.04823000
173.09998990	0.00000000	31.24384000	11.04823000
173.29998989	0.00000000	31.57603000	11.04823000
173.49998988	0.00000000	31.61909000	11.04823000
173.69998986	0.00000000	31.61909000	11.04823000
173.89998985	0.00000000	31.61909000	11.04823000
174.09998984	0.00000000	31.61909000	11.00517000
174.29998983	0.00000000	31.61909000	10.62992000
174.49998982	0.00000000	31.61909000	9.89173200
174.69998980	0.00000000	31.61909000	9.56569900
174.89998979	0.00000000	31.61909000	9.89173200
175.09998978	0.00000000	31.61909000	10.62992000
175.29998977	0.00000000	31.61909000	11.00517000
175.49998976	0.00000000	31.61909000	11.04823000
175.69998975	0.00000000	31.61909000	11.04823000
175.89998973	0.00000000	31.61909000	11.04823000
176.09998972	0.00000000	31.61909000	11.04823000
176.29998971	0.00000000	31.61909000	11.04823000
176.49998970	0.00000000	31.61909000	11.00517000
176.69998969	0.00000000	31.61909000	10.67298000
176.89998967	0.00000000	31.61909000	10.26698000
177.09998966	0.00000000	31.57603000	10.25467000
177.29998965	0.00000000	31.24384000	9.84867000
177.49998964	0.00000000	30.87475000	9.51648500
177.69998963	0.00000000	31.24384000	9.47342500
177.89998961	0.00000000	31.52682000	9.51648500
178.09998960	0.00000000	31.24384000	9.89173200
178.29998959	0.00000000	30.83169000	10.58686000
178.49998958	0.00000000	30.86860000	10.62992000
178.69998957	0.00000000	30.83169000	10.31004000
178.89998956	0.00000000	31.24384000	10.67298000
179.09998954	0.00000000	31.57603000	11.00517000
179.29998953	0.00000000	31.61909000	11.04823000
179.49998952	0.00000000	31.61909000	11.00517000
179.69998951	0.00000000	31.61909000	10.62992000
179.89998950	0.00000000	31.61909000	9.89173200
180.09998948	0.00000000	31.61909000	9.51648500
180.29998947	0.00000000	31.61909000	9.47342500
180.49998946	0.00000000	31.61909000	9.47342500
180.69998945	0.00000000	31.57603000	9.47342500
180.89998944	0.00000000	31.20078000	9.51648500
181.09998942	0.00000000	30.50566000	9.89173200
181.29998941	0.00000000	30.45644000	10.62992000
181.49998940	0.00000000	30.78248000	11.00517000
181.69998939	0.00000000	30.41338000	11.04823000
181.89998938	0.00000000	30.13041000	11.04823000
182.09998937	0.00000000	30.45644000	11.04823000
182.29998935	0.00000000	31.20078000	11.04823000
182.49998934	0.00000000	31.57603000	11.00517000
182.69998933	0.00000000	31.61909000	10.62992000
182.89998932	0.00000000	31.57603000	9.89173200
183.09998931	0.00000000	31.24384000	9.56569900
183.29998929	0.00000000	30.87475000	9.84867000
183.49998928	0.00000000	31.20078000	10.21161000
183.69998927	0.00000000	31.15157000	9.84867000
183.89998926	0.00000000	30.50566000	9.51648500
184.09998925	0.00000000	30.50566000	9.51648500
184.29998923	0.00000000	31.15157000	9.89173200
184.49998922	0.00000000	31.20078000	10.62992000
184.69998921	0.00000000	30.87475000	11.00517000
184.89998920	0.00000000	31.24384000	11.04823000
185.09998919	0.00000000	31.57603000	11.04823000
185.29998918	0.00000000	31.61909000	11.00517000
185.49998916	0.00000000	31.61909000	10.62992000
185.69998915	0.00000000	31.61909000	9.89173200
185.89998914	0.00000000	31.61909000	9.51648500
186.09998913	0.00000000	31.61909000	9.47342500
186.29998912	0.00000000	31.61909000	9.47342500
186.49998910	0.00000000	31.61909000	9.47342500
186.69998909	0.00000000	31.57603000	9.51648500
186.89998908	0.00000000	31.20078000	9.89173200
187.09998907	0.00000000	30.45644000	10.62992000
187.29998906	0.00000000	30.13041000	11.00517000
187.49998904	0.00000000	30.41338000	11.04823000
187.69998903	0.00000000	30.82554000	11.04823000
187.89998902	0.00000000	30.83169000	11.04823000
188.09998901	0.00000000	31.24384000	11.04823000
188.29998900	0.00000000	31.57603000	11.00517000
188.49998899	0.00000000	31.61909000	10.62992000
188.69998897	0.00000000	31.61909000	9.89173200
188.89998896	0.00000000	31.61909000	9.51648500
189.09998895	0.00000000	31.57603000	9.47342500
189.29998894	0.00000000	31.24384000	9.47342500
189.49998893	0.00000000	30.83169000	9.47342500
189.69998891	0.00000000	30.82554000	9.51648500
189.89998890	0.00000000	30.41338000	9.89173200
190.09998889	0.00000000	30.08120000	10.62992000
190.29998888	0.00000000	30.03814000	11.00517000
190.49998887	0.00000000	30.08120000	11.04823000
190.69998885	0.00000000	30.41338000	11.04823000
190.89998884	0.00000000	30.82554000	11.04823000
191.09998883	0.00000000	30.83169000	11.04823000
191.29998882	0.00000000	31.24384000	11.04823000
191.49998881	0.00000000	31.57603000	11.00517000
191.69998880	0.00000000	31.61909000	10.62992000
191.89998878	0.00000000	31.61909000	9.93479300
192.09998877	0.00000000	31.61909000	9.89173200
192.29998876	0.00000000	31.57603000	10.21161000
192.49998875	0.00000000	31.20078000	9.84867000
192.69998874	0.00000000	30.45644000	9.56569900
192.89998872	0.00000000	30.08120000	9.84867000
193.09998871	0.00000000	30.03814000	10.25467000
193.29998870	0.00000000	30.03814000	10.26698000
193.49998869	0.00000000	30.03814000	10.67298000
193.69998868	0.00000000	30.03814000	11.00517000
193.89998866	0.00000000	30.08120000	11.04823000
194.09998865	0.00000000	30.45644000	11.04823000
194.29998864	0.00000000	31.20078000	11.04823000
194.49998863	0.00000000	31.57603000	11.00517000
194.69998862	0.00000000	31.61909000	10.62992000
194.89998861	0.00000000	31.57603000	9.89173200
195.09998859	0.00000000	31.20078000	9.51648500
195.29998858	0.00000000	30.50566000	9.47342500
195.49998857	0.00000000	30.45644000	9.47342500
195.69998856	0.00000000	30.78248000	9.47342500
195.89998855	0.00000000	30.41338000	9.51648500
196.09998853	0.00000000	30.08120000	9.84867000
