Time	Channel A	Channel B	Channel C
(us)	(V)	(mV)	(mV)

-4.49999956	0.00000000	29.28765000	8.72908400
-4.29999957	0.00000000	29.25074000	9.09817800
-4.09999958	0.00000000	29.61983000	9.43036400
-3.89999959	0.00000000	29.57062000	9.47342500
-3.69999960	0.00000000	28.87549000	9.47342500
-3.49999962	0.00000000	28.50024000	9.47342500
-3.29999963	0.00000000	28.45718000	9.47342500
-3.09999964	0.00000000	28.50024000	9.47342500
-2.89999965	0.00000000	28.83243000	9.47342500
-2.69999966	0.00000000	29.24459000	9.47342500
-2.49999968	0.00000000	29.25074000	9.51648500
-2.29999969	0.00000000	29.66289000	9.89173200
-2.09999970	0.00000000	29.99508000	10.58686000
-1.89999971	0.00000000	30.03814000	10.58686000
-1.69999972	0.00000000	30.03814000	9.89173200
-1.49999973	0.00000000	30.03814000	9.51648500
-1.29999975	0.00000000	29.99508000	9.47342500
-1.09999976	0.00000000	29.61983000	9.47342500
-0.89999977	0.00000000	28.87549000	9.47342500
-0.69999978	0.00000000	28.50024000	9.47342500
-0.49999979	0.00000000	28.45718000	9.47342500
-0.29999981	0.31803640	28.45718000	9.47342500
-0.09999982	0.63668800	28.45718000	9.47342500
0.10000017	0.95533960	28.45718000	9.47342500
0.30000016	0.95533960	28.45718000	9.47342500
0.50000015	0.79601380	28.45718000	9.43036400
0.70000013	0.31803640	28.45718000	9.09817800
0.90000012	-0.63668800	28.45718000	8.72908400
1.10000011	-1.59264300	28.45718000	9.09817800
1.30000010	-2.38927200	28.45718000	9.43036400
1.50000009	-2.86724900	28.45718000	9.47342500
1.70000008	-2.38927200	28.45718000	9.47342500
1.90000006	-1.11466500	28.50024000	9.47342500
2.10000005	0.79601380	28.83243000	9.47342500
2.30000004	2.86724900	29.20152000	9.47342500
2.50000003	4.61921700	28.83243000	9.47342500
2.70000002	5.41584600	28.50024000	9.43036400
2.90000000	4.77854300	28.45718000	9.05511800
3.09999999	2.70792300	28.45718000	8.35998900
3.29999998	-0.31803640	28.45718000	8.35998900
3.49999997	-3.82258900	28.45718000	9.05511800
3.69999996	-6.69045300	28.45718000	9.43036400
3.89999994	-7.96444400	28.50024000	9.51648500
4.09999993	-7.32714100	28.87549000	9.89173200
4.29999992	-4.77854300	29.61983000	10.62992000
4.49999991	-0.63668800	29.94586000	10.95595000
4.69999990	3.82258900	29.61983000	10.62992000
4.89999989	7.48646600	28.87549000	9.89173200
5.09999987	9.39837600	28.50024000	9.51648500
5.29999986	9.07972400	28.45718000	9.47342500
5.49999985	6.37180100	28.45718000	9.47342500
5.69999984	1.91129400	28.45718000	9.47342500
5.89999983	-2.86724900	28.45718000	9.47342500
6.09999981	-7.00848900	28.45718000	9.47342500
6.29999980	-9.23905000	28.45718000	9.47342500
6.49999979	-9.23905000	28.45718000	9.47342500
6.69999978	-6.84916400	28.45718000	9.47342500
6.89999977	-3.02657500	28.45718000	9.47342500
7.09999975	1.43331700	28.45718000	9.47342500
7.29999974	5.09719500	28.45718000	9.47342500
7.49999973	7.32714100	28.45718000	9.47342500
7.69999972	7.64579200	28.45718000	9.47342500
7.89999971	6.05315000	28.45718000	9.47342500
8.09999970	3.18590100	28.45718000	9.47342500
8.29999968	-0.15871060	28.45718000	9.47342500
8.49999967	-3.02657500	28.45718000	9.47342500
8.69999966	-4.77854300	28.45718000	9.47342500
8.89999965	-5.09719500	28.45718000	9.47342500
9.09999964	-4.30056600	28.45718000	9.47342500
9.29999962	-2.54859700	28.50024000	9.47342500
9.49999961	-0.47736220	28.83243000	9.47342500
9.69999960	1.27399100	29.20152000	9.43036400
9.89999959	2.22994600	28.83243000	9.09817800
10.09999958	2.54859700	28.50024000	8.72908400
10.29999956	2.07062000	28.45718000	9.09817800
10.49999955	1.43331700	28.45718000	9.43036400
10.69999954	0.47736220	28.45718000	9.47342500
10.89999953	-0.31803640	28.45718000	9.47342500
11.09999952	-0.79601380	28.45718000	9.47342500
11.29999951	-0.95533960	28.45718000	9.47342500
11.49999949	-0.95533960	28.45718000	9.43036400
11.69999948	-0.63668800	28.50024000	9.09817800
11.89999947	-0.31803640	28.83243000	8.72908400
12.09999946	-0.15871060	29.20152000	9.09817800
12.29999945	-0.15871060	28.83243000	9.43036400
12.49999943	0.00000000	28.50024000	9.47342500
12.69999942	0.00000000	28.45718000	9.47342500
12.89999941	0.00000000	28.45718000	9.47342500
13.09999940	0.00000000	28.45718000	9.47342500
13.29999939	0.00000000	28.45718000	9.47342500
13.49999937	0.00000000	28.45718000	9.47342500
13.69999936	0.00000000	28.45718000	9.47342500
13.89999935	0.00000000	28.45718000	9.47342500
14.09999934	-0.15871060	28.45718000	9.47342500
14.29999933	-0.15871060	28.45718000	9.47342500
14.49999932	-0.15871060	28.45718000	9.47342500
14.69999930	-0.15871060	28.45718000	9.47342500
14.89999929	0.00000000	28.45718000	9.47342500
15.09999928	0.00000000	28.45718000	9.47342500
15.29999927	0.00000000	28.45718000	9.47342500
15.49999926	0.00000000	28.45718000	9.47342500
15.69999924	0.00000000	28.45718000	9.47342500
15.89999923	0.00000000	28.45718000	9.47342500
16.09999922	0.00000000	28.45718000	9.47342500
16.29999921	0.00000000	28.45718000	9.47342500
16.49999920	-0.15871060	28.50024000	9.47342500
16.69999919	-0.15871060	28.87549000	9.47342500
16.89999917	0.00000000	29.61983000	9.47342500
17.09999916	0.00000000	29.99508000	9.47342500
17.29999915	0.00000000	30.03814000	9.47342500
17.49999914	0.00000000	30.03814000	9.47342500
17.69999913	0.00000000	29.99508000	9.47342500
17.89999911	0.00000000	29.61983000	9.47342500
18.09999910	0.00000000	28.78937000	9.43036400
18.29999909	0.00000000	27.66363000	9.09817800
18.49999908	0.00000000	26.08883000	8.72908400
18.69999907	0.00000000	24.96309000	9.09817800
18.89999905	0.00000000	24.13263000	9.43036400
19.09999904	0.00000000	23.84965000	9.47342500
19.29999903	0.00000000	24.68627000	9.47342500
19.49999902	0.00000000	27.38681000	9.47342500
19.69999901	0.00000000	31.24384000	9.47342500
19.89999900	0.00000000	35.11319000	9.47342500
20.09999898	0.00000000	38.55807000	9.47342500
20.29999897	0.00000000	40.04675000	9.47342500
20.49999896	0.00000000	38.88410000	9.47342500
20.69999895	0.00000000	35.34695000	9.47342500
20.89999894	0.00000000	29.44143000	9.47342500
21.09999892	0.00000000	21.75812000	9.47342500
21.29999891	0.00000000	14.08710000	9.47342500
21.49999890	0.00000000	9.10433000	9.47342500
21.69999889	0.00000000	7.98474400	9.47342500
21.89999888	0.00000000	11.52190000	9.43036400
22.09999886	0.00000000	19.70349000	9.09817800
22.29999885	0.00000000	30.92396000	8.72908400
22.49999884	0.00000000	43.34399000	9.09817800
22.69999883	0.00000000	54.04773000	9.43036400
22.89999882	0.00000000	60.14394000	9.47342500
23.09999881	0.00000000	58.88902000	9.51648500
23.29999879	0.00000000	50.00615000	9.89173200
23.49999878	0.00000000	35.25467000	10.67298000
23.69999877	0.00000000	17.48277000	11.38041000
23.89999876	0.00000000	0.54749010	11.79257000
24.09999875	0.00000000	-10.94365000	11.38041000
24.29999873	0.00000000	-13.64419000	10.62992000
24.49999872	0.00000000	-6.66830600	9.42421200
24.69999871	0.00000000	8.49532500	7.89247000
24.89999870	0.00000000	29.38607000	6.36072800
25.09999869	0.00000000	51.72244000	5.15501900
25.29999867	0.00000000	69.45128000	4.40452700
25.49999866	0.00000000	78.29724000	4.08464600
25.69999865	0.00000000	75.96580000	5.29035400
25.89999864	0.00000000	62.38311000	7.98474400
26.09999863	0.00000000	40.78494000	11.51575000
26.29999862	0.00000000	15.66806000	15.74188000
26.49999860	0.00000000	-6.66830600	19.54970000
26.69999859	0.00000000	-21.03838000	21.41363000
26.89999858	0.00000000	-24.48326000	20.62008000
27.09999857	0.00000000	-16.33858000	16.71998000
27.29999856	0.00000000	2.17150600	10.53765000
27.49999854	0.00000000	26.45792000	3.15575800
27.69999853	0.00000000	50.46752000	-4.14000900
27.89999852	0.00000000	69.36516000	-9.56569900
28.09999851	0.00000000	78.70940000	-11.71875000
28.29999850	0.00000000	76.39025000	-9.38115100
28.49999848	0.00000000	64.09325000	-1.63631900
28.69999847	0.00000000	43.95915000	8.77829600
28.89999846	0.00000000	21.24139000	20.43553000
29.09999845	0.00000000	1.10113200	31.17003000
29.29999844	0.00000000	-12.10630000	37.67839000
29.49999843	0.00000000	-16.01870000	38.46580000
29.69999841	0.00000000	-10.66068000	32.94168000
29.89999840	0.00000000	2.87278500	21.73966000
30.09999839	0.00000000	20.97072000	6.64370100
30.29999838	0.00000000	39.53617000	-8.74138700
30.49999837	0.00000000	54.28149000	-21.09375000
30.69999835	0.00000000	62.51845000	-27.23302000
30.89999834	0.00000000	63.68110000	-25.69513000
31.09999833	0.00000000	57.48647000	-16.77534000
31.29999832	0.00000000	45.16486000	-2.04847400
31.49999831	0.00000000	30.13041000	15.69882000
31.69999829	0.00000000	15.80339000	32.65256000
31.89999828	0.00000000	5.33341500	44.64198000
32.09999827	0.00000000	0.59055110	49.29256000
32.29999826	0.00000000	1.71013800	45.80462000
32.49999825	0.00000000	7.89862200	34.56570000
32.69999824	0.00000000	17.98720000	17.97490000
32.89999822	0.00000000	29.95201000	-0.55979330
33.09999821	0.00000000	41.11712000	-16.77534000
33.29999820	0.00000000	48.42519000	-27.23302000
33.49999819	0.00000000	50.09227000	-29.97047000
33.69999818	0.00000000	46.65354000	-24.58169000
33.89999816	0.00000000	39.71457000	-12.59227000
34.09999815	0.00000000	30.45644000	3.62327700
34.29999814	0.00000000	21.61663000	20.62008000
34.49999813	0.00000000	15.38509000	34.51648000
34.69999812	0.00000000	12.68455000	42.64886000
34.89999810	0.00000000	14.22244000	43.06717000
35.09999809	0.00000000	19.52510000	36.14665000
35.29999808	0.00000000	26.45792000	23.82505000
35.49999807	0.00000000	33.02165000	8.73523500
35.69999806	0.00000000	37.99828000	-5.53641700
35.89999805	0.00000000	39.57923000	-16.31397000
36.09999803	0.00000000	37.72145000	-20.54011000
36.29999802	0.00000000	33.85827000	-17.15059000
36.49999801	0.00000000	28.41412000	-7.94783400
36.69999800	0.00000000	22.73007000	4.73671200
36.89999799	0.00000000	18.87303000	17.42126000
37.09999797	0.00000000	18.07948000	26.66708000
37.29999796	0.00000000	19.94340000	30.56717000
37.49999795	0.00000000	23.80659000	28.29109000
37.69999794	0.00000000	28.45718000	21.03838000
37.89999793	0.00000000	33.11393000	11.09744000
38.09999791	0.00000000	36.92790000	1.48253000
38.29999790	0.00000000	38.46580000	-5.06889700
38.49999789	0.00000000	37.35236000	-7.38804100
38.69999788	0.00000000	34.27657000	-4.65059000
38.89999787	0.00000000	29.99508000	2.59596400
39.09999786	0.00000000	25.38755000	12.11860000
39.29999784	0.00000000	21.48130000	20.52780000
39.49999783	0.00000000	19.14985000	25.13533000
39.69999782	0.00000000	18.36245000	24.76009000
39.89999781	0.00000000	19.56816000	19.37131000
40.09999780	0.00000000	22.60088000	10.54380000
40.29999778	0.00000000	26.50098000	0.63976370
40.49999777	0.00000000	30.37032000	-7.01894700
40.69999776	0.00000000	33.90133000	-9.76254800
40.89999775	0.00000000	36.18971000	-7.85556000
41.09999774	0.00000000	37.02018000	-1.63016700
41.29999772	0.00000000	36.23277000	7.94168200
41.49999771	0.00000000	34.27657000	17.88263000
41.69999770	0.00000000	31.15772000	25.22145000
41.89999769	0.00000000	27.34375000	28.29109000
42.09999768	0.00000000	24.22490000	26.38410000
42.29999767	0.00000000	22.22564000	19.88189000
42.49999765	0.00000000	21.06299000	11.04823000
42.69999764	0.00000000	21.06299000	2.17765700
42.89999763	0.00000000	22.22564000	-4.74286400
43.09999762	0.00000000	24.18184000	-7.81250000
43.29999761	0.00000000	26.83317000	-6.36687900
43.49999759	0.00000000	29.15231000	-1.39640700
43.69999758	0.00000000	30.37032000	5.15501900
43.89999757	0.00000000	31.20078000	12.07554000
44.09999756	0.00000000	31.57603000	17.46432000
44.29999755	0.00000000	31.66215000	19.88189000
44.49999753	0.00000000	31.95128000	19.88189000
44.69999752	0.00000000	31.93898000	17.59966000
44.89999751	0.00000000	30.83169000	13.37967000
45.09999750	0.00000000	30.08120000	9.14124000
45.29999749	0.00000000	29.57062000	5.24729300
45.49999748	0.00000000	28.36491000	2.54675200
45.69999746	0.00000000	26.40871000	1.75319900
45.89999745	0.00000000	23.67126000	2.50369100
46.09999744	0.00000000	20.64468000	4.82283400
46.29999743	0.00000000	18.36245000	7.84940900
46.49999742	0.00000000	18.03642000	10.58686000
46.69999740	0.00000000	19.99262000	12.53691000
46.89999739	0.00000000	24.26796000	13.74262000
47.09999738	0.00000000	30.08735000	14.07480000
47.29999737	0.00000000	36.27584000	13.28125000
47.49999736	0.00000000	41.62770000	11.00517000
47.69999734	0.00000000	44.27903000	8.31077700
47.89999733	0.00000000	43.11638000	5.93626900
48.09999732	0.00000000	38.46580000	3.66633800
48.29999731	0.00000000	31.10851000	2.54675200
48.49999730	0.00000000	22.60088000	3.29109200
48.69999729	0.00000000	14.87451000	5.19808000
48.89999727	0.00000000	9.52263600	7.93553100
49.09999726	0.00000000	8.40920300	11.00517000
49.29999725	0.00000000	12.26624000	13.74262000
49.49999724	0.00000000	19.94340000	15.64960000
49.69999723	0.00000000	29.61983000	16.39395000
49.89999721	0.00000000	38.84104000	15.18824000
50.09999720	0.00000000	45.44168000	12.11860000
50.29999719	0.00000000	47.72391000	7.89247000
50.49999718	0.00000000	45.39862000	3.70939900
50.69999717	0.00000000	38.46580000	0.97194880
50.89999715	0.00000000	28.87549000	0.17839570
51.09999714	0.00000000	19.66043000	1.01501000
51.29999713	0.00000000	13.05979000	4.08464600
51.49999712	0.00000000	10.72835000	8.63681000
51.69999711	0.00000000	12.64149000	12.49385000
51.89999710	0.00000000	18.45472000	15.27436000
52.09999708	0.00000000	26.83317000	16.81225000
52.29999707	0.00000000	34.92864000	16.81225000
52.49999706	0.00000000	40.32972000	15.18824000
52.69999705	0.00000000	42.27977000	11.74336000
52.89999704	0.00000000	39.95448000	7.19734200
53.09999702	0.00000000	34.23351000	3.75246000
53.29999701	0.00000000	26.96850000	2.17150600
53.49999700	0.00000000	20.41092000	2.50369100
53.69999699	0.00000000	16.54158000	4.40452700
53.89999698	0.00000000	15.76033000	6.72982200
54.09999696	0.00000000	18.45472000	9.42421200
54.29999695	0.00000000	23.80659000	11.70029000
54.49999694	0.00000000	29.95201000	12.45079000
54.69999693	0.00000000	35.34695000	11.74951000
54.89999692	0.00000000	38.37352000	9.84867000
55.09999691	0.00000000	38.04749000	7.98474400
55.29999689	0.00000000	34.60876000	6.77903500
55.49999688	0.00000000	29.61983000	6.44685000
55.69999687	0.00000000	24.22490000	7.19734200
55.89999686	0.00000000	19.99262000	9.09817800
56.09999685	0.00000000	18.03642000	11.00517000
56.29999683	0.00000000	18.45472000	12.53691000
56.49999682	0.00000000	21.52436000	13.23819000
56.69999681	0.00000000	26.45792000	12.07554000
56.89999680	0.00000000	31.06545000	9.38115100
57.09999679	0.00000000	34.23351000	5.89320800
57.29999677	0.00000000	35.81446000	2.08538400
57.49999676	0.00000000	35.77140000	-0.51673230
57.69999675	0.00000000	33.80905000	-0.51673230
57.89999674	0.00000000	29.99508000	2.17765700
58.09999673	0.00000000	25.80585000	6.82209600
58.29999672	0.00000000	22.73007000	12.58612000
58.49999670	0.00000000	21.52436000	17.92569000
58.69999669	0.00000000	22.22564000	20.99532000
58.89999668	0.00000000	23.75738000	21.03838000
59.09999667	0.00000000	25.71358000	18.25787000
59.29999666	0.00000000	28.03888000	12.86294000
59.49999664	0.00000000	29.90280000	5.57332700
59.69999663	0.00000000	30.73326000	-0.93503930
59.89999662	0.00000000	30.37032000	-5.20423200
60.09999661	0.00000000	29.61983000	-6.27460600
60.29999660	0.00000000	28.45718000	-3.21112200
60.49999658	0.00000000	27.34375000	3.29109200
60.69999657	0.00000000	26.91929000	11.00517000
60.89999656	0.00000000	26.87623000	18.35015000
61.09999655	0.00000000	26.91929000	23.68971000
61.29999654	0.00000000	27.29453000	25.22145000
61.49999653	0.00000000	28.03888000	22.57628000
61.69999651	0.00000000	28.41412000	16.76919000
61.89999650	0.00000000	28.41412000	9.05511800
62.09999649	0.00000000	27.98966000	0.97194880
62.29999648	0.00000000	26.83317000	-5.16117100
62.49999647	0.00000000	25.33834000	-7.89862200
62.69999645	0.00000000	24.22490000	-6.74212600
62.89999644	0.00000000	24.22490000	-2.09153500
63.09999643	0.00000000	25.33834000	5.20423200
63.29999642	0.00000000	26.87623000	13.28125000
63.49999641	0.00000000	28.45718000	19.79577000
63.69999639	0.00000000	29.99508000	23.36368000
63.89999638	0.00000000	31.15157000	23.36983000
64.09999637	0.00000000	31.48376000	20.66314000
64.29999636	0.00000000	30.73326000	15.23130000
64.49999635	0.00000000	28.83243000	8.35383800
64.69999634	0.00000000	26.91929000	2.17765700
64.89999632	0.00000000	25.33834000	-2.09768700
65.09999631	0.00000000	24.18184000	-3.67249000
65.29999630	0.00000000	23.84965000	-2.55905500
65.49999629	0.00000000	24.60015000	0.51058070
65.69999628	0.00000000	26.50098000	4.73671200
65.89999626	0.00000000	28.36491000	9.00590400
66.09999625	0.00000000	29.57062000	12.53691000
66.29999624	0.00000000	29.94586000	15.27436000
66.49999623	0.00000000	29.57062000	16.85531000
66.69999622	0.00000000	28.41412000	17.27362000
66.89999620	0.00000000	26.87623000	16.85531000
67.09999619	0.00000000	25.38755000	15.27436000
67.29999618	0.00000000	24.64321000	12.58612000
67.49999617	0.00000000	25.43061000	9.47342500
67.69999616	0.00000000	27.29453000	6.31151500
67.89999615	0.00000000	29.61983000	3.24803100
68.09999613	0.00000000	31.57603000	0.92888770
68.29999612	0.00000000	33.06471000	0.09227362
68.49999611	0.00000000	33.39075000	0.09227362
68.69999610	0.00000000	31.44069000	1.01501000
68.89999609	0.00000000	28.03888000	4.12770700
69.09999607	0.00000000	24.13263000	9.09817800
69.29999606	0.00000000	20.68774000	14.07480000
69.49999605	0.00000000	18.36245000	17.97490000
69.69999604	0.00000000	18.03642000	19.93110000
69.89999603	0.00000000	19.94340000	19.93110000
70.09999601	0.00000000	23.84965000	17.93184000
70.29999600	0.00000000	28.87549000	13.65650000
70.49999599	0.00000000	34.23351000	7.93553100
70.69999598	0.00000000	38.09055000	2.50369100
70.89999597	0.00000000	39.25935000	-1.35334600
71.09999596	0.00000000	38.09055000	-3.29724400
71.29999594	0.00000000	34.18430000	-2.46678100
71.49999593	0.00000000	28.41412000	0.92888770
71.69999592	0.00000000	22.22564000	5.89320800
71.89999591	0.00000000	16.87377000	10.58686000
72.09999590	0.00000000	14.13017000	14.45005000
72.29999588	0.00000000	14.49926000	17.13213000
72.49999587	0.00000000	17.20595000	17.14444000
72.69999586	0.00000000	22.26870000	15.27436000
72.89999585	0.00000000	28.41412000	12.21087000
73.09999584	0.00000000	34.23351000	8.77214500
73.29999582	0.00000000	38.46580000	6.44685000
73.49999581	0.00000000	40.00369000	5.24729300
73.69999580	0.00000000	38.46580000	5.24729300
73.89999579	0.00000000	34.27657000	6.36072800
74.09999578	0.00000000	28.87549000	7.84940900
74.29999577	0.00000000	23.84965000	9.00590400
74.49999575	0.00000000	19.94340000	9.38115100
74.69999574	0.00000000	18.03642000	9.00590400
74.89999573	0.00000000	18.36245000	7.84940900
75.09999572	0.00000000	20.64468000	6.36072800
75.29999571	0.00000000	23.75738000	5.24729300
75.49999569	0.00000000	27.25147000	5.29035400
75.69999568	0.00000000	30.69020000	6.82209600
75.89999567	0.00000000	32.60334000	9.51648500
76.09999566	0.00000000	32.68946000	12.58612000
76.29999565	0.00000000	31.57603000	15.27436000
76.49999563	0.00000000	30.03814000	16.76919000
76.69999562	0.00000000	28.45718000	16.35089000
76.89999561	0.00000000	26.91929000	13.61343000
77.09999560	0.00000000	25.76279000	8.96284400
77.29999559	0.00000000	25.38755000	3.29109200
77.49999558	0.00000000	25.71358000	-1.34719500
77.69999556	0.00000000	26.45792000	-3.26033400
77.89999555	0.00000000	26.78395000	-2.92199800
78.09999554	0.00000000	26.45792000	0.22145670
78.29999553	0.00000000	25.71358000	5.19808000
78.49999552	0.00000000	25.33834000	11.00517000
78.69999550	0.00000000	25.29527000	16.39395000
78.89999549	0.00000000	25.38755000	19.88189000
79.09999548	0.00000000	26.18110000	21.04454000
79.29999547	0.00000000	28.08194000	19.46358000
79.49999546	0.00000000	29.94586000	15.28051000
79.69999544	0.00000000	31.15157000	9.89173200
79.89999543	0.00000000	31.52682000	4.87204700
80.09999542	0.00000000	31.10851000	0.92888770
80.29999541	0.00000000	29.52756000	-1.35334600
80.49999540	0.00000000	26.87623000	-1.76550200
80.69999539	0.00000000	24.18184000	0.17839570
80.89999537	0.00000000	22.22564000	3.57406500
81.09999536	0.00000000	21.06299000	7.47416300
81.29999535	0.00000000	21.10605000	11.00517000
81.49999534	0.00000000	22.64394000	14.11786000
81.69999533	0.00000000	25.38755000	16.43701000
81.89999531	0.00000000	28.74015000	17.18750000
82.09999530	0.00000000	31.47761000	16.48622000
82.29999529	0.00000000	32.27731000	14.53617000
82.49999528	0.00000000	32.31422000	12.21087000
82.69999527	0.00000000	31.10851000	9.42421200
82.89999525	0.00000000	28.83243000	6.36072800
83.09999524	0.00000000	26.50098000	3.61712600
83.29999523	0.00000000	24.22490000	1.66707700
83.49999522	0.00000000	23.06225000	0.51058070
83.69999521	0.00000000	23.38214000	0.55364170
83.89999520	0.00000000	24.13263000	2.12844500
84.09999518	0.00000000	25.33834000	5.19808000
84.29999517	0.00000000	26.83317000	9.05511800
84.49999516	0.00000000	27.98966000	12.58612000
84.69999515	0.00000000	28.36491000	15.69882000
84.89999514	0.00000000	28.03888000	17.92569000
85.09999512	0.00000000	27.29453000	17.88263000
85.29999511	0.00000000	26.91929000	15.27436000
85.49999510	0.00000000	26.91929000	11.38041000
85.69999509	0.00000000	27.29453000	7.09891700
85.89999508	0.00000000	28.03888000	2.46063000
86.09999506	0.00000000	28.36491000	-0.93503930
86.29999505	0.00000000	28.03888000	-2.13459600
86.49999504	0.00000000	27.25147000	-0.97810030
86.69999503	0.00000000	26.45792000	2.12844500
86.89999502	0.00000000	25.29527000	6.72982200
87.09999501	0.00000000	24.18184000	11.74336000
87.29999499	0.00000000	23.80659000	15.60654000
87.49999498	0.00000000	24.13263000	17.92569000
87.69999497	0.00000000	24.96309000	17.88263000
87.89999496	0.00000000	26.13189000	15.23130000
88.09999495	0.00000000	28.03888000	11.00517000
88.29999493	0.00000000	29.52756000	6.35457700
88.49999492	0.00000000	29.94586000	2.12844500
88.69999491	0.00000000	29.57062000	-0.51673230
88.89999490	0.00000000	28.41412000	-0.51673230
89.09999489	0.00000000	26.87623000	2.12844500
89.29999487	0.00000000	25.33834000	6.35457700
89.49999486	0.00000000	24.18184000	10.95595000
89.69999485	0.00000000	23.80659000	14.81299000
89.89999484	0.00000000	24.13263000	16.71998000
90.09999483	0.00000000	24.92003000	16.39395000
90.29999482	0.00000000	25.71358000	14.03174000
90.49999480	0.00000000	26.87623000	10.21161000
90.69999479	0.00000000	28.03888000	5.61638700
90.89999478	0.00000000	28.78937000	2.12844500
91.09999477	0.00000000	29.15231000	0.22145670
91.29999476	0.00000000	28.41412000	0.23375980
91.49999474	0.00000000	27.34375000	2.91584600
91.69999473	0.00000000	26.91929000	6.72982200
91.89999472	0.00000000	26.87623000	11.00517000
92.09999471	0.00000000	26.87623000	14.81299000
92.29999470	0.00000000	26.87623000	16.71998000
92.49999468	0.00000000	26.87623000	16.35089000
92.69999467	0.00000000	26.83317000	13.65650000
92.89999466	0.00000000	26.45792000	9.43036400
93.09999465	0.00000000	25.67052000	4.82898600
93.29999464	0.00000000	24.92003000	1.02116100
93.49999463	0.00000000	24.18184000	-0.51673230
93.69999461	0.00000000	24.18184000	0.59670270
93.89999460	0.00000000	24.96309000	3.66633800
94.09999459	0.00000000	26.13189000	7.89247000
94.29999458	0.00000000	28.08194000	12.07554000
94.49999457	0.00000000	29.99508000	14.81299000
94.69999455	0.00000000	31.52682000	15.56348000
94.89999454	0.00000000	32.27116000	14.39468000
95.09999453	0.00000000	31.48376000	10.95595000
95.29999452	0.00000000	29.57062000	6.77903500
95.49999451	0.00000000	26.83317000	3.33415300
95.69999449	0.00000000	23.75738000	1.39025600
95.89999448	0.00000000	21.06299000	1.75319900
96.09999447	0.00000000	19.52510000	3.61712600
96.29999446	0.00000000	19.52510000	6.36072800
96.49999445	0.00000000	21.10605000	9.42421200
96.69999444	0.00000000	24.18184000	12.11860000
96.89999442	0.00000000	28.03888000	13.65650000
97.09999441	0.00000000	31.53297000	13.65650000
97.29999440	0.00000000	34.23351000	12.16781000
97.49999439	0.00000000	35.39616000	9.84867000
97.69999438	0.00000000	34.60876000	7.56643700
97.89999436	0.00000000	32.27116000	5.61638700
98.09999435	0.00000000	28.41412000	4.87204700
98.29999434	0.00000000	24.18184000	5.15501900
98.49999433	0.00000000	20.68774000	5.93626900
98.69999432	0.00000000	18.36245000	6.72982200
98.89999430	0.00000000	17.98720000	7.89247000
99.09999429	0.00000000	19.48204000	9.00590400
99.29999428	0.00000000	22.22564000	9.43036400
99.49999427	0.00000000	25.71358000	9.47342500
99.69999426	0.00000000	29.57062000	9.47342500
99.89999425	0.00000000	32.64640000	9.47342500
100.09999423	0.00000000	34.23351000	9.51648500
100.29999422	0.00000000	34.23351000	9.89173200
100.49999421	0.00000000	32.68946000	10.58686000
100.69999420	0.00000000	29.99508000	10.58686000
100.89999419	0.00000000	26.91929000	9.79945900
101.09999417	0.00000000	24.18184000	8.63681000
101.29999416	0.00000000	22.22564000	6.68676100
101.49999415	0.00000000	21.01993000	4.82283400
101.69999414	0.00000000	20.68774000	3.66633800
101.89999413	0.00000000	21.43824000	3.66633800
102.09999411	0.00000000	23.33907000	4.82283400
102.29999410	0.00000000	25.29527000	6.77903500
102.49999409	0.00000000	27.29453000	9.47342500
102.69999408	0.00000000	29.57062000	12.16781000
102.89999407	0.00000000	31.06545000	14.07480000
103.09999406	0.00000000	31.10851000	14.81299000
103.29999404	0.00000000	29.99508000	13.65650000
103.49999403	0.00000000	28.45718000	11.00517000
103.69999402	0.00000000	26.87623000	7.93553100
103.89999401	0.00000000	25.29527000	5.19808000
104.09999400	0.00000000	23.75738000	3.24803100
104.29999398	0.00000000	22.64394000	2.12844500
104.49999397	0.00000000	22.60088000	2.50369100
104.69999396	0.00000000	23.33907000	4.40452700
104.89999395	0.00000000	24.13263000	6.72982200
105.09999394	0.00000000	25.33834000	9.47342500
105.29999392	0.00000000	26.83317000	12.07554000
105.49999391	0.00000000	27.98966000	13.23819000
105.69999390	0.00000000	28.36491000	12.53691000
105.89999389	0.00000000	28.03888000	11.00517000
106.09999388	0.00000000	27.25147000	9.05511800
106.29999387	0.00000000	26.50098000	6.72982200
106.49999385	0.00000000	25.67052000	4.87204700
106.69999384	0.00000000	24.96309000	4.04158400
106.89999383	0.00000000	24.60015000	4.45374000
107.09999382	0.00000000	25.33834000	5.57332700
107.29999381	0.00000000	26.45792000	7.51722400
107.49999379	0.00000000	27.25147000	9.38115100
107.69999378	0.00000000	27.98966000	10.58686000
107.89999377	0.00000000	27.98966000	10.95595000
108.09999376	0.00000000	27.25147000	10.58686000
108.29999375	0.00000000	26.50098000	9.42421200
108.49999374	0.00000000	25.67052000	7.93553100
108.69999372	0.00000000	24.92003000	6.72982200
108.89999371	0.00000000	24.18184000	5.98548200
109.09999370	0.00000000	24.22490000	5.61638700
109.29999369	0.00000000	25.29527000	6.36072800
109.49999368	0.00000000	26.45792000	7.51722400
109.69999366	0.00000000	27.25147000	8.64296200
109.89999365	0.00000000	28.03888000	9.83636800
110.09999364	0.00000000	28.41412000	10.21776000
110.29999363	0.00000000	28.41412000	10.62992000
110.49999362	0.00000000	27.98966000	10.49459000
110.69999360	0.00000000	26.83317000	9.05511800
110.89999359	0.00000000	25.33834000	7.14812900
111.09999358	0.00000000	24.18184000	5.98548200
111.29999357	0.00000000	23.75738000	5.15501900
111.49999356	0.00000000	23.75738000	4.82898600
111.69999355	0.00000000	24.18184000	5.19808000
111.89999353	0.00000000	25.29527000	6.31151500
112.09999352	0.00000000	26.40871000	7.47416300
112.29999351	0.00000000	26.87623000	8.26771600
112.49999350	0.00000000	27.29453000	9.05511800
112.69999349	0.00000000	27.98966000	9.43036400
112.89999347	0.00000000	27.98966000	9.47342500
113.09999346	0.00000000	27.25147000	9.43036400
113.29999345	0.00000000	26.50098000	9.05511800
113.49999344	0.00000000	25.71358000	8.31077700
113.69999343	0.00000000	25.33834000	7.93553100
113.89999341	0.00000000	25.29527000	7.89247000
114.09999340	0.00000000	25.33834000	7.84940900
114.29999339	0.00000000	25.71358000	7.47416300
114.49999338	0.00000000	26.45792000	6.72982200
114.69999337	0.00000000	26.83317000	6.35457700
114.89999336	0.00000000	26.87623000	6.31151500
115.09999334	0.00000000	26.87623000	6.31151500
115.29999333	0.00000000	26.87623000	6.35457700
115.49999332	0.00000000	26.87623000	6.77903500
115.69999331	0.00000000	26.87623000	7.89247000
115.89999330	0.00000000	26.83317000	9.00590400
116.09999328	0.00000000	26.45792000	9.47342500
116.29999327	0.00000000	25.71358000	9.89173200
116.49999326	0.00000000	25.33834000	10.58686000
116.69999325	0.00000000	25.29527000	10.58686000
116.89999324	0.00000000	25.29527000	9.84867000
117.09999322	0.00000000	25.33834000	9.05511800
117.29999321	0.00000000	25.71358000	7.89247000
117.49999320	0.00000000	26.50098000	6.72982200
117.69999319	0.00000000	27.25147000	5.93626900
117.89999318	0.00000000	28.03888000	5.19808000
118.09999317	0.00000000	28.36491000	5.19808000
118.29999315	0.00000000	28.03888000	5.93626900
118.49999314	0.00000000	27.25147000	6.72982200
118.69999313	0.00000000	26.45792000	7.89247000
118.89999312	0.00000000	25.29527000	9.00590400
119.09999311	0.00000000	24.18184000	9.43036400
119.29999309	0.00000000	23.75738000	9.47342500
119.49999308	0.00000000	23.75738000	9.47342500
119.69999307	0.00000000	24.18184000	9.43036400
119.89999306	0.00000000	25.29527000	9.05511800
120.09999305	0.00000000	26.45792000	8.31077700
120.29999303	0.00000000	27.29453000	7.93553100
120.49999302	0.00000000	28.41412000	7.84940900
120.69999301	0.00000000	29.15231000	7.47416300
120.89999300	0.00000000	28.78937000	6.72982200
121.09999299	0.00000000	28.03888000	6.35457700
121.29999298	0.00000000	26.83317000	6.31151500
121.49999296	0.00000000	25.33834000	6.35457700
121.69999295	0.00000000	24.18184000	6.72982200
121.89999294	0.00000000	23.75738000	7.47416300
122.09999293	0.00000000	23.71432000	7.89247000
122.29999292	0.00000000	23.75738000	8.31077700
122.49999290	0.00000000	24.13263000	9.05511800
122.69999289	0.00000000	24.96309000	9.47342500
122.89999288	0.00000000	26.04577000	9.84867000
123.09999287	0.00000000	27.24532000	10.16855000
123.29999286	0.00000000	27.62672000	9.42421200
123.49999284	0.00000000	28.03888000	8.35998900
123.69999283	0.00000000	27.98966000	7.89247000
123.89999282	0.00000000	27.29453000	7.47416300
124.09999281	0.00000000	26.87623000	6.72982200
124.29999280	0.00000000	26.45792000	6.40378900
124.49999279	0.00000000	25.67052000	6.68676100
124.69999277	0.00000000	24.92003000	7.09891700
124.89999276	0.00000000	24.13263000	7.10506800
125.09999275	0.00000000	23.75738000	7.51722400
125.29999274	0.00000000	23.71432000	7.89247000
125.49999273	0.00000000	23.75738000	8.31077700
125.69999271	0.00000000	24.18184000	9.05511800
125.89999270	0.00000000	25.33834000	9.38115100
126.09999269	0.00000000	26.83317000	9.09817800
126.29999268	0.00000000	27.98966000	8.68602300
126.49999267	0.00000000	28.41412000	8.67987200
126.69999265	0.00000000	28.41412000	8.26771600
126.89999264	0.00000000	27.98966000	7.93553100
127.09999263	0.00000000	26.83317000	7.84940900
127.29999262	0.00000000	25.33834000	7.47416300
127.49999261	0.00000000	24.18184000	6.72982200
127.69999260	0.00000000	23.75738000	6.40378900
127.89999258	0.00000000	23.71432000	6.72982200
128.09999257	0.00000000	23.75738000	7.47416300
128.29999256	0.00000000	24.18184000	7.84940900
128.49999255	0.00000000	25.29527000	7.89247000
128.69999254	0.00000000	26.45792000	7.89247000
128.89999252	0.00000000	27.25147000	7.89247000
129.09999251	0.00000000	27.98966000	7.89247000
129.29999250	0.00000000	27.94660000	7.89247000
129.49999249	0.00000000	26.87623000	7.89247000
129.69999248	0.00000000	25.71358000	7.89247000
129.89999246	0.00000000	24.92003000	7.89247000
130.09999245	0.00000000	24.13263000	7.89247000
130.29999244	0.00000000	23.75738000	7.89247000
130.49999243	0.00000000	23.75738000	7.89247000
130.69999242	0.00000000	24.13263000	7.89247000
130.89999241	0.00000000	24.92003000	7.89247000
131.09999239	0.00000000	25.67052000	7.89247000
131.29999238	0.00000000	26.45792000	7.89247000
131.49999237	0.00000000	26.83317000	7.89247000
131.69999236	0.00000000	26.83317000	7.84940900
131.89999235	0.00000000	26.45792000	7.47416300
132.09999233	0.00000000	25.71358000	6.72982200
132.29999232	0.00000000	25.33834000	6.35457700
132.49999231	0.00000000	25.29527000	6.35457700
132.69999230	0.00000000	25.29527000	6.72982200
132.89999229	0.00000000	25.29527000	7.51722400
133.09999227	0.00000000	25.29527000	8.26771600
133.29999226	0.00000000	25.29527000	9.05511800
133.49999225	0.00000000	25.29527000	9.43036400
133.69999224	0.00000000	25.29527000	9.43036400
133.89999223	0.00000000	25.29527000	9.05511800
134.09999222	0.00000000	25.29527000	8.26771600
134.29999220	0.00000000	25.29527000	7.51722400
134.49999219	0.00000000	25.29527000	6.72982200
134.69999218	0.00000000	25.29527000	6.35457700
134.89999217	0.00000000	25.29527000	6.31151500
135.09999216	0.00000000	25.33834000	6.31151500
135.29999214	0.00000000	25.67052000	6.35457700
135.49999213	0.00000000	26.03961000	6.72982200
135.69999212	0.00000000	25.67052000	7.47416300
135.89999211	0.00000000	25.33834000	7.89247000
136.09999210	0.00000000	25.25221000	8.31077700
136.29999208	0.00000000	24.87697000	9.05511800
136.49999207	0.00000000	24.13263000	9.38115100
136.69999206	0.00000000	23.75738000	9.05511800
136.89999205	0.00000000	23.75738000	8.31077700
137.09999204	0.00000000	24.18184000	7.89247000
137.29999203	0.00000000	25.29527000	7.47416300
137.49999201	0.00000000	26.40871000	6.72982200
137.69999200	0.00000000	26.83317000	6.35457700
137.89999199	0.00000000	26.87623000	6.31151500
138.09999198	0.00000000	26.83317000	6.31151500
138.29999197	0.00000000	26.45792000	6.31151500
138.49999195	0.00000000	25.67052000	6.35457700
138.69999194	0.00000000	24.92003000	6.77903500
138.89999193	0.00000000	24.13263000	7.84940900
139.09999192	0.00000000	23.75738000	8.63681000
139.29999191	0.00000000	23.75738000	8.68602300
139.49999189	0.00000000	24.18184000	9.09817800
139.69999188	0.00000000	25.29527000	9.38115100
139.89999187	0.00000000	26.40871000	9.05511800
140.09999186	0.00000000	26.83317000	8.31077700
140.29999185	0.00000000	26.87623000	7.89247000
140.49999184	0.00000000	26.83317000	7.47416300
140.69999182	0.00000000	26.45792000	6.72982200
140.89999181	0.00000000	25.71358000	6.35457700
141.09999180	0.00000000	25.29527000	6.31151500
141.29999179	0.00000000	24.92003000	6.31151500
141.49999178	0.00000000	24.55093000	6.35457700
141.69999176	0.00000000	24.92003000	6.77903500
141.89999175	0.00000000	25.25221000	7.89247000
142.09999174	0.00000000	25.33834000	9.00590400
142.29999173	0.00000000	25.67052000	9.43036400
142.49999172	0.00000000	26.08268000	9.47342500
142.69999170	0.00000000	26.04577000	9.43036400
142.89999169	0.00000000	26.08268000	9.00590400
143.09999168	0.00000000	25.67052000	7.89247000
143.29999167	0.00000000	25.33834000	6.72982200
143.49999166	0.00000000	25.29527000	5.98548200
143.69999165	0.00000000	25.29527000	5.57332700
143.89999163	0.00000000	25.29527000	5.93626900
144.09999162	0.00000000	25.29527000	6.31151500
144.29999161	0.00000000	25.29527000	6.72982200
144.49999160	0.00000000	25.29527000	7.51722400
144.69999159	0.00000000	25.33834000	8.26771600
144.89999157	0.00000000	25.71358000	9.05511800
145.09999156	0.00000000	26.40871000	9.38115100
145.29999155	0.00000000	26.40871000	9.05511800
145.49999154	0.00000000	25.67052000	8.31077700
145.69999153	0.00000000	24.96309000	7.89247000
145.89999151	0.00000000	24.55093000	7.51722400
146.09999150	0.00000000	24.92003000	7.10506800
146.29999149	0.00000000	25.25221000	7.09891700
146.49999148	0.00000000	25.29527000	6.68676100
146.69999147	0.00000000	25.29527000	6.40378900
146.89999146	0.00000000	25.29527000	6.72982200
147.09999144	0.00000000	25.29527000	7.47416300
147.29999143	0.00000000	25.29527000	7.84940900
147.49999142	0.00000000	25.29527000	7.89247000
147.69999141	0.00000000	25.29527000	7.89247000
147.89999140	0.00000000	25.25221000	7.89247000
148.09999138	0.00000000	24.87697000	7.89247000
148.29999137	0.00000000	24.18184000	7.89247000
148.49999136	0.00000000	24.18184000	7.89247000
148.69999135	0.00000000	24.87697000	7.84940900
148.89999134	0.00000000	25.25221000	7.47416300
149.09999132	0.00000000	25.29527000	6.72982200
149.29999131	0.00000000	25.29527000	6.35457700
149.49999130	0.00000000	25.29527000	6.31151500
149.69999129	0.00000000	25.29527000	6.31151500
149.89999128	0.00000000	25.29527000	6.35457700
150.09999127	0.00000000	25.29527000	6.72982200
150.29999125	0.00000000	25.29527000	7.47416300
150.49999124	0.00000000	25.29527000	7.84940900
150.69999123	0.00000000	25.25221000	7.89247000
150.89999122	0.00000000	24.92003000	7.89247000
151.09999121	0.00000000	24.50787000	7.89247000
151.29999119	0.00000000	24.54478000	7.89247000
151.49999118	0.00000000	24.50787000	7.89247000
151.69999117	0.00000000	24.92003000	7.84940900
151.89999116	0.00000000	25.25221000	7.47416300
152.09999115	0.00000000	25.29527000	6.72982200
152.29999113	0.00000000	25.29527000	6.40378900
152.49999112	0.00000000	25.33834000	6.68676100
152.69999111	0.00000000	25.67052000	7.09891700
152.89999110	0.00000000	26.03961000	7.10506800
153.09999109	0.00000000	25.67052000	7.51722400
153.29999108	0.00000000	25.33834000	7.84940900
153.49999106	0.00000000	25.25221000	7.89247000
153.69999105	0.00000000	24.87697000	7.89247000
153.89999104	0.00000000	24.13263000	7.89247000
154.09999103	0.00000000	23.75738000	7.89247000
154.29999102	0.00000000	23.71432000	7.89247000
154.49999100	0.00000000	23.75738000	7.89247000
154.69999099	0.00000000	24.13263000	7.89247000
154.89999098	0.00000000	24.87697000	7.89247000
155.09999097	0.00000000	25.25221000	7.84940900
155.29999096	0.00000000	25.33834000	7.47416300
155.49999094	0.00000000	25.67052000	6.72982200
155.69999093	0.00000000	26.03961000	6.40378900
155.89999092	0.00000000	25.67052000	6.72982200
156.09999091	0.00000000	25.33834000	7.47416300
156.29999090	0.00000000	25.25221000	7.84940900
156.49999089	0.00000000	24.87697000	7.89247000
156.69999087	0.00000000	24.13263000	7.93553100
156.89999086	0.00000000	23.75738000	8.26771600
157.09999085	0.00000000	23.71432000	8.63681000
157.29999084	0.00000000	23.75738000	8.26771600
157.49999083	0.00000000	24.13263000	7.93553100
157.69999081	0.00000000	24.87697000	7.89247000
157.89999080	0.00000000	25.25221000	7.84940900
158.09999079	0.00000000	25.29527000	7.47416300
158.29999078	0.00000000	25.29527000	6.72982200
158.49999077	0.00000000	25.29527000	6.35457700
158.69999075	0.00000000	25.29527000	6.31151500
158.89999074	0.00000000	25.29527000	6.35457700
159.09999073	0.00000000	25.29527000	6.72982200
159.29999072	0.00000000	25.29527000	7.47416300
159.49999071	0.00000000	25.29527000	7.84940900
159.69999070	0.00000000	25.29527000	7.89247000
159.89999068	0.00000000	25.25221000	7.93553100
160.09999067	0.00000000	24.87697000	8.26771600
160.29999066	0.00000000	24.13263000	8.63681000
160.49999065	0.00000000	23.80659000	8.26771600
160.69999064	0.00000000	24.13263000	7.89247000
160.89999062	0.00000000	24.87697000	7.47416300
161.09999061	0.00000000	25.25221000	6.72982200
161.29999060	0.00000000	25.29527000	6.35457700
161.49999059	0.00000000	25.29527000	6.35457700
161.69999058	0.00000000	25.29527000	6.72982200
161.89999056	0.00000000	25.29527000	7.47416300
162.09999055	0.00000000	25.29527000	7.84940900
162.29999054	0.00000000	25.29527000	7.89247000
162.49999053	0.00000000	25.29527000	7.89247000
162.69999052	0.00000000	25.29527000	7.89247000
162.89999051	0.00000000	25.29527000	7.89247000
163.09999049	0.00000000	25.25221000	7.89247000
163.29999048	0.00000000	24.87697000	7.89247000
163.49999047	0.00000000	24.13263000	7.89247000
163.69999046	0.00000000	23.75738000	7.89247000
163.89999045	0.00000000	23.71432000	7.89247000
164.09999043	0.00000000	23.71432000	7.89247000
164.29999042	0.00000000	23.75738000	7.84940900
164.49999041	0.00000000	24.13263000	7.51722400
164.69999040	0.00000000	24.87697000	7.14812900
164.89999039	0.00000000	25.25221000	7.51722400
165.09999037	0.00000000	25.29527000	7.84940900
165.29999036	0.00000000	25.29527000	7.89247000
165.49999035	0.00000000	25.29527000	7.89247000
165.69999034	0.00000000	25.29527000	7.89247000
165.89999033	0.00000000	25.25221000	7.89247000
166.09999032	0.00000000	24.87697000	7.89247000
166.29999030	0.00000000	24.13263000	7.89247000
166.49999029	0.00000000	23.75738000	7.89247000
166.69999028	0.00000000	23.71432000	7.89247000
166.89999027	0.00000000	23.71432000	7.84940900
167.09999026	0.00000000	23.75738000	7.51722400
167.29999024	0.00000000	24.13263000	7.10506800
167.49999023	0.00000000	24.87697000	7.09891700
167.69999022	0.00000000	25.25221000	6.68676100
167.89999021	0.00000000	25.29527000	6.40378900
168.09999020	0.00000000	25.29527000	6.72982200
168.29999018	0.00000000	25.29527000	7.47416300
168.49999017	0.00000000	25.29527000	7.80019600
168.69999016	0.00000000	25.29527000	7.47416300
168.89999015	0.00000000	25.29527000	6.77903500
169.09999014	0.00000000	25.25221000	6.77903500
169.29999013	0.00000000	24.87697000	7.47416300
169.49999011	0.00000000	24.18184000	7.84940900
169.69999010	0.00000000	24.18184000	7.89247000
169.89999009	0.00000000	24.87697000	7.89247000
170.09999008	0.00000000	25.25221000	7.89247000
170.29999007	0.00000000	25.29527000	7.89247000
170.49999005	0.00000000	25.29527000	7.84940900
170.69999004	0.00000000	25.29527000	7.47416300
170.89999003	0.00000000	25.29527000	6.72982200
171.09999002	0.00000000	25.29527000	6.40378900
171.29999001	0.00000000	25.29527000	6.72982200
171.49998999	0.00000000	25.29527000	7.42495000
171.69998998	0.00000000	25.29527000	7.42495000
171.89998997	0.00000000	25.29527000	6.77903500
172.09998996	0.00000000	25.25221000	6.72982200
172.29998995	0.00000000	24.92003000	7.09891700
172.49998994	0.00000000	24.50787000	7.10506800
172.69998992	0.00000000	24.50172000	7.51722400
172.89998991	0.00000000	24.13263000	7.84940900
173.09998990	0.00000000	24.18184000	7.89247000
173.29998989	0.00000000	24.87697000	7.89247000
173.49998988	0.00000000	25.25221000	7.89247000
173.69998986	0.00000000	25.29527000	7.89247000
173.89998985	0.00000000	25.29527000	7.89247000
174.09998984	0.00000000	25.29527000	7.84940900
174.29998983	0.00000000	25.29527000	7.51722400
174.49998982	0.00000000	25.25221000	7.06200700
174.69998980	0.00000000	24.92003000	6.76673200
174.89998979	0.00000000	24.55093000	6.32381900
175.09998978	0.00000000	24.87697000	6.76673200
175.29998977	0.00000000	24.82775000	7.06200700
175.49998976	0.00000000	24.13263000	7.51722400
175.69998975	0.00000000	23.80659000	7.84940900
175.89998973	0.00000000	24.08957000	7.84940900
176.09998972	0.00000000	24.50172000	7.51722400
176.29998971	0.00000000	24.50787000	7.14812900
176.49998970	0.00000000	24.92003000	7.51722400
176.69998969	0.00000000	25.25221000	7.84940900
176.89998967	0.00000000	25.29527000	7.89247000
177.09998966	0.00000000	25.29527000	7.89247000
177.29998965	0.00000000	25.29527000	7.89247000
177.49998964	0.00000000	25.25221000	7.89247000
177.69998963	0.00000000	24.92003000	7.89247000
177.89998961	0.00000000	24.55093000	7.89247000
178.09998960	0.00000000	24.87697000	7.84940900
178.29998959	0.00000000	24.82775000	7.47416300
178.49998958	0.00000000	24.18184000	6.72982200
178.69998957	0.00000000	24.13263000	6.40378900
178.89998956	0.00000000	24.50172000	6.72982200
179.09998954	0.00000000	24.46481000	7.42495000
179.29998953	0.00000000	24.54478000	7.42495000
179.49998952	0.00000000	24.50787000	6.72982200
179.69998951	0.00000000	24.87697000	6.35457700
179.89998950	0.00000000	24.82775000	6.31151500
180.09998948	0.00000000	24.18184000	6.31151500
180.29998947	0.00000000	24.18184000	6.31151500
180.49998946	0.00000000	24.82775000	6.31151500
180.69998945	0.00000000	24.82775000	6.35457700
180.89998944	0.00000000	24.13263000	6.72982200
181.09998942	0.00000000	23.75738000	7.47416300
181.29998941	0.00000000	23.71432000	7.84940900
181.49998940	0.00000000	23.71432000	7.89247000
181.69998939	0.00000000	23.75738000	7.89247000
181.89998938	0.00000000	24.13263000	7.89247000
182.09998937	0.00000000	24.87697000	7.89247000
182.29998935	0.00000000	25.25221000	7.84940900
182.49998934	0.00000000	25.29527000	7.51722400
182.69998933	0.00000000	25.29527000	7.10506800
182.89998932	0.00000000	25.25221000	7.09891700
183.09998931	0.00000000	24.92003000	6.68676100
183.29998929	0.00000000	24.50787000	6.35457700
183.49998928	0.00000000	24.50172000	6.31151500
183.69998927	0.00000000	24.08957000	6.35457700
183.89998926	0.00000000	23.75738000	6.72982200
184.09998925	0.00000000	23.71432000	7.47416300
184.29998923	0.00000000	23.71432000	7.84940900
184.49998922	0.00000000	23.71432000	7.89247000
184.69998921	0.00000000	23.71432000	7.89247000
184.89998920	0.00000000	23.71432000	7.89247000
185.09998919	0.00000000	23.75738000	7.89247000
185.29998918	0.00000000	24.08957000	7.84940900
185.49998916	0.00000000	24.50172000	7.47416300
185.69998915	0.00000000	24.50787000	6.72982200
185.89998914	0.00000000	24.87697000	6.35457700
186.09998913	0.00000000	24.82775000	6.31151500
186.29998912	0.00000000	24.13263000	6.31151500
186.49998910	0.00000000	23.75738000	6.31151500
186.69998909	0.00000000	23.71432000	6.31151500
186.89998908	0.00000000	23.75738000	6.35457700
187.09998907	0.00000000	24.08957000	6.72982200
187.29998906	0.00000000	24.45866000	7.47416300
187.49998904	0.00000000	24.08957000	7.84940900
187.69998903	0.00000000	23.75738000	7.89247000
187.89998902	0.00000000	23.71432000	7.89247000
188.09998901	0.00000000	23.71432000	7.84940900
188.29998900	0.00000000	23.71432000	7.47416300
188.49998899	0.00000000	23.75738000	6.72982200
188.69998897	0.00000000	24.08957000	6.35457700
188.89998896	0.00000000	24.45866000	6.31151500
189.09998895	0.00000000	24.08957000	6.31151500
189.29998894	0.00000000	23.75738000	6.31151500
189.49998893	0.00000000	23.71432000	6.31151500
189.69998891	0.00000000	23.71432000	6.31151500
189.89998890	0.00000000	23.71432000	6.35457700
190.09998889	0.00000000	23.71432000	6.72982200
190.29998888	0.00000000	23.71432000	7.47416300
190.49998887	0.00000000	23.71432000	7.84940900
190.69998885	0.00000000	23.71432000	7.89247000
190.89998884	0.00000000	23.71432000	7.84940900
191.09998883	0.00000000	23.75738000	7.51722400
191.29998882	0.00000000	24.08957000	7.14812900
191.49998881	0.00000000	24.45866000	7.47416300
191.69998880	0.00000000	24.13263000	7.42495000
191.89998878	0.00000000	24.13263000	6.72982200
192.09998877	0.00000000	24.45866000	6.35457700
192.29998876	0.00000000	24.08957000	6.31151500
192.49998875	0.00000000	23.75738000	6.31151500
192.69998874	0.00000000	23.71432000	6.31151500
192.89998872	0.00000000	23.71432000	6.31151500
193.09998871	0.00000000	23.71432000	6.35457700
193.29998870	0.00000000	23.71432000	6.72982200
193.49998869	0.00000000	23.71432000	7.47416300
193.69998868	0.00000000	23.71432000	7.84940900
193.89998866	0.00000000	23.71432000	7.89247000
194.09998865	0.00000000	23.75738000	7.89247000
194.29998864	0.00000000	24.13263000	7.89247000
194.49998863	0.00000000	24.87697000	7.89247000
194.69998862	0.00000000	25.20300000	7.89247000
194.89998861	0.00000000	24.87697000	7.84940900
195.09998859	0.00000000	24.13263000	7.47416300
195.29998858	0.00000000	23.75738000	6.72982200
195.49998857	0.00000000	23.71432000	6.35457700
195.69998856	0.00000000	23.71432000	6.31151500
195.89998855	0.00000000	23.71432000	6.31151500
196.09998853	0.00000000	23.71432000	6.31151500
