Time	Channel A	Channel B	Channel C
(us)	(V)	(mV)	(mV)

-4.49999956	0.00000000	-12.64764000	-10.21161000
-4.29999957	0.00000000	-12.64764000	-9.84867000
-4.09999958	0.00000000	-12.64764000	-9.51648500
-3.89999959	0.00000000	-12.64764000	-9.47342500
-3.69999960	0.00000000	-12.64764000	-9.47342500
-3.49999962	0.00000000	-12.64764000	-9.47342500
-3.29999963	0.00000000	-12.64764000	-9.47342500
-3.09999964	0.00000000	-12.64764000	-9.47342500
-2.89999965	0.00000000	-12.64764000	-9.47342500
-2.69999966	0.00000000	-12.64764000	-9.47342500
-2.49999968	0.00000000	-12.64764000	-9.47342500
-2.29999969	0.00000000	-12.64764000	-9.47342500
-2.09999970	0.00000000	-12.64764000	-9.47342500
-1.89999971	0.00000000	-12.64764000	-9.51648500
-1.69999972	0.00000000	-12.64764000	-9.84867000
-1.49999973	0.00000000	-12.64764000	-10.21161000
-1.29999975	0.00000000	-12.64764000	-9.84867000
-1.09999976	0.00000000	-12.64764000	-9.51648500
-0.89999977	0.00000000	-12.64764000	-9.47342500
-0.69999978	0.00000000	-12.64764000	-9.47342500
-0.49999979	0.00000000	-12.64764000	-9.47342500
-0.29999981	0.31803640	-12.64764000	-9.47342500
-0.09999982	0.63668800	-12.64764000	-9.47342500
0.10000017	0.95533960	-12.64764000	-9.51648500
0.30000016	0.95533960	-12.64764000	-9.89173200
0.50000015	0.95533960	-12.64764000	-10.62992000
0.70000013	0.31803640	-12.64764000	-11.00517000
0.90000012	-0.47736220	-12.64764000	-11.04823000
1.10000011	-1.43331700	-12.64764000	-11.04823000
1.30000010	-2.38927200	-12.64764000	-11.00517000
1.50000009	-2.70792300	-12.64764000	-10.62992000
1.70000008	-2.54859700	-12.64764000	-9.89173200
1.90000006	-1.27399100	-12.64764000	-9.51648500
2.10000005	0.47736220	-12.64764000	-9.51648500
2.30000004	2.54859700	-12.64764000	-9.89173200
2.50000003	4.45989200	-12.64764000	-10.62992000
2.70000002	5.25652100	-12.64764000	-11.00517000
2.90000000	4.93786900	-12.64764000	-11.04823000
3.09999999	3.02657500	-12.64764000	-11.04823000
3.29999998	0.00000000	-12.64764000	-11.04823000
3.49999997	-3.34522600	-12.64764000	-11.00517000
3.69999996	-6.21247500	-12.64764000	-10.62992000
3.89999994	-7.80511800	-12.64764000	-9.89173200
4.09999993	-7.48646600	-12.64764000	-9.51648500
4.29999992	-5.09719500	-12.64764000	-9.47342500
4.49999991	-1.27399100	-12.64764000	-9.47342500
4.69999990	3.18590100	-12.64764000	-9.51648500
4.89999989	7.00848900	-12.64764000	-9.89173200
5.09999987	9.23905000	-12.64764000	-10.62992000
5.29999986	9.23905000	-12.64764000	-11.00517000
5.49999985	6.84916400	-12.69070000	-11.04823000
5.69999984	2.70792300	-13.02288000	-11.04823000
5.89999983	-2.22994600	-13.39198000	-11.04823000
6.09999981	-6.37180100	-13.02288000	-11.00517000
6.29999980	-9.07972400	-12.69070000	-10.62992000
6.49999979	-9.39837600	-12.64764000	-9.89173200
6.69999978	-7.32714100	-12.64764000	-9.51648500
6.89999977	-3.50393700	-12.60458000	-9.51648500
7.09999975	0.79601380	-12.31545000	-9.84867000
7.29999974	4.61921700	-12.27854000	-10.25467000
7.49999973	7.16781500	-13.01673000	-10.26698000
7.69999972	7.64579200	-12.97982000	-10.67298000
7.89999971	6.37180100	-12.69070000	-11.00517000
8.09999970	3.50393700	-12.64764000	-11.04823000
8.29999968	0.31803640	-12.64764000	-11.04823000
8.49999967	-2.70792300	-12.64764000	-11.04823000
8.69999966	-4.61921700	-12.64764000	-11.04823000
8.89999965	-5.25652100	-12.64764000	-11.04823000
9.09999964	-4.45989200	-12.64764000	-11.04823000
9.29999962	-2.70792300	-12.64764000	-11.04823000
9.49999961	-0.79601380	-12.64764000	-11.04823000
9.69999960	0.95533960	-12.64764000	-11.04823000
9.89999959	2.22994600	-12.64764000	-11.04823000
10.09999958	2.54859700	-12.69070000	-11.04823000
10.29999956	2.22994600	-13.02288000	-11.04823000
10.49999955	1.43331700	-13.39198000	-11.04823000
10.69999954	0.63668800	-13.02288000	-11.04823000
10.89999953	-0.15871060	-12.69070000	-11.04823000
11.09999952	-0.63668800	-12.64764000	-11.04823000
11.29999951	-0.95533960	-12.64764000	-11.04823000
11.49999949	-0.95533960	-12.69070000	-11.04823000
11.69999948	-0.79601380	-13.02288000	-11.04823000
11.89999947	-0.47736220	-13.39198000	-11.04823000
12.09999946	-0.15871060	-13.02288000	-11.04823000
12.29999945	-0.15871060	-12.69070000	-11.04823000
12.49999943	0.00000000	-12.64764000	-11.04823000
12.69999942	0.00000000	-12.64764000	-11.04823000
12.89999941	0.00000000	-12.64764000	-11.04823000
13.09999940	0.00000000	-12.69070000	-11.04823000
13.29999939	0.15871060	-13.02288000	-11.04823000
13.49999937	0.00000000	-13.43504000	-11.04823000
13.69999936	0.00000000	-13.39813000	-11.04823000
13.89999935	0.00000000	-13.43504000	-11.04823000
14.09999934	-0.15871060	-13.02288000	-11.04823000
14.29999933	-0.15871060	-12.73991000	-11.04823000
14.49999932	-0.15871060	-13.06594000	-11.04823000
14.69999930	0.00000000	-13.81028000	-11.04823000
14.89999929	0.00000000	-14.18553000	-11.04823000
15.09999928	0.00000000	-14.22859000	-11.04823000
15.29999927	0.00000000	-14.22859000	-11.04823000
15.49999926	0.00000000	-14.22859000	-11.04823000
15.69999924	0.00000000	-14.18553000	-11.04823000
15.89999923	0.00000000	-13.85334000	-11.04823000
16.09999922	0.00000000	-13.48425000	-11.04823000
16.29999921	0.00000000	-13.81028000	-11.04823000
16.49999920	-0.15871060	-13.76107000	-11.04823000
16.69999919	-0.15871060	-13.06594000	-11.04823000
16.89999917	0.00000000	-12.69070000	-11.04823000
17.09999916	0.00000000	-12.60458000	-11.04823000
17.29999915	0.00000000	-12.22933000	-11.04823000
17.49999914	0.00000000	-11.48499000	-11.04823000
17.69999913	0.00000000	-11.15896000	-11.04823000
17.89999911	0.00000000	-11.53420000	-11.04823000
18.09999910	0.00000000	-12.69070000	-11.04823000
18.29999909	0.00000000	-14.22859000	-11.04823000
18.49999908	0.00000000	-15.80955000	-11.04823000
18.69999907	0.00000000	-17.34744000	-11.04823000
18.89999905	0.00000000	-18.46087000	-11.04823000
19.09999904	0.00000000	-18.46087000	-11.04823000
19.29999903	0.00000000	-17.25517000	-11.04823000
19.49999902	0.00000000	-14.92372000	-11.04823000
19.69999901	0.00000000	-11.39887000	-11.04823000
19.89999900	0.00000000	-7.57258800	-11.04823000
20.09999898	0.00000000	-4.09079700	-11.04823000
20.29999897	0.00000000	-2.22687000	-11.04823000
20.49999896	0.00000000	-2.64517700	-11.04823000
20.69999895	0.00000000	-5.80708600	-11.04823000
20.89999894	0.00000000	-11.62032000	-11.04823000
21.09999892	0.00000000	-18.97145000	-11.04823000
21.29999891	0.00000000	-26.32259000	-11.04823000
21.49999890	0.00000000	-32.04970000	-11.04823000
21.69999889	0.00000000	-34.32578000	-11.04823000
21.89999888	0.00000000	-31.91437000	-11.04823000
22.09999886	0.00000000	-24.88312000	-11.04823000
22.29999885	0.00000000	-13.63189000	-11.04823000
22.49999884	0.00000000	-0.55364170	-11.04823000
22.69999883	0.00000000	10.98671000	-11.04823000
22.89999882	0.00000000	17.87033000	-11.04823000
23.09999881	0.00000000	17.82726000	-11.00517000
23.29999879	0.00000000	10.38386000	-10.67298000
23.49999878	0.00000000	-3.57406500	-10.26698000
23.69999877	0.00000000	-21.71506000	-10.25467000
23.89999876	0.00000000	-39.40084000	-9.84867000
24.09999875	0.00000000	-52.14690000	-9.56569900
24.29999873	0.00000000	-56.71136000	-9.93479300
24.49999872	0.00000000	-51.63632000	-11.09744000
24.69999871	0.00000000	-37.30930000	-12.62918000
24.89999870	0.00000000	-16.83686000	-14.21014000
25.09999869	0.00000000	5.21653500	-15.74188000
25.29999867	0.00000000	24.05881000	-16.89837000
25.49999866	0.00000000	34.85482000	-17.23056000
25.69999865	0.00000000	34.44267000	-16.43701000
25.89999864	0.00000000	23.22219000	-14.07480000
26.09999863	0.00000000	3.08193900	-10.62992000
26.29999862	0.00000000	-21.57972000	-6.72982200
26.49999860	0.00000000	-44.75270000	-3.24803100
26.69999859	0.00000000	-60.98671000	-0.59670270
26.89999858	0.00000000	-66.76304000	0.04921259
27.09999857	0.00000000	-60.56840000	-2.63902500
27.29999856	0.00000000	-43.63311000	-8.02780400
27.49999854	0.00000000	-20.46629000	-14.67150000
27.69999853	0.00000000	3.50024600	-22.01649000
27.89999852	0.00000000	23.22219000	-28.51870000
28.09999851	0.00000000	34.01820000	-31.91437000
28.29999850	0.00000000	33.73523000	-31.12082000
28.49999848	0.00000000	22.94537000	-25.63976000
28.69999847	0.00000000	4.79207600	-16.35089000
28.89999846	0.00000000	-16.83686000	-4.73671200
29.09999845	0.00000000	-36.93405000	6.78518600
29.29999844	0.00000000	-50.94119000	15.24360000
29.49999843	0.00000000	-56.75443000	18.31324000
29.69999841	0.00000000	-53.30954000	15.15133000
29.89999840	0.00000000	-41.44931000	5.81323800
30.09999839	0.00000000	-25.20915000	-8.49532500
30.29999838	0.00000000	-8.13238100	-24.61860000
30.49999837	0.00000000	6.98203700	-38.55192000
30.69999835	0.00000000	16.66462000	-47.01648000
30.89999834	0.00000000	19.45128000	-48.54207000
31.09999833	0.00000000	15.21900000	-41.90453000
31.29999832	0.00000000	5.21653500	-28.42643000
31.49999831	0.00000000	-7.94783400	-11.00517000
31.69999829	0.00000000	-21.49360000	6.74212600
31.89999828	0.00000000	-32.70177000	21.05069000
32.09999827	0.00000000	-38.93946000	28.76476000
32.29999826	0.00000000	-39.45005000	28.34030000
32.49999825	0.00000000	-35.16855000	19.42667000
32.69999824	0.00000000	-27.01772000	3.62942900
32.89999822	0.00000000	-16.22785000	-15.28051000
33.09999821	0.00000000	-5.80708600	-33.07701000
33.29999820	0.00000000	1.96235200	-46.22293000
33.49999819	0.00000000	5.86860200	-51.98696000
33.69999818	0.00000000	5.08120100	-48.96038000
33.89999816	0.00000000	0.09842519	-38.18897000
34.09999815	0.00000000	-7.99704600	-22.71161000
34.29999814	0.00000000	-16.83686000	-5.29035400
34.49999813	0.00000000	-24.18799000	10.50689000
34.69999812	0.00000000	-28.42027000	20.95841000
34.89999810	0.00000000	-28.50640000	24.07111000
35.09999809	0.00000000	-25.06767000	19.46973000
35.29999808	0.00000000	-19.66658000	8.32308000
35.49999807	0.00000000	-13.11516000	-6.36072800
35.69999806	0.00000000	-7.38804100	-21.41363000
35.89999805	0.00000000	-4.22613100	-33.76599000
36.09999803	0.00000000	-3.85088600	-40.32357000
36.29999802	0.00000000	-6.18233200	-39.95448000
36.49999801	0.00000000	-11.15896000	-32.65871000
36.69999800	0.00000000	-16.87992000	-20.43553000
36.89999799	0.00000000	-21.53666000	-7.33267600
37.09999797	0.00000000	-24.23105000	3.49409400
37.29999796	0.00000000	-24.23105000	9.99630800
37.49999795	0.00000000	-21.57972000	9.99630800
37.69999794	0.00000000	-17.34744000	3.58636800
37.89999793	0.00000000	-12.69070000	-6.36072800
38.09999791	0.00000000	-8.45841400	-16.76919000
38.29999790	0.00000000	-5.76402500	-25.17839000
38.49999789	0.00000000	-5.33956700	-29.02928000
38.69999788	0.00000000	-6.87746000	-27.13459000
38.89999787	0.00000000	-10.03937000	-20.66314000
39.09999786	0.00000000	-14.60384000	-11.42347000
39.29999784	0.00000000	-19.20522000	-2.26377900
39.49999783	0.00000000	-21.95497000	4.18922200
39.69999782	0.00000000	-23.20374000	5.34571800
39.89999781	0.00000000	-23.16068000	0.79970470
40.09999780	0.00000000	-21.57972000	-7.24040300
40.29999778	0.00000000	-18.50394000	-16.90453000
40.49999777	0.00000000	-14.64690000	-25.68897000
40.69999776	0.00000000	-11.15896000	-31.02854000
40.89999775	0.00000000	-8.41535400	-31.02854000
41.09999774	0.00000000	-6.87746000	-25.68897000
41.29999772	0.00000000	-6.83439900	-16.85531000
41.49999771	0.00000000	-8.04010800	-6.82209600
41.69999770	0.00000000	-10.37155000	2.00541300
41.89999769	0.00000000	-13.85334000	7.30191900
42.09999768	0.00000000	-17.29823000	7.01894700
42.29999767	0.00000000	-20.08489000	1.67938000
42.49999765	0.00000000	-21.99803000	-6.04084600
42.69999764	0.00000000	-22.78543000	-15.32357000
42.89999763	0.00000000	-21.99803000	-23.68971000
43.09999762	0.00000000	-20.13410000	-28.34030000
43.29999761	0.00000000	-17.80881000	-28.42643000
43.49999759	0.00000000	-15.85261000	-24.61860000
43.69999758	0.00000000	-14.27165000	-18.47933000
43.89999757	0.00000000	-13.11516000	-11.55881000
44.09999756	0.00000000	-12.64764000	-5.75172200
44.29999755	0.00000000	-12.22933000	-2.22071800
44.49999753	0.00000000	-11.48499000	-1.01501000
44.69999752	0.00000000	-11.10974000	-2.17765700
44.89999751	0.00000000	-11.06668000	-5.24729300
45.09999750	0.00000000	-11.10974000	-9.47342500
45.29999749	0.00000000	-11.57726000	-13.69956000
45.49999748	0.00000000	-13.15822000	-16.81225000
45.69999746	0.00000000	-15.85261000	-18.39321000
45.89999745	0.00000000	-18.97145000	-18.39321000
46.09999744	0.00000000	-22.09030000	-16.90453000
46.29999743	0.00000000	-24.78469000	-14.58538000
46.49999742	0.00000000	-26.23031000	-12.25394000
46.69999740	0.00000000	-25.39370000	-9.89173200
46.89999739	0.00000000	-21.53666000	-8.02780400
47.09999738	0.00000000	-15.76649000	-7.19734200
47.29999737	0.00000000	-9.52879000	-7.60949800
47.49999736	0.00000000	-3.71555100	-8.72908400
47.69999734	0.00000000	0.47367120	-10.72219000
47.89999733	0.00000000	1.54404500	-13.00443000
48.09999732	0.00000000	-1.53174200	-15.32357000
48.29999731	0.00000000	-8.13238100	-16.85531000
48.49999730	0.00000000	-16.60310000	-17.23056000
48.69999729	0.00000000	-25.52903000	-16.43701000
48.89999727	0.00000000	-32.37574000	-14.11786000
49.09999726	0.00000000	-35.48843000	-11.04823000
49.29999725	0.00000000	-33.53838000	-7.98474400
49.49999724	0.00000000	-27.39296000	-5.66560000
49.69999723	0.00000000	-18.46087000	-4.87204700
49.89999721	0.00000000	-8.45841400	-5.29035400
50.09999720	0.00000000	-0.03690945	-7.28346400
50.29999719	0.00000000	4.23843500	-11.09129000
50.49999718	0.00000000	3.50024600	-15.27436000
50.69999717	0.00000000	-1.48253000	-18.43627000
50.89999715	0.00000000	-9.62106200	-20.34941000
51.09999714	0.00000000	-18.83612000	-20.71235000
51.29999713	0.00000000	-26.92544000	-18.71924000
51.49999712	0.00000000	-31.53912000	-14.94833000
51.69999711	0.00000000	-31.58218000	-10.31004000
51.89999710	0.00000000	-27.34990000	-6.44685000
52.09999708	0.00000000	-20.08489000	-3.70939900
52.29999707	0.00000000	-12.03863000	-2.63902500
52.49999706	0.00000000	-5.85014700	-4.12770700
52.69999705	0.00000000	-2.68823800	-7.56028500
52.89999704	0.00000000	-2.73745100	-11.42347000
53.09999702	0.00000000	-6.18233200	-15.32357000
53.29999701	0.00000000	-12.31545000	-18.35015000
53.49999700	0.00000000	-18.79306000	-19.55585000
53.69999699	0.00000000	-23.85581000	-18.76845000
53.89999698	0.00000000	-26.14419000	-16.48622000
54.09999696	0.00000000	-25.39370000	-13.04749000
54.29999695	0.00000000	-21.57972000	-10.02707000
54.49999694	0.00000000	-16.22785000	-8.44611200
54.69999693	0.00000000	-11.24508000	-8.40305000
54.89999692	0.00000000	-7.76328700	-9.55954600
55.09999691	0.00000000	-7.01279500	-11.42347000
55.29999689	0.00000000	-8.87672100	-13.32431000
55.49999688	0.00000000	-12.69070000	-14.07480000
55.69999687	0.00000000	-16.92298000	-13.79183000
55.89999686	0.00000000	-20.41708000	-12.91215000
56.09999685	0.00000000	-22.74237000	-11.41732000
56.29999683	0.00000000	-23.11762000	-9.14739100
56.49999682	0.00000000	-21.57972000	-8.11392700
56.69999681	0.00000000	-18.50394000	-8.82135800
56.89999680	0.00000000	-14.69611000	-11.18356000
57.09999679	0.00000000	-11.62032000	-14.62844000
57.29999677	0.00000000	-10.03937000	-18.43627000
57.49999676	0.00000000	-10.03937000	-21.08760000
57.69999675	0.00000000	-11.57726000	-21.46284000
57.89999674	0.00000000	-14.22859000	-19.50664000
58.09999673	0.00000000	-16.92298000	-15.23130000
58.29999672	0.00000000	-18.87918000	-9.51648500
58.49999670	0.00000000	-20.04183000	-4.12770700
58.69999669	0.00000000	-20.04183000	-0.68897630
58.89999668	0.00000000	-18.87918000	0.09842519
59.09999667	0.00000000	-17.01525000	-2.26377900
59.29999666	0.00000000	-15.06521000	-7.28346400
59.49999664	0.00000000	-13.94562000	-14.25320000
59.69999663	0.00000000	-13.53346000	-21.50590000
59.89999662	0.00000000	-14.32087000	-26.84547000
60.09999661	0.00000000	-15.76649000	-28.42643000
60.29999660	0.00000000	-16.97219000	-26.10728000
60.49999658	0.00000000	-17.76575000	-20.66314000
60.69999657	0.00000000	-18.50394000	-12.58612000
60.89999656	0.00000000	-18.46087000	-4.17691900
61.09999655	0.00000000	-17.34744000	2.00541300
61.29999654	0.00000000	-15.80955000	4.74286400
61.49999653	0.00000000	-14.27165000	3.53715500
61.69999651	0.00000000	-13.15822000	-1.48253000
61.89999650	0.00000000	-13.15822000	-9.56569900
62.09999649	0.00000000	-14.32087000	-18.39321000
62.29999648	0.00000000	-16.22785000	-25.68897000
62.49999647	0.00000000	-18.55315000	-29.58907000
62.69999645	0.00000000	-20.46014000	-29.21998000
62.89999644	0.00000000	-21.62278000	-25.35679000
63.09999643	0.00000000	-21.57972000	-18.39321000
63.29999642	0.00000000	-20.04183000	-9.98400600
63.49999641	0.00000000	-17.39050000	-2.63902500
63.69999639	0.00000000	-14.64690000	2.04847400
63.89999638	0.00000000	-12.31545000	3.62942900
64.09999637	0.00000000	-10.41462000	2.04847400
64.29999636	0.00000000	-10.08243000	-2.55290300
64.49999635	0.00000000	-11.57726000	-9.09817800
64.69999634	0.00000000	-14.27165000	-15.69882000
64.89999632	0.00000000	-17.34744000	-21.50590000
65.09999631	0.00000000	-20.04183000	-25.31373000
65.29999630	0.00000000	-21.57972000	-25.73203000
65.49999629	0.00000000	-21.62278000	-23.12992000
65.69999628	0.00000000	-20.46014000	-18.90379000
65.89999626	0.00000000	-18.55315000	-14.21014000
66.09999625	0.00000000	-16.22785000	-9.56569900
66.29999624	0.00000000	-14.32087000	-5.66560000
66.49999623	0.00000000	-13.15822000	-3.33415300
66.69999622	0.00000000	-13.15822000	-2.50369100
66.89999620	0.00000000	-14.32087000	-3.29109200
67.09999619	0.00000000	-16.18479000	-5.19808000
67.29999618	0.00000000	-18.08563000	-7.93553100
67.49999617	0.00000000	-18.83612000	-11.04823000
67.69999616	0.00000000	-18.50394000	-14.21014000
67.89999615	0.00000000	-17.34744000	-17.32283000
68.09999613	0.00000000	-15.76649000	-20.01722000
68.29999612	0.00000000	-13.85334000	-21.54897000
68.49999611	0.00000000	-12.03863000	-21.59203000
68.69999610	0.00000000	-12.03863000	-20.39247000
68.89999609	0.00000000	-13.94562000	-18.01796000
69.09999607	0.00000000	-16.64616000	-14.07480000
69.29999606	0.00000000	-20.13410000	-9.14124000
69.49999605	0.00000000	-23.16068000	-4.50295200
69.69999604	0.00000000	-24.69857000	-1.80241100
69.89999603	0.00000000	-24.32333000	-1.01501000
70.09999601	0.00000000	-21.95497000	-2.59596400
70.29999600	0.00000000	-18.08563000	-6.44685000
70.49999599	0.00000000	-13.11516000	-11.46653000
70.69999598	0.00000000	-8.87672100	-16.89837000
70.89999597	0.00000000	-6.55142700	-21.50590000
71.09999596	0.00000000	-6.13927100	-24.20029000
71.29999594	0.00000000	-8.17544300	-24.24335000
71.49999593	0.00000000	-12.37082000	-21.92421000
71.69999592	0.00000000	-18.17790000	-18.06102000
71.89999591	0.00000000	-23.53592000	-13.04749000
72.09999590	0.00000000	-27.43602000	-8.48917200
72.29999588	0.00000000	-28.97392000	-5.70866100
72.49999587	0.00000000	-27.81127000	-4.91510800
72.69999586	0.00000000	-24.36639000	-5.66560000
72.89999585	0.00000000	-19.34670000	-7.98474400
73.09999584	0.00000000	-14.32087000	-11.00517000
73.29999582	0.00000000	-10.03937000	-13.74262000
73.49999581	0.00000000	-7.38804100	-15.69882000
73.69999580	0.00000000	-7.34498000	-16.85531000
73.89999579	0.00000000	-9.62106200	-16.81225000
74.09999578	0.00000000	-13.11516000	-15.36663000
74.29999577	0.00000000	-17.39050000	-13.50886000
74.49999575	0.00000000	-21.62278000	-12.76452000
74.69999574	0.00000000	-24.69857000	-13.09670000
74.89999573	0.00000000	-25.85507000	-14.25320000
75.09999572	0.00000000	-24.74163000	-15.74188000
75.29999571	0.00000000	-22.09030000	-16.89837000
75.49999569	0.00000000	-19.01451000	-17.23056000
75.69999568	0.00000000	-16.27707000	-16.43701000
75.89999567	0.00000000	-14.32087000	-14.07480000
76.09999566	0.00000000	-13.15822000	-10.67298000
76.29999565	0.00000000	-13.15822000	-7.19734200
76.49999563	0.00000000	-14.27165000	-4.95816900
76.69999562	0.00000000	-15.76649000	-4.54601300
76.89999561	0.00000000	-16.92298000	-6.48991100
77.09999560	0.00000000	-17.34744000	-9.93479300
77.29999559	0.00000000	-17.39050000	-14.25320000
77.49999558	0.00000000	-17.39050000	-18.85458000
77.69999556	0.00000000	-17.39050000	-22.66855000
77.89999555	0.00000000	-17.43356000	-24.20029000
78.09999554	0.00000000	-17.85802000	-23.04380000
78.29999553	0.00000000	-18.97145000	-19.55585000
78.49999552	0.00000000	-20.08489000	-14.16708000
78.69999550	0.00000000	-20.46014000	-8.40305000
78.89999549	0.00000000	-20.08489000	-3.70939900
79.09999548	0.00000000	-18.92839000	-0.64591530
79.29999547	0.00000000	-17.34744000	0.09842519
79.49999546	0.00000000	-15.39124000	-2.17765700
79.69999544	0.00000000	-13.11516000	-6.40378900
79.89999543	0.00000000	-11.62032000	-11.46653000
80.09999542	0.00000000	-11.57726000	-16.85531000
80.29999541	0.00000000	-12.73991000	-21.08760000
80.49999540	0.00000000	-14.69611000	-23.08686000
80.69999539	0.00000000	-17.39050000	-23.08686000
80.89999537	0.00000000	-20.08489000	-21.17372000
81.09999536	0.00000000	-21.99803000	-17.69808000
81.29999535	0.00000000	-22.78543000	-13.83489000
81.49999534	0.00000000	-21.99803000	-9.89173200
81.69999533	0.00000000	-20.13410000	-6.44685000
81.89999531	0.00000000	-17.76575000	-4.08464600
82.09999530	0.00000000	-15.47736000	-3.33415300
82.29999529	0.00000000	-13.53346000	-4.03543200
82.49999528	0.00000000	-12.78297000	-6.02854300
82.69999527	0.00000000	-13.11516000	-8.72908400
82.89999525	0.00000000	-14.27165000	-12.29700000
83.09999524	0.00000000	-15.80955000	-16.11712000
83.29999523	0.00000000	-17.39050000	-19.64198000
83.49999522	0.00000000	-18.87918000	-21.92421000
83.69999521	0.00000000	-19.66658000	-22.75467000
83.89999520	0.00000000	-19.34670000	-21.92421000
84.09999518	0.00000000	-19.01451000	-19.59892000
84.29999517	0.00000000	-18.97145000	-15.69882000
84.49999516	0.00000000	-18.92839000	-11.09129000
84.69999515	0.00000000	-18.55315000	-6.82209600
84.89999514	0.00000000	-17.80881000	-3.75246000
85.09999512	0.00000000	-17.43356000	-2.59596400
85.29999511	0.00000000	-17.39050000	-3.75246000
85.49999510	0.00000000	-17.34744000	-6.82209600
85.69999509	0.00000000	-16.97219000	-11.14050000
85.89999508	0.00000000	-16.18479000	-16.11712000
86.09999506	0.00000000	-15.47736000	-20.75541000
86.29999505	0.00000000	-15.11442000	-23.45595000
86.49999504	0.00000000	-15.90182000	-24.29257000
86.69999503	0.00000000	-17.39050000	-23.04380000
86.89999502	0.00000000	-18.97145000	-19.55585000
87.09999501	0.00000000	-20.50935000	-14.21014000
87.29999499	0.00000000	-21.66585000	-8.82135800
87.49999498	0.00000000	-22.04109000	-4.95816900
87.69999497	0.00000000	-21.62278000	-3.01427100
87.89999496	0.00000000	-20.04183000	-3.79552100
88.09999495	0.00000000	-17.43356000	-6.86515700
88.29999493	0.00000000	-15.11442000	-11.46653000
88.49999492	0.00000000	-13.94562000	-16.48622000
88.69999491	0.00000000	-13.53346000	-20.34941000
88.89999490	0.00000000	-14.32087000	-22.66855000
89.09999489	0.00000000	-15.85261000	-22.61934000
89.29999487	0.00000000	-17.76575000	-19.97416000
89.49999486	0.00000000	-19.71580000	-15.74188000
89.69999485	0.00000000	-20.83538000	-11.14050000
89.89999484	0.00000000	-21.29675000	-7.28346400
90.09999483	0.00000000	-20.88459000	-5.33341500
90.29999482	0.00000000	-20.13410000	-5.33341500
90.49999480	0.00000000	-18.92839000	-7.28346400
90.69999479	0.00000000	-17.43356000	-11.14050000
90.89999478	0.00000000	-16.27707000	-15.69882000
91.09999477	0.00000000	-15.85261000	-19.54970000
91.29999476	0.00000000	-15.85261000	-21.46284000
91.49999474	0.00000000	-16.22785000	-21.08760000
91.69999473	0.00000000	-16.97219000	-18.39321000
91.89999472	0.00000000	-17.34744000	-14.16708000
92.09999471	0.00000000	-17.39050000	-9.56569900
92.29999470	0.00000000	-17.39050000	-5.75172200
92.49999468	0.00000000	-17.43356000	-4.26304100
92.69999467	0.00000000	-17.80881000	-5.75172200
92.89999466	0.00000000	-18.59621000	-9.56569900
93.09999465	0.00000000	-19.34670000	-14.16708000
93.29999464	0.00000000	-20.13410000	-18.39321000
93.49999463	0.00000000	-20.50935000	-21.08760000
93.69999461	0.00000000	-20.50935000	-21.46284000
93.89999460	0.00000000	-20.08489000	-19.54970000
94.09999459	0.00000000	-18.92839000	-15.74188000
94.29999458	0.00000000	-17.39050000	-11.51575000
94.49999457	0.00000000	-15.80955000	-8.02780400
94.69999455	0.00000000	-14.27165000	-5.75172200
94.89999454	0.00000000	-13.15822000	-5.75172200
95.09999453	0.00000000	-13.20128000	-8.02780400
95.29999452	0.00000000	-14.73917000	-11.51575000
95.49999451	0.00000000	-17.43356000	-15.69882000
95.69999449	0.00000000	-20.50935000	-19.13140000
95.89999448	0.00000000	-23.24680000	-20.30020000
96.09999447	0.00000000	-25.15994000	-19.59892000
96.29999446	0.00000000	-25.90428000	-17.27977000
96.49999445	0.00000000	-24.74163000	-14.21014000
96.69999444	0.00000000	-22.04109000	-11.09744000
96.89999442	0.00000000	-18.59621000	-8.44611200
97.09999441	0.00000000	-15.06521000	-7.28346400
97.29999440	0.00000000	-12.36466000	-8.02780400
97.49999439	0.00000000	-10.41462000	-9.93479300
97.69999438	0.00000000	-10.08243000	-12.62918000
97.89999436	0.00000000	-11.62032000	-15.27436000
98.09999435	0.00000000	-14.69611000	-16.85531000
98.29999434	0.00000000	-18.59621000	-17.27362000
98.49999433	0.00000000	-22.46555000	-16.89837000
98.69999432	0.00000000	-25.90428000	-15.74188000
98.89999430	0.00000000	-27.43602000	-14.21014000
99.09999429	0.00000000	-26.74089000	-12.67224000
99.29999428	0.00000000	-24.78469000	-11.51575000
99.49999427	0.00000000	-21.66585000	-11.14050000
99.69999426	0.00000000	-17.80881000	-11.46653000
99.89999425	0.00000000	-14.32087000	-12.21087000
100.09999423	0.00000000	-11.62032000	-12.58612000
100.29999422	0.00000000	-10.45768000	-12.62918000
100.49999421	0.00000000	-11.20202000	-12.58612000
100.69999420	0.00000000	-13.11516000	-12.25394000
100.89999419	0.00000000	-15.90182000	-11.88484000
101.09999417	0.00000000	-19.34670000	-12.29700000
101.29999416	0.00000000	-22.78543000	-13.04749000
101.49999415	0.00000000	-24.74163000	-14.25320000
101.69999414	0.00000000	-25.20300000	-15.74188000
101.89999413	0.00000000	-24.78469000	-16.89837000
102.09999411	0.00000000	-23.24680000	-17.23056000
102.29999410	0.00000000	-20.92766000	-16.48622000
102.49999409	0.00000000	-18.59621000	-14.53617000
102.69999408	0.00000000	-16.22785000	-12.25394000
102.89999407	0.00000000	-14.36393000	-9.93479300
103.09999406	0.00000000	-13.53346000	-8.44611200
103.29999404	0.00000000	-13.94562000	-8.40305000
103.49999403	0.00000000	-15.11442000	-9.55954600
103.69999402	0.00000000	-17.43356000	-11.51575000
103.89999401	0.00000000	-20.08489000	-14.25320000
104.09999400	0.00000000	-22.04109000	-17.23056000
104.29999398	0.00000000	-23.20374000	-19.18061000
104.49999397	0.00000000	-23.24680000	-19.18676000
104.69999396	0.00000000	-22.46555000	-18.11024000
104.89999395	0.00000000	-21.29675000	-16.11712000
105.09999394	0.00000000	-19.38976000	-13.79183000
105.29999392	0.00000000	-17.85802000	-11.09744000
105.49999391	0.00000000	-17.01525000	-8.86441900
105.69999390	0.00000000	-16.27707000	-8.44611200
105.89999389	0.00000000	-16.32013000	-9.55954600
106.09999388	0.00000000	-17.43356000	-11.46653000
106.29999387	0.00000000	-18.92839000	-13.79183000
106.49999385	0.00000000	-20.08489000	-15.69882000
106.69999384	0.00000000	-20.50935000	-16.85531000
106.89999383	0.00000000	-20.50935000	-16.85531000
107.09999382	0.00000000	-20.08489000	-15.74188000
107.29999381	0.00000000	-18.97145000	-14.21014000
107.49999379	0.00000000	-17.85802000	-12.62918000
107.69999378	0.00000000	-17.43356000	-11.14050000
107.89999377	0.00000000	-17.43356000	-10.40231000
108.09999376	0.00000000	-17.85802000	-11.14050000
108.29999375	0.00000000	-19.01451000	-12.62918000
108.49999374	0.00000000	-20.50935000	-14.21014000
108.69999372	0.00000000	-21.66585000	-15.74188000
108.89999371	0.00000000	-22.04109000	-16.89837000
109.09999370	0.00000000	-21.71506000	-17.23056000
109.29999369	0.00000000	-20.92766000	-16.48622000
109.49999368	0.00000000	-20.13410000	-14.58538000
109.69999366	0.00000000	-18.92839000	-12.67224000
109.89999365	0.00000000	-17.43356000	-11.09744000
110.09999364	0.00000000	-16.32013000	-9.93479300
110.29999363	0.00000000	-16.32013000	-9.56569900
110.49999362	0.00000000	-17.39050000	-9.98400600
110.69999360	0.00000000	-18.55315000	-11.51575000
110.89999359	0.00000000	-19.38976000	-13.79183000
111.09999358	0.00000000	-20.55241000	-15.69882000
111.29999357	0.00000000	-21.66585000	-16.89837000
111.49999356	0.00000000	-22.04109000	-17.27362000
111.69999355	0.00000000	-21.66585000	-16.89837000
111.89999353	0.00000000	-20.55241000	-15.78494000
112.09999352	0.00000000	-19.38976000	-14.62844000
112.29999351	0.00000000	-18.59621000	-13.79183000
112.49999350	0.00000000	-17.85802000	-12.62918000
112.69999349	0.00000000	-17.85802000	-11.51575000
112.89999347	0.00000000	-18.55315000	-11.14050000
113.09999346	0.00000000	-18.97145000	-11.46653000
113.29999345	0.00000000	-19.38976000	-12.25394000
113.49999344	0.00000000	-20.13410000	-13.00443000
113.69999343	0.00000000	-20.50935000	-13.79183000
113.89999341	0.00000000	-20.55241000	-14.16708000
114.09999340	0.00000000	-20.50935000	-14.21014000
114.29999339	0.00000000	-20.13410000	-14.25320000
114.49999338	0.00000000	-19.38976000	-14.58538000
114.69999337	0.00000000	-19.01451000	-14.99139000
114.89999336	0.00000000	-18.97145000	-15.00369000
115.09999334	0.00000000	-18.97145000	-15.40969000
115.29999333	0.00000000	-18.97145000	-15.69267000
115.49999332	0.00000000	-18.97145000	-15.36663000
115.69999331	0.00000000	-19.01451000	-14.58538000
115.89999330	0.00000000	-19.38976000	-13.83489000
116.09999328	0.00000000	-20.13410000	-13.04749000
116.29999327	0.00000000	-20.50935000	-12.67224000
116.49999326	0.00000000	-20.55241000	-12.62918000
116.69999325	0.00000000	-20.55241000	-12.62918000
116.89999324	0.00000000	-20.55241000	-12.67224000
117.09999322	0.00000000	-20.50935000	-13.04749000
117.29999321	0.00000000	-20.08489000	-13.79183000
117.49999320	0.00000000	-18.97145000	-14.21014000
117.69999319	0.00000000	-17.85802000	-14.62844000
117.89999318	0.00000000	-17.43356000	-15.36663000
118.09999317	0.00000000	-17.43356000	-15.74188000
118.29999315	0.00000000	-17.80881000	-15.78494000
118.49999314	0.00000000	-18.59621000	-15.74188000
118.69999313	0.00000000	-19.38976000	-15.36663000
118.89999312	0.00000000	-20.55241000	-14.58538000
119.09999311	0.00000000	-21.71506000	-13.83489000
119.29999309	0.00000000	-22.46555000	-13.04749000
119.49999308	0.00000000	-22.87770000	-12.67224000
119.69999307	0.00000000	-22.46555000	-12.62918000
119.89999306	0.00000000	-21.71506000	-12.62918000
120.09999305	0.00000000	-20.50935000	-12.62918000
120.29999303	0.00000000	-19.01451000	-12.67224000
120.49999302	0.00000000	-17.85802000	-13.09670000
120.69999301	0.00000000	-17.43356000	-14.16092000
120.89999300	0.00000000	-17.43356000	-14.94833000
121.09999299	0.00000000	-17.80881000	-15.00369000
121.29999298	0.00000000	-18.59621000	-15.40969000
121.49999296	0.00000000	-19.38976000	-15.74188000
121.69999295	0.00000000	-20.55241000	-15.74188000
121.89999294	0.00000000	-21.71506000	-15.36663000
122.09999293	0.00000000	-22.46555000	-14.62844000
122.29999292	0.00000000	-22.87770000	-14.21014000
122.49999290	0.00000000	-22.46555000	-13.79183000
122.69999289	0.00000000	-21.71506000	-13.04749000
122.89999288	0.00000000	-20.55241000	-12.67224000
123.09999287	0.00000000	-19.38976000	-12.62918000
123.29999286	0.00000000	-18.59621000	-12.67224000
123.49999284	0.00000000	-17.80881000	-13.04749000
123.69999283	0.00000000	-17.48277000	-13.79183000
123.89999282	0.00000000	-17.80881000	-14.21014000
124.09999281	0.00000000	-18.59621000	-14.62844000
124.29999280	0.00000000	-19.34670000	-15.36663000
124.49999279	0.00000000	-20.17716000	-15.74188000
124.69999277	0.00000000	-20.92766000	-15.74188000
124.89999276	0.00000000	-21.71506000	-15.36663000
125.09999275	0.00000000	-22.09030000	-14.58538000
125.29999274	0.00000000	-22.13336000	-13.83489000
125.49999273	0.00000000	-22.09030000	-13.04749000
125.69999271	0.00000000	-21.71506000	-12.67224000
125.89999270	0.00000000	-20.92766000	-12.62918000
126.09999269	0.00000000	-20.13410000	-12.62918000
126.29999268	0.00000000	-18.97145000	-12.62918000
126.49999267	0.00000000	-17.85802000	-12.62918000
126.69999265	0.00000000	-17.48277000	-12.67224000
126.89999264	0.00000000	-17.80881000	-13.04749000
127.09999263	0.00000000	-18.59621000	-13.79183000
127.29999262	0.00000000	-19.38976000	-14.21014000
127.49999261	0.00000000	-20.55241000	-14.58538000
127.69999260	0.00000000	-21.66585000	-14.94833000
127.89999258	0.00000000	-22.09030000	-14.58538000
128.09999257	0.00000000	-22.09030000	-14.25320000
128.29999256	0.00000000	-21.71506000	-14.16708000
128.49999255	0.00000000	-20.92766000	-13.79183000
128.69999254	0.00000000	-20.13410000	-13.04749000
128.89999252	0.00000000	-18.97145000	-12.67224000
129.09999251	0.00000000	-17.90108000	-12.67224000
129.29999250	0.00000000	-17.85802000	-13.04749000
129.49999249	0.00000000	-18.59621000	-13.79183000
129.69999248	0.00000000	-19.38976000	-14.21014000
129.89999246	0.00000000	-20.55241000	-14.62844000
130.09999245	0.00000000	-21.66585000	-15.32357000
130.29999244	0.00000000	-22.09030000	-15.32357000
130.49999243	0.00000000	-22.13336000	-14.62844000
130.69999242	0.00000000	-22.09030000	-14.21014000
130.89999241	0.00000000	-21.66585000	-13.79183000
131.09999239	0.00000000	-20.55241000	-13.04749000
131.29999238	0.00000000	-19.43897000	-12.72146000
131.49999237	0.00000000	-19.01451000	-13.04749000
131.69999236	0.00000000	-19.01451000	-13.83489000
131.89999235	0.00000000	-19.38976000	-14.58538000
132.09999233	0.00000000	-20.13410000	-15.36663000
132.29999232	0.00000000	-20.55241000	-15.74188000
132.49999231	0.00000000	-20.97072000	-15.78494000
132.69999230	0.00000000	-21.71506000	-15.74188000
132.89999229	0.00000000	-22.09030000	-15.36663000
133.09999227	0.00000000	-22.09030000	-14.58538000
133.29999226	0.00000000	-21.71506000	-13.83489000
133.49999225	0.00000000	-20.97072000	-13.04749000
133.69999224	0.00000000	-20.59547000	-12.67224000
133.89999223	0.00000000	-20.55241000	-12.62918000
134.09999222	0.00000000	-20.55241000	-12.67224000
134.29999220	0.00000000	-20.55241000	-13.09670000
134.49999219	0.00000000	-20.55241000	-14.21014000
134.69999218	0.00000000	-20.55241000	-15.36663000
134.89999217	0.00000000	-20.55241000	-16.16018000
135.09999216	0.00000000	-20.55241000	-16.94759000
135.29999214	0.00000000	-20.50935000	-17.27362000
135.49999213	0.00000000	-20.17716000	-16.94759000
135.69999212	0.00000000	-19.80807000	-16.16018000
135.89999211	0.00000000	-20.22022000	-15.36663000
136.09999210	0.00000000	-20.92766000	-14.21014000
136.29999208	0.00000000	-21.71506000	-13.09670000
136.49999207	0.00000000	-22.09030000	-12.67224000
136.69999206	0.00000000	-22.13336000	-12.62918000
136.89999205	0.00000000	-22.13336000	-12.67224000
137.09999204	0.00000000	-22.09030000	-13.04749000
137.29999203	0.00000000	-21.71506000	-13.83489000
137.49999201	0.00000000	-20.92766000	-14.58538000
137.69999200	0.00000000	-20.17716000	-15.36663000
137.89999199	0.00000000	-19.43897000	-15.74188000
138.09999198	0.00000000	-19.43897000	-15.78494000
138.29999197	0.00000000	-20.13410000	-15.78494000
138.49999195	0.00000000	-20.55241000	-15.74188000
138.69999194	0.00000000	-20.97072000	-15.36663000
138.89999193	0.00000000	-21.71506000	-14.62844000
139.09999192	0.00000000	-22.09030000	-14.21014000
139.29999191	0.00000000	-22.13336000	-13.79183000
139.49999189	0.00000000	-22.13336000	-13.04749000
139.69999188	0.00000000	-22.09030000	-12.67224000
139.89999187	0.00000000	-21.71506000	-12.62918000
140.09999186	0.00000000	-20.92766000	-12.67224000
140.29999185	0.00000000	-20.17716000	-13.09670000
140.49999184	0.00000000	-19.43897000	-14.21014000
140.69999182	0.00000000	-19.43897000	-15.32357000
140.89999181	0.00000000	-20.13410000	-15.78494000
141.09999180	0.00000000	-20.55241000	-16.16018000
141.29999179	0.00000000	-20.97072000	-16.52928000
141.49999178	0.00000000	-21.71506000	-16.11712000
141.69999176	0.00000000	-22.09030000	-15.36663000
141.89999175	0.00000000	-22.09030000	-14.21014000
142.09999174	0.00000000	-21.71506000	-13.09670000
142.29999173	0.00000000	-20.97072000	-12.67224000
142.49999172	0.00000000	-20.59547000	-12.62918000
142.69999170	0.00000000	-20.55241000	-12.67224000
142.89999169	0.00000000	-20.55241000	-13.04749000
143.09999168	0.00000000	-20.55241000	-13.83489000
143.29999167	0.00000000	-20.55241000	-14.58538000
143.49999166	0.00000000	-20.59547000	-15.40969000
143.69999165	0.00000000	-20.97072000	-16.11712000
143.89999163	0.00000000	-21.66585000	-16.52928000
144.09999162	0.00000000	-21.71506000	-16.11712000
144.29999161	0.00000000	-21.34596000	-15.40969000
144.49999160	0.00000000	-21.33981000	-14.58538000
144.69999159	0.00000000	-20.92766000	-13.83489000
144.89999157	0.00000000	-20.59547000	-13.04749000
145.09999156	0.00000000	-20.55241000	-12.67224000
145.29999155	0.00000000	-20.55241000	-12.67224000
145.49999154	0.00000000	-20.59547000	-13.04749000
145.69999153	0.00000000	-20.97072000	-13.83489000
145.89999151	0.00000000	-21.71506000	-14.58538000
146.09999150	0.00000000	-22.09030000	-15.40969000
146.29999149	0.00000000	-22.13336000	-16.11712000
146.49999148	0.00000000	-22.13336000	-16.52928000
146.69999147	0.00000000	-22.09030000	-16.16018000
146.89999146	0.00000000	-21.71506000	-15.82800000
147.09999144	0.00000000	-20.97072000	-15.78494000
147.29999143	0.00000000	-20.59547000	-15.74188000
147.49999142	0.00000000	-20.55241000	-15.36663000
147.69999141	0.00000000	-20.59547000	-14.62844000
147.89999140	0.00000000	-20.97072000	-14.25320000
148.09999138	0.00000000	-21.71506000	-14.21014000
148.29999137	0.00000000	-22.09030000	-14.21014000
148.49999136	0.00000000	-22.13336000	-14.25320000
148.69999135	0.00000000	-22.13336000	-14.62844000
148.89999134	0.00000000	-22.13336000	-15.36663000
149.09999132	0.00000000	-22.09030000	-15.74188000
149.29999131	0.00000000	-21.71506000	-15.78494000
149.49999130	0.00000000	-20.97072000	-15.78494000
149.69999129	0.00000000	-20.59547000	-15.78494000
149.89999128	0.00000000	-20.55241000	-15.74188000
150.09999127	0.00000000	-20.55241000	-15.36663000
150.29999125	0.00000000	-20.59547000	-14.62844000
150.49999124	0.00000000	-20.97072000	-14.25320000
150.69999123	0.00000000	-21.71506000	-14.21014000
150.89999122	0.00000000	-22.09030000	-14.21014000
151.09999121	0.00000000	-22.13336000	-14.21014000
151.29999119	0.00000000	-22.13336000	-14.21014000
151.49999118	0.00000000	-22.13336000	-14.25320000
151.69999117	0.00000000	-22.13336000	-14.62844000
151.89999116	0.00000000	-22.13336000	-15.36663000
152.09999115	0.00000000	-22.13336000	-15.69267000
152.29999113	0.00000000	-22.09030000	-15.40969000
152.49999112	0.00000000	-21.71506000	-15.00369000
152.69999111	0.00000000	-20.97072000	-14.99139000
152.89999110	0.00000000	-20.59547000	-14.58538000
153.09999109	0.00000000	-20.59547000	-14.25320000
153.29999108	0.00000000	-20.97072000	-14.21014000
153.49999106	0.00000000	-21.71506000	-14.21014000
153.69999105	0.00000000	-22.09030000	-14.21014000
153.89999104	0.00000000	-22.13336000	-14.21014000
154.09999103	0.00000000	-22.13336000	-14.21014000
154.29999102	0.00000000	-22.17643000	-14.21014000
154.49999100	0.00000000	-22.50861000	-14.21014000
154.69999099	0.00000000	-22.87770000	-14.21014000
154.89999098	0.00000000	-22.50861000	-14.21014000
155.09999097	0.00000000	-22.17643000	-14.21014000
155.29999096	0.00000000	-22.09030000	-14.25320000
155.49999094	0.00000000	-21.71506000	-14.62844000
155.69999093	0.00000000	-20.97072000	-15.36663000
155.89999092	0.00000000	-20.59547000	-15.74188000
156.09999091	0.00000000	-20.59547000	-15.78494000
156.29999090	0.00000000	-20.97072000	-15.74188000
156.49999089	0.00000000	-21.71506000	-15.36663000
156.69999087	0.00000000	-22.09030000	-14.62844000
156.89999086	0.00000000	-22.17643000	-14.25320000
157.09999085	0.00000000	-22.55167000	-14.21014000
157.29999084	0.00000000	-23.24680000	-14.21014000
157.49999083	0.00000000	-23.24680000	-14.21014000
157.69999081	0.00000000	-22.55167000	-14.21014000
157.89999080	0.00000000	-22.17643000	-14.25320000
158.09999079	0.00000000	-22.13336000	-14.62844000
158.29999078	0.00000000	-22.13336000	-15.36663000
158.49999077	0.00000000	-22.13336000	-15.74188000
158.69999075	0.00000000	-22.13336000	-15.78494000
158.89999074	0.00000000	-22.13336000	-15.78494000
159.09999073	0.00000000	-22.13336000	-15.74188000
159.29999072	0.00000000	-22.13336000	-15.36663000
159.49999071	0.00000000	-22.13336000	-14.62844000
159.69999070	0.00000000	-22.13336000	-14.25320000
159.89999068	0.00000000	-22.13336000	-14.21014000
160.09999067	0.00000000	-22.13336000	-14.21014000
160.29999066	0.00000000	-22.13336000	-14.21014000
160.49999065	0.00000000	-22.13336000	-14.21014000
160.69999064	0.00000000	-22.13336000	-14.21014000
160.89999062	0.00000000	-22.13336000	-14.25320000
161.09999061	0.00000000	-22.13336000	-14.62844000
161.29999060	0.00000000	-22.13336000	-15.36663000
161.49999059	0.00000000	-22.13336000	-15.74188000
161.69999058	0.00000000	-22.13336000	-15.78494000
161.89999056	0.00000000	-22.13336000	-15.78494000
162.09999055	0.00000000	-22.13336000	-15.74188000
162.29999054	0.00000000	-22.13336000	-15.36663000
162.49999053	0.00000000	-22.13336000	-14.62844000
162.69999052	0.00000000	-22.13336000	-14.25320000
162.89999051	0.00000000	-22.13336000	-14.21014000
163.09999049	0.00000000	-22.13336000	-14.21014000
163.29999048	0.00000000	-22.17643000	-14.21014000
163.49999047	0.00000000	-22.55167000	-14.25320000
163.69999046	0.00000000	-23.29601000	-14.62844000
163.89999045	0.00000000	-23.67126000	-15.36663000
164.09999043	0.00000000	-23.67126000	-15.74188000
164.29999042	0.00000000	-23.29601000	-15.78494000
164.49999041	0.00000000	-22.55167000	-15.78494000
164.69999040	0.00000000	-22.17643000	-15.78494000
164.89999039	0.00000000	-22.13336000	-15.78494000
165.09999037	0.00000000	-22.13336000	-15.78494000
165.29999036	0.00000000	-22.13336000	-15.78494000
165.49999035	0.00000000	-22.13336000	-15.78494000
165.69999034	0.00000000	-22.13336000	-15.78494000
165.89999033	0.00000000	-22.13336000	-15.74188000
166.09999032	0.00000000	-22.17643000	-15.36663000
166.29999030	0.00000000	-22.55167000	-14.67150000
166.49999029	0.00000000	-23.29601000	-14.67150000
166.69999028	0.00000000	-23.67126000	-15.36663000
166.89999027	0.00000000	-23.71432000	-15.74188000
167.09999026	0.00000000	-23.71432000	-15.78494000
167.29999024	0.00000000	-23.67126000	-15.78494000
167.49999023	0.00000000	-23.33907000	-15.78494000
167.69999022	0.00000000	-22.92692000	-15.78494000
167.89999021	0.00000000	-22.92076000	-15.78494000
168.09999020	0.00000000	-22.50861000	-15.78494000
168.29999018	0.00000000	-22.17643000	-15.78494000
168.49999017	0.00000000	-22.13336000	-15.74188000
168.69999016	0.00000000	-22.13336000	-15.40969000
168.89999015	0.00000000	-22.17643000	-15.04675000
169.09999014	0.00000000	-22.55167000	-15.40969000
169.29999013	0.00000000	-23.29601000	-15.74188000
169.49999011	0.00000000	-23.67126000	-15.78494000
169.69999010	0.00000000	-23.71432000	-15.78494000
169.89999009	0.00000000	-23.71432000	-15.74188000
170.09999008	0.00000000	-23.71432000	-15.40969000
170.29999007	0.00000000	-23.67126000	-15.00369000
170.49999005	0.00000000	-23.29601000	-14.99139000
170.69999004	0.00000000	-22.55167000	-14.58538000
170.89999003	0.00000000	-22.17643000	-14.30241000
171.09999002	0.00000000	-22.13336000	-14.62844000
171.29999001	0.00000000	-22.13336000	-15.36663000
171.49998999	0.00000000	-22.13336000	-15.74188000
171.69998998	0.00000000	-22.13336000	-15.78494000
171.89998997	0.00000000	-22.17643000	-15.78494000
172.09998996	0.00000000	-22.55167000	-15.74188000
172.29998995	0.00000000	-23.29601000	-15.40969000
172.49998994	0.00000000	-23.67126000	-15.04675000
172.69998992	0.00000000	-23.71432000	-15.36663000
172.89998991	0.00000000	-23.71432000	-15.36663000
173.09998990	0.00000000	-23.71432000	-15.00369000
173.29998989	0.00000000	-23.67126000	-14.99139000
173.49998988	0.00000000	-23.29601000	-14.58538000
173.69998986	0.00000000	-22.55167000	-14.25320000
173.89998985	0.00000000	-22.17643000	-14.25320000
174.09998984	0.00000000	-22.13336000	-14.58538000
174.29998983	0.00000000	-22.13336000	-14.99139000
174.49998982	0.00000000	-22.17643000	-15.00369000
174.69998980	0.00000000	-22.50861000	-15.40969000
174.89998979	0.00000000	-22.87770000	-15.69267000
175.09998978	0.00000000	-22.55167000	-15.40969000
175.29998977	0.00000000	-22.55167000	-15.04675000
175.49998976	0.00000000	-22.92076000	-15.40969000
175.69998975	0.00000000	-22.92692000	-15.74188000
175.89998973	0.00000000	-23.33907000	-15.78494000
176.09998972	0.00000000	-23.67126000	-15.78494000
176.29998971	0.00000000	-23.67126000	-15.74188000
176.49998970	0.00000000	-23.33907000	-15.36663000
176.69998969	0.00000000	-22.92692000	-14.67150000
176.89998967	0.00000000	-22.96383000	-14.67150000
177.09998966	0.00000000	-22.92692000	-15.36663000
177.29998965	0.00000000	-23.29601000	-15.74188000
177.49998964	0.00000000	-23.29601000	-15.78494000
177.69998963	0.00000000	-22.96998000	-15.78494000
177.89998961	0.00000000	-23.33907000	-15.78494000
178.09998960	0.00000000	-23.67126000	-15.78494000
178.29998959	0.00000000	-23.71432000	-15.78494000
178.49998958	0.00000000	-23.71432000	-15.78494000
178.69998957	0.00000000	-23.71432000	-15.78494000
178.89998956	0.00000000	-23.71432000	-15.74188000
179.09998954	0.00000000	-23.71432000	-15.40969000
179.29998953	0.00000000	-23.67126000	-15.04675000
179.49998952	0.00000000	-23.33907000	-15.40969000
179.69998951	0.00000000	-22.96998000	-15.74188000
179.89998950	0.00000000	-23.33907000	-15.78494000
180.09998948	0.00000000	-23.67126000	-15.78494000
180.29998947	0.00000000	-23.71432000	-15.82800000
180.49998946	0.00000000	-23.71432000	-16.16018000
180.69998945	0.00000000	-23.71432000	-16.52928000
180.89998944	0.00000000	-23.71432000	-16.16018000
181.09998942	0.00000000	-23.71432000	-15.82800000
181.29998941	0.00000000	-23.71432000	-15.78494000
181.49998940	0.00000000	-23.71432000	-15.78494000
181.69998939	0.00000000	-23.71432000	-15.78494000
181.89998938	0.00000000	-23.71432000	-15.78494000
182.09998937	0.00000000	-23.71432000	-15.78494000
182.29998935	0.00000000	-23.71432000	-15.78494000
182.49998934	0.00000000	-23.71432000	-15.78494000
182.69998933	0.00000000	-23.71432000	-15.78494000
182.89998932	0.00000000	-23.71432000	-15.78494000
183.09998931	0.00000000	-23.71432000	-15.78494000
183.29998929	0.00000000	-23.71432000	-15.78494000
183.49998928	0.00000000	-23.71432000	-15.78494000
183.69998927	0.00000000	-23.71432000	-15.78494000
183.89998926	0.00000000	-23.71432000	-15.78494000
184.09998925	0.00000000	-23.71432000	-15.78494000
184.29998923	0.00000000	-23.71432000	-15.74188000
184.49998922	0.00000000	-23.71432000	-15.36663000
184.69998921	0.00000000	-23.71432000	-14.62844000
184.89998920	0.00000000	-23.71432000	-14.25320000
185.09998919	0.00000000	-23.71432000	-14.21014000
185.29998918	0.00000000	-23.71432000	-14.21014000
185.49998916	0.00000000	-23.71432000	-14.25320000
185.69998915	0.00000000	-23.71432000	-14.62844000
185.89998914	0.00000000	-23.71432000	-15.36663000
186.09998913	0.00000000	-23.71432000	-15.74188000
186.29998912	0.00000000	-23.71432000	-15.78494000
186.49998910	0.00000000	-23.71432000	-15.78494000
186.69998909	0.00000000	-23.71432000	-15.78494000
186.89998908	0.00000000	-23.71432000	-15.78494000
187.09998907	0.00000000	-23.71432000	-15.74188000
187.29998906	0.00000000	-23.71432000	-15.36663000
187.49998904	0.00000000	-23.71432000	-14.62844000
187.69998903	0.00000000	-23.71432000	-14.25320000
187.89998902	0.00000000	-23.71432000	-14.21014000
188.09998901	0.00000000	-23.71432000	-14.21014000
188.29998900	0.00000000	-23.71432000	-14.25320000
188.49998899	0.00000000	-23.71432000	-14.62844000
188.69998897	0.00000000	-23.71432000	-15.36663000
188.89998896	0.00000000	-23.71432000	-15.74188000
189.09998895	0.00000000	-23.71432000	-15.78494000
189.29998894	0.00000000	-23.71432000	-15.78494000
189.49998893	0.00000000	-23.71432000	-15.78494000
189.69998891	0.00000000	-23.71432000	-15.78494000
189.89998890	0.00000000	-23.71432000	-15.78494000
190.09998889	0.00000000	-23.71432000	-15.78494000
190.29998888	0.00000000	-23.71432000	-15.74188000
190.49998887	0.00000000	-23.71432000	-15.36663000
190.69998885	0.00000000	-23.71432000	-14.67150000
190.89998884	0.00000000	-23.71432000	-14.67150000
191.09998883	0.00000000	-23.71432000	-15.36663000
191.29998882	0.00000000	-23.71432000	-15.74188000
191.49998881	0.00000000	-23.71432000	-15.78494000
191.69998880	0.00000000	-23.71432000	-15.78494000
191.89998878	0.00000000	-23.71432000	-15.78494000
192.09998877	0.00000000	-23.71432000	-15.78494000
192.29998876	0.00000000	-23.71432000	-15.78494000
192.49998875	0.00000000	-23.71432000	-15.78494000
192.69998874	0.00000000	-23.71432000	-15.78494000
192.89998872	0.00000000	-23.71432000	-15.78494000
193.09998871	0.00000000	-23.75738000	-15.78494000
193.29998870	0.00000000	-24.13263000	-15.78494000
193.49998869	0.00000000	-24.87697000	-15.78494000
193.69998868	0.00000000	-25.25221000	-15.78494000
193.89998866	0.00000000	-25.29527000	-15.78494000
194.09998865	0.00000000	-25.25221000	-15.78494000
194.29998864	0.00000000	-24.87697000	-15.78494000
194.49998863	0.00000000	-24.13263000	-15.78494000
194.69998862	0.00000000	-23.75738000	-15.78494000
194.89998861	0.00000000	-23.71432000	-15.78494000
195.09998859	0.00000000	-23.71432000	-15.78494000
195.29998858	0.00000000	-23.71432000	-15.78494000
195.49998857	0.00000000	-23.75738000	-15.82800000
195.69998856	0.00000000	-24.13263000	-16.20325000
195.89998855	0.00000000	-24.87697000	-16.89837000
196.09998853	0.00000000	-25.25221000	-16.89837000
