Time	Channel A	Channel B	Channel C
(us)	(V)	(mV)	(mV)

-4.49999956	0.00000000	-7.90477300	-7.89247000
-4.29999957	0.00000000	-7.90477300	-7.89247000
-4.09999958	0.00000000	-7.90477300	-7.89247000
-3.89999959	0.00000000	-7.90477300	-7.89247000
-3.69999960	0.00000000	-7.90477300	-7.89247000
-3.49999962	0.00000000	-7.90477300	-7.89247000
-3.29999963	0.00000000	-7.90477300	-7.89247000
-3.09999964	0.00000000	-7.90477300	-7.89247000
-2.89999965	0.00000000	-7.90477300	-7.89247000
-2.69999966	0.00000000	-7.90477300	-7.89247000
-2.49999968	0.00000000	-7.90477300	-7.89247000
-2.29999969	0.00000000	-7.90477300	-7.89247000
-2.09999970	0.00000000	-7.90477300	-7.89247000
-1.89999971	0.00000000	-7.90477300	-7.89247000
-1.69999972	0.00000000	-7.90477300	-7.89247000
-1.49999973	0.00000000	-7.90477300	-7.89247000
-1.29999975	0.00000000	-7.90477300	-7.89247000
-1.09999976	0.00000000	-7.90477300	-7.89247000
-0.89999977	0.00000000	-7.90477300	-7.89247000
-0.69999978	0.00000000	-7.90477300	-7.89247000
-0.49999979	0.00000000	-7.90477300	-7.89247000
-0.29999981	0.15871060	-7.90477300	-7.93553100
-0.09999982	0.63668800	-7.90477300	-8.26771600
0.10000017	0.95533960	-7.90477300	-8.63681000
0.30000016	0.95533960	-7.90477300	-8.26771600
0.50000015	0.95533960	-7.90477300	-7.93553100
0.70000013	0.47736220	-7.90477300	-7.89247000
0.90000012	-0.31803640	-7.90477300	-7.93553100
1.10000011	-1.27399100	-7.90477300	-8.31077700
1.30000010	-2.22994600	-7.86171200	-9.00590400
1.50000009	-2.70792300	-7.52952700	-9.00590400
1.70000008	-2.54859700	-7.16043300	-8.31077700
1.90000006	-1.59264300	-7.52952700	-7.93553100
2.10000005	0.15871060	-7.86171200	-7.89247000
2.30000004	2.22994600	-7.90477300	-7.89247000
2.50000003	4.14124000	-7.90477300	-7.93553100
2.70000002	5.25652100	-7.90477300	-8.31077700
2.90000000	5.09719500	-7.90477300	-9.05511800
3.09999999	3.50393700	-7.90477300	-9.43036400
3.29999998	0.63668800	-7.94783400	-9.47342500
3.49999997	-2.86724900	-8.23695900	-9.43036400
3.69999996	-5.89382400	-8.27386800	-9.05511800
3.89999994	-7.64579200	-7.53567900	-8.31077700
4.09999993	-7.80511800	-7.57258800	-7.93553100
4.29999992	-5.57517200	-7.86171200	-7.89247000
4.49999991	-1.91129400	-7.90477300	-7.89247000
4.69999990	2.54859700	-7.90477300	-7.89247000
4.89999989	6.37180100	-7.90477300	-7.89247000
5.09999987	9.07972400	-7.90477300	-7.93553100
5.29999986	9.23905000	-7.90477300	-8.31077700
5.49999985	7.32714100	-7.90477300	-9.05511800
5.69999984	3.34522600	-7.90477300	-9.43036400
5.89999983	-1.43331700	-7.90477300	-9.47342500
6.09999981	-5.73449800	-7.90477300	-9.43036400
6.29999980	-8.76107300	-7.90477300	-9.05511800
6.49999979	-9.39837600	-7.90477300	-8.31077700
6.69999978	-7.80511800	-7.90477300	-7.93553100
6.89999977	-4.30056600	-7.90477300	-7.89247000
7.09999975	0.15871060	-7.90477300	-7.89247000
7.29999974	4.14124000	-7.90477300	-7.89247000
7.49999973	6.84916400	-7.90477300	-7.89247000
7.69999972	7.80511800	-7.90477300	-7.93553100
7.89999971	6.69045300	-7.90477300	-8.31077700
8.09999970	4.14124000	-7.90477300	-9.05511800
8.29999968	0.79601380	-7.90477300	-9.43036400
8.49999967	-2.22994600	-7.90477300	-9.43036400
8.69999966	-4.45989200	-7.90477300	-9.05511800
8.89999965	-5.25652100	-7.90477300	-8.31077700
9.09999964	-4.61921700	-7.90477300	-7.93553100
9.29999962	-3.02657500	-7.90477300	-7.89247000
9.49999961	-0.95533960	-7.90477300	-7.89247000
9.69999960	0.79601380	-7.90477300	-7.89247000
9.89999959	2.07062000	-7.90477300	-7.89247000
10.09999958	2.54859700	-7.90477300	-7.89247000
10.29999956	2.38927200	-7.90477300	-7.89247000
10.49999955	1.59264300	-7.90477300	-7.89247000
10.69999954	0.79601380	-7.90477300	-7.93553100
10.89999953	0.00000000	-7.90477300	-8.26771600
11.09999952	-0.63668800	-7.90477300	-8.67987200
11.29999951	-0.95533960	-7.90477300	-8.64296200
11.49999949	-0.95533960	-7.90477300	-8.67987200
11.69999948	-0.79601380	-7.90477300	-8.26771600
11.89999947	-0.47736220	-7.90477300	-7.98474400
12.09999946	-0.15871060	-7.90477300	-8.26771600
12.29999945	-0.15871060	-7.90477300	-8.63681000
12.49999943	-0.15871060	-7.90477300	-8.31077700
12.69999942	0.00000000	-7.90477300	-8.31077700
12.89999941	0.00000000	-7.90477300	-8.63681000
13.09999940	0.15871060	-7.90477300	-8.26771600
13.29999939	0.00000000	-7.90477300	-7.93553100
13.49999937	0.15871060	-7.90477300	-7.89247000
13.69999936	0.00000000	-7.90477300	-7.89247000
13.89999935	0.00000000	-7.90477300	-7.89247000
14.09999934	-0.15871060	-7.90477300	-7.89247000
14.29999933	-0.15871060	-7.90477300	-7.93553100
14.49999932	-0.15871060	-7.90477300	-8.31077700
14.69999930	-0.15871060	-7.90477300	-9.05511800
14.89999929	0.00000000	-7.90477300	-9.38115100
15.09999928	0.00000000	-7.90477300	-9.05511800
15.29999927	0.00000000	-7.90477300	-8.31077700
15.49999926	0.00000000	-7.90477300	-7.93553100
15.69999924	0.00000000	-7.90477300	-7.93553100
15.89999923	0.00000000	-7.90477300	-8.26771600
16.09999922	0.00000000	-7.90477300	-8.63681000
16.29999921	0.00000000	-7.90477300	-8.26771600
16.49999920	0.00000000	-7.90477300	-7.98474400
16.69999919	0.00000000	-7.90477300	-8.26771600
16.89999917	0.00000000	-7.86171200	-8.63681000
17.09999916	0.00000000	-7.48646600	-8.26771600
17.29999915	0.00000000	-6.74212600	-7.93553100
17.49999914	0.00000000	-6.36687900	-7.89247000
17.69999913	0.00000000	-6.36687900	-7.93553100
17.89999911	0.00000000	-6.74212600	-8.26771600
18.09999910	0.00000000	-7.57258800	-8.67987200
18.29999909	0.00000000	-8.69832600	-8.68602300
18.49999908	0.00000000	-10.27313000	-9.05511800
18.69999907	0.00000000	-11.44193000	-9.00590400
18.89999905	0.00000000	-12.60458000	-8.35998900
19.09999904	0.00000000	-13.29970000	-8.31077700
19.29999903	0.00000000	-12.46924000	-8.67987200
19.49999902	0.00000000	-10.18086000	-8.64296200
19.69999901	0.00000000	-6.65600300	-8.67987200
19.89999900	0.00000000	-2.78666300	-8.31077700
20.09999898	0.00000000	1.07037400	-8.31077700
20.29999897	0.00000000	3.67864200	-8.67987200
20.49999896	0.00000000	3.63558100	-8.64296200
20.69999895	0.00000000	0.51673230	-8.67987200
20.89999894	0.00000000	-5.29650500	-8.26771600
21.09999892	0.00000000	-12.64764000	-7.93553100
21.29999891	0.00000000	-19.99877000	-7.89247000
21.49999890	0.00000000	-25.76895000	-7.93553100
21.69999889	0.00000000	-28.42027000	-8.31077700
21.89999888	0.00000000	-26.74705000	-9.05511800
22.09999886	0.00000000	-20.18332000	-9.43036400
22.29999885	0.00000000	-9.68257800	-9.47342500
22.49999884	0.00000000	2.33144700	-9.47342500
22.69999883	0.00000000	14.27780000	-9.47342500
22.89999882	0.00000000	22.57013000	-9.43036400
23.09999881	0.00000000	23.72662000	-9.05511800
23.29999879	0.00000000	17.12598000	-8.26771600
23.49999878	0.00000000	4.33070900	-7.51722400
23.69999877	0.00000000	-12.73991000	-6.72982200
23.89999876	0.00000000	-30.41954000	-6.35457700
24.09999875	0.00000000	-44.28518000	-6.35457700
24.29999873	0.00000000	-50.38755000	-6.77903500
24.49999872	0.00000000	-46.89345000	-7.89247000
24.69999871	0.00000000	-34.06126000	-9.09817800
24.89999870	0.00000000	-14.37008000	-10.31004000
25.09999869	0.00000000	8.04626000	-12.21087000
25.29999867	0.00000000	27.68824000	-13.69956000
25.49999866	0.00000000	40.01599000	-14.07480000
25.69999865	0.00000000	41.50467000	-13.28125000
25.89999864	0.00000000	31.45915000	-10.91289000
26.09999863	0.00000000	12.14936000	-7.47416300
26.29999862	0.00000000	-12.18627000	-3.57406500
26.49999860	0.00000000	-35.72834000	-0.09227362
26.69999859	0.00000000	-53.17421000	2.55905500
26.89999858	0.00000000	-60.80831000	3.25418300
27.09999857	0.00000000	-56.56988000	0.93503930
27.29999856	0.00000000	-40.75418000	-3.70939900
27.49999854	0.00000000	-18.04257000	-9.98400600
27.69999853	0.00000000	6.32997000	-17.32283000
27.89999852	0.00000000	26.80241000	-24.20029000
28.09999851	0.00000000	38.85334000	-28.38337000
28.29999850	0.00000000	40.43430000	-28.34030000
28.49999848	0.00000000	31.54527000	-23.68971000
28.69999847	0.00000000	14.19168000	-15.10212000
28.89999846	0.00000000	-7.39419200	-3.90009800
29.09999845	0.00000000	-27.90969000	8.03395600
29.29999844	0.00000000	-43.03642000	17.24286000
29.49999843	0.00000000	-50.05536000	21.46899000
29.69999841	0.00000000	-47.77928000	19.42667000
29.89999840	0.00000000	-37.40157000	10.54995000
30.09999839	0.00000000	-21.57972000	-3.33415300
30.29999838	0.00000000	-4.18307100	-18.81152000
30.49999837	0.00000000	10.98671000	-33.12008000
30.69999835	0.00000000	21.45054000	-43.06717000
30.89999834	0.00000000	25.35679000	-45.76156000
31.09999833	0.00000000	21.91806000	-40.37278000
31.29999832	0.00000000	12.69685000	-28.34030000
31.49999831	0.00000000	-0.09227362	-11.65723000
31.69999829	0.00000000	-13.63189000	6.83439900
31.89999828	0.00000000	-25.25836000	22.58243000
32.09999827	0.00000000	-32.60949000	31.50221000
32.29999826	0.00000000	-34.23966000	31.92052000
32.49999825	0.00000000	-30.41954000	24.16338000
32.69999824	0.00000000	-22.65010000	9.47957600
32.89999822	0.00000000	-12.22933000	-9.01205700
33.09999821	0.00000000	-1.43946800	-26.85162000
33.29999820	0.00000000	6.70521600	-40.74188000
33.49999819	0.00000000	11.02977000	-48.08071000
33.69999818	0.00000000	11.02977000	-46.55511000
33.89999816	0.00000000	6.79749000	-37.34621000
34.09999815	0.00000000	-0.51058070	-22.61934000
34.29999814	0.00000000	-8.97514600	-5.24729300
34.49999813	0.00000000	-16.32628000	10.96826000
34.69999812	0.00000000	-20.97687000	22.58243000
34.89999810	0.00000000	-22.18258000	27.23302000
35.09999809	0.00000000	-19.86343000	24.16338000
35.29999808	0.00000000	-14.88066000	14.12401000
35.49999807	0.00000000	-8.32308000	-0.51058070
35.69999806	0.00000000	-2.22687000	-16.30167000
35.89999805	0.00000000	1.67938000	-29.40452000
36.09999803	0.00000000	2.47293300	-36.79257000
36.29999802	0.00000000	0.55979330	-37.21087000
36.49999801	0.00000000	-3.67249000	-31.07775000
36.69999800	0.00000000	-9.01820900	-19.92495000
36.89999799	0.00000000	-13.67495000	-6.87130900
37.09999797	0.00000000	-16.74459000	4.69980300
37.29999796	0.00000000	-17.48893000	11.99557000
37.49999795	0.00000000	-15.21284000	13.19513000
37.69999794	0.00000000	-11.02362000	8.23080600
37.89999793	0.00000000	-6.36687900	-0.92888770
38.09999791	0.00000000	-2.09153500	-11.70029000
38.29999790	0.00000000	0.93503930	-20.85999000
38.49999789	0.00000000	1.72244100	-25.83046000
38.69999788	0.00000000	-0.17839570	-24.71703000
38.89999787	0.00000000	-3.62942900	-18.30093000
39.09999786	0.00000000	-7.90477300	-9.43036400
39.29999784	0.00000000	-12.13706000	-0.22760820
39.49999783	0.00000000	-15.25591000	7.01894700
39.69999782	0.00000000	-16.83686000	9.25196800
39.89999781	0.00000000	-16.83686000	5.85629900
40.09999780	0.00000000	-15.29897000	-2.17765700
40.29999778	0.00000000	-12.55536000	-12.16781000
40.49999777	0.00000000	-9.06742000	-21.37057000
40.69999776	0.00000000	-5.21038300	-27.49754000
40.89999775	0.00000000	-2.09153500	-28.24803000
41.09999774	0.00000000	-0.13533460	-23.68971000
41.29999772	0.00000000	0.60900590	-15.18824000
41.49999771	0.00000000	-0.55364170	-4.82898600
41.69999770	0.00000000	-3.20497000	4.74286400
41.89999769	0.00000000	-6.32381900	10.50074000
42.09999768	0.00000000	-9.44266700	10.96826000
42.29999767	0.00000000	-12.18012000	6.74212600
42.49999765	0.00000000	-14.09326000	-0.97194880
42.69999764	0.00000000	-14.88066000	-10.54380000
42.89999763	0.00000000	-14.13632000	-19.00221000
43.09999762	0.00000000	-12.60458000	-24.06496000
43.29999761	0.00000000	-10.69144000	-25.27067000
43.49999759	0.00000000	-8.74138700	-22.57628000
43.69999758	0.00000000	-7.52952700	-16.85531000
43.89999757	0.00000000	-6.32381900	-9.93479300
44.09999756	0.00000000	-5.21038300	-3.75861200
44.29999755	0.00000000	-4.78592500	0.51673230
44.49999753	0.00000000	-4.74286400	2.09153500
44.69999752	0.00000000	-4.74286400	0.97810030
44.89999751	0.00000000	-4.74286400	-2.04232300
45.09999750	0.00000000	-4.74286400	-5.93626900
45.29999749	0.00000000	-4.83513700	-9.79945900
45.49999748	0.00000000	-5.67175200	-13.28125000
45.69999746	0.00000000	-8.04010800	-15.18824000
45.89999745	0.00000000	-11.48499000	-15.23130000
46.09999744	0.00000000	-15.34203000	-13.69956000
46.29999743	0.00000000	-18.41781000	-11.04823000
46.49999742	0.00000000	-19.90650000	-8.35383800
46.69999740	0.00000000	-19.11294000	-6.36072800
46.89999739	0.00000000	-15.58194000	-4.77977300
47.09999738	0.00000000	-10.18086000	-3.66633800
47.29999737	0.00000000	-3.53715500	-3.66633800
47.49999736	0.00000000	2.93430100	-4.82283400
47.69999734	0.00000000	7.58489100	-6.72982200
47.89999733	0.00000000	8.70447700	-9.09817800
48.09999732	0.00000000	6.37303100	-11.38041000
48.29999731	0.00000000	0.51673230	-13.32431000
48.49999730	0.00000000	-7.99704600	-14.07480000
48.69999729	0.00000000	-17.21210000	-13.69956000
48.89999727	0.00000000	-24.88312000	-12.11860000
49.09999726	0.00000000	-28.32800000	-9.42421200
49.29999725	0.00000000	-26.83932000	-6.31151500
49.49999724	0.00000000	-21.02608000	-3.29109200
49.69999723	0.00000000	-12.13706000	-1.39025600
49.89999721	0.00000000	-2.13459600	-1.75319900
50.09999720	0.00000000	6.32997000	-3.66633800
50.29999719	0.00000000	10.98671000	-6.77903500
50.49999718	0.00000000	10.98671000	-10.62992000
50.69999717	0.00000000	6.37303100	-14.11786000
50.89999715	0.00000000	-1.71628900	-16.76919000
51.09999714	0.00000000	-10.93135000	-17.50738000
51.29999713	0.00000000	-19.06988000	-15.60654000
51.49999712	0.00000000	-24.05266000	-12.16166000
51.69999711	0.00000000	-24.88312000	-7.89247000
51.89999710	0.00000000	-21.40133000	-3.66633800
52.09999708	0.00000000	-14.88066000	-0.59670270
52.29999707	0.00000000	-6.79133800	0.55979330
52.49999706	0.00000000	0.47367120	-0.59670270
52.69999705	0.00000000	4.74901600	-3.62327700
52.89999704	0.00000000	5.16732200	-7.51722400
53.09999702	0.00000000	2.09768700	-11.38041000
53.29999701	0.00000000	-3.67249000	-14.81299000
53.49999700	0.00000000	-10.55610000	-16.34473000
53.69999699	0.00000000	-16.28322000	-15.60654000
53.89999698	0.00000000	-19.02067000	-13.32431000
54.09999696	0.00000000	-18.28248000	-9.84867000
54.29999695	0.00000000	-14.83760000	-6.44685000
54.49999694	0.00000000	-9.48572700	-4.12770700
54.69999693	0.00000000	-4.13385800	-3.70939900
54.89999692	0.00000000	-0.64591530	-4.77977300
55.09999691	0.00000000	0.55979330	-6.31151500
55.29999689	0.00000000	-0.59670270	-7.89247000
55.49999688	0.00000000	-3.67249000	-9.38115100
55.69999687	0.00000000	-7.90477300	-10.11934000
55.89999686	0.00000000	-12.13706000	-9.38115100
56.09999685	0.00000000	-15.21284000	-7.89247000
56.29999683	0.00000000	-16.32628000	-6.36072800
56.49999682	0.00000000	-14.83760000	-5.24729300
56.69999681	0.00000000	-11.39887000	-5.29035400
56.89999680	0.00000000	-7.57258800	-6.86515700
57.09999679	0.00000000	-4.09079700	-9.93479300
57.29999677	0.00000000	-2.17765700	-13.74262000
57.49999676	0.00000000	-2.13459600	-16.76919000
57.69999675	0.00000000	-3.67249000	-17.88263000
57.89999674	0.00000000	-6.32381900	-16.30167000
58.09999673	0.00000000	-9.01820900	-12.07554000
58.29999672	0.00000000	-10.97441000	-6.31151500
58.49999670	0.00000000	-12.18012000	-0.59670270
58.69999669	0.00000000	-12.46924000	3.29724400
58.89999668	0.00000000	-11.38656000	4.42298200
59.09999667	0.00000000	-9.11663300	2.83587600
59.29999666	0.00000000	-7.57258800	-2.22071800
59.49999664	0.00000000	-6.36687900	-9.47342500
59.69999663	0.00000000	-5.62869100	-16.76919000
59.89999662	0.00000000	-6.04084600	-22.15797000
60.09999661	0.00000000	-7.11737200	-24.10802000
60.29999660	0.00000000	-8.69217500	-22.53322000
60.49999658	0.00000000	-9.81791200	-17.55659000
60.69999657	0.00000000	-10.59916000	-10.17470000
60.89999656	0.00000000	-10.55610000	-2.49753900
61.09999655	0.00000000	-9.44266700	4.45989200
61.29999654	0.00000000	-7.90477300	8.23080600
61.49999653	0.00000000	-6.36687900	7.85556000
61.69999651	0.00000000	-5.21038300	3.25418300
61.89999650	0.00000000	-4.87819900	-4.45374000
62.09999649	0.00000000	-5.62869100	-12.91215000
62.29999648	0.00000000	-7.57258800	-20.66314000
62.49999647	0.00000000	-9.86097400	-25.59670000
62.69999645	0.00000000	-12.18012000	-26.42716000
62.89999644	0.00000000	-13.67495000	-22.95152000
63.09999643	0.00000000	-13.71801000	-16.43701000
63.29999642	0.00000000	-12.55536000	-8.31077700
63.49999641	0.00000000	-10.59916000	-0.64591530
63.69999639	0.00000000	-7.90477300	4.78592500
63.89999638	0.00000000	-5.25344500	6.73597400
64.09999637	0.00000000	-3.67249000	5.24729300
64.29999636	0.00000000	-3.29724400	0.97810030
64.49999635	0.00000000	-4.04773600	-5.20423200
64.69999634	0.00000000	-5.99163300	-12.11860000
64.89999632	0.00000000	-8.32308000	-17.88263000
65.09999631	0.00000000	-11.02362000	-21.03838000
65.29999630	0.00000000	-13.25664000	-21.46284000
65.49999629	0.00000000	-13.67495000	-19.54970000
65.69999628	0.00000000	-12.55536000	-15.69882000
65.89999626	0.00000000	-10.64838000	-11.09129000
66.09999625	0.00000000	-8.32308000	-6.77903500
66.29999624	0.00000000	-6.41609200	-3.24803100
66.49999623	0.00000000	-5.25344500	-0.51058070
66.69999622	0.00000000	-5.25344500	1.02116100
66.89999620	0.00000000	-6.36687900	1.02116100
67.09999619	0.00000000	-7.90477300	-0.51058070
67.29999618	0.00000000	-9.44266700	-3.19881900
67.49999617	0.00000000	-10.55610000	-6.36072800
67.69999616	0.00000000	-10.55610000	-9.84867000
67.89999615	0.00000000	-9.44266700	-13.37352000
68.09999613	0.00000000	-7.86171200	-16.07406000
68.29999612	0.00000000	-5.94857300	-18.01796000
68.49999611	0.00000000	-4.09079700	-18.35015000
68.69999610	0.00000000	-3.75861200	-16.85531000
68.89999609	0.00000000	-5.25344500	-14.11786000
69.09999607	0.00000000	-7.94783400	-10.53765000
69.29999606	0.00000000	-11.06668000	-5.89320800
69.49999605	0.00000000	-14.13632000	-0.92888770
69.69999604	0.00000000	-16.36934000	2.51599400
69.89999603	0.00000000	-16.36934000	3.71555100
70.09999601	0.00000000	-14.09326000	2.51599400
70.29999600	0.00000000	-10.59916000	-0.92888770
70.49999599	0.00000000	-6.28075700	-5.98548200
70.69999598	0.00000000	-1.71628900	-11.38041000
70.89999597	0.00000000	1.72244100	-16.39395000
71.09999596	0.00000000	2.47293300	-19.46358000
71.29999594	0.00000000	0.60900590	-19.88189000
71.49999593	0.00000000	-3.29724400	-17.97490000
71.69999592	0.00000000	-8.32308000	-14.11786000
71.89999591	0.00000000	-13.76107000	-9.47342500
72.09999590	0.00000000	-18.32554000	-4.87204700
72.29999588	0.00000000	-20.65084000	-1.39025600
72.49999587	0.00000000	-19.86343000	-0.22145670
72.69999586	0.00000000	-16.46161000	-0.92888770
72.89999585	0.00000000	-11.44193000	-3.24803100
73.09999584	0.00000000	-6.41609200	-6.26845500
73.29999582	0.00000000	-2.09153500	-9.00590400
73.49999581	0.00000000	0.98425190	-10.91289000
73.69999580	0.00000000	2.09768700	-11.74336000
73.89999579	0.00000000	0.55979330	-11.33120000
74.09999578	0.00000000	-3.25418300	-10.25467000
74.29999577	0.00000000	-7.86171200	-8.72908400
74.49999575	0.00000000	-12.13706000	-7.98474400
74.69999574	0.00000000	-15.21284000	-7.98474400
74.89999573	0.00000000	-16.41855000	-8.77214500
75.09999572	0.00000000	-15.67421000	-10.62992000
75.29999571	0.00000000	-13.76107000	-12.11860000
75.49999569	0.00000000	-11.02362000	-12.53691000
75.69999568	0.00000000	-7.94783400	-12.07554000
75.89999567	0.00000000	-5.25344500	-10.11934000
76.09999566	0.00000000	-3.71555100	-6.68676100
76.29999565	0.00000000	-3.67249000	-3.29109200
76.49999563	0.00000000	-4.78592500	-0.97194880
76.69999562	0.00000000	-6.28075700	-0.59670270
76.89999561	0.00000000	-7.48646600	-2.12844500
77.09999560	0.00000000	-8.28001900	-5.29035400
77.29999559	0.00000000	-9.01820900	-9.89173200
77.49999558	0.00000000	-9.01820900	-14.90526000
77.69999556	0.00000000	-8.32308000	-18.71924000
77.89999555	0.00000000	-7.99704600	-20.66929000
78.09999554	0.00000000	-8.37229300	-19.83883000
78.29999553	0.00000000	-9.48572700	-16.39395000
78.49999552	0.00000000	-10.64838000	-11.00517000
78.69999550	0.00000000	-11.39887000	-5.24729300
78.89999549	0.00000000	-11.76181000	-0.55364170
79.09999548	0.00000000	-10.97441000	2.55905500
79.29999547	0.00000000	-9.44266700	3.67249000
79.49999546	0.00000000	-7.48646600	2.14074800
79.69999544	0.00000000	-5.21038300	-1.71013800
79.89999543	0.00000000	-3.67249000	-6.72982200
80.09999542	0.00000000	-3.29724400	-12.16166000
80.29999541	0.00000000	-4.04773600	-16.76919000
80.49999540	0.00000000	-5.99163300	-19.50664000
80.69999539	0.00000000	-8.28001900	-19.93110000
80.89999537	0.00000000	-10.64838000	-18.39321000
81.09999536	0.00000000	-12.55536000	-15.27436000
81.29999535	0.00000000	-13.71801000	-11.04823000
81.49999534	0.00000000	-13.67495000	-6.77903500
81.69999533	0.00000000	-12.13706000	-3.24803100
81.89999531	0.00000000	-9.48572700	-0.51058070
82.09999530	0.00000000	-6.79133800	1.02116100
82.29999529	0.00000000	-4.83513700	1.02116100
82.49999528	0.00000000	-3.67249000	-0.55364170
82.69999527	0.00000000	-3.67249000	-3.62327700
82.89999525	0.00000000	-4.78592500	-7.51722400
83.09999524	0.00000000	-6.32381900	-11.38041000
83.29999523	0.00000000	-7.90477300	-14.90526000
83.49999522	0.00000000	-9.44266700	-17.23056000
83.69999521	0.00000000	-10.59916000	-18.39321000
83.89999520	0.00000000	-10.97441000	-17.97490000
84.09999518	0.00000000	-10.64838000	-15.64960000
84.29999517	0.00000000	-9.90403500	-12.16166000
84.49999516	0.00000000	-9.52879000	-7.84940900
84.69999515	0.00000000	-9.44266700	-3.24803100
84.89999514	0.00000000	-9.11048200	0.55979330
85.09999512	0.00000000	-8.69832600	2.13459600
85.29999511	0.00000000	-8.69217500	1.39640700
85.49999510	0.00000000	-8.23695900	-0.97194880
85.69999509	0.00000000	-7.52952700	-5.24729300
85.89999508	0.00000000	-6.74212600	-10.58686000
86.09999506	0.00000000	-6.36687900	-15.23130000
86.29999505	0.00000000	-6.36687900	-18.35015000
86.49999504	0.00000000	-6.79133800	-19.55585000
86.69999503	0.00000000	-7.94783400	-18.67618000
86.89999502	0.00000000	-9.48572700	-15.60039000
87.09999501	0.00000000	-11.02362000	-10.22392000
87.29999499	0.00000000	-12.18012000	-4.91510800
87.49999498	0.00000000	-12.55536000	-0.97194880
87.69999497	0.00000000	-12.13706000	0.97810030
87.89999496	0.00000000	-10.59916000	0.97810030
88.09999495	0.00000000	-8.32308000	-1.02116100
88.29999493	0.00000000	-6.41609200	-5.24729300
88.49999492	0.00000000	-5.21038300	-10.58686000
88.69999491	0.00000000	-4.83513700	-15.18824000
88.89999490	0.00000000	-5.21038300	-17.92569000
89.09999489	0.00000000	-6.36687900	-18.30093000
89.29999487	0.00000000	-7.90477300	-16.35089000
89.49999486	0.00000000	-9.48572700	-12.11860000
89.69999485	0.00000000	-11.02362000	-6.82209600
89.89999484	0.00000000	-12.13706000	-2.59596400
90.09999483	0.00000000	-12.13706000	-0.59670270
90.29999482	0.00000000	-11.02362000	-0.55364170
90.49999480	0.00000000	-9.52879000	-2.22071800
90.69999479	0.00000000	-8.28001900	-6.03469500
90.89999478	0.00000000	-7.19734200	-11.32505000
91.09999477	0.00000000	-6.37918200	-15.14518000
91.29999476	0.00000000	-6.77903500	-16.76919000
91.49999474	0.00000000	-7.07431000	-16.35089000
91.69999473	0.00000000	-7.52952700	-13.65650000
91.89999472	0.00000000	-7.86171200	-9.47342500
92.09999471	0.00000000	-7.90477300	-5.24729300
92.29999470	0.00000000	-7.94783400	-2.12844500
92.49999468	0.00000000	-8.32308000	-0.59670270
92.69999467	0.00000000	-9.06742000	-1.06422200
92.89999466	0.00000000	-9.48572700	-4.08464600
93.09999465	0.00000000	-9.90403500	-8.67987200
93.29999464	0.00000000	-10.64838000	-12.86909000
93.49999463	0.00000000	-11.02362000	-16.01870000
93.69999461	0.00000000	-11.02362000	-17.09523000
93.89999460	0.00000000	-10.59916000	-15.97564000
94.09999459	0.00000000	-9.44266700	-12.49385000
94.29999458	0.00000000	-7.90477300	-7.93553100
94.49999457	0.00000000	-6.32381900	-3.70939900
94.69999455	0.00000000	-4.78592500	-1.06422200
94.89999454	0.00000000	-3.67249000	-1.01501000
95.09999453	0.00000000	-3.67249000	-3.29109200
95.29999452	0.00000000	-4.83513700	-6.72982200
95.49999451	0.00000000	-6.79133800	-10.62992000
95.69999449	0.00000000	-9.52879000	-14.03174000
95.89999448	0.00000000	-12.60458000	-15.97564000
96.09999447	0.00000000	-15.25591000	-15.60654000
96.29999446	0.00000000	-16.36934000	-13.69956000
96.49999445	0.00000000	-15.25591000	-10.58686000
96.69999444	0.00000000	-12.60458000	-6.77903500
96.89999442	0.00000000	-9.44266700	-3.75246000
97.09999441	0.00000000	-5.94857300	-2.54675200
97.29999440	0.00000000	-2.46678100	-3.29109200
97.49999439	0.00000000	-0.17839570	-5.19808000
97.69999438	0.00000000	0.55979330	-7.89247000
97.89999436	0.00000000	-0.97194880	-10.53765000
98.09999435	0.00000000	-4.41067900	-12.11860000
98.29999434	0.00000000	-8.28001900	-12.53691000
98.49999433	0.00000000	-12.22933000	-12.16166000
98.69999432	0.00000000	-15.63115000	-11.00517000
98.89999430	0.00000000	-17.57505000	-9.47342500
99.09999429	0.00000000	-17.21210000	-7.93553100
99.29999428	0.00000000	-15.29897000	-6.77903500
99.49999427	0.00000000	-12.18012000	-6.40378900
99.69999426	0.00000000	-8.32308000	-6.72982200
99.89999425	0.00000000	-4.83513700	-7.47416300
100.09999423	0.00000000	-2.13459600	-7.84940900
100.29999422	0.00000000	-0.97194880	-7.89247000
100.49999421	0.00000000	-1.71628900	-7.84940900
100.69999420	0.00000000	-3.62942900	-7.51722400
100.89999419	0.00000000	-6.36687900	-7.14812900
101.09999417	0.00000000	-9.44266700	-7.56028500
101.29999416	0.00000000	-12.18012000	-8.31077700
101.49999415	0.00000000	-14.13632000	-9.51648500
101.69999414	0.00000000	-15.29897000	-11.00517000
101.89999413	0.00000000	-15.25591000	-12.11860000
102.09999411	0.00000000	-13.71801000	-12.11860000
102.29999410	0.00000000	-11.06668000	-11.00517000
102.49999409	0.00000000	-8.37229300	-9.42421200
102.69999408	0.00000000	-6.36687900	-7.47416300
102.89999407	0.00000000	-4.78592500	-5.15501900
103.09999406	0.00000000	-3.67249000	-3.29109200
103.29999404	0.00000000	-3.71555100	-2.54675200
103.49999403	0.00000000	-5.21038300	-3.70939900
103.69999402	0.00000000	-7.48646600	-6.36072800
103.89999401	0.00000000	-9.44266700	-9.42421200
104.09999400	0.00000000	-11.02362000	-12.11860000
104.29999398	0.00000000	-12.18012000	-13.69956000
104.49999397	0.00000000	-12.55536000	-14.07480000
104.69999396	0.00000000	-12.18012000	-13.32431000
104.89999395	0.00000000	-11.02362000	-11.38041000
105.09999394	0.00000000	-9.48572700	-9.09817800
105.29999392	0.00000000	-7.94783400	-6.77903500
105.49999391	0.00000000	-6.79133800	-5.19808000
105.69999390	0.00000000	-6.36687900	-4.45374000
105.89999389	0.00000000	-6.36687900	-4.45989200
106.09999388	0.00000000	-6.79133800	-6.02854300
106.29999387	0.00000000	-7.94783400	-8.26771600
106.49999385	0.00000000	-9.44266700	-10.58686000
106.69999384	0.00000000	-10.55610000	-12.07554000
106.89999383	0.00000000	-10.59916000	-12.11860000
107.09999382	0.00000000	-9.86097400	-11.00517000
107.29999381	0.00000000	-9.06742000	-9.47342500
107.49999379	0.00000000	-7.90477300	-7.89247000
107.69999378	0.00000000	-6.79133800	-6.36072800
107.89999377	0.00000000	-6.41609200	-5.24729300
108.09999376	0.00000000	-6.79133800	-5.29035400
108.29999375	0.00000000	-7.90477300	-6.77903500
108.49999374	0.00000000	-9.06742000	-9.05511800
108.69999372	0.00000000	-9.86097400	-10.96211000
108.89999371	0.00000000	-10.64838000	-12.11860000
109.09999370	0.00000000	-10.97441000	-12.11860000
109.29999369	0.00000000	-10.59916000	-11.00517000
109.49999368	0.00000000	-9.44266700	-9.47342500
109.69999366	0.00000000	-7.94783400	-7.89247000
109.89999365	0.00000000	-6.79133800	-6.36072800
110.09999364	0.00000000	-6.36687900	-5.19808000
110.29999363	0.00000000	-6.36687900	-4.82898600
110.49999362	0.00000000	-6.79133800	-5.24729300
110.69999360	0.00000000	-7.94783400	-6.77903500
110.89999359	0.00000000	-9.44266700	-9.05511800
111.09999358	0.00000000	-10.59916000	-10.96211000
111.29999357	0.00000000	-11.02362000	-12.16166000
111.49999356	0.00000000	-11.02362000	-12.53691000
111.69999355	0.00000000	-10.64838000	-12.16166000
111.89999353	0.00000000	-9.86097400	-11.00517000
112.09999352	0.00000000	-9.06742000	-9.51648500
112.29999351	0.00000000	-7.90477300	-8.31077700
112.49999350	0.00000000	-6.79133800	-7.51722400
112.69999349	0.00000000	-6.41609200	-6.72982200
112.89999347	0.00000000	-6.74212600	-6.40378900
113.09999346	0.00000000	-7.52952700	-6.72982200
113.29999345	0.00000000	-8.28001900	-7.47416300
113.49999344	0.00000000	-9.06742000	-7.89247000
113.69999343	0.00000000	-9.44266700	-8.31077700
113.89999341	0.00000000	-9.48572700	-9.05511800
114.09999340	0.00000000	-9.44266700	-9.43036400
114.29999339	0.00000000	-9.06742000	-9.47342500
114.49999338	0.00000000	-8.32308000	-9.47342500
114.69999337	0.00000000	-7.94783400	-9.47342500
114.89999336	0.00000000	-7.90477300	-9.47342500
115.09999334	0.00000000	-7.90477300	-9.47342500
115.29999333	0.00000000	-7.90477300	-9.47342500
115.49999332	0.00000000	-7.90477300	-9.47342500
115.69999331	0.00000000	-7.94783400	-9.43036400
115.89999330	0.00000000	-8.32308000	-9.05511800
116.09999328	0.00000000	-9.06742000	-8.31077700
116.29999327	0.00000000	-9.44266700	-7.89247000
116.49999326	0.00000000	-9.48572700	-7.47416300
116.69999325	0.00000000	-9.48572700	-6.77903500
116.89999324	0.00000000	-9.48572700	-6.77903500
117.09999322	0.00000000	-9.44266700	-7.51722400
117.29999321	0.00000000	-9.06742000	-8.26771600
117.49999320	0.00000000	-8.28001900	-9.09817800
117.69999319	0.00000000	-7.52952700	-9.84867000
117.89999318	0.00000000	-6.74212600	-10.62992000
118.09999317	0.00000000	-6.36687900	-10.95595000
118.29999315	0.00000000	-6.36687900	-10.62992000
118.49999314	0.00000000	-6.79133800	-9.93479300
118.69999313	0.00000000	-7.94783400	-9.84867000
118.89999312	0.00000000	-9.44266700	-9.79330600
119.09999311	0.00000000	-10.59916000	-8.64296200
119.29999309	0.00000000	-11.02362000	-7.56028500
119.49999308	0.00000000	-11.02362000	-6.77903500
119.69999307	0.00000000	-10.64838000	-6.77903500
119.89999306	0.00000000	-9.86097400	-7.47416300
120.09999305	0.00000000	-9.06742000	-7.84940900
120.29999303	0.00000000	-7.90477300	-7.89247000
120.49999302	0.00000000	-6.74212600	-7.93553100
120.69999301	0.00000000	-5.99163300	-8.31077700
120.89999300	0.00000000	-5.57947800	-9.09817800
121.09999299	0.00000000	-5.99163300	-9.79945900
121.29999298	0.00000000	-6.74212600	-10.21161000
121.49999296	0.00000000	-7.94783400	-9.89173200
121.69999295	0.00000000	-9.44266700	-9.89173200
121.89999294	0.00000000	-10.59916000	-10.16855000
122.09999293	0.00000000	-11.02362000	-9.42421200
122.29999292	0.00000000	-11.02362000	-8.35998900
122.49999290	0.00000000	-10.64838000	-7.89247000
122.69999289	0.00000000	-9.86097400	-7.47416300
122.89999288	0.00000000	-9.15354300	-6.72982200
123.09999287	0.00000000	-8.65526600	-6.40378900
123.29999286	0.00000000	-8.27386800	-6.72982200
123.49999284	0.00000000	-7.11737200	-7.47416300
123.69999283	0.00000000	-6.41609200	-7.89247000
123.89999282	0.00000000	-6.36687900	-8.31077700
124.09999281	0.00000000	-6.74212600	-9.09817800
124.29999280	0.00000000	-7.52952700	-9.79945900
124.49999279	0.00000000	-8.28001900	-10.21161000
124.69999277	0.00000000	-9.11048200	-9.84867000
124.89999276	0.00000000	-9.86097400	-9.47342500
125.09999275	0.00000000	-10.64838000	-9.05511800
125.29999274	0.00000000	-11.02362000	-8.31077700
125.49999273	0.00000000	-11.02362000	-7.93553100
125.69999271	0.00000000	-10.64838000	-7.89247000
125.89999270	0.00000000	-9.86097400	-7.89247000
126.09999269	0.00000000	-9.06742000	-7.89247000
126.29999268	0.00000000	-7.90477300	-7.89247000
126.49999267	0.00000000	-6.79133800	-7.89247000
126.69999265	0.00000000	-6.36687900	-7.93553100
126.89999264	0.00000000	-6.36687900	-8.31077700
127.09999263	0.00000000	-6.79133800	-9.05511800
127.29999262	0.00000000	-7.94783400	-9.43036400
127.49999261	0.00000000	-9.44266700	-9.47342500
127.69999260	0.00000000	-10.59916000	-9.47342500
127.89999258	0.00000000	-11.02362000	-9.47342500
128.09999257	0.00000000	-11.02362000	-9.43036400
128.29999256	0.00000000	-10.64838000	-9.05511800
128.49999255	0.00000000	-9.86097400	-8.31077700
128.69999254	0.00000000	-9.06742000	-7.93553100
128.89999252	0.00000000	-7.90477300	-7.89247000
129.09999251	0.00000000	-6.79133800	-7.89247000
129.29999250	0.00000000	-6.41609200	-7.93553100
129.49999249	0.00000000	-6.74212600	-8.31077700
129.69999248	0.00000000	-7.57258800	-9.05511800
129.89999246	0.00000000	-8.69832600	-9.43036400
130.09999245	0.00000000	-10.23007000	-9.47342500
130.29999244	0.00000000	-10.97441000	-9.47342500
130.49999243	0.00000000	-11.06668000	-9.43036400
130.69999242	0.00000000	-11.02362000	-9.05511800
130.89999241	0.00000000	-10.59916000	-8.31077700
131.09999239	0.00000000	-9.48572700	-7.93553100
131.29999238	0.00000000	-8.37229300	-7.89247000
131.49999237	0.00000000	-7.94783400	-7.93553100
131.69999236	0.00000000	-7.90477300	-8.31077700
131.89999235	0.00000000	-7.90477300	-9.09817800
132.09999233	0.00000000	-7.94783400	-9.84867000
132.29999232	0.00000000	-8.32308000	-10.62992000
132.49999231	0.00000000	-9.06742000	-10.95595000
132.69999230	0.00000000	-9.44266700	-10.62992000
132.89999229	0.00000000	-9.48572700	-9.84867000
133.09999227	0.00000000	-9.48572700	-9.09817800
133.29999226	0.00000000	-9.48572700	-8.26771600
133.49999225	0.00000000	-9.48572700	-7.51722400
133.69999224	0.00000000	-9.44266700	-6.72982200
133.89999223	0.00000000	-9.06742000	-6.40378900
134.09999222	0.00000000	-8.37229300	-6.72982200
134.29999220	0.00000000	-8.37229300	-7.51722400
134.49999219	0.00000000	-9.01820900	-8.31077700
134.69999218	0.00000000	-9.01820900	-9.47342500
134.89999217	0.00000000	-8.32308000	-10.53765000
135.09999216	0.00000000	-7.94783400	-10.58686000
135.29999214	0.00000000	-7.90477300	-9.89173200
135.49999213	0.00000000	-7.90477300	-9.51648500
135.69999212	0.00000000	-7.90477300	-9.43036400
135.89999211	0.00000000	-7.94783400	-9.05511800
136.09999210	0.00000000	-8.32308000	-8.26771600
136.29999208	0.00000000	-9.11048200	-7.51722400
136.49999207	0.00000000	-9.86097400	-6.77903500
136.69999206	0.00000000	-10.59916000	-6.77903500
136.89999205	0.00000000	-10.59916000	-7.47416300
137.09999204	0.00000000	-9.90403500	-7.89247000
137.29999203	0.00000000	-9.48572700	-8.31077700
137.49999201	0.00000000	-9.06742000	-9.05511800
137.69999200	0.00000000	-8.32308000	-9.43036400
137.89999199	0.00000000	-7.94783400	-9.51648500
138.09999198	0.00000000	-7.90477300	-9.89173200
138.29999197	0.00000000	-7.90477300	-10.62992000
138.49999195	0.00000000	-7.94783400	-10.95595000
138.69999194	0.00000000	-8.37229300	-10.62992000
138.89999193	0.00000000	-9.44266700	-9.84867000
139.09999192	0.00000000	-10.23007000	-9.09817800
139.29999191	0.00000000	-10.23622000	-8.31077700
139.49999189	0.00000000	-10.27313000	-7.89247000
139.69999188	0.00000000	-9.86097400	-7.47416300
139.89999187	0.00000000	-9.48572700	-6.77903500
140.09999186	0.00000000	-9.06742000	-6.77903500
140.29999185	0.00000000	-8.32308000	-7.51722400
140.49999184	0.00000000	-7.94783400	-8.26771600
140.69999182	0.00000000	-7.90477300	-9.09817800
140.89999181	0.00000000	-7.94783400	-9.84867000
141.09999180	0.00000000	-8.32308000	-10.62992000
141.29999179	0.00000000	-9.06742000	-11.00517000
141.49999178	0.00000000	-9.44266700	-10.95595000
141.69999176	0.00000000	-9.48572700	-10.21161000
141.89999175	0.00000000	-9.48572700	-8.68602300
142.09999174	0.00000000	-9.44266700	-7.56028500
142.29999173	0.00000000	-9.06742000	-6.72982200
142.49999172	0.00000000	-8.32308000	-6.35457700
142.69999170	0.00000000	-7.94783400	-6.35457700
142.89999169	0.00000000	-7.94783400	-6.77903500
143.09999168	0.00000000	-8.32308000	-7.89247000
143.29999167	0.00000000	-9.06742000	-9.05511800
143.49999166	0.00000000	-9.44266700	-9.84867000
143.69999165	0.00000000	-9.48572700	-10.62992000
143.89999163	0.00000000	-9.48572700	-10.95595000
144.09999162	0.00000000	-9.48572700	-10.62992000
144.29999161	0.00000000	-9.44266700	-9.84867000
144.49999160	0.00000000	-9.06742000	-9.09817800
144.69999159	0.00000000	-8.32308000	-8.26771600
144.89999157	0.00000000	-7.94783400	-7.51722400
145.09999156	0.00000000	-7.94783400	-6.77903500
145.29999155	0.00000000	-8.32308000	-6.77903500
145.49999154	0.00000000	-9.06742000	-7.51722400
145.69999153	0.00000000	-9.44266700	-8.26771600
145.89999151	0.00000000	-9.48572700	-9.05511800
146.09999150	0.00000000	-9.48572700	-9.43036400
146.29999149	0.00000000	-9.48572700	-9.47342500
146.49999148	0.00000000	-9.48572700	-9.47342500
146.69999147	0.00000000	-9.44266700	-9.47342500
146.89999146	0.00000000	-9.06742000	-9.47342500
147.09999144	0.00000000	-8.32308000	-9.43036400
147.29999143	0.00000000	-7.94783400	-9.05511800
147.49999142	0.00000000	-7.90477300	-8.31077700
147.69999141	0.00000000	-7.94783400	-7.93553100
147.89999140	0.00000000	-8.32308000	-7.89247000
148.09999138	0.00000000	-9.06742000	-7.89247000
148.29999137	0.00000000	-9.44266700	-7.89247000
148.49999136	0.00000000	-9.48572700	-7.93553100
148.69999135	0.00000000	-9.48572700	-8.31077700
148.89999134	0.00000000	-9.48572700	-9.05511800
149.09999132	0.00000000	-9.44266700	-9.43036400
149.29999131	0.00000000	-9.06742000	-9.47342500
149.49999130	0.00000000	-8.32308000	-9.47342500
149.69999129	0.00000000	-7.94783400	-9.47342500
149.89999128	0.00000000	-7.90477300	-9.43036400
150.09999127	0.00000000	-7.90477300	-9.05511800
150.29999125	0.00000000	-7.90477300	-8.31077700
150.49999124	0.00000000	-7.94783400	-7.93553100
150.69999123	0.00000000	-8.32308000	-7.89247000
150.89999122	0.00000000	-9.06742000	-7.89247000
151.09999121	0.00000000	-9.44266700	-7.89247000
151.29999119	0.00000000	-9.48572700	-7.89247000
151.49999118	0.00000000	-9.48572700	-7.93553100
151.69999117	0.00000000	-9.48572700	-8.31077700
151.89999116	0.00000000	-9.48572700	-9.05511800
152.09999115	0.00000000	-9.48572700	-9.43036400
152.29999113	0.00000000	-9.44266700	-9.47342500
152.49999112	0.00000000	-9.06742000	-9.47342500
152.69999111	0.00000000	-8.32308000	-9.47342500
152.89999110	0.00000000	-7.94783400	-9.43036400
153.09999109	0.00000000	-7.94783400	-9.05511800
153.29999108	0.00000000	-8.28001900	-8.31077700
153.49999106	0.00000000	-8.69217500	-7.93553100
153.69999105	0.00000000	-8.69832600	-7.89247000
153.89999104	0.00000000	-9.11048200	-7.89247000
154.09999103	0.00000000	-9.44266700	-7.89247000
154.29999102	0.00000000	-9.48572700	-7.89247000
154.49999100	0.00000000	-9.48572700	-7.89247000
154.69999099	0.00000000	-9.52879000	-7.93553100
154.89999098	0.00000000	-9.86097400	-8.31077700
155.09999097	0.00000000	-10.18086000	-9.05511800
155.29999096	0.00000000	-9.44266700	-9.43036400
155.49999094	0.00000000	-8.37229300	-9.47342500
155.69999093	0.00000000	-7.94783400	-9.47342500
155.89999092	0.00000000	-7.90477300	-9.47342500
156.09999091	0.00000000	-7.90477300	-9.47342500
156.29999090	0.00000000	-7.94783400	-9.43036400
156.49999089	0.00000000	-8.32308000	-9.05511800
156.69999087	0.00000000	-9.06742000	-8.31077700
156.89999086	0.00000000	-9.44266700	-7.93553100
157.09999085	0.00000000	-9.48572700	-7.89247000
157.29999084	0.00000000	-9.48572700	-7.89247000
157.49999083	0.00000000	-9.48572700	-7.89247000
157.69999081	0.00000000	-9.48572700	-7.89247000
157.89999080	0.00000000	-9.48572700	-7.93553100
158.09999079	0.00000000	-9.48572700	-8.31077700
158.29999078	0.00000000	-9.44266700	-9.05511800
158.49999077	0.00000000	-9.06742000	-9.43036400
158.69999075	0.00000000	-8.32308000	-9.47342500
158.89999074	0.00000000	-7.99704600	-9.47342500
159.09999073	0.00000000	-8.32308000	-9.43036400
159.29999072	0.00000000	-9.06742000	-9.05511800
159.49999071	0.00000000	-9.44266700	-8.31077700
159.69999070	0.00000000	-9.48572700	-7.93553100
159.89999068	0.00000000	-9.48572700	-7.89247000
160.09999067	0.00000000	-9.48572700	-7.89247000
160.29999066	0.00000000	-9.48572700	-7.89247000
160.49999065	0.00000000	-9.48572700	-7.89247000
160.69999064	0.00000000	-9.48572700	-7.93553100
160.89999062	0.00000000	-9.48572700	-8.31077700
161.09999061	0.00000000	-9.48572700	-9.05511800
161.29999060	0.00000000	-9.48572700	-9.43036400
161.49999059	0.00000000	-9.48572700	-9.47342500
161.69999058	0.00000000	-9.44266700	-9.47342500
161.89999056	0.00000000	-9.06742000	-9.47342500
162.09999055	0.00000000	-8.32308000	-9.43036400
162.29999054	0.00000000	-7.94783400	-9.05511800
162.49999053	0.00000000	-7.94783400	-8.31077700
162.69999052	0.00000000	-8.28001900	-7.93553100
162.89999051	0.00000000	-8.69217500	-7.89247000
163.09999049	0.00000000	-8.69832600	-7.89247000
163.29999048	0.00000000	-9.11048200	-7.89247000
163.49999047	0.00000000	-9.44266700	-7.89247000
163.69999046	0.00000000	-9.52879000	-7.93553100
163.89999045	0.00000000	-9.86097400	-8.31077700
164.09999043	0.00000000	-10.23007000	-9.05511800
164.29999042	0.00000000	-9.86097400	-9.43036400
164.49999041	0.00000000	-9.48572700	-9.51648500
164.69999040	0.00000000	-9.06742000	-9.84867000
164.89999039	0.00000000	-8.32308000	-10.16855000
165.09999037	0.00000000	-7.94783400	-9.47342500
165.29999036	0.00000000	-7.90477300	-8.77829600
165.49999035	0.00000000	-7.90477300	-9.09817800
165.69999034	0.00000000	-7.94783400	-9.43036400
165.89999033	0.00000000	-8.32308000	-9.43036400
166.09999032	0.00000000	-9.06742000	-9.09817800
166.29999030	0.00000000	-9.44266700	-8.68602300
166.49999029	0.00000000	-9.48572700	-8.72293300
166.69999028	0.00000000	-9.48572700	-8.68602300
166.89999027	0.00000000	-9.48572700	-9.09817800
167.09999026	0.00000000	-9.48572700	-9.43036400
167.29999024	0.00000000	-9.48572700	-9.47342500
167.49999023	0.00000000	-9.48572700	-9.47342500
167.69999022	0.00000000	-9.44266700	-9.47342500
167.89999021	0.00000000	-9.06742000	-9.47342500
168.09999020	0.00000000	-8.32308000	-9.47342500
168.29999018	0.00000000	-7.94783400	-9.47342500
168.49999017	0.00000000	-7.90477300	-9.47342500
168.69999016	0.00000000	-7.90477300	-9.47342500
168.89999015	0.00000000	-7.94783400	-9.47342500
169.09999014	0.00000000	-8.32308000	-9.47342500
169.29999013	0.00000000	-9.06742000	-9.47342500
169.49999011	0.00000000	-9.44266700	-9.47342500
169.69999010	0.00000000	-9.48572700	-9.43036400
169.89999009	0.00000000	-9.48572700	-9.09817800
170.09999008	0.00000000	-9.48572700	-8.72908400
170.29999007	0.00000000	-9.48572700	-9.05511800
170.49999005	0.00000000	-9.44266700	-9.00590400
170.69999004	0.00000000	-9.11048200	-8.35998900
170.89999003	0.00000000	-8.74138700	-8.35998900
171.09999002	0.00000000	-9.11048200	-9.05511800
171.29999001	0.00000000	-9.44266700	-9.43036400
171.49998999	0.00000000	-9.44266700	-9.47342500
171.69998998	0.00000000	-9.11048200	-9.47342500
171.89998997	0.00000000	-8.69832600	-9.47342500
172.09998996	0.00000000	-8.73523500	-9.47342500
172.29998995	0.00000000	-8.69832600	-9.47342500
172.49998994	0.00000000	-9.11048200	-9.43036400
172.69998992	0.00000000	-9.44266700	-9.05511800
172.89998991	0.00000000	-9.48572700	-8.31077700
173.09998990	0.00000000	-9.48572700	-7.98474400
173.29998989	0.00000000	-9.48572700	-8.26771600
173.49998988	0.00000000	-9.48572700	-8.67987200
173.69998986	0.00000000	-9.48572700	-8.68602300
173.89998985	0.00000000	-9.48572700	-9.09817800
174.09998984	0.00000000	-9.48572700	-9.43036400
174.29998983	0.00000000	-9.48572700	-9.47342500
174.49998982	0.00000000	-9.48572700	-9.47342500
174.69998980	0.00000000	-9.48572700	-9.47342500
174.89998979	0.00000000	-9.48572700	-9.47342500
175.09998978	0.00000000	-9.48572700	-9.47342500
175.29998977	0.00000000	-9.48572700	-9.47342500
175.49998976	0.00000000	-9.48572700	-9.47342500
175.69998975	0.00000000	-9.48572700	-9.47342500
175.89998973	0.00000000	-9.48572700	-9.47342500
176.09998972	0.00000000	-9.48572700	-9.47342500
176.29998971	0.00000000	-9.48572700	-9.43036400
176.49998970	0.00000000	-9.48572700	-9.09817800
176.69998969	0.00000000	-9.48572700	-8.68602300
176.89998967	0.00000000	-9.48572700	-8.72293300
177.09998966	0.00000000	-9.48572700	-8.68602300
177.29998965	0.00000000	-9.48572700	-9.09817800
177.49998964	0.00000000	-9.48572700	-9.43036400
177.69998963	0.00000000	-9.48572700	-9.47342500
177.89998961	0.00000000	-9.48572700	-9.47342500
178.09998960	0.00000000	-9.48572700	-9.47342500
178.29998959	0.00000000	-9.48572700	-9.47342500
178.49998958	0.00000000	-9.48572700	-9.43036400
178.69998957	0.00000000	-9.48572700	-9.05511800
178.89998956	0.00000000	-9.48572700	-8.31077700
179.09998954	0.00000000	-9.44266700	-7.98474400
179.29998953	0.00000000	-9.11048200	-8.26771600
179.49998952	0.00000000	-8.74138700	-8.63681000
179.69998951	0.00000000	-9.11048200	-8.26771600
179.89998950	0.00000000	-9.44266700	-7.98474400
180.09998948	0.00000000	-9.48572700	-8.31077700
180.29998947	0.00000000	-9.48572700	-9.05511800
180.49998946	0.00000000	-9.48572700	-9.43036400
180.69998945	0.00000000	-9.48572700	-9.47342500
180.89998944	0.00000000	-9.48572700	-9.47342500
181.09998942	0.00000000	-9.48572700	-9.47342500
181.29998941	0.00000000	-9.48572700	-9.47342500
181.49998940	0.00000000	-9.48572700	-9.43036400
181.69998939	0.00000000	-9.44266700	-9.05511800
181.89998938	0.00000000	-9.11048200	-8.31077700
182.09998937	0.00000000	-8.69832600	-7.93553100
182.29998935	0.00000000	-8.73523500	-7.89247000
182.49998934	0.00000000	-8.69832600	-7.93553100
182.69998933	0.00000000	-9.11048200	-8.31077700
182.89998932	0.00000000	-9.44266700	-9.05511800
183.09998931	0.00000000	-9.48572700	-9.43036400
183.29998929	0.00000000	-9.48572700	-9.47342500
183.49998928	0.00000000	-9.48572700	-9.47342500
183.69998927	0.00000000	-9.48572700	-9.47342500
183.89998926	0.00000000	-9.48572700	-9.47342500
184.09998925	0.00000000	-9.48572700	-9.47342500
184.29998923	0.00000000	-9.48572700	-9.43036400
184.49998922	0.00000000	-9.48572700	-9.05511800
184.69998921	0.00000000	-9.48572700	-8.31077700
184.89998920	0.00000000	-9.48572700	-7.93553100
185.09998919	0.00000000	-9.48572700	-7.89247000
185.29998918	0.00000000	-9.48572700	-7.89247000
185.49998916	0.00000000	-9.48572700	-7.89247000
185.69998915	0.00000000	-9.48572700	-7.93553100
185.89998914	0.00000000	-9.48572700	-8.31077700
186.09998913	0.00000000	-9.48572700	-9.05511800
186.29998912	0.00000000	-9.48572700	-9.43036400
186.49998910	0.00000000	-9.48572700	-9.47342500
186.69998909	0.00000000	-9.48572700	-9.47342500
186.89998908	0.00000000	-9.48572700	-9.47342500
187.09998907	0.00000000	-9.48572700	-9.47342500
187.29998906	0.00000000	-9.48572700	-9.43036400
187.49998904	0.00000000	-9.48572700	-9.05511800
187.69998903	0.00000000	-9.48572700	-8.31077700
187.89998902	0.00000000	-9.48572700	-7.93553100
188.09998901	0.00000000	-9.48572700	-7.89247000
188.29998900	0.00000000	-9.48572700	-7.89247000
188.49998899	0.00000000	-9.48572700	-7.93553100
188.69998897	0.00000000	-9.44266700	-8.31077700
188.89998896	0.00000000	-9.11048200	-9.05511800
189.09998895	0.00000000	-8.74138700	-9.43036400
189.29998894	0.00000000	-9.11048200	-9.47342500
189.49998893	0.00000000	-9.44266700	-9.47342500
189.69998891	0.00000000	-9.48572700	-9.47342500
189.89998890	0.00000000	-9.48572700	-9.47342500
190.09998889	0.00000000	-9.48572700	-9.47342500
190.29998888	0.00000000	-9.48572700	-9.43036400
190.49998887	0.00000000	-9.48572700	-9.05511800
190.69998885	0.00000000	-9.48572700	-8.31077700
190.89998884	0.00000000	-9.48572700	-7.93553100
191.09998883	0.00000000	-9.48572700	-7.89247000
191.29998882	0.00000000	-9.48572700	-7.93553100
191.49998881	0.00000000	-9.48572700	-8.31077700
191.69998880	0.00000000	-9.48572700	-9.05511800
191.89998878	0.00000000	-9.48572700	-9.43036400
192.09998877	0.00000000	-9.48572700	-9.47342500
192.29998876	0.00000000	-9.48572700	-9.47342500
192.49998875	0.00000000	-9.48572700	-9.47342500
192.69998874	0.00000000	-9.48572700	-9.47342500
192.89998872	0.00000000	-9.48572700	-9.47342500
193.09998871	0.00000000	-9.48572700	-9.47342500
193.29998870	0.00000000	-9.48572700	-9.47342500
193.49998869	0.00000000	-9.48572700	-9.47342500
193.69998868	0.00000000	-9.48572700	-9.43036400
193.89998866	0.00000000	-9.48572700	-9.09817800
194.09998865	0.00000000	-9.48572700	-8.68602300
194.29998864	0.00000000	-9.48572700	-8.72293300
194.49998863	0.00000000	-9.44266700	-8.64296200
194.69998862	0.00000000	-9.11048200	-8.67987200
194.89998861	0.00000000	-8.74138700	-8.26771600
195.09998859	0.00000000	-9.06742000	-7.98474400
195.29998858	0.00000000	-9.06742000	-8.31077700
195.49998857	0.00000000	-8.74138700	-9.05511800
195.69998856	0.00000000	-9.15354300	-9.43036400
195.89998855	0.00000000	-9.81791200	-9.47342500
196.09998853	0.00000000	-10.23007000	-9.47342500
