Time	Channel A	Channel B	Channel C
(us)	(V)	(mV)	(mV)

-4.53333289	0.00000000	-11.06668000	-9.47342500
-4.33333290	0.00000000	-11.06668000	-9.47342500
-4.13333291	0.00000000	-11.06668000	-9.47342500
-3.93333293	0.00000000	-11.06668000	-9.47342500
-3.73333294	0.00000000	-11.06668000	-9.47342500
-3.53333295	0.00000000	-11.02362000	-9.47342500
-3.33333296	0.00000000	-10.69144000	-9.47342500
-3.13333297	0.00000000	-10.37155000	-9.47342500
-2.93333299	0.00000000	-11.06668000	-9.43036400
-2.73333300	0.00000000	-11.76181000	-9.09817800
-2.53333301	0.00000000	-11.44193000	-8.72908400
-2.33333302	0.00000000	-11.10974000	-9.09817800
-2.13333303	0.00000000	-11.06668000	-9.38115100
-1.93333304	0.00000000	-11.06668000	-9.09817800
-1.73333306	0.00000000	-11.06668000	-8.72908400
-1.53333307	0.00000000	-11.06668000	-9.09817800
-1.33333308	0.00000000	-11.06668000	-9.43036400
-1.13333309	0.00000000	-11.06668000	-9.47342500
-0.93333310	0.00000000	-11.06668000	-9.47342500
-0.73333312	0.00000000	-11.06668000	-9.47342500
-0.53333313	0.00000000	-11.06668000	-9.47342500
-0.33333314	0.15871060	-11.06668000	-9.47342500
-0.13333315	0.47736220	-11.06668000	-9.47342500
0.06666684	0.95533960	-11.06668000	-9.47342500
0.26666682	0.95533960	-11.06668000	-9.47342500
0.46666681	0.95533960	-11.06668000	-9.47342500
0.66666680	0.47736220	-11.06668000	-9.47342500
0.86666679	-0.31803640	-11.06668000	-9.47342500
1.06666678	-1.27399100	-11.06668000	-9.47342500
1.26666677	-2.22994600	-11.06668000	-9.47342500
1.46666675	-2.70792300	-11.06668000	-9.47342500
1.66666674	-2.70792300	-11.06668000	-9.47342500
1.86666673	-1.75196900	-11.06668000	-9.47342500
2.06666672	0.00000000	-11.06668000	-9.47342500
2.26666671	2.07062000	-11.06668000	-9.47342500
2.46666669	4.14124000	-11.06668000	-9.47342500
2.66666668	5.25652100	-11.06668000	-9.47342500
2.86666667	5.09719500	-11.06668000	-9.47342500
3.06666666	3.66326300	-11.06668000	-9.51648500
3.26666665	0.79601380	-11.06668000	-9.84867000
3.46666663	-2.54859700	-11.06668000	-10.21161000
3.66666662	-5.73449800	-11.06668000	-9.84867000
3.86666661	-7.64579200	-11.06668000	-9.51648500
4.06666660	-7.80511800	-11.06668000	-9.43036400
4.26666659	-5.73449800	-11.06668000	-9.09817800
4.46666658	-2.22994600	-11.06668000	-8.68602300
4.66666656	2.07062000	-11.06668000	-8.72293300
4.86666655	6.21247500	-11.06668000	-8.68602300
5.06666654	8.92039900	-11.06668000	-9.09817800
5.26666653	9.39837600	-11.06668000	-9.47342500
5.46666652	7.48646600	-11.06668000	-9.84867000
5.66666650	3.66326300	-11.06668000	-10.21161000
5.86666649	-1.11466500	-11.06668000	-9.84867000
6.06666648	-5.57517200	-11.06668000	-9.51648500
6.26666647	-8.60174700	-11.06668000	-9.47342500
6.46666646	-9.39837600	-11.06668000	-9.47342500
6.66666644	-7.96444400	-11.06668000	-9.47342500
6.86666643	-4.61921700	-11.06668000	-9.47342500
7.06666642	-0.15871060	-11.06668000	-9.47342500
7.26666641	3.98191400	-11.06668000	-9.47342500
7.46666640	6.84916400	-11.06668000	-9.47342500
7.66666639	7.80511800	-11.06668000	-9.47342500
7.86666637	6.84916400	-11.06668000	-9.47342500
8.06666636	4.30056600	-11.06668000	-9.47342500
8.26666635	0.95533960	-11.06668000	-9.47342500
8.46666634	-2.07062000	-11.06668000	-9.47342500
8.66666633	-4.30056600	-11.06668000	-9.47342500
8.86666631	-5.09719500	-11.06668000	-9.47342500
9.06666630	-4.77854300	-11.06668000	-9.47342500
9.26666629	-3.18590100	-11.06668000	-9.47342500
9.46666628	-1.11466500	-11.06668000	-9.47342500
9.66666627	0.63668800	-11.06668000	-9.47342500
9.86666625	1.91129400	-11.06668000	-9.47342500
10.06666624	2.54859700	-11.06668000	-9.47342500
10.26666623	2.38927200	-11.06668000	-9.47342500
10.46666622	1.75196900	-11.06668000	-9.47342500
10.66666621	0.79601380	-11.06668000	-9.47342500
10.86666620	0.00000000	-11.06668000	-9.47342500
11.06666618	-0.63668800	-11.06668000	-9.47342500
11.26666617	-0.95533960	-11.06668000	-9.47342500
11.46666616	-0.95533960	-11.02362000	-9.47342500
11.66666615	-0.79601380	-10.69144000	-9.47342500
11.86666614	-0.47736220	-10.32234000	-9.43036400
12.06666612	-0.15871060	-10.69144000	-9.09817800
12.26666611	-0.15871060	-11.02362000	-8.72908400
12.46666610	-0.15871060	-11.06668000	-9.09817800
12.66666609	0.00000000	-11.06668000	-9.43036400
12.86666608	0.00000000	-11.06668000	-9.47342500
13.06666606	0.00000000	-11.06668000	-9.47342500
13.26666605	0.00000000	-11.06668000	-9.47342500
13.46666604	0.00000000	-11.06668000	-9.47342500
13.66666603	0.00000000	-11.06668000	-9.47342500
13.86666602	0.00000000	-11.06668000	-9.47342500
14.06666601	-0.15871060	-11.06668000	-9.47342500
14.26666599	-0.15871060	-11.06668000	-9.47342500
14.46666598	-0.15871060	-11.06668000	-9.47342500
14.66666597	0.00000000	-11.06668000	-9.47342500
14.86666596	0.00000000	-11.06668000	-9.47342500
15.06666595	0.00000000	-11.06668000	-9.47342500
15.26666593	0.00000000	-11.06668000	-9.47342500
15.46666592	0.00000000	-11.06668000	-9.47342500
15.66666591	0.00000000	-11.06668000	-9.47342500
15.86666590	0.00000000	-11.06668000	-9.47342500
16.06666589	0.00000000	-11.06668000	-9.47342500
16.26666587	0.00000000	-11.06668000	-9.47342500
16.46666586	0.00000000	-11.06668000	-9.47342500
16.66666585	0.00000000	-11.02362000	-9.47342500
16.86666584	0.00000000	-10.64838000	-9.47342500
17.06666583	0.00000000	-9.90403500	-9.47342500
17.26666582	0.00000000	-9.52879000	-9.47342500
17.46666580	0.00000000	-9.48572700	-9.47342500
17.66666579	0.00000000	-9.48572700	-9.47342500
17.86666578	0.00000000	-9.52879000	-9.47342500
18.06666577	0.00000000	-9.95324800	-9.47342500
18.26666576	0.00000000	-11.15896000	-9.47342500
18.46666574	0.00000000	-13.02288000	-9.47342500
18.66666573	0.00000000	-14.92372000	-9.47342500
18.86666572	0.00000000	-15.71727000	-9.47342500
19.06666571	0.00000000	-15.76649000	-9.47342500
19.26666570	0.00000000	-15.29897000	-9.47342500
19.46666568	0.00000000	-13.67495000	-9.47342500
19.66666567	0.00000000	-10.55610000	-9.47342500
19.86666566	0.00000000	-6.32381900	-9.47342500
20.06666565	0.00000000	-2.17765700	-9.47342500
20.26666564	0.00000000	0.14148620	-9.47342500
20.46666563	0.00000000	-0.27066930	-9.47342500
20.66666561	0.00000000	-2.97736200	-9.47342500
20.86666560	0.00000000	-8.13238100	-9.47342500
21.06666559	0.00000000	-15.06521000	-9.47342500
21.26666558	0.00000000	-22.78543000	-9.47342500
21.46666557	0.00000000	-28.88164000	-9.47342500
21.66666555	0.00000000	-31.58218000	-9.47342500
21.86666554	0.00000000	-29.95817000	-9.47342500
22.06666553	0.00000000	-23.67741000	-9.47342500
22.26666552	0.00000000	-13.20743000	-9.47342500
22.46666551	0.00000000	-0.51058070	-9.47342500
22.66666549	0.00000000	11.07283000	-9.47342500
22.86666548	0.00000000	18.75615000	-9.47342500
23.06666547	0.00000000	20.56471000	-9.47342500
23.26666546	0.00000000	14.66535000	-9.43036400
23.46666545	0.00000000	1.58710600	-9.05511800
23.66666544	0.00000000	-15.43430000	-8.31077700
23.86666542	0.00000000	-32.46801000	-7.93553100
24.06666541	0.00000000	-46.33366000	-7.89247000
24.26666540	0.00000000	-53.17421000	-7.93553100
24.46666539	0.00000000	-50.43061000	-8.35998900
24.66666538	0.00000000	-38.37967000	-9.51648500
24.86666536	0.00000000	-19.02682000	-11.04823000
25.06666535	0.00000000	3.67864200	-12.62918000
25.26666534	0.00000000	23.73277000	-14.11786000
25.46666533	0.00000000	36.10975000	-14.85605000
25.66666532	0.00000000	38.38583000	-14.07480000
25.86666530	0.00000000	29.41068000	-12.16781000
26.06666529	0.00000000	10.51919000	-9.38115100
26.26666528	0.00000000	-13.76722000	-5.85014700
26.46666527	0.00000000	-37.35236000	-1.66707700
26.66666526	0.00000000	-55.17347000	1.72244100
26.86666525	0.00000000	-63.60112000	2.46678100
27.06666523	0.00000000	-60.10703000	0.51673230
27.26666522	0.00000000	-45.07874000	-4.17691900
27.46666521	0.00000000	-22.74237000	-11.14050000
27.66666520	0.00000000	1.63016700	-18.85458000
27.86666519	0.00000000	22.52707000	-25.77510000
28.06666517	0.00000000	35.69143000	-29.95817000
28.26666516	0.00000000	38.38583000	-29.91511000
28.46666515	0.00000000	29.92126000	-25.22145000
28.66666514	0.00000000	12.61073000	-16.30167000
28.86666513	0.00000000	-8.97514600	-4.69365100
29.06666511	0.00000000	-29.53986000	7.25270600
29.26666510	0.00000000	-45.03568000	16.81841000
29.46666509	0.00000000	-52.84203000	21.05069000
29.66666508	0.00000000	-51.31643000	18.73154000
29.86666507	0.00000000	-41.72613000	10.54995000
30.06666506	0.00000000	-26.23647000	-2.63902500
30.26666504	0.00000000	-8.50147600	-18.43627000
30.46666503	0.00000000	7.40034400	-33.12008000
30.66666502	0.00000000	18.28863000	-43.52854000
30.86666501	0.00000000	22.61319000	-47.29330000
31.06666500	0.00000000	19.91265000	-42.64886000
31.26666498	0.00000000	11.07283000	-30.29035000
31.46666497	0.00000000	-1.67322800	-13.28125000
31.66666496	0.00000000	-15.21284000	5.25344500
31.86666495	0.00000000	-26.88238000	21.05069000
32.06666494	0.00000000	-34.65797000	30.34572000
32.26666492	0.00000000	-37.35851000	31.50221000
32.46666491	0.00000000	-34.28272000	24.16338000
32.66666490	0.00000000	-26.23647000	9.85482200
32.86666489	0.00000000	-15.80955000	-8.31077700
33.06666488	0.00000000	-5.33956700	-26.85162000
33.26666487	0.00000000	3.16806100	-41.52928000
33.46666485	0.00000000	7.82480200	-49.24335000
33.66666484	0.00000000	7.86786400	-48.49901000
33.86666483	0.00000000	3.67864200	-39.25935000
34.06666482	0.00000000	-3.29724400	-24.24335000
34.26666481	0.00000000	-11.39887000	-6.82209600
34.46666479	0.00000000	-19.11294000	9.43651600
34.66666478	0.00000000	-24.13878000	21.37672000
34.86666477	0.00000000	-25.71973000	26.43947000
35.06666476	0.00000000	-23.76353000	23.37598000
35.26666475	0.00000000	-18.41781000	13.75492000
35.46666473	0.00000000	-11.53420000	-0.55364170
35.66666472	0.00000000	-5.33956700	-16.30167000
35.86666471	0.00000000	-1.10728300	-29.45374000
36.06666470	0.00000000	0.04921259	-37.21087000
36.26666469	0.00000000	-2.17765700	-38.37352000
36.46666468	0.00000000	-6.41609200	-32.60949000
36.66666466	0.00000000	-11.44193000	-21.50590000
36.86666465	0.00000000	-16.46161000	-8.44611200
37.06666464	0.00000000	-19.86343000	3.11884800
37.26666463	0.00000000	-20.69390000	10.45768000
37.46666462	0.00000000	-18.74385000	12.03863000
37.66666460	0.00000000	-14.92372000	7.81250000
37.86666459	0.00000000	-9.90403500	-0.97194880
38.06666458	0.00000000	-5.29650500	-11.70029000
38.26666457	0.00000000	-2.17765700	-20.90305000
38.46666456	0.00000000	-1.02116100	-26.24877000
38.66666454	0.00000000	-2.17765700	-25.87352000
38.86666453	0.00000000	-5.25344500	-19.78961000
39.06666452	0.00000000	-9.52879000	-10.62992000
39.26666451	0.00000000	-14.13632000	-1.06422200
39.46666450	0.00000000	-17.99951000	5.81323800
39.66666449	0.00000000	-19.95571000	7.76328700
39.86666447	0.00000000	-19.99877000	4.69980300
40.06666446	0.00000000	-18.46087000	-2.59596400
40.26666445	0.00000000	-15.71727000	-12.21087000
40.46666444	0.00000000	-12.22933000	-21.41363000
40.66666443	0.00000000	-8.37229300	-27.91584000
40.86666441	0.00000000	-5.25344500	-29.40452000
41.06666440	0.00000000	-3.29724400	-25.17839000
41.26666439	0.00000000	-2.55290300	-16.39395000
41.46666438	0.00000000	-3.71555100	-5.66560000
41.66666437	0.00000000	-6.36687900	3.58021600
41.86666435	0.00000000	-9.48572700	9.38730200
42.06666434	0.00000000	-12.60458000	10.54995000
42.26666433	0.00000000	-15.34203000	6.69291300
42.46666432	0.00000000	-17.25517000	-0.97194880
42.66666431	0.00000000	-18.04257000	-10.58686000
42.86666430	0.00000000	-17.29823000	-19.37131000
43.06666428	0.00000000	-15.80955000	-24.80315000
43.26666427	0.00000000	-14.18553000	-25.63976000
43.46666426	0.00000000	-12.22933000	-22.66240000
43.66666425	0.00000000	-9.95324800	-17.23056000
43.86666424	0.00000000	-8.41535400	-10.67298000
44.06666422	0.00000000	-7.94783400	-4.12770700
44.26666421	0.00000000	-7.90477300	0.46751960
44.46666420	0.00000000	-7.90477300	2.09153500
44.66666419	0.00000000	-7.86171200	0.97810030
44.86666418	0.00000000	-7.52952700	-2.08538400
45.06666416	0.00000000	-7.16043300	-6.31151500
45.26666415	0.00000000	-7.62180000	-10.53765000
45.46666414	0.00000000	-8.79060000	-13.65650000
45.66666413	0.00000000	-11.15896000	-15.23130000
45.86666412	0.00000000	-14.22859000	-15.27436000
46.06666411	0.00000000	-17.39050000	-14.11786000
46.26666409	0.00000000	-20.46014000	-12.21087000
46.46666408	0.00000000	-22.65010000	-9.89173200
46.66666407	0.00000000	-22.23179000	-7.93553100
46.86666406	0.00000000	-18.74385000	-6.36072800
47.06666405	0.00000000	-13.34276000	-5.24729300
47.26666403	0.00000000	-6.74212600	-5.24729300
47.46666402	0.00000000	-0.55364170	-6.36072800
47.66666401	0.00000000	4.05388800	-7.93553100
47.86666400	0.00000000	5.91166300	-9.89173200
48.06666399	0.00000000	3.54330700	-12.21087000
48.26666397	0.00000000	-2.60211600	-14.07480000
48.46666396	0.00000000	-11.10974000	-14.85605000
48.66666395	0.00000000	-19.99877000	-14.07480000
48.86666394	0.00000000	-27.30069000	-12.16781000
49.06666393	0.00000000	-31.16388000	-9.42421200
49.26666392	0.00000000	-30.37647000	-6.36072800
49.46666390	0.00000000	-25.34449000	-3.66633800
49.66666389	0.00000000	-16.83686000	-2.17150600
49.86666388	0.00000000	-6.83439900	-2.54675200
50.06666387	0.00000000	2.00541300	-4.87204700
50.26666386	0.00000000	7.40034400	-8.31077700
50.46666384	0.00000000	7.82480200	-12.21087000
50.66666383	0.00000000	3.63558100	-15.64960000
50.86666382	0.00000000	-3.71555100	-17.97490000
51.06666381	0.00000000	-12.60458000	-18.35015000
51.26666380	0.00000000	-21.06914000	-16.81225000
51.46666379	0.00000000	-26.83932000	-13.69956000
51.66666377	0.00000000	-28.37721000	-9.43036400
51.86666376	0.00000000	-25.30143000	-4.87204700
52.06666375	0.00000000	-18.41781000	-1.39025600
52.26666374	0.00000000	-10.03937000	-0.22145670
52.46666373	0.00000000	-3.06348400	-0.97194880
52.66666371	0.00000000	0.84891720	-3.70939900
52.86666370	0.00000000	1.63016700	-7.89247000
53.06666369	0.00000000	-1.10728300	-12.11860000
53.26666368	0.00000000	-6.83439900	-15.23130000
53.46666367	0.00000000	-13.67495000	-16.76919000
53.66666365	0.00000000	-19.06988000	-16.39395000
53.86666364	0.00000000	-21.44439000	-14.11786000
54.06666363	0.00000000	-21.11220000	-11.09744000
54.26666362	0.00000000	-18.37475000	-8.35383800
54.46666361	0.00000000	-13.76107000	-6.44685000
54.66666360	0.00000000	-8.41535400	-5.66560000
54.86666358	0.00000000	-4.18307100	-6.40378900
55.06666357	0.00000000	-2.26993100	-7.93553100
55.26666356	0.00000000	-3.02042300	-9.79945900
55.46666355	0.00000000	-6.45915300	-11.32505000
55.66666354	0.00000000	-11.02362000	-11.28814000
55.86666352	0.00000000	-15.25591000	-10.16855000
56.06666351	0.00000000	-17.99951000	-7.89247000
56.26666350	0.00000000	-18.74385000	-5.66560000
56.46666349	0.00000000	-17.62426000	-4.87204700
56.66666348	0.00000000	-14.56078000	-5.29035400
56.86666346	0.00000000	-11.10974000	-7.24040300
57.06666345	0.00000000	-7.99704600	-10.67298000
57.26666344	0.00000000	-5.71481200	-14.11786000
57.46666343	0.00000000	-5.29650500	-16.81225000
57.66666342	0.00000000	-6.41609200	-17.92569000
57.86666341	0.00000000	-8.37229300	-16.72613000
58.06666339	0.00000000	-11.06668000	-13.23819000
58.26666338	0.00000000	-13.71801000	-7.84940900
58.46666337	0.00000000	-15.25591000	-2.12844500
58.66666336	0.00000000	-15.29897000	2.09768700
58.86666335	0.00000000	-14.18553000	3.62942900
59.06666333	0.00000000	-12.64764000	2.04847400
59.26666332	0.00000000	-11.06668000	-2.59596400
59.46666331	0.00000000	-9.52879000	-9.51648500
59.66666330	0.00000000	-8.41535400	-16.81225000
59.86666329	0.00000000	-8.41535400	-22.57628000
60.06666327	0.00000000	-9.52879000	-25.27067000
60.26666326	0.00000000	-11.06668000	-24.06496000
60.46666325	0.00000000	-12.60458000	-19.08834000
60.66666324	0.00000000	-13.71801000	-11.38041000
60.86666323	0.00000000	-13.67495000	-3.29109200
61.06666322	0.00000000	-12.22933000	3.67249000
61.26666320	0.00000000	-10.32234000	7.85556000
61.46666319	0.00000000	-9.15354300	7.81250000
61.66666318	0.00000000	-8.32308000	3.25418300
61.86666317	0.00000000	-7.99704600	-4.45374000
62.06666316	0.00000000	-8.41535400	-12.91215000
62.26666314	0.00000000	-9.95324800	-20.66314000
62.46666313	0.00000000	-12.22933000	-25.63976000
62.66666312	0.00000000	-14.13632000	-26.80241000
62.86666311	0.00000000	-15.34203000	-23.73892000
63.06666310	0.00000000	-15.67421000	-17.23056000
63.26666308	0.00000000	-14.92372000	-9.51648500
63.46666307	0.00000000	-12.97982000	-2.12844500
63.66666306	0.00000000	-10.69144000	3.62942900
63.86666305	0.00000000	-8.32308000	6.32381900
64.06666304	0.00000000	-6.45915300	5.20423200
64.26666303	0.00000000	-5.67175200	0.97810030
64.46666301	0.00000000	-6.45915300	-5.20423200
64.66666300	0.00000000	-8.37229300	-12.16781000
64.86666299	0.00000000	-11.06668000	-18.30093000
65.06666298	0.00000000	-13.76107000	-22.20103000
65.26666297	0.00000000	-15.67421000	-22.99459000
65.46666295	0.00000000	-16.46161000	-21.13066000
65.66666294	0.00000000	-15.67421000	-17.27362000
65.86666293	0.00000000	-13.81028000	-12.62918000
66.06666292	0.00000000	-11.48499000	-7.93553100
66.26666291	0.00000000	-9.57800100	-3.70939900
66.46666289	0.00000000	-8.41535400	-0.97194880
66.66666288	0.00000000	-8.41535400	-0.13533460
66.86666287	0.00000000	-9.52879000	-0.46136810
67.06666286	0.00000000	-11.06668000	-1.66707700
67.26666285	0.00000000	-12.60458000	-3.66633800
67.46666284	0.00000000	-13.71801000	-6.77903500
67.66666282	0.00000000	-13.71801000	-10.62992000
67.86666281	0.00000000	-12.55536000	-14.11786000
68.06666280	0.00000000	-10.64838000	-16.90453000
68.26666279	0.00000000	-8.37229300	-18.81152000
68.46666278	0.00000000	-6.87746000	-19.55585000
68.66666276	0.00000000	-6.87746000	-18.35015000
68.86666275	0.00000000	-8.41535400	-15.27436000
69.06666274	0.00000000	-11.10974000	-11.00517000
69.26666273	0.00000000	-14.22859000	-6.35457700
69.46666272	0.00000000	-17.25517000	-2.08538400
69.66666270	0.00000000	-19.15600000	0.97810030
69.86666269	0.00000000	-18.79306000	2.13459600
70.06666268	0.00000000	-16.87992000	0.93503930
70.26666267	0.00000000	-13.71801000	-2.50369100
70.46666266	0.00000000	-9.44266700	-7.51722400
70.66666265	0.00000000	-4.87819900	-12.53691000
70.86666263	0.00000000	-1.43946800	-16.85531000
71.06666262	0.00000000	-0.68897630	-19.92495000
71.26666261	0.00000000	-2.55290300	-21.04454000
71.46666260	0.00000000	-6.45915300	-19.50664000
71.66666259	0.00000000	-11.48499000	-15.69882000
71.86666257	0.00000000	-16.87992000	-11.04823000
72.06666256	0.00000000	-21.11220000	-6.40378900
72.26666255	0.00000000	-23.06841000	-2.59596400
72.46666254	0.00000000	-22.65010000	-1.01501000
72.66666253	0.00000000	-19.58046000	-1.71013800
72.86666251	0.00000000	-14.56078000	-3.61712600
73.06666250	0.00000000	-9.15354300	-6.36072800
73.26666249	0.00000000	-4.13385800	-9.38115100
73.46666248	0.00000000	-1.06422200	-11.70029000
73.66666247	0.00000000	-0.59670270	-12.49385000
73.86666246	0.00000000	-2.17765700	-12.16166000
74.06666244	0.00000000	-5.62869100	-11.04823000
74.26666243	0.00000000	-10.27313000	-9.93479300
74.46666242	0.00000000	-14.51156000	-9.51648500
74.66666241	0.00000000	-17.99951000	-9.51648500
74.86666240	0.00000000	-19.53125000	-9.93479300
75.06666238	0.00000000	-18.83612000	-11.09744000
75.26666237	0.00000000	-16.92298000	-12.53691000
75.46666236	0.00000000	-14.18553000	-13.28125000
75.66666235	0.00000000	-11.10974000	-12.49385000
75.86666234	0.00000000	-8.41535400	-10.53765000
76.06666232	0.00000000	-6.87746000	-7.47416300
76.26666231	0.00000000	-6.83439900	-4.03543200
76.46666230	0.00000000	-7.94783400	-1.75319900
76.66666229	0.00000000	-9.44266700	-0.97194880
76.86666228	0.00000000	-10.59916000	-2.17765700
77.06666227	0.00000000	-11.02362000	-5.29035400
77.26666225	0.00000000	-11.06668000	-9.93479300
77.46666224	0.00000000	-11.06668000	-15.28051000
77.66666223	0.00000000	-11.06668000	-19.50664000
77.86666222	0.00000000	-11.10974000	-21.46284000
78.06666221	0.00000000	-11.48499000	-21.03838000
78.26666219	0.00000000	-12.27239000	-17.92569000
78.46666218	0.00000000	-13.02288000	-12.58612000
78.66666217	0.00000000	-13.81028000	-6.77903500
78.86666216	0.00000000	-14.13632000	-1.75319900
79.06666215	0.00000000	-13.76107000	1.76550200
79.26666213	0.00000000	-12.55536000	2.88508800
79.46666212	0.00000000	-10.64838000	1.72244100
79.66666211	0.00000000	-8.32308000	-2.12844500
79.86666210	0.00000000	-6.45915300	-7.47416300
80.06666209	0.00000000	-5.67175200	-12.53691000
80.26666208	0.00000000	-6.45915300	-16.85531000
80.46666206	0.00000000	-8.37229300	-19.88189000
80.66666205	0.00000000	-11.06668000	-20.71235000
80.86666204	0.00000000	-13.76107000	-19.18676000
81.06666203	0.00000000	-15.67421000	-16.48622000
81.26666202	0.00000000	-16.50467000	-12.53691000
81.46666200	0.00000000	-16.09252000	-7.98474400
81.66666199	0.00000000	-14.92372000	-4.08464600
81.86666198	0.00000000	-12.60458000	-1.71013800
82.06666197	0.00000000	-9.95324800	-0.51058070
82.26666196	0.00000000	-7.99704600	-0.55364170
82.46666194	0.00000000	-6.83439900	-2.08538400
82.66666193	0.00000000	-6.83439900	-4.82283400
82.86666192	0.00000000	-7.94783400	-8.31077700
83.06666191	0.00000000	-9.48572700	-12.21087000
83.26666190	0.00000000	-11.06668000	-15.64960000
83.46666189	0.00000000	-12.60458000	-18.01796000
83.66666187	0.00000000	-13.71801000	-18.81152000
83.86666186	0.00000000	-13.76107000	-18.39321000
84.06666185	0.00000000	-13.06594000	-16.39395000
84.26666184	0.00000000	-12.69070000	-12.58612000
84.46666183	0.00000000	-12.60458000	-8.31077700
84.66666181	0.00000000	-12.27239000	-4.45374000
84.86666180	0.00000000	-11.86024000	-1.30413400
85.06666179	0.00000000	-11.85408000	0.23991140
85.26666178	0.00000000	-11.44193000	0.55979330
85.46666177	0.00000000	-11.06668000	-1.43946800
85.66666175	0.00000000	-10.59916000	-5.98548200
85.86666174	0.00000000	-9.52879000	-11.00517000
86.06666173	0.00000000	-8.79060000	-15.69882000
86.26666172	0.00000000	-9.15354300	-19.50664000
86.46666171	0.00000000	-9.90403500	-21.04454000
86.66666170	0.00000000	-11.10974000	-19.88189000
86.86666168	0.00000000	-12.64764000	-16.43701000
87.06666167	0.00000000	-14.18553000	-11.42347000
87.26666166	0.00000000	-15.29897000	-6.40378900
87.46666165	0.00000000	-15.34203000	-2.12844500
87.66666164	0.00000000	-14.56078000	0.51673230
87.86666162	0.00000000	-13.39198000	0.51673230
88.06666161	0.00000000	-11.44193000	-2.12844500
88.26666160	0.00000000	-9.52879000	-6.35457700
88.46666159	0.00000000	-7.99704600	-11.00517000
88.66666158	0.00000000	-7.25270600	-15.23130000
88.86666156	0.00000000	-7.99704600	-17.92569000
89.06666155	0.00000000	-9.48572700	-18.30093000
89.26666154	0.00000000	-11.06668000	-16.39395000
89.46666153	0.00000000	-12.60458000	-12.53691000
89.66666152	0.00000000	-13.81028000	-7.93553100
89.86666151	0.00000000	-14.56078000	-3.70939900
90.06666149	0.00000000	-14.92372000	-1.01501000
90.26666148	0.00000000	-14.13632000	-0.63976370
90.46666147	0.00000000	-12.64764000	-2.54675200
90.66666146	0.00000000	-11.10974000	-6.40378900
90.86666145	0.00000000	-9.95324800	-11.00517000
91.06666143	0.00000000	-9.52879000	-15.23130000
91.26666142	0.00000000	-9.48572700	-17.88263000
91.46666141	0.00000000	-9.52879000	-17.88263000
91.66666140	0.00000000	-9.90403500	-15.23130000
91.86666139	0.00000000	-10.64838000	-11.00517000
92.06666137	0.00000000	-11.02362000	-6.40378900
92.26666136	0.00000000	-11.06668000	-2.59596400
92.46666135	0.00000000	-11.06668000	-1.05807100
92.66666134	0.00000000	-11.10974000	-2.17765700
92.86666133	0.00000000	-11.53420000	-5.24729300
93.06666132	0.00000000	-12.60458000	-9.47342500
93.26666130	0.00000000	-13.39198000	-13.69956000
93.46666129	0.00000000	-13.44119000	-16.76919000
93.66666128	0.00000000	-13.81028000	-17.92569000
93.86666127	0.00000000	-13.71801000	-16.76919000
94.06666126	0.00000000	-12.60458000	-13.69956000
94.26666124	0.00000000	-11.06668000	-9.47342500
94.46666123	0.00000000	-9.48572700	-5.29035400
94.66666122	0.00000000	-7.94783400	-2.59596400
94.86666121	0.00000000	-6.79133800	-2.17150600
95.06666120	0.00000000	-6.45915300	-3.70939900
95.26666118	0.00000000	-7.25270600	-6.82209600
95.46666117	0.00000000	-9.62106200	-11.00517000
95.66666116	0.00000000	-13.02288000	-14.81299000
95.86666115	0.00000000	-16.46161000	-16.71998000
96.06666114	0.00000000	-18.41781000	-16.39395000
96.26666113	0.00000000	-18.83612000	-14.11786000
96.46666111	0.00000000	-18.04257000	-11.04823000
96.66666110	0.00000000	-15.67421000	-7.93553100
96.86666109	0.00000000	-12.22933000	-5.24729300
97.06666108	0.00000000	-8.37229300	-3.75246000
97.26666107	0.00000000	-5.25344500	-4.08464600
97.46666105	0.00000000	-3.29724400	-5.98548200
97.66666104	0.00000000	-2.55290300	-8.31077700
97.86666103	0.00000000	-3.75861200	-11.00517000
98.06666102	0.00000000	-6.83439900	-13.28125000
98.26666101	0.00000000	-11.06668000	-14.07480000
98.46666099	0.00000000	-15.29897000	-13.69956000
98.66666098	0.00000000	-18.41781000	-12.21087000
98.86666097	0.00000000	-19.99877000	-10.31004000
99.06666096	0.00000000	-19.99877000	-9.14124000
99.26666095	0.00000000	-18.41781000	-8.35998900
99.46666094	0.00000000	-15.34203000	-8.31077700
99.66666092	0.00000000	-11.48499000	-8.63681000
99.86666091	0.00000000	-7.99704600	-8.31077700
100.06666090	0.00000000	-5.25344500	-8.35998900
100.26666089	0.00000000	-3.71555100	-9.00590400
100.46666088	0.00000000	-3.71555100	-9.00590400
100.66666086	0.00000000	-5.29650500	-8.31077700
100.86666085	0.00000000	-8.32308000	-7.98474400
101.06666084	0.00000000	-11.81102000	-8.35998900
101.26666083	0.00000000	-14.56078000	-9.51648500
101.46666082	0.00000000	-16.92298000	-11.00517000
101.66666080	0.00000000	-18.41781000	-12.21087000
101.86666079	0.00000000	-18.41781000	-12.96137000
102.06666078	0.00000000	-16.87992000	-13.32431000
102.26666077	0.00000000	-14.22859000	-12.49385000
102.46666076	0.00000000	-11.48499000	-10.58686000
102.66666075	0.00000000	-9.15354300	-7.89247000
102.86666073	0.00000000	-7.20964500	-5.24729300
103.06666072	0.00000000	-6.45915300	-3.70939900
103.26666071	0.00000000	-6.79133800	-3.66633800
103.46666070	0.00000000	-7.94783400	-4.82283400
103.66666069	0.00000000	-9.52879000	-6.77903500
103.86666067	0.00000000	-11.44193000	-9.47342500
104.06666066	0.00000000	-13.39198000	-12.16781000
104.26666065	0.00000000	-14.56078000	-14.11786000
104.46666064	0.00000000	-15.34203000	-15.23130000
104.66666063	0.00000000	-15.29897000	-14.81299000
104.86666061	0.00000000	-14.18553000	-12.53691000
105.06666060	0.00000000	-12.64764000	-9.51648500
105.26666059	0.00000000	-11.10974000	-6.82209600
105.46666058	0.00000000	-9.95324800	-5.24729300
105.66666057	0.00000000	-9.52879000	-4.82898600
105.86666056	0.00000000	-9.52879000	-5.24729300
106.06666054	0.00000000	-9.95324800	-6.77903500
106.26666053	0.00000000	-11.10974000	-9.09817800
106.46666052	0.00000000	-12.60458000	-11.38041000
106.66666051	0.00000000	-13.71801000	-13.28125000
106.86666050	0.00000000	-13.76107000	-13.65650000
107.06666048	0.00000000	-13.02288000	-12.58612000
107.26666047	0.00000000	-12.22933000	-11.00517000
107.46666046	0.00000000	-11.06668000	-9.09817800
107.66666045	0.00000000	-9.95324800	-7.19734200
107.86666044	0.00000000	-9.57800100	-6.44685000
108.06666042	0.00000000	-9.95324800	-6.77903500
108.26666041	0.00000000	-11.10974000	-7.93553100
108.46666040	0.00000000	-12.60458000	-9.47342500
108.66666039	0.00000000	-13.76107000	-11.00517000
108.86666038	0.00000000	-14.18553000	-12.16166000
109.06666037	0.00000000	-14.18553000	-12.53691000
109.26666035	0.00000000	-13.76107000	-12.16166000
109.46666034	0.00000000	-12.60458000	-11.00517000
109.66666033	0.00000000	-11.10974000	-9.47342500
109.86666032	0.00000000	-9.90403500	-7.89247000
110.06666031	0.00000000	-9.15354300	-6.40378900
110.26666029	0.00000000	-8.79060000	-5.66560000
110.46666028	0.00000000	-9.57800100	-6.40378900
110.66666027	0.00000000	-11.02362000	-7.89247000
110.86666026	0.00000000	-12.22933000	-9.47342500
111.06666025	0.00000000	-13.02288000	-11.04823000
111.26666023	0.00000000	-13.81028000	-12.53691000
111.46666022	0.00000000	-14.13632000	-13.32431000
111.66666021	0.00000000	-13.76107000	-12.96137000
111.86666020	0.00000000	-12.64764000	-12.21087000
112.06666019	0.00000000	-11.48499000	-11.00517000
112.26666018	0.00000000	-10.69144000	-9.51648500
112.46666016	0.00000000	-9.90403500	-8.35998900
112.66666015	0.00000000	-9.52879000	-7.93553100
112.86666014	0.00000000	-9.57800100	-7.89247000
113.06666013	0.00000000	-10.27928000	-7.93553100
113.26666012	0.00000000	-11.43578000	-8.31077700
113.46666010	0.00000000	-11.81717000	-9.05511800
113.66666009	0.00000000	-12.27239000	-9.47342500
113.86666008	0.00000000	-12.60458000	-9.84867000
114.06666007	0.00000000	-12.60458000	-10.21161000
114.26666006	0.00000000	-12.27239000	-9.89173200
114.46666004	0.00000000	-11.86024000	-9.93479300
114.66666003	0.00000000	-11.85408000	-10.62992000
114.86666002	0.00000000	-11.44193000	-11.00517000
115.06666001	0.00000000	-11.10974000	-11.04823000
115.26666000	0.00000000	-11.06668000	-11.04823000
115.46665999	0.00000000	-11.06668000	-11.00517000
115.66665997	0.00000000	-11.06668000	-10.62992000
115.86665996	0.00000000	-11.10974000	-9.89173200
116.06665995	0.00000000	-11.48499000	-9.47342500
116.26665994	0.00000000	-12.22933000	-9.05511800
116.46665993	0.00000000	-12.60458000	-8.31077700
116.66665991	0.00000000	-12.64764000	-7.93553100
116.86665990	0.00000000	-12.64764000	-7.93553100
117.06665989	0.00000000	-12.60458000	-8.31077700
117.26665988	0.00000000	-12.22933000	-9.09817800
117.46665987	0.00000000	-11.44193000	-9.84867000
117.66665985	0.00000000	-10.69144000	-10.62992000
117.86665984	0.00000000	-9.90403500	-11.00517000
118.06665983	0.00000000	-9.52879000	-11.04823000
118.26665982	0.00000000	-9.52879000	-11.04823000
118.46665981	0.00000000	-9.95324800	-11.00517000
118.66665980	0.00000000	-11.10974000	-10.62992000
118.86665978	0.00000000	-12.60458000	-9.84867000
119.06665977	0.00000000	-13.76107000	-9.09817800
119.26665976	0.00000000	-14.18553000	-8.31077700
119.46665975	0.00000000	-14.22859000	-7.93553100
119.66665974	0.00000000	-14.18553000	-7.89247000
119.86665972	0.00000000	-13.76107000	-7.93553100
120.06665971	0.00000000	-12.60458000	-8.31077700
120.26665970	0.00000000	-11.06668000	-9.05511800
120.46665969	0.00000000	-9.52879000	-9.43036400
120.66665968	0.00000000	-8.37229300	-9.47342500
120.86665966	0.00000000	-7.99704600	-9.51648500
121.06665965	0.00000000	-8.37229300	-9.89173200
121.26665964	0.00000000	-9.52879000	-10.62992000
121.46665963	0.00000000	-11.02362000	-11.00517000
121.66665962	0.00000000	-12.22933000	-11.04823000
121.86665961	0.00000000	-13.02288000	-11.00517000
122.06665959	0.00000000	-13.81028000	-10.62992000
122.26665958	0.00000000	-14.18553000	-9.84867000
122.46665957	0.00000000	-14.18553000	-9.09817800
122.66665956	0.00000000	-13.76107000	-8.31077700
122.86665955	0.00000000	-12.64764000	-7.93553100
123.06665953	0.00000000	-11.48499000	-7.89247000
123.26665952	0.00000000	-10.69144000	-7.93553100
123.46665951	0.00000000	-9.90403500	-8.31077700
123.66665950	0.00000000	-9.52879000	-9.05511800
123.86665949	0.00000000	-9.52879000	-9.47342500
124.06665947	0.00000000	-9.90403500	-9.89173200
124.26665946	0.00000000	-10.69144000	-10.62992000
124.46665945	0.00000000	-11.44193000	-11.00517000
124.66665944	0.00000000	-12.22933000	-11.00517000
124.86665943	0.00000000	-12.64764000	-10.62992000
125.06665942	0.00000000	-13.02288000	-9.89173200
125.26665940	0.00000000	-13.43504000	-9.47342500
125.46665939	0.00000000	-13.39813000	-9.05511800
125.66665938	0.00000000	-13.39198000	-8.31077700
125.86665937	0.00000000	-12.60458000	-7.93553100
126.06665936	0.00000000	-11.48499000	-7.89247000
126.26665934	0.00000000	-10.69144000	-7.93553100
126.46665933	0.00000000	-9.90403500	-8.31077700
126.66665932	0.00000000	-9.52879000	-9.05511800
126.86665931	0.00000000	-9.52879000	-9.43036400
127.06665930	0.00000000	-9.95324800	-9.51648500
127.26665928	0.00000000	-11.06668000	-9.84867000
127.46665927	0.00000000	-12.22933000	-10.25467000
127.66665926	0.00000000	-13.02288000	-10.21776000
127.86665925	0.00000000	-13.81028000	-10.25467000
128.06665924	0.00000000	-14.13632000	-9.84867000
128.26665923	0.00000000	-13.81028000	-9.51648500
128.46665921	0.00000000	-13.02288000	-9.43036400
128.66665920	0.00000000	-12.22933000	-9.05511800
128.86665919	0.00000000	-11.06668000	-8.35998900
129.06665918	0.00000000	-9.95324800	-8.35998900
129.26665917	0.00000000	-9.52879000	-9.05511800
129.46665915	0.00000000	-9.52879000	-9.43036400
129.66665914	0.00000000	-9.95324800	-9.47342500
129.86665913	0.00000000	-11.10974000	-9.51648500
130.06665912	0.00000000	-12.60458000	-9.84867000
130.26665911	0.00000000	-13.76107000	-10.21161000
130.46665909	0.00000000	-14.13632000	-9.84867000
130.66665908	0.00000000	-13.81028000	-9.47342500
130.86665907	0.00000000	-13.02288000	-9.05511800
131.06665906	0.00000000	-12.22933000	-8.31077700
131.26665905	0.00000000	-11.06668000	-7.98474400
131.46665904	0.00000000	-9.95324800	-8.31077700
131.66665902	0.00000000	-9.57800100	-9.09817800
131.86665901	0.00000000	-9.90403500	-9.84867000
132.06665900	0.00000000	-10.69144000	-10.62992000
132.26665899	0.00000000	-11.44193000	-11.00517000
132.46665898	0.00000000	-12.22933000	-11.04823000
132.66665896	0.00000000	-12.60458000	-11.00517000
132.86665895	0.00000000	-12.64764000	-10.62992000
133.06665894	0.00000000	-12.60458000	-9.84867000
133.26665893	0.00000000	-12.22933000	-9.09817800
133.46665892	0.00000000	-11.48499000	-8.31077700
133.66665890	0.00000000	-11.10974000	-7.93553100
133.86665889	0.00000000	-11.06668000	-7.89247000
134.06665888	0.00000000	-11.06668000	-7.93553100
134.26665887	0.00000000	-11.06668000	-8.35998900
134.46665886	0.00000000	-11.10974000	-9.47342500
134.66665885	0.00000000	-11.44193000	-10.58686000
134.86665883	0.00000000	-11.81102000	-11.00517000
135.06665882	0.00000000	-11.44193000	-11.04823000
135.26665881	0.00000000	-11.10974000	-11.04823000
135.46665880	0.00000000	-11.06668000	-11.00517000
135.66665879	0.00000000	-11.06668000	-10.62992000
135.86665877	0.00000000	-11.06668000	-9.89173200
136.06665876	0.00000000	-11.10974000	-9.47342500
136.26665875	0.00000000	-11.48499000	-9.05511800
136.46665874	0.00000000	-12.22933000	-8.31077700
136.66665873	0.00000000	-12.60458000	-7.93553100
136.86665871	0.00000000	-12.64764000	-7.93553100
137.06665870	0.00000000	-12.64764000	-8.31077700
137.26665869	0.00000000	-12.60458000	-9.09817800
137.46665868	0.00000000	-12.18012000	-9.84867000
137.66665867	0.00000000	-11.06668000	-10.62992000
137.86665866	0.00000000	-9.95324800	-11.00517000
138.06665864	0.00000000	-9.57800100	-11.04823000
138.26665863	0.00000000	-9.90403500	-11.04823000
138.46665862	0.00000000	-10.69144000	-11.00517000
138.66665861	0.00000000	-11.44193000	-10.62992000
138.86665860	0.00000000	-12.22933000	-9.89173200
139.06665858	0.00000000	-12.60458000	-9.47342500
139.26665857	0.00000000	-12.64764000	-9.05511800
139.46665856	0.00000000	-12.64764000	-8.31077700
139.66665855	0.00000000	-12.60458000	-7.93553100
139.86665854	0.00000000	-12.22933000	-7.89247000
140.06665852	0.00000000	-11.48499000	-7.93553100
140.26665851	0.00000000	-11.10974000	-8.31077700
140.46665850	0.00000000	-11.06668000	-9.09817800
140.66665849	0.00000000	-11.06668000	-9.84867000
140.86665848	0.00000000	-11.06668000	-10.62992000
141.06665847	0.00000000	-11.06668000	-11.00517000
141.26665845	0.00000000	-11.10974000	-11.04823000
141.46665844	0.00000000	-11.48499000	-11.00517000
141.66665843	0.00000000	-12.22933000	-10.58686000
141.86665842	0.00000000	-12.55536000	-9.47342500
142.06665841	0.00000000	-12.22933000	-8.31077700
142.26665839	0.00000000	-11.48499000	-7.51722400
142.46665838	0.00000000	-11.10974000	-6.77903500
142.66665837	0.00000000	-11.06668000	-6.82209600
142.86665836	0.00000000	-11.06668000	-7.89247000
143.06665835	0.00000000	-11.10974000	-9.09817800
143.26665834	0.00000000	-11.48499000	-10.22392000
143.46665832	0.00000000	-12.22933000	-11.37426000
143.66665831	0.00000000	-12.60458000	-11.38041000
143.86665830	0.00000000	-12.64764000	-11.09129000
144.06665829	0.00000000	-12.64764000	-11.00517000
144.26665828	0.00000000	-12.60458000	-10.62992000
144.46665826	0.00000000	-12.22933000	-9.84867000
144.66665825	0.00000000	-11.48499000	-9.09817800
144.86665824	0.00000000	-11.10974000	-8.31077700
145.06665823	0.00000000	-11.06668000	-7.93553100
145.26665822	0.00000000	-11.06668000	-7.93553100
145.46665820	0.00000000	-11.10974000	-8.31077700
145.66665819	0.00000000	-11.48499000	-9.05511800
145.86665818	0.00000000	-12.22933000	-9.47342500
146.06665817	0.00000000	-12.60458000	-9.89173200
146.26665816	0.00000000	-12.64764000	-10.62992000
146.46665815	0.00000000	-12.64764000	-11.00517000
146.66665813	0.00000000	-12.60458000	-11.04823000
146.86665812	0.00000000	-12.22933000	-11.00517000
147.06665811	0.00000000	-11.48499000	-10.62992000
147.26665810	0.00000000	-11.10974000	-9.89173200
147.46665809	0.00000000	-11.06668000	-9.47342500
147.66665807	0.00000000	-11.06668000	-9.09817800
147.86665806	0.00000000	-11.10974000	-8.72908400
148.06665805	0.00000000	-11.44193000	-9.09817800
148.26665804	0.00000000	-11.85408000	-9.43036400
148.46665803	0.00000000	-11.86024000	-9.47342500
148.66665801	0.00000000	-12.27239000	-9.47342500
148.86665800	0.00000000	-12.60458000	-9.47342500
149.06665799	0.00000000	-12.60458000	-9.47342500
149.26665798	0.00000000	-12.22933000	-9.51648500
149.46665797	0.00000000	-11.48499000	-9.84867000
149.66665796	0.00000000	-11.10974000	-10.21161000
149.86665794	0.00000000	-11.06668000	-9.84867000
150.06665793	0.00000000	-11.06668000	-9.51648500
150.26665792	0.00000000	-11.06668000	-9.47342500
150.46665791	0.00000000	-11.06668000	-9.43036400
150.66665790	0.00000000	-11.10974000	-9.09817800
150.86665788	0.00000000	-11.48499000	-8.72908400
151.06665787	0.00000000	-12.22933000	-9.09817800
151.26665786	0.00000000	-12.60458000	-9.43036400
151.46665785	0.00000000	-12.64764000	-9.47342500
151.66665784	0.00000000	-12.64764000	-9.47342500
151.86665782	0.00000000	-12.64764000	-9.51648500
152.06665781	0.00000000	-12.60458000	-9.84867000
152.26665780	0.00000000	-12.22933000	-10.21161000
152.46665779	0.00000000	-11.48499000	-9.84867000
152.66665778	0.00000000	-11.10974000	-9.51648500
152.86665777	0.00000000	-11.06668000	-9.47342500
153.06665775	0.00000000	-11.06668000	-9.47342500
153.26665774	0.00000000	-11.06668000	-9.47342500
153.46665773	0.00000000	-11.10974000	-9.47342500
153.66665772	0.00000000	-11.48499000	-9.47342500
153.86665771	0.00000000	-12.22933000	-9.47342500
154.06665769	0.00000000	-12.60458000	-9.47342500
154.26665768	0.00000000	-12.64764000	-9.47342500
154.46665767	0.00000000	-12.64764000	-9.47342500
154.66665766	0.00000000	-12.64764000	-9.47342500
154.86665765	0.00000000	-12.60458000	-9.47342500
155.06665763	0.00000000	-12.22933000	-9.47342500
155.26665762	0.00000000	-11.48499000	-9.47342500
155.46665761	0.00000000	-11.10974000	-9.47342500
155.66665760	0.00000000	-11.06668000	-9.47342500
155.86665759	0.00000000	-11.06668000	-9.47342500
156.06665758	0.00000000	-11.06668000	-9.47342500
156.26665756	0.00000000	-11.06668000	-9.47342500
156.46665755	0.00000000	-11.10974000	-9.47342500
156.66665754	0.00000000	-11.48499000	-9.47342500
156.86665753	0.00000000	-12.22933000	-9.47342500
157.06665752	0.00000000	-12.60458000	-9.47342500
157.26665750	0.00000000	-12.64764000	-9.47342500
157.46665749	0.00000000	-12.64764000	-9.47342500
157.66665748	0.00000000	-12.64764000	-9.43036400
157.86665747	0.00000000	-12.60458000	-9.09817800
158.06665746	0.00000000	-12.22933000	-8.72908400
158.26665744	0.00000000	-11.48499000	-9.14124000
158.46665743	0.00000000	-11.10974000	-9.79945900
158.66665742	0.00000000	-11.06668000	-10.25467000
158.86665741	0.00000000	-11.06668000	-10.21776000
159.06665740	0.00000000	-11.10974000	-10.25467000
159.26665739	0.00000000	-11.44193000	-9.84867000
159.46665737	0.00000000	-11.85408000	-9.51648500
159.66665736	0.00000000	-11.86024000	-9.43036400
159.86665735	0.00000000	-12.27239000	-9.05511800
160.06665734	0.00000000	-12.60458000	-8.35998900
160.26665733	0.00000000	-12.64764000	-8.31077700
160.46665731	0.00000000	-12.64764000	-8.67987200
160.66665730	0.00000000	-12.64764000	-8.68602300
160.86665729	0.00000000	-12.64764000	-9.09817800
161.06665728	0.00000000	-12.64764000	-9.47342500
161.26665727	0.00000000	-12.60458000	-9.89173200
161.46665725	0.00000000	-12.22933000	-10.58686000
161.66665724	0.00000000	-11.48499000	-10.58686000
161.86665723	0.00000000	-11.10974000	-9.89173200
162.06665722	0.00000000	-11.06668000	-9.51648500
162.26665721	0.00000000	-11.06668000	-9.47342500
162.46665720	0.00000000	-11.06668000	-9.47342500
162.66665718	0.00000000	-11.06668000	-9.43036400
162.86665717	0.00000000	-11.10974000	-9.09817800
163.06665716	0.00000000	-11.48499000	-8.72908400
163.26665715	0.00000000	-12.22933000	-9.09817800
163.46665714	0.00000000	-12.60458000	-9.43036400
163.66665712	0.00000000	-12.64764000	-9.47342500
163.86665711	0.00000000	-12.64764000	-9.47342500
164.06665710	0.00000000	-12.64764000	-9.47342500
164.26665709	0.00000000	-12.64764000	-9.47342500
164.46665708	0.00000000	-12.60458000	-9.47342500
164.66665706	0.00000000	-12.22933000	-9.47342500
164.86665705	0.00000000	-11.44193000	-9.47342500
165.06665704	0.00000000	-10.73450000	-9.51648500
165.26665703	0.00000000	-10.32234000	-9.84867000
165.46665702	0.00000000	-10.69144000	-10.21161000
165.66665701	0.00000000	-11.02362000	-9.84867000
165.86665699	0.00000000	-11.10974000	-9.51648500
166.06665698	0.00000000	-11.48499000	-9.47342500
166.26665697	0.00000000	-12.22933000	-9.47342500
166.46665696	0.00000000	-12.60458000	-9.47342500
166.66665695	0.00000000	-12.64764000	-9.47342500
166.86665693	0.00000000	-12.64764000	-9.47342500
167.06665692	0.00000000	-12.64764000	-9.47342500
167.26665691	0.00000000	-12.64764000	-9.47342500
167.46665690	0.00000000	-12.64764000	-9.47342500
167.66665689	0.00000000	-12.60458000	-9.47342500
167.86665687	0.00000000	-12.22933000	-9.47342500
168.06665686	0.00000000	-11.48499000	-9.47342500
168.26665685	0.00000000	-11.10974000	-9.47342500
168.46665684	0.00000000	-11.06668000	-9.47342500
168.66665683	0.00000000	-11.06668000	-9.47342500
168.86665682	0.00000000	-11.06668000	-9.47342500
169.06665680	0.00000000	-11.10974000	-9.47342500
169.26665679	0.00000000	-11.48499000	-9.47342500
169.46665678	0.00000000	-12.22933000	-9.47342500
169.66665677	0.00000000	-12.60458000	-9.47342500
169.86665676	0.00000000	-12.64764000	-9.47342500
170.06665674	0.00000000	-12.64764000	-9.47342500
170.26665673	0.00000000	-12.64764000	-9.47342500
170.46665672	0.00000000	-12.64764000	-9.47342500
170.66665671	0.00000000	-12.64764000	-9.47342500
170.86665670	0.00000000	-12.60458000	-9.47342500
171.06665668	0.00000000	-12.22933000	-9.47342500
171.26665667	0.00000000	-11.48499000	-9.47342500
171.46665666	0.00000000	-11.10974000	-9.47342500
171.66665665	0.00000000	-11.06668000	-9.47342500
171.86665664	0.00000000	-11.10974000	-9.47342500
172.06665663	0.00000000	-11.48499000	-9.47342500
172.26665661	0.00000000	-12.22933000	-9.47342500
172.46665660	0.00000000	-12.60458000	-9.47342500
172.66665659	0.00000000	-12.64764000	-9.47342500
172.86665658	0.00000000	-12.64764000	-9.47342500
173.06665657	0.00000000	-12.64764000	-9.47342500
173.26665655	0.00000000	-12.60458000	-9.47342500
173.46665654	0.00000000	-12.22933000	-9.47342500
173.66665653	0.00000000	-11.53420000	-9.47342500
173.86665652	0.00000000	-11.48499000	-9.47342500
174.06665651	0.00000000	-11.81102000	-9.47342500
174.26665649	0.00000000	-11.48499000	-9.47342500
174.46665648	0.00000000	-11.48499000	-9.47342500
174.66665647	0.00000000	-11.81102000	-9.47342500
174.86665646	0.00000000	-11.48499000	-9.47342500
175.06665645	0.00000000	-11.53420000	-9.47342500
175.26665644	0.00000000	-12.22933000	-9.47342500
175.46665642	0.00000000	-12.60458000	-9.47342500
175.66665641	0.00000000	-12.64764000	-9.47342500
175.86665640	0.00000000	-12.64764000	-9.47342500
176.06665639	0.00000000	-12.64764000	-9.47342500
176.26665638	0.00000000	-12.60458000	-9.47342500
176.46665636	0.00000000	-12.22933000	-9.47342500
176.66665635	0.00000000	-11.53420000	-9.47342500
176.86665634	0.00000000	-11.53420000	-9.47342500
177.06665633	0.00000000	-12.18012000	-9.47342500
177.26665632	0.00000000	-12.22933000	-9.47342500
177.46665630	0.00000000	-11.90330000	-9.47342500
177.66665629	0.00000000	-12.27239000	-9.47342500
177.86665628	0.00000000	-12.60458000	-9.47342500
178.06665627	0.00000000	-12.64764000	-9.47342500
178.26665626	0.00000000	-12.64764000	-9.47342500
178.46665625	0.00000000	-12.64764000	-9.47342500
178.66665623	0.00000000	-12.64764000	-9.47342500
178.86665622	0.00000000	-12.64764000	-9.47342500
179.06665621	0.00000000	-12.64764000	-9.47342500
179.26665620	0.00000000	-12.60458000	-9.47342500
179.46665619	0.00000000	-12.22933000	-9.47342500
179.66665617	0.00000000	-11.48499000	-9.47342500
179.86665616	0.00000000	-11.10974000	-9.47342500
180.06665615	0.00000000	-11.10974000	-9.47342500
180.26665614	0.00000000	-11.44193000	-9.47342500
180.46665613	0.00000000	-11.85408000	-9.51648500
180.66665611	0.00000000	-11.86024000	-9.84867000
180.86665610	0.00000000	-12.27239000	-10.21161000
181.06665609	0.00000000	-12.60458000	-9.84867000
181.26665608	0.00000000	-12.64764000	-9.51648500
181.46665607	0.00000000	-12.64764000	-9.47342500
181.66665606	0.00000000	-12.64764000	-9.47342500
181.86665604	0.00000000	-12.64764000	-9.47342500
182.06665603	0.00000000	-12.64764000	-9.47342500
182.26665602	0.00000000	-12.64764000	-9.47342500
182.46665601	0.00000000	-12.60458000	-9.47342500
182.66665600	0.00000000	-12.27239000	-9.47342500
182.86665598	0.00000000	-11.86024000	-9.47342500
183.06665597	0.00000000	-11.89715000	-9.51648500
183.26665596	0.00000000	-11.86024000	-9.89173200
183.46665595	0.00000000	-12.27239000	-10.62992000
183.66665594	0.00000000	-12.60458000	-11.00517000
183.86665592	0.00000000	-12.64764000	-11.00517000
184.06665591	0.00000000	-12.64764000	-10.62992000
184.26665590	0.00000000	-12.64764000	-9.89173200
184.46665589	0.00000000	-12.64764000	-9.51648500
184.66665588	0.00000000	-12.64764000	-9.47342500
184.86665587	0.00000000	-12.60458000	-9.47342500
185.06665585	0.00000000	-12.27239000	-9.47342500
185.26665584	0.00000000	-11.90330000	-9.47342500
185.46665583	0.00000000	-12.22933000	-9.47342500
185.66665582	0.00000000	-12.22933000	-9.47342500
185.86665581	0.00000000	-11.86024000	-9.47342500
186.06665579	0.00000000	-11.89715000	-9.51648500
186.26665578	0.00000000	-11.86024000	-9.89173200
186.46665577	0.00000000	-12.27239000	-10.62992000
186.66665576	0.00000000	-12.60458000	-10.95595000
186.86665575	0.00000000	-12.64764000	-10.62992000
187.06665573	0.00000000	-12.64764000	-9.89173200
187.26665572	0.00000000	-12.64764000	-9.51648500
187.46665571	0.00000000	-12.64764000	-9.47342500
187.66665570	0.00000000	-12.64764000	-9.47342500
187.86665569	0.00000000	-12.64764000	-9.43036400
188.06665568	0.00000000	-12.64764000	-9.09817800
188.26665566	0.00000000	-12.60458000	-8.72908400
188.46665565	0.00000000	-12.22933000	-9.09817800
188.66665564	0.00000000	-11.53420000	-9.47342500
188.86665563	0.00000000	-11.48499000	-9.84867000
189.06665562	0.00000000	-11.81102000	-10.25467000
189.26665560	0.00000000	-11.44193000	-10.26698000
189.46665559	0.00000000	-11.15896000	-10.62992000
189.66665558	0.00000000	-11.48499000	-10.58686000
189.86665557	0.00000000	-12.22933000	-9.89173200
190.06665556	0.00000000	-12.60458000	-9.51648500
190.26665554	0.00000000	-12.64764000	-9.47342500
190.46665553	0.00000000	-12.64764000	-9.47342500
190.66665552	0.00000000	-12.64764000	-9.47342500
190.86665551	0.00000000	-12.64764000	-9.47342500
191.06665550	0.00000000	-12.64764000	-9.47342500
191.26665549	0.00000000	-12.64764000	-9.47342500
191.46665547	0.00000000	-12.64764000	-9.47342500
191.66665546	0.00000000	-12.64764000	-9.47342500
191.86665545	0.00000000	-12.64764000	-9.47342500
192.06665544	0.00000000	-12.60458000	-9.47342500
192.26665543	0.00000000	-12.27239000	-9.47342500
192.46665541	0.00000000	-11.90330000	-9.47342500
192.66665540	0.00000000	-12.27239000	-9.47342500
192.86665539	0.00000000	-12.60458000	-9.47342500
193.06665538	0.00000000	-12.64764000	-9.47342500
193.26665537	0.00000000	-12.64764000	-9.47342500
193.46665535	0.00000000	-12.64764000	-9.47342500
193.66665534	0.00000000	-12.64764000	-9.47342500
193.86665533	0.00000000	-12.64764000	-9.47342500
194.06665532	0.00000000	-12.64764000	-9.47342500
194.26665531	0.00000000	-12.64764000	-9.47342500
194.46665530	0.00000000	-12.60458000	-9.47342500
194.66665528	0.00000000	-12.22933000	-9.47342500
194.86665527	0.00000000	-11.48499000	-9.47342500
195.06665526	0.00000000	-11.15896000	-9.47342500
195.26665525	0.00000000	-11.48499000	-9.47342500
195.46665524	0.00000000	-12.22933000	-9.47342500
195.66665522	0.00000000	-12.60458000	-9.47342500
195.86665521	0.00000000	-12.64764000	-9.47342500
196.06665520	0.00000000	-12.64764000	-9.47342500
