Time	Channel A	Channel B	Channel C
(us)	(V)	(mV)	(mV)

-4.59999956	0.00000000	-53.75861000	-26.79626000
-4.39999957	0.00000000	-53.75861000	-26.46407000
-4.19999958	0.00000000	-53.75861000	-26.10113000
-3.99999959	0.00000000	-53.75861000	-26.46407000
-3.79999960	0.00000000	-53.75861000	-26.74705000
-3.59999962	0.00000000	-53.75861000	-26.42101000
-3.39999963	0.00000000	-53.75861000	-25.72589000
-3.19999964	0.00000000	-53.75861000	-25.72589000
-2.99999965	0.00000000	-53.75861000	-26.42101000
-2.79999966	0.00000000	-53.75861000	-26.74705000
-2.59999968	0.00000000	-53.75861000	-26.46407000
-2.39999969	0.00000000	-53.75861000	-26.10113000
-2.19999970	0.00000000	-53.75861000	-26.46407000
-1.99999971	0.00000000	-53.75861000	-26.74705000
-1.79999972	0.00000000	-53.75861000	-26.46407000
-1.59999973	0.00000000	-53.75861000	-26.10113000
-1.39999975	0.00000000	-53.75861000	-26.46407000
-1.19999976	0.00000000	-53.75861000	-26.74705000
-0.99999977	0.00000000	-53.75861000	-26.42101000
-0.79999978	0.00000000	-53.75861000	-25.68282000
-0.59999979	0.00000000	-53.75861000	-25.30758000
-0.39999981	0.00000000	-53.75861000	-25.30758000
-0.19999982	0.31803640	-53.75861000	-25.68282000
0.00000017	0.79601380	-53.75861000	-26.42101000
0.20000016	0.95533960	-53.75861000	-26.79626000
0.40000015	1.11466500	-53.75861000	-26.83932000
0.60000013	0.79601380	-53.75861000	-26.83932000
0.80000012	0.15871060	-53.75861000	-26.83932000
1.00000011	-0.63668800	-53.75861000	-26.79626000
1.20000010	-1.59264300	-53.75861000	-26.42101000
1.40000009	-2.54859700	-53.75861000	-25.72589000
1.60000008	-2.70792300	-53.75861000	-25.68282000
1.80000006	-2.22994600	-53.75861000	-26.00270000
2.00000005	-0.95533960	-53.75861000	-25.68282000
2.20000004	0.95533960	-53.75861000	-25.72589000
2.40000003	3.02657500	-53.75861000	-26.42101000
2.60000002	4.77854300	-53.75861000	-26.79626000
2.80000000	5.41584600	-53.75861000	-26.83932000
2.99999999	4.61921700	-53.75861000	-26.83932000
3.19999998	2.38927200	-53.75861000	-26.83932000
3.39999997	-0.79601380	-53.75861000	-26.83932000
3.59999996	-4.14124000	-53.75861000	-26.83932000
3.79999994	-6.84916400	-53.75861000	-26.83932000
3.99999993	-7.96444400	-53.75861000	-26.83932000
4.19999992	-7.16781500	-53.75861000	-26.79626000
4.39999991	-4.30056600	-53.75861000	-26.46407000
4.59999990	-0.15871060	-53.75861000	-26.10113000
4.79999989	4.14124000	-53.75861000	-26.46407000
4.99999987	7.64579200	-53.75861000	-26.79626000
5.19999986	9.39837600	-53.80167000	-26.88238000
5.39999985	8.76107300	-54.13385000	-27.25763000
5.59999984	5.89382400	-54.54601000	-28.00197000
5.79999983	1.43331700	-54.50910000	-28.32800000
5.99999981	-3.18590100	-54.58907000	-28.00197000
6.19999980	-7.16781500	-54.50910000	-27.25763000
6.39999979	-9.23905000	-54.54601000	-26.88238000
6.59999978	-8.92039900	-54.13385000	-26.83932000
6.79999977	-6.53112700	-53.80167000	-26.83932000
6.99999975	-2.70792300	-53.75861000	-26.83932000
7.19999974	1.75196900	-53.75861000	-26.83932000
7.39999973	5.41584600	-53.80167000	-26.83932000
7.59999972	7.48646600	-54.13385000	-26.83932000
7.79999971	7.48646600	-54.50295000	-26.83932000
7.99999970	5.89382400	-54.13385000	-26.83932000
8.19999968	2.86724900	-53.80167000	-26.83932000
8.39999967	-0.47736220	-53.80167000	-26.83932000
8.59999966	-3.18590100	-54.13385000	-26.83932000
8.79999965	-4.93786900	-54.50295000	-26.83932000
8.99999964	-5.09719500	-54.13385000	-26.83932000
9.19999962	-4.14124000	-53.80167000	-26.83932000
9.39999961	-2.22994600	-53.75861000	-26.83932000
9.59999960	-0.31803640	-53.75861000	-26.83932000
9.79999959	1.43331700	-53.75861000	-26.83932000
9.99999958	2.38927200	-53.75861000	-26.83932000
10.19999956	2.54859700	-53.75861000	-26.83932000
10.39999955	2.07062000	-53.80167000	-26.83932000
10.59999954	1.27399100	-54.13385000	-26.83932000
10.79999953	0.31803640	-54.50295000	-26.83932000
10.99999952	-0.31803640	-54.13385000	-26.79626000
11.19999951	-0.79601380	-53.80167000	-26.46407000
11.39999949	-0.95533960	-53.75861000	-26.10113000
11.59999948	-0.95533960	-53.75861000	-26.46407000
11.79999947	-0.63668800	-53.75861000	-26.79626000
11.99999946	-0.31803640	-53.75861000	-26.83932000
12.19999945	-0.15871060	-53.75861000	-26.83932000
12.39999943	-0.15871060	-53.75861000	-26.79626000
12.59999942	0.00000000	-53.75861000	-26.46407000
12.79999941	0.00000000	-53.75861000	-26.10113000
12.99999940	0.00000000	-53.75861000	-26.46407000
13.19999939	0.15871060	-53.75861000	-26.79626000
13.39999937	0.15871060	-53.75861000	-26.83932000
13.59999936	0.00000000	-53.75861000	-26.83932000
13.79999935	0.00000000	-53.75861000	-26.83932000
13.99999934	0.00000000	-53.80167000	-26.83932000
14.19999933	-0.15871060	-54.13385000	-26.83932000
14.39999932	-0.15871060	-54.50295000	-26.83932000
14.59999930	-0.15871060	-54.13385000	-26.79626000
14.79999929	0.00000000	-53.80167000	-26.46407000
14.99999928	0.00000000	-53.75861000	-26.10113000
15.19999927	0.00000000	-53.75861000	-26.46407000
15.39999926	0.00000000	-53.75861000	-26.74705000
15.59999924	0.00000000	-53.80167000	-26.46407000
15.79999923	0.00000000	-54.13385000	-26.10113000
15.99999922	0.00000000	-54.54601000	-26.46407000
16.19999921	0.00000000	-54.55216000	-26.79626000
16.39999920	0.00000000	-54.92125000	-26.79626000
16.59999919	0.00000000	-54.87204000	-26.42101000
16.79999917	0.00000000	-54.17691000	-25.68282000
16.99999916	0.00000000	-53.75861000	-25.35679000
17.19999915	0.00000000	-53.34030000	-25.68282000
17.39999914	0.00000000	-52.59596000	-26.42101000
17.59999913	0.00000000	-52.26993000	-26.79626000
17.79999911	0.00000000	-52.59596000	-26.83932000
17.99999910	0.00000000	-53.42642000	-26.83932000
18.19999909	0.00000000	-54.55216000	-26.88238000
18.39999908	0.00000000	-56.17002000	-27.21457000
18.59999907	0.00000000	-57.67101000	-27.58366000
18.79999905	0.00000000	-59.24582000	-27.21457000
18.99999904	0.00000000	-59.94709000	-26.88238000
19.19999903	0.00000000	-59.57185000	-26.83932000
19.39999902	0.00000000	-57.99089000	-26.83932000
19.59999901	0.00000000	-55.24729000	-26.83932000
19.79999900	0.00000000	-51.75935000	-26.83932000
19.99999898	0.00000000	-47.90231000	-26.83932000
20.19999897	0.00000000	-44.86958000	-26.83932000
20.39999896	0.00000000	-43.71309000	-26.83932000
20.59999895	0.00000000	-44.91880000	-26.83932000
20.79999894	0.00000000	-48.45595000	-26.83932000
20.99999892	0.00000000	-54.35531000	-26.83932000
21.19999891	0.00000000	-62.03863000	-26.83932000
21.39999890	0.00000000	-69.71580000	-26.79626000
21.59999889	0.00000000	-74.69857000	-26.46407000
21.79999888	0.00000000	-75.81815000	-26.10113000
21.99999886	0.00000000	-72.23179000	-26.46407000
22.19999885	0.00000000	-63.67495000	-26.79626000
22.39999884	0.00000000	-51.71013000	-26.83932000
22.59999883	0.00000000	-38.96407000	-26.83932000
22.79999882	0.00000000	-28.58636000	-26.83932000
22.99999881	0.00000000	-23.23450000	-26.83932000
23.19999879	0.00000000	-24.85851000	-26.79626000
23.39999878	0.00000000	-33.83981000	-26.42101000
23.59999877	0.00000000	-48.91732000	-25.68282000
23.79999876	0.00000000	-67.06447000	-25.30758000
23.99999875	0.00000000	-83.63065000	-25.26452000
24.19999873	0.00000000	-94.79577000	-25.26452000
24.39999872	0.00000000	-97.40403000	-25.30758000
24.59999871	0.00000000	-90.00984000	-25.72589000
24.79999870	0.00000000	-73.76968000	-26.88853000
24.99999869	0.00000000	-52.13459000	-28.42027000
25.19999867	0.00000000	-30.12426000	-29.95201000
25.39999866	0.00000000	-12.77067000	-31.11466000
25.59999865	0.00000000	-4.34916300	-31.44069000
25.79999864	0.00000000	-7.46186000	-30.64714000
25.99999863	0.00000000	-21.74582000	-28.28494000
26.19999862	0.00000000	-43.75615000	-24.84621000
26.39999860	0.00000000	-68.51008000	-20.94611000
26.59999859	0.00000000	-90.52042000	-17.50123000
26.79999858	0.00000000	-104.75520000	-15.22515000
26.99999857	0.00000000	-107.49880000	-15.31742000
27.19999856	0.00000000	-98.24680000	-18.43012000
27.39999854	0.00000000	-79.71825000	-24.23720000
27.59999853	0.00000000	-55.75787000	-31.57603000
27.79999852	0.00000000	-32.21579000	-38.92101000
27.99999851	0.00000000	-14.39468000	-44.68504000
28.19999850	0.00000000	-5.88090500	-47.33021000
28.39999848	0.00000000	-8.58144600	-45.70620000
28.59999847	0.00000000	-21.61048000	-39.48080000
28.79999846	0.00000000	-41.28937000	-29.40452000
28.99999845	0.00000000	-62.59842000	-17.41511000
29.19999844	0.00000000	-81.58218000	-5.88705700
29.39999843	0.00000000	-94.32824000	2.14689900
29.59999841	0.00000000	-97.87155000	4.01082700
29.79999840	0.00000000	-92.14443000	-1.01501000
29.99999839	0.00000000	-79.06618000	-12.24778000
30.19999838	0.00000000	-62.03863000	-27.30684000
30.39999837	0.00000000	-45.00492000	-43.14714000
30.59999835	0.00000000	-31.00393000	-56.25000000
30.79999834	0.00000000	-22.85925000	-63.55191000
30.99999833	0.00000000	-21.65354000	-63.13361000
31.19999832	0.00000000	-27.42372000	-54.63213000
31.39999831	0.00000000	-38.58883000	-39.94832000
31.59999829	0.00000000	-52.13459000	-22.15182000
31.79999828	0.00000000	-65.29897000	-4.77362200
31.99999827	0.00000000	-75.39369000	8.32923100
32.19999826	0.00000000	-80.46875000	14.13017000
32.39999825	0.00000000	-80.13657000	11.39272000
32.59999824	0.00000000	-74.74163000	0.61515740
32.79999822	0.00000000	-65.85260000	-16.01255000
32.99999821	0.00000000	-55.38263000	-34.55955000
33.19999820	0.00000000	-45.33710000	-51.56250000
33.39999819	0.00000000	-38.02903000	-63.12745000
33.59999818	0.00000000	-35.28543000	-66.66461000
33.79999816	0.00000000	-37.51845000	-62.05708000
33.99999815	0.00000000	-43.28863000	-50.44291000
34.19999814	0.00000000	-51.06422000	-34.22736000
34.39999813	0.00000000	-59.52879000	-16.84916000
34.59999812	0.00000000	-66.46161000	-2.17150600
34.79999810	0.00000000	-69.95570000	6.74827700
34.99999809	0.00000000	-69.62352000	8.28001900
35.19999808	0.00000000	-65.76648000	2.14689900
35.39999807	0.00000000	-59.61491000	-10.20546000
35.59999806	0.00000000	-52.73130000	-25.59055000
35.79999805	0.00000000	-47.33637000	-40.64345000
35.99999803	0.00000000	-44.96186000	-51.47023000
36.19999802	0.00000000	-45.29404000	-56.16388000
36.39999801	0.00000000	-48.03149000	-54.20767000
36.59999800	0.00000000	-52.64517000	-45.79847000
36.79999799	0.00000000	-58.03395000	-33.48917000
36.99999797	0.00000000	-62.59842000	-20.79847000
37.19999796	0.00000000	-64.92371000	-10.39616000
37.39999795	0.00000000	-64.17938000	-5.37032500
37.59999794	0.00000000	-61.15280000	-6.48375900
37.79999793	0.00000000	-56.87746000	-12.99828000
37.99999791	0.00000000	-52.26993000	-23.35138000
38.19999790	0.00000000	-48.40674000	-34.04897000
38.39999789	0.00000000	-46.49975000	-42.08292000
38.59999788	0.00000000	-46.82579000	-44.77731000
38.79999787	0.00000000	-49.15108000	-41.38779000
38.99999786	0.00000000	-52.64517000	-33.76599000
39.19999784	0.00000000	-56.87746000	-24.15108000
39.39999783	0.00000000	-60.73450000	-15.36048000
39.59999782	0.00000000	-63.10900000	-10.02092000
39.79999781	0.00000000	-64.27164000	-10.02092000
39.99999780	0.00000000	-63.85334000	-15.36048000
40.19999778	0.00000000	-61.52805000	-24.19414000
40.39999777	0.00000000	-58.08316000	-34.18430000
40.59999776	0.00000000	-54.17691000	-42.59350000
40.79999775	0.00000000	-50.68897000	-46.81963000
40.99999774	0.00000000	-47.98843000	-45.66314000
41.19999772	0.00000000	-46.82579000	-39.48080000
41.39999771	0.00000000	-47.52707000	-29.53371000
41.59999770	0.00000000	-49.10802000	-18.80536000
41.79999769	0.00000000	-51.48252000	-10.71604000
41.99999768	0.00000000	-54.96432000	-6.81594400
42.19999767	0.00000000	-58.40920000	-8.02165300
42.39999765	0.00000000	-61.15280000	-14.11171000
42.59999764	0.00000000	-62.69069000	-23.30832000
42.79999763	0.00000000	-62.73376000	-32.51722000
42.99999762	0.00000000	-61.57111000	-39.53002000
43.19999761	0.00000000	-59.66412000	-43.01181000
43.39999759	0.00000000	-57.33883000	-42.63656000
43.59999758	0.00000000	-55.38263000	-38.45349000
43.79999757	0.00000000	-53.80167000	-31.95128000
43.99999756	0.00000000	-52.64517000	-25.39985000
44.19999755	0.00000000	-52.22071000	-19.91880000
44.39999753	0.00000000	-52.17765000	-16.47392000
44.59999752	0.00000000	-52.17765000	-15.64345000
44.79999751	0.00000000	-52.13459000	-17.54429000
44.99999750	0.00000000	-51.75935000	-20.98917000
45.19999749	0.00000000	-51.10728000	-25.26452000
45.39999748	0.00000000	-51.56865000	-29.44759000
45.59999746	0.00000000	-53.85088000	-32.18504000
45.79999745	0.00000000	-56.92052000	-33.02165000
45.99999744	0.00000000	-60.08243000	-32.64640000
46.19999743	0.00000000	-63.20127000	-31.06545000
46.39999742	0.00000000	-65.85260000	-28.42027000
46.59999740	0.00000000	-66.92298000	-25.72589000
46.79999739	0.00000000	-65.34202000	-23.77584000
46.99999738	0.00000000	-61.06668000	-22.57013000
47.19999737	0.00000000	-54.87204000	-22.19488000
47.39999736	0.00000000	-47.94537000	-22.61319000
47.59999734	0.00000000	-42.17519000	-24.14493000
47.79999733	0.00000000	-39.05635000	-26.42101000
47.99999732	0.00000000	-39.14862000	-28.42027000
48.19999731	0.00000000	-43.06102000	-30.37647000
48.39999730	0.00000000	-50.77510000	-32.22810000
48.59999729	0.00000000	-59.99631000	-32.56028000
48.79999727	0.00000000	-68.51008000	-31.11466000
48.99999726	0.00000000	-74.28026000	-28.74631000
49.19999725	0.00000000	-75.81815000	-26.04577000
49.39999724	0.00000000	-72.74237000	-22.93922000
49.59999723	0.00000000	-65.76648000	-20.70620000
49.79999721	0.00000000	-56.50221000	-19.91880000
49.99999720	0.00000000	-46.87500000	-21.08145000
50.19999719	0.00000000	-39.56693000	-23.77584000
50.39999718	0.00000000	-36.44808000	-27.25763000
50.59999717	0.00000000	-37.98597000	-31.15772000
50.79999715	0.00000000	-43.79921000	-34.55955000
50.99999714	0.00000000	-52.64517000	-36.45423000
51.19999713	0.00000000	-62.22933000	-35.71604000
51.39999712	0.00000000	-69.53740000	-33.06471000
51.59999711	0.00000000	-72.69930000	-29.53371000
51.79999710	0.00000000	-71.57972000	-25.26452000
51.99999708	0.00000000	-66.92913000	-21.08145000
52.19999707	0.00000000	-59.62106000	-18.38706000
52.39999706	0.00000000	-51.56865000	-18.01181000
52.59999705	0.00000000	-45.42937000	-19.91880000
52.79999704	0.00000000	-42.68578000	-23.77584000
52.99999702	0.00000000	-43.84842000	-28.32800000
53.19999701	0.00000000	-48.40674000	-32.18504000
53.39999700	0.00000000	-54.92125000	-34.18430000
53.59999699	0.00000000	-61.06668000	-34.60261000
53.79999698	0.00000000	-65.29897000	-33.76599000
53.99999696	0.00000000	-66.50467000	-31.11466000
54.19999695	0.00000000	-64.64690000	-27.72515000
54.39999694	0.00000000	-61.15280000	-25.39985000
54.59999693	0.00000000	-56.50221000	-24.15108000
54.79999692	0.00000000	-51.52559000	-23.81890000
54.99999691	0.00000000	-48.12377000	-24.56324000
55.19999689	0.00000000	-47.33637000	-26.46407000
55.39999688	0.00000000	-49.61245000	-28.32800000
55.59999687	0.00000000	-53.80167000	-29.44759000
55.79999686	0.00000000	-58.40920000	-29.07234000
55.99999685	0.00000000	-62.27239000	-27.21457000
56.19999683	0.00000000	-64.17938000	-25.30758000
56.39999682	0.00000000	-63.85334000	-23.77584000
56.59999681	0.00000000	-61.52805000	-23.07455000
56.79999680	0.00000000	-58.08316000	-24.23720000
56.99999679	0.00000000	-54.22613000	-26.88853000
57.19999677	0.00000000	-51.15034000	-30.00123000
57.39999676	0.00000000	-49.61245000	-33.06471000
57.59999675	0.00000000	-49.98769000	-35.34079000
57.79999674	0.00000000	-52.26993000	-35.62377000
57.99999673	0.00000000	-55.29650000	-33.34153000
58.19999672	0.00000000	-58.03395000	-28.70325000
58.39999670	0.00000000	-59.94709000	-23.30832000
58.59999669	0.00000000	-60.73450000	-17.91953000
58.79999668	0.00000000	-59.94709000	-14.15477000
58.99999667	0.00000000	-58.08316000	-13.77953000
59.19999666	0.00000000	-55.75787000	-16.84916000
59.39999664	0.00000000	-53.89394000	-22.65625000
59.59999663	0.00000000	-53.06348000	-29.95201000
59.79999662	0.00000000	-53.42642000	-36.87869000
59.99999661	0.00000000	-54.17691000	-41.48006000
60.19999660	0.00000000	-55.38263000	-42.63656000
60.39999658	0.00000000	-56.87746000	-39.89911000
60.59999657	0.00000000	-58.03395000	-33.72293000
60.79999656	0.00000000	-58.40920000	-25.26452000
60.99999655	0.00000000	-58.03395000	-16.84916000
61.19999654	0.00000000	-56.87746000	-11.09129000
61.39999653	0.00000000	-55.33957000	-9.51033400
61.59999651	0.00000000	-53.85088000	-12.20472000
61.79999650	0.00000000	-53.06348000	-18.33784000
61.99999649	0.00000000	-53.47564000	-26.46407000
62.19999648	0.00000000	-54.59522000	-34.55955000
62.39999647	0.00000000	-56.54527000	-41.10482000
62.59999645	0.00000000	-58.45841000	-44.17446000
62.79999644	0.00000000	-60.03937000	-43.06102000
62.99999643	0.00000000	-61.15280000	-38.45349000
63.19999642	0.00000000	-61.10974000	-31.48991000
63.39999641	0.00000000	-59.57185000	-23.76968000
63.59999639	0.00000000	-56.92052000	-16.80610000
63.79999638	0.00000000	-54.22613000	-12.24778000
63.99999637	0.00000000	-52.26993000	-11.41732000
64.19999636	0.00000000	-51.10728000	-14.48081000
64.39999635	0.00000000	-51.15034000	-19.87574000
64.59999634	0.00000000	-52.68823000	-26.83932000
64.79999632	0.00000000	-55.38263000	-33.76599000
64.99999631	0.00000000	-58.45841000	-38.78568000
65.19999630	0.00000000	-61.10974000	-41.19709000
65.39999629	0.00000000	-62.31545000	-40.82800000
65.59999628	0.00000000	-61.94635000	-38.50270000
65.79999626	0.00000000	-60.77756000	-34.22736000
65.99999625	0.00000000	-58.45841000	-28.88779000
66.19999624	0.00000000	-55.85014000	-24.23720000
66.39999623	0.00000000	-54.26919000	-21.03838000
66.59999622	0.00000000	-53.85088000	-19.08218000
66.79999620	0.00000000	-54.22613000	-18.29478000
66.99999619	0.00000000	-55.38263000	-19.08218000
67.19999618	0.00000000	-56.92052000	-20.98917000
67.39999617	0.00000000	-58.45841000	-23.77584000
67.59999616	0.00000000	-59.52879000	-27.21457000
67.79999615	0.00000000	-59.15354000	-30.73942000
67.99999613	0.00000000	-57.29576000	-33.48302000
68.19999612	0.00000000	-55.38263000	-35.85138000
68.39999611	0.00000000	-53.80167000	-37.29700000
68.59999610	0.00000000	-52.68823000	-36.92175000
68.79999609	0.00000000	-52.73130000	-34.64567000
68.99999607	0.00000000	-54.31225000	-31.53297000
69.19999606	0.00000000	-57.38804000	-27.95275000
69.39999605	0.00000000	-61.19586000	-23.68356000
69.59999604	0.00000000	-64.22859000	-19.45743000
69.79999603	0.00000000	-65.38509000	-16.43085000
69.99999601	0.00000000	-64.27164000	-15.69267000
70.19999600	0.00000000	-61.52805000	-17.96260000
70.39999599	0.00000000	-57.61565000	-22.19488000
70.59999598	0.00000000	-52.64517000	-27.21457000
70.79999597	0.00000000	-48.45595000	-32.27116000
70.99999596	0.00000000	-46.45054000	-36.09129000
71.19999594	0.00000000	-46.49975000	-38.07825000
71.39999593	0.00000000	-48.87426000	-37.66609000
71.59999592	0.00000000	-53.85088000	-35.38385000
71.79999591	0.00000000	-59.57185000	-31.48376000
71.99999590	0.00000000	-64.27164000	-26.88238000
72.19999588	0.00000000	-67.39050000	-22.61319000
72.39999587	0.00000000	-68.51008000	-19.58661000
72.59999586	0.00000000	-66.97219000	-18.76230000
72.79999585	0.00000000	-63.10900000	-20.28789000
72.99999584	0.00000000	-58.08316000	-22.89616000
73.19999582	0.00000000	-52.68823000	-26.04577000
73.39999581	0.00000000	-48.45595000	-28.70325000
73.59999580	0.00000000	-46.49975000	-30.64714000
73.79999579	0.00000000	-46.87500000	-31.02239000
73.99999578	0.00000000	-49.56939000	-29.95201000
74.19999577	0.00000000	-53.75861000	-28.42027000
74.39999575	0.00000000	-58.03395000	-26.93159000
74.59999574	0.00000000	-61.52805000	-26.19340000
74.79999573	0.00000000	-63.85334000	-26.93159000
74.99999572	0.00000000	-64.27164000	-28.42027000
75.19999571	0.00000000	-63.15207000	-29.95201000
75.39999569	0.00000000	-61.19586000	-31.06545000
75.59999568	0.00000000	-58.50147000	-31.06545000
75.79999567	0.00000000	-55.80708000	-29.86589000
75.99999566	0.00000000	-53.89394000	-27.54060000
76.19999565	0.00000000	-53.06348000	-24.10187000
76.39999563	0.00000000	-53.42642000	-21.08145000
76.59999562	0.00000000	-54.17691000	-19.50049000
76.79999561	0.00000000	-55.33957000	-19.54355000
76.99999560	0.00000000	-56.50221000	-21.49975000
77.19999559	0.00000000	-57.29576000	-25.39985000
77.39999558	0.00000000	-58.03395000	-30.37647000
77.59999556	0.00000000	-58.03395000	-35.34079000
77.79999555	0.00000000	-57.33883000	-38.41043000
77.99999554	0.00000000	-57.01279000	-38.87795000
78.19999553	0.00000000	-57.38804000	-37.29700000
78.39999552	0.00000000	-58.50147000	-33.76599000
78.59999550	0.00000000	-59.61491000	-28.37721000
78.79999549	0.00000000	-60.03937000	-22.61319000
78.99999548	0.00000000	-59.99015000	-17.96260000
79.19999547	0.00000000	-59.19660000	-15.27436000
79.39999546	0.00000000	-57.29576000	-15.27436000
79.59999544	0.00000000	-55.38263000	-17.96260000
79.79999543	0.00000000	-53.80167000	-22.57013000
79.99999542	0.00000000	-52.68823000	-28.00197000
80.19999541	0.00000000	-52.68823000	-33.02165000
80.39999540	0.00000000	-53.80167000	-36.87869000
80.59999539	0.00000000	-55.38263000	-38.45349000
80.79999537	0.00000000	-57.38804000	-37.75836000
80.99999536	0.00000000	-60.03937000	-35.80217000
81.19999535	0.00000000	-62.27239000	-32.64640000
81.39999534	0.00000000	-62.69069000	-28.42027000
81.59999533	0.00000000	-61.57111000	-24.19414000
81.79999531	0.00000000	-59.66412000	-21.03838000
81.99999530	0.00000000	-57.33883000	-19.08218000
82.19999529	0.00000000	-55.38263000	-18.33784000
82.39999528	0.00000000	-53.85088000	-19.45743000
82.59999527	0.00000000	-53.06348000	-21.77658000
82.79999525	0.00000000	-53.47564000	-24.56324000
82.99999524	0.00000000	-54.59522000	-28.42027000
83.19999523	0.00000000	-56.54527000	-32.27731000
83.39999522	0.00000000	-58.40920000	-35.02091000
83.59999521	0.00000000	-59.61491000	-36.96481000
83.79999520	0.00000000	-60.03937000	-37.29700000
83.99999518	0.00000000	-60.03937000	-35.80217000
84.19999517	0.00000000	-59.66412000	-33.06471000
84.39999516	0.00000000	-58.91978000	-29.53371000
84.59999515	0.00000000	-58.50147000	-25.26452000
84.79999514	0.00000000	-58.12622000	-21.08145000
84.99999512	0.00000000	-57.71407000	-18.33784000
85.19999511	0.00000000	-57.70792000	-17.59350000
85.39999510	0.00000000	-57.29576000	-18.75615000
85.59999509	0.00000000	-56.92052000	-22.23794000
85.79999508	0.00000000	-56.50221000	-26.83932000
85.99999506	0.00000000	-55.71481000	-31.48376000
86.19999505	0.00000000	-55.00738000	-35.38385000
86.39999504	0.00000000	-54.64444000	-37.71530000
86.59999503	0.00000000	-55.47490000	-38.45349000
86.79999502	0.00000000	-57.33883000	-36.82948000
86.99999501	0.00000000	-59.61491000	-32.64640000
87.19999499	0.00000000	-61.15280000	-27.25763000
87.39999498	0.00000000	-61.62032000	-22.23794000
87.59999497	0.00000000	-61.57111000	-18.38090000
87.79999496	0.00000000	-60.77756000	-16.84916000
87.99999495	0.00000000	-58.83366000	-17.96260000
88.19999493	0.00000000	-56.58833000	-21.08145000
88.39999492	0.00000000	-54.64444000	-25.72589000
88.59999491	0.00000000	-53.85088000	-31.06545000
88.79999490	0.00000000	-53.80167000	-35.24852000
88.99999489	0.00000000	-54.26919000	-36.82948000
89.19999487	0.00000000	-55.80708000	-35.71604000
89.39999486	0.00000000	-58.08316000	-32.64640000
89.59999485	0.00000000	-59.99015000	-28.42027000
89.79999484	0.00000000	-61.19586000	-24.15108000
89.99999483	0.00000000	-61.57111000	-20.70620000
90.19999482	0.00000000	-61.19586000	-18.80536000
90.39999480	0.00000000	-60.03937000	-19.58661000
90.59999479	0.00000000	-58.50147000	-22.61319000
90.79999478	0.00000000	-56.96358000	-26.83932000
90.99999477	0.00000000	-55.80708000	-31.06545000
91.19999476	0.00000000	-55.38263000	-34.13509000
91.39999474	0.00000000	-55.38263000	-35.29773000
91.59999473	0.00000000	-55.75787000	-34.13509000
91.79999472	0.00000000	-56.50221000	-31.06545000
91.99999471	0.00000000	-56.87746000	-26.83932000
92.19999470	0.00000000	-56.92052000	-22.61319000
92.39999468	0.00000000	-56.96358000	-19.58661000
92.59999467	0.00000000	-57.33883000	-18.80536000
92.79999466	0.00000000	-58.08316000	-20.70620000
92.99999465	0.00000000	-58.50147000	-24.15108000
93.19999464	0.00000000	-58.91978000	-28.42027000
93.39999463	0.00000000	-59.66412000	-32.60334000
93.59999461	0.00000000	-60.03937000	-35.29773000
93.79999460	0.00000000	-60.03937000	-35.67298000
93.99999459	0.00000000	-59.61491000	-33.76599000
94.19999458	0.00000000	-58.40920000	-29.90895000
94.39999457	0.00000000	-56.54527000	-25.35679000
94.59999455	0.00000000	-54.59522000	-21.54281000
94.79999454	0.00000000	-53.42642000	-20.01107000
94.99999453	0.00000000	-52.64517000	-21.08145000
95.19999452	0.00000000	-52.73130000	-23.77584000
95.39999451	0.00000000	-54.26919000	-27.25763000
95.59999449	0.00000000	-56.96358000	-31.11466000
95.79999448	0.00000000	-60.08243000	-34.13509000
95.99999447	0.00000000	-63.15207000	-35.29773000
96.19999446	0.00000000	-65.43430000	-34.18430000
96.39999445	0.00000000	-65.80955000	-31.48991000
96.59999444	0.00000000	-64.27164000	-28.04503000
96.79999442	0.00000000	-61.19586000	-24.61245000
96.99999441	0.00000000	-57.33883000	-22.65625000
97.19999440	0.00000000	-53.85088000	-22.23794000
97.39999439	0.00000000	-51.10728000	-23.03149000
97.59999438	0.00000000	-49.61245000	-25.35064000
97.79999436	0.00000000	-49.98769000	-28.37721000
97.99999435	0.00000000	-52.31299000	-31.06545000
98.19999434	0.00000000	-55.75787000	-32.60334000
98.39999433	0.00000000	-59.66412000	-32.64640000
98.59999432	0.00000000	-63.15207000	-31.53297000
98.79999430	0.00000000	-65.85260000	-30.00123000
98.99999429	0.00000000	-67.01525000	-28.46333000
99.19999428	0.00000000	-66.22785000	-27.25763000
99.39999427	0.00000000	-63.93946000	-26.51329000
99.59999426	0.00000000	-60.41461000	-26.10113000
99.79999425	0.00000000	-56.58833000	-26.51329000
99.99999423	0.00000000	-53.06348000	-27.17150000
100.19999422	0.00000000	-50.77510000	-27.58366000
100.39999421	0.00000000	-49.98769000	-27.21457000
100.59999420	0.00000000	-51.15034000	-26.88238000
100.79999419	0.00000000	-53.80167000	-26.83932000
100.99999417	0.00000000	-56.92052000	-26.88238000
101.19999416	0.00000000	-60.03937000	-27.25763000
101.39999415	0.00000000	-62.73376000	-28.08809000
101.59999414	0.00000000	-64.31471000	-29.21383000
101.79999413	0.00000000	-64.73302000	-30.73942000
101.99999411	0.00000000	-64.31471000	-31.44069000
102.19999410	0.00000000	-62.73376000	-31.11466000
102.39999409	0.00000000	-60.08243000	-29.90895000
102.59999408	0.00000000	-57.38804000	-27.95891000
102.79999407	0.00000000	-55.38263000	-25.30758000
102.99999406	0.00000000	-53.85088000	-23.03149000
103.19999404	0.00000000	-53.10654000	-22.23794000
103.39999403	0.00000000	-53.85088000	-22.61319000
103.59999402	0.00000000	-55.38263000	-24.19414000
103.79999401	0.00000000	-57.33883000	-26.83932000
103.99999400	0.00000000	-59.61491000	-29.53371000
104.19999398	0.00000000	-61.15280000	-31.48991000
104.39999397	0.00000000	-61.62032000	-32.68946000
104.59999396	0.00000000	-61.62032000	-33.02165000
104.79999395	0.00000000	-61.19586000	-32.22810000
104.99999394	0.00000000	-60.03937000	-29.90895000
105.19999392	0.00000000	-58.50147000	-26.88853000
105.39999391	0.00000000	-56.96358000	-24.19414000
105.59999390	0.00000000	-55.85014000	-22.65625000
105.79999389	0.00000000	-55.80708000	-22.61319000
105.99999388	0.00000000	-56.54527000	-23.77584000
106.19999387	0.00000000	-57.33883000	-25.68282000
106.39999385	0.00000000	-58.50147000	-28.00197000
106.59999384	0.00000000	-59.61491000	-29.90895000
106.79999383	0.00000000	-59.99015000	-31.06545000
106.99999382	0.00000000	-59.66412000	-31.06545000
107.19999381	0.00000000	-58.87672000	-29.90895000
107.39999379	0.00000000	-58.12622000	-28.04503000
107.59999378	0.00000000	-57.33883000	-26.10113000
107.79999377	0.00000000	-56.96358000	-24.98154000
107.99999376	0.00000000	-56.96358000	-24.52018000
108.19999375	0.00000000	-57.33883000	-24.98154000
108.39999374	0.00000000	-58.12622000	-26.10113000
108.59999372	0.00000000	-58.91978000	-28.04503000
108.79999371	0.00000000	-60.08243000	-29.90895000
108.99999370	0.00000000	-61.15280000	-31.06545000
109.19999369	0.00000000	-61.15280000	-31.06545000
109.39999368	0.00000000	-60.03937000	-29.95201000
109.59999366	0.00000000	-58.54454000	-28.42027000
109.79999365	0.00000000	-57.33883000	-26.88853000
109.99999364	0.00000000	-56.54527000	-25.72589000
110.19999363	0.00000000	-55.80708000	-25.30758000
110.39999362	0.00000000	-55.85014000	-25.30758000
110.59999360	0.00000000	-56.96358000	-25.77510000
110.79999359	0.00000000	-58.50147000	-27.25763000
110.99999358	0.00000000	-60.03937000	-29.16461000
111.19999357	0.00000000	-61.19586000	-30.32726000
111.39999356	0.00000000	-61.57111000	-31.15772000
111.59999355	0.00000000	-61.24508000	-31.48376000
111.79999353	0.00000000	-60.45767000	-31.11466000
111.99999352	0.00000000	-59.66412000	-29.95201000
112.19999351	0.00000000	-58.50147000	-28.46333000
112.39999350	0.00000000	-57.38804000	-27.25763000
112.59999349	0.00000000	-56.96358000	-26.51329000
112.79999347	0.00000000	-56.96358000	-26.10113000
112.99999346	0.00000000	-57.33883000	-26.51329000
113.19999345	0.00000000	-58.12622000	-27.21457000
113.39999344	0.00000000	-58.87672000	-28.00197000
113.59999343	0.00000000	-59.66412000	-28.37721000
113.79999341	0.00000000	-60.03937000	-28.42027000
113.99999340	0.00000000	-60.08243000	-28.42027000
114.19999339	0.00000000	-60.03937000	-28.46333000
114.39999338	0.00000000	-59.66412000	-28.79552000
114.59999337	0.00000000	-58.91978000	-29.20767000
114.79999336	0.00000000	-58.54454000	-29.21383000
114.99999334	0.00000000	-58.50147000	-29.58292000
115.19999333	0.00000000	-58.50147000	-29.58292000
115.39999332	0.00000000	-58.50147000	-29.21383000
115.59999331	0.00000000	-58.50147000	-29.20767000
115.79999330	0.00000000	-58.50147000	-28.75246000
115.99999328	0.00000000	-58.54454000	-28.04503000
116.19999327	0.00000000	-58.91978000	-27.25763000
116.39999326	0.00000000	-59.66412000	-26.83932000
116.59999325	0.00000000	-60.03937000	-26.46407000
116.79999324	0.00000000	-60.08243000	-26.10113000
116.99999322	0.00000000	-60.03937000	-26.51329000
117.19999321	0.00000000	-59.66412000	-27.21457000
117.39999320	0.00000000	-58.87672000	-28.00197000
117.59999319	0.00000000	-58.12622000	-28.42027000
117.79999318	0.00000000	-57.33883000	-28.83858000
117.99999317	0.00000000	-56.96358000	-29.53371000
118.19999315	0.00000000	-56.92052000	-29.53371000
118.39999314	0.00000000	-56.96358000	-28.83858000
118.59999313	0.00000000	-57.38804000	-28.46333000
118.79999312	0.00000000	-58.54454000	-28.37721000
118.99999311	0.00000000	-60.03937000	-28.00197000
119.19999309	0.00000000	-61.19586000	-27.25763000
119.39999308	0.00000000	-61.62032000	-26.88238000
119.59999307	0.00000000	-61.62032000	-26.83932000
119.79999306	0.00000000	-61.19586000	-26.83932000
119.99999305	0.00000000	-60.03937000	-26.83932000
120.19999303	0.00000000	-58.54454000	-26.88238000
120.39999302	0.00000000	-57.33883000	-27.25763000
120.59999301	0.00000000	-56.54527000	-28.00197000
120.79999300	0.00000000	-55.80708000	-28.37721000
120.99999299	0.00000000	-55.80708000	-28.42027000
121.19999298	0.00000000	-56.54527000	-28.46333000
121.39999296	0.00000000	-57.33883000	-28.83858000
121.59999295	0.00000000	-58.54454000	-29.58292000
121.79999294	0.00000000	-60.03937000	-29.90895000
121.99999293	0.00000000	-61.19586000	-29.58292000
122.19999292	0.00000000	-61.62032000	-28.83858000
122.39999290	0.00000000	-61.62032000	-28.42027000
122.59999289	0.00000000	-61.19586000	-28.00197000
122.79999288	0.00000000	-60.08243000	-27.21457000
122.99999287	0.00000000	-58.91978000	-26.51329000
123.19999286	0.00000000	-58.12622000	-26.10113000
123.39999284	0.00000000	-57.33883000	-26.51329000
123.59999283	0.00000000	-56.96358000	-27.21457000
123.79999282	0.00000000	-56.92052000	-28.00197000
123.99999281	0.00000000	-56.96358000	-28.42027000
124.19999280	0.00000000	-57.33883000	-28.83858000
124.39999279	0.00000000	-58.12622000	-29.58292000
124.59999277	0.00000000	-58.87672000	-29.90895000
124.79999276	0.00000000	-59.66412000	-29.58292000
124.99999275	0.00000000	-60.08243000	-28.83858000
125.19999274	0.00000000	-60.50073000	-28.42027000
125.39999273	0.00000000	-61.19586000	-28.00197000
125.59999271	0.00000000	-61.19586000	-27.25763000
125.79999270	0.00000000	-60.45767000	-26.88238000
125.99999269	0.00000000	-59.66412000	-26.83932000
126.19999268	0.00000000	-58.50147000	-26.83932000
126.39999267	0.00000000	-57.38804000	-26.88238000
126.59999265	0.00000000	-56.96358000	-27.25763000
126.79999264	0.00000000	-56.92052000	-28.00197000
126.99999263	0.00000000	-56.96358000	-28.37721000
127.19999262	0.00000000	-57.38804000	-28.42027000
127.39999261	0.00000000	-58.50147000	-28.42027000
127.59999260	0.00000000	-59.66412000	-28.42027000
127.79999258	0.00000000	-60.45767000	-28.42027000
127.99999257	0.00000000	-61.24508000	-28.42027000
128.19999256	0.00000000	-61.62032000	-28.42027000
128.39999255	0.00000000	-61.57111000	-28.42027000
128.59999254	0.00000000	-60.77756000	-28.37721000
128.79999252	0.00000000	-58.91978000	-28.04503000
128.99999251	0.00000000	-57.43110000	-27.67593000
129.19999250	0.00000000	-56.96358000	-28.04503000
129.39999249	0.00000000	-56.96358000	-28.37721000
129.59999248	0.00000000	-57.38804000	-28.46333000
129.79999246	0.00000000	-58.54454000	-28.79552000
129.99999245	0.00000000	-60.03937000	-29.16461000
130.19999244	0.00000000	-61.19586000	-28.79552000
130.39999243	0.00000000	-61.62032000	-28.46333000
130.59999242	0.00000000	-61.62032000	-28.42027000
130.79999241	0.00000000	-61.24508000	-28.37721000
130.99999239	0.00000000	-60.45767000	-28.00197000
131.19999238	0.00000000	-59.66412000	-27.30684000
131.39999237	0.00000000	-58.50147000	-27.30684000
131.59999236	0.00000000	-57.43110000	-28.00197000
131.79999235	0.00000000	-57.38804000	-28.42027000
131.99999233	0.00000000	-58.12622000	-28.83858000
132.19999232	0.00000000	-58.87672000	-29.58292000
132.39999231	0.00000000	-59.66412000	-29.95817000
132.59999230	0.00000000	-60.03937000	-29.95817000
132.79999229	0.00000000	-60.08243000	-29.58292000
132.99999227	0.00000000	-60.08243000	-28.79552000
133.19999226	0.00000000	-60.08243000	-28.04503000
133.39999225	0.00000000	-60.08243000	-27.21457000
133.59999224	0.00000000	-60.03937000	-26.51329000
133.79999223	0.00000000	-59.70718000	-26.10113000
133.99999222	0.00000000	-59.29502000	-26.46407000
134.19999220	0.00000000	-59.28888000	-26.83932000
134.39999219	0.00000000	-58.91978000	-27.30684000
134.59999218	0.00000000	-58.96899000	-28.42027000
134.79999217	0.00000000	-59.66412000	-29.53371000
134.99999216	0.00000000	-59.99015000	-29.95817000
135.19999214	0.00000000	-59.66412000	-30.00123000
135.39999213	0.00000000	-58.91978000	-29.95817000
135.59999212	0.00000000	-58.54454000	-29.58292000
135.79999211	0.00000000	-58.50147000	-28.79552000
135.99999210	0.00000000	-58.54454000	-28.04503000
136.19999208	0.00000000	-58.91978000	-27.25763000
136.39999207	0.00000000	-59.70718000	-26.88238000
136.59999206	0.00000000	-60.45767000	-26.83932000
136.79999205	0.00000000	-61.19586000	-26.83932000
136.99999204	0.00000000	-61.19586000	-26.88238000
137.19999203	0.00000000	-60.50073000	-27.25763000
137.39999201	0.00000000	-60.08243000	-28.00197000
137.59999200	0.00000000	-59.66412000	-28.42027000
137.79999199	0.00000000	-58.91978000	-28.83858000
137.99999198	0.00000000	-58.54454000	-29.58292000
138.19999197	0.00000000	-58.50147000	-29.95817000
138.39999195	0.00000000	-58.54454000	-29.95817000
138.59999194	0.00000000	-58.91978000	-29.58292000
138.79999193	0.00000000	-59.66412000	-28.83858000
138.99999192	0.00000000	-60.08243000	-28.42027000
139.19999191	0.00000000	-60.45767000	-28.00197000
139.39999189	0.00000000	-60.82677000	-27.21457000
139.59999188	0.00000000	-60.45767000	-26.46407000
139.79999187	0.00000000	-60.12549000	-25.72589000
139.99999186	0.00000000	-60.03937000	-25.72589000
140.19999185	0.00000000	-59.66412000	-26.46407000
140.39999184	0.00000000	-58.91978000	-27.21457000
140.59999182	0.00000000	-58.54454000	-28.04503000
140.79999181	0.00000000	-58.54454000	-28.79552000
140.99999180	0.00000000	-58.91978000	-29.58292000
141.19999179	0.00000000	-59.70718000	-30.00123000
141.39999178	0.00000000	-60.41461000	-30.32726000
141.59999176	0.00000000	-60.82677000	-30.32111000
141.79999175	0.00000000	-60.45767000	-29.17077000
141.99999174	0.00000000	-60.12549000	-28.08809000
142.19999173	0.00000000	-60.08243000	-27.25763000
142.39999172	0.00000000	-60.08243000	-26.88238000
142.59999170	0.00000000	-60.03937000	-26.83932000
142.79999169	0.00000000	-59.70718000	-26.93159000
142.99999168	0.00000000	-59.33809000	-27.67593000
143.19999167	0.00000000	-59.70718000	-29.16461000
143.39999166	0.00000000	-60.03937000	-29.95817000
143.59999165	0.00000000	-60.08243000	-30.41954000
143.79999163	0.00000000	-60.08243000	-31.11466000
143.99999162	0.00000000	-60.08243000	-31.11466000
144.19999161	0.00000000	-60.08243000	-30.37647000
144.39999160	0.00000000	-60.08243000	-29.62598000
144.59999159	0.00000000	-60.08243000	-28.79552000
144.79999157	0.00000000	-60.03937000	-28.04503000
144.99999156	0.00000000	-59.70718000	-27.25763000
145.19999155	0.00000000	-59.33809000	-26.93159000
145.39999154	0.00000000	-59.70718000	-27.25763000
145.59999153	0.00000000	-60.03937000	-28.00197000
145.79999151	0.00000000	-60.12549000	-28.42027000
145.99999150	0.00000000	-60.50073000	-28.83858000
146.19999149	0.00000000	-61.24508000	-29.58292000
146.39999148	0.00000000	-61.57111000	-29.95817000
146.59999147	0.00000000	-61.24508000	-30.00123000
146.79999146	0.00000000	-60.50073000	-29.95817000
146.99999144	0.00000000	-60.12549000	-29.58292000
147.19999143	0.00000000	-60.08243000	-28.83858000
147.39999142	0.00000000	-60.03937000	-28.46333000
147.59999141	0.00000000	-59.70718000	-28.37721000
147.79999140	0.00000000	-59.33809000	-28.00197000
147.99999138	0.00000000	-59.70718000	-27.30684000
148.19999137	0.00000000	-60.08243000	-27.30684000
148.39999136	0.00000000	-60.50073000	-28.00197000
148.59999135	0.00000000	-61.24508000	-28.37721000
148.79999134	0.00000000	-61.57111000	-28.42027000
148.99999132	0.00000000	-61.24508000	-28.42027000
149.19999131	0.00000000	-60.45767000	-28.42027000
149.39999130	0.00000000	-59.75024000	-28.42027000
149.59999129	0.00000000	-59.29502000	-28.42027000
149.79999128	0.00000000	-59.28888000	-28.42027000
149.99999127	0.00000000	-58.91978000	-28.42027000
150.19999125	0.00000000	-58.96899000	-28.42027000
150.39999124	0.00000000	-59.66412000	-28.37721000
150.59999123	0.00000000	-60.03937000	-28.00197000
150.79999122	0.00000000	-60.08243000	-27.25763000
150.99999121	0.00000000	-60.08243000	-26.88238000
151.19999119	0.00000000	-60.08243000	-26.88238000
151.39999118	0.00000000	-60.12549000	-27.25763000
151.59999117	0.00000000	-60.45767000	-28.00197000
151.79999116	0.00000000	-60.82677000	-28.37721000
151.99999115	0.00000000	-60.45767000	-28.42027000
152.19999113	0.00000000	-60.08243000	-28.42027000
152.39999112	0.00000000	-59.66412000	-28.42027000
152.59999111	0.00000000	-58.91978000	-28.42027000
152.79999110	0.00000000	-58.54454000	-28.42027000
152.99999109	0.00000000	-58.50147000	-28.42027000
153.19999108	0.00000000	-58.54454000	-28.42027000
153.39999106	0.00000000	-58.91978000	-28.42027000
153.59999105	0.00000000	-59.66412000	-28.42027000
153.79999104	0.00000000	-60.08243000	-28.42027000
153.99999103	0.00000000	-60.50073000	-28.42027000
154.19999102	0.00000000	-61.24508000	-28.42027000
154.39999100	0.00000000	-61.62032000	-28.42027000
154.59999099	0.00000000	-61.66338000	-28.42027000
154.79999098	0.00000000	-61.62032000	-28.42027000
154.99999097	0.00000000	-61.24508000	-28.42027000
155.19999096	0.00000000	-60.50073000	-28.42027000
155.39999094	0.00000000	-60.12549000	-28.46333000
155.59999093	0.00000000	-60.08243000	-28.79552000
155.79999092	0.00000000	-60.08243000	-29.16461000
155.99999091	0.00000000	-60.08243000	-28.79552000
156.19999090	0.00000000	-60.08243000	-28.46333000
156.39999089	0.00000000	-60.08243000	-28.42027000
156.59999087	0.00000000	-60.08243000	-28.42027000
156.79999086	0.00000000	-60.12549000	-28.42027000
156.99999085	0.00000000	-60.50073000	-28.42027000
157.19999084	0.00000000	-61.24508000	-28.42027000
157.39999083	0.00000000	-61.62032000	-28.42027000
157.59999081	0.00000000	-61.62032000	-28.42027000
157.79999080	0.00000000	-61.24508000	-28.42027000
157.99999079	0.00000000	-60.50073000	-28.42027000
158.19999078	0.00000000	-60.12549000	-28.46333000
158.39999077	0.00000000	-60.08243000	-28.83858000
158.59999075	0.00000000	-60.08243000	-29.58292000
158.79999074	0.00000000	-60.08243000	-29.90895000
158.99999073	0.00000000	-60.08243000	-29.58292000
159.19999072	0.00000000	-60.08243000	-28.83858000
159.39999071	0.00000000	-60.08243000	-28.46333000
159.59999070	0.00000000	-60.12549000	-28.42027000
159.79999068	0.00000000	-60.50073000	-28.37721000
159.99999067	0.00000000	-61.24508000	-28.00197000
160.19999066	0.00000000	-61.57111000	-27.25763000
160.39999065	0.00000000	-61.28814000	-26.93159000
160.59999064	0.00000000	-60.91904000	-27.25763000
160.79999062	0.00000000	-61.28814000	-28.00197000
160.99999061	0.00000000	-61.57111000	-28.42027000
161.19999060	0.00000000	-61.24508000	-28.83858000
161.39999059	0.00000000	-60.50073000	-29.58292000
161.59999058	0.00000000	-60.12549000	-29.95817000
161.79999056	0.00000000	-60.08243000	-29.95817000
161.99999055	0.00000000	-60.08243000	-29.58292000
162.19999054	0.00000000	-60.08243000	-28.83858000
162.39999053	0.00000000	-60.08243000	-28.46333000
162.59999052	0.00000000	-60.08243000	-28.42027000
162.79999051	0.00000000	-60.12549000	-28.42027000
162.99999049	0.00000000	-60.45767000	-28.42027000
163.19999048	0.00000000	-60.86983000	-28.42027000
163.39999047	0.00000000	-60.87598000	-28.42027000
163.59999046	0.00000000	-61.28814000	-28.42027000
163.79999045	0.00000000	-61.62032000	-28.42027000
163.99999043	0.00000000	-61.66338000	-28.42027000
164.19999042	0.00000000	-61.66338000	-28.42027000
164.39999041	0.00000000	-61.62032000	-28.46333000
164.59999040	0.00000000	-61.24508000	-28.83858000
164.79999039	0.00000000	-60.50073000	-29.53371000
164.99999037	0.00000000	-60.12549000	-29.53371000
165.19999036	0.00000000	-60.08243000	-28.88779000
165.39999035	0.00000000	-60.08243000	-28.88779000
165.59999034	0.00000000	-60.08243000	-29.53371000
165.79999033	0.00000000	-60.08243000	-29.53371000
165.99999032	0.00000000	-60.12549000	-28.83858000
166.19999030	0.00000000	-60.50073000	-28.46333000
166.39999029	0.00000000	-61.24508000	-28.42027000
166.59999028	0.00000000	-61.62032000	-28.42027000
166.79999027	0.00000000	-61.66338000	-28.42027000
166.99999026	0.00000000	-61.66338000	-28.42027000
167.19999024	0.00000000	-61.66338000	-28.42027000
167.39999023	0.00000000	-61.62032000	-28.42027000
167.59999022	0.00000000	-61.24508000	-28.42027000
167.79999021	0.00000000	-60.50073000	-28.42027000
167.99999020	0.00000000	-60.12549000	-28.42027000
168.19999018	0.00000000	-60.08243000	-28.42027000
168.39999017	0.00000000	-60.08243000	-28.42027000
168.59999016	0.00000000	-60.08243000	-28.42027000
168.79999015	0.00000000	-60.08243000	-28.42027000
168.99999014	0.00000000	-60.08243000	-28.42027000
169.19999013	0.00000000	-60.12549000	-28.42027000
169.39999011	0.00000000	-60.50073000	-28.42027000
169.59999010	0.00000000	-61.24508000	-28.42027000
169.79999009	0.00000000	-61.62032000	-28.42027000
169.99999008	0.00000000	-61.66338000	-28.42027000
170.19999007	0.00000000	-61.66338000	-28.42027000
170.39999005	0.00000000	-61.66338000	-28.42027000
170.59999004	0.00000000	-61.62032000	-28.42027000
170.79999003	0.00000000	-61.24508000	-28.42027000
170.99999002	0.00000000	-60.50073000	-28.42027000
171.19999001	0.00000000	-60.12549000	-28.42027000
171.39998999	0.00000000	-60.08243000	-28.42027000
171.59998998	0.00000000	-60.08243000	-28.42027000
171.79998997	0.00000000	-60.08243000	-28.46333000
171.99998996	0.00000000	-60.12549000	-28.83858000
172.19998995	0.00000000	-60.50073000	-29.58292000
172.39998994	0.00000000	-61.24508000	-29.90895000
172.59998992	0.00000000	-61.62032000	-29.58292000
172.79998991	0.00000000	-61.66338000	-28.83858000
172.99998990	0.00000000	-61.66338000	-28.46333000
173.19998989	0.00000000	-61.66338000	-28.42027000
173.39998988	0.00000000	-61.62032000	-28.42027000
173.59998986	0.00000000	-61.28814000	-28.46333000
173.79998985	0.00000000	-60.91904000	-28.79552000
173.99998984	0.00000000	-61.24508000	-29.20767000
174.19998983	0.00000000	-61.24508000	-29.21383000
174.39998982	0.00000000	-60.91904000	-29.62598000
174.59998980	0.00000000	-61.28814000	-29.95817000
174.79998979	0.00000000	-61.62032000	-30.00123000
174.99998978	0.00000000	-61.66338000	-30.00123000
175.19998977	0.00000000	-61.66338000	-30.00123000
175.39998976	0.00000000	-61.66338000	-30.00123000
175.59998975	0.00000000	-61.66338000	-30.00123000
175.79998973	0.00000000	-61.66338000	-30.00123000
175.99998972	0.00000000	-61.66338000	-29.95817000
176.19998971	0.00000000	-61.66338000	-29.58292000
176.39998970	0.00000000	-61.66338000	-28.83858000
176.59998969	0.00000000	-61.66338000	-28.46333000
176.79998967	0.00000000	-61.66338000	-28.46333000
176.99998966	0.00000000	-61.66338000	-28.83858000
177.19998965	0.00000000	-61.66338000	-29.58292000
177.39998964	0.00000000	-61.66338000	-29.95817000
177.59998963	0.00000000	-61.66338000	-30.00123000
177.79998961	0.00000000	-61.66338000	-30.00123000
177.99998960	0.00000000	-61.66338000	-30.00123000
178.19998959	0.00000000	-61.66338000	-29.95817000
178.39998958	0.00000000	-61.66338000	-29.58292000
178.59998957	0.00000000	-61.66338000	-28.83858000
178.79998956	0.00000000	-61.62032000	-28.46333000
178.99998954	0.00000000	-61.28814000	-28.42027000
179.19998953	0.00000000	-60.91904000	-28.42027000
179.39998952	0.00000000	-61.28814000	-28.42027000
179.59998951	0.00000000	-61.62032000	-28.42027000
179.79998950	0.00000000	-61.66338000	-28.42027000
179.99998948	0.00000000	-61.66338000	-28.46333000
180.19998947	0.00000000	-61.66338000	-28.79552000
180.39998946	0.00000000	-61.66338000	-29.16461000
180.59998945	0.00000000	-61.66338000	-28.79552000
180.79998944	0.00000000	-61.66338000	-28.46333000
180.99998942	0.00000000	-61.66338000	-28.42027000
181.19998941	0.00000000	-61.66338000	-28.42027000
181.39998940	0.00000000	-61.62032000	-28.42027000
181.59998939	0.00000000	-61.28814000	-28.42027000
181.79998938	0.00000000	-60.91904000	-28.42027000
181.99998937	0.00000000	-61.28814000	-28.42027000
182.19998935	0.00000000	-61.62032000	-28.42027000
182.39998934	0.00000000	-61.66338000	-28.42027000
182.59998933	0.00000000	-61.62032000	-28.42027000
182.79998932	0.00000000	-61.28814000	-28.42027000
182.99998931	0.00000000	-60.91904000	-28.42027000
183.19998929	0.00000000	-61.24508000	-28.42027000
183.39998928	0.00000000	-61.24508000	-28.46333000
183.59998927	0.00000000	-60.91904000	-28.83858000
183.79998926	0.00000000	-61.28814000	-29.53371000
183.99998925	0.00000000	-61.62032000	-29.53371000
184.19998923	0.00000000	-61.66338000	-28.83858000
184.39998922	0.00000000	-61.66338000	-28.46333000
184.59998921	0.00000000	-61.66338000	-28.42027000
184.79998920	0.00000000	-61.66338000	-28.42027000
184.99998919	0.00000000	-61.66338000	-28.42027000
185.19998918	0.00000000	-61.66338000	-28.42027000
185.39998916	0.00000000	-61.66338000	-28.42027000
185.59998915	0.00000000	-61.66338000	-28.42027000
185.79998914	0.00000000	-61.66338000	-28.46333000
185.99998913	0.00000000	-61.66338000	-28.83858000
186.19998912	0.00000000	-61.66338000	-29.58292000
186.39998910	0.00000000	-61.66338000	-29.95817000
186.59998909	0.00000000	-61.66338000	-30.00123000
186.79998908	0.00000000	-61.66338000	-29.95817000
186.99998907	0.00000000	-61.66338000	-29.62598000
187.19998906	0.00000000	-61.66338000	-29.21383000
187.39998904	0.00000000	-61.66338000	-29.20767000
187.59998903	0.00000000	-61.70644000	-28.79552000
187.79998902	0.00000000	-62.03863000	-28.46333000
187.99998901	0.00000000	-62.40772000	-28.42027000
188.19998900	0.00000000	-62.03863000	-28.42027000
188.39998899	0.00000000	-61.70644000	-28.46333000
188.59998897	0.00000000	-61.66338000	-28.83858000
188.79998896	0.00000000	-61.66338000	-29.58292000
188.99998895	0.00000000	-61.66338000	-29.95817000
189.19998894	0.00000000	-61.66338000	-30.00123000
189.39998893	0.00000000	-61.66338000	-30.00123000
189.59998891	0.00000000	-61.66338000	-30.00123000
189.79998890	0.00000000	-61.66338000	-30.00123000
189.99998889	0.00000000	-61.70644000	-30.00123000
190.19998888	0.00000000	-62.08169000	-29.95817000
190.39998887	0.00000000	-62.77681000	-29.58292000
190.59998885	0.00000000	-62.77681000	-28.83858000
190.79998884	0.00000000	-62.08169000	-28.46333000
190.99998883	0.00000000	-61.70644000	-28.42027000
191.19998882	0.00000000	-61.66338000	-28.42027000
191.39998881	0.00000000	-61.66338000	-28.46333000
191.59998880	0.00000000	-61.66338000	-28.83858000
191.79998878	0.00000000	-61.66338000	-29.58292000
191.99998877	0.00000000	-61.66338000	-29.95817000
192.19998876	0.00000000	-61.66338000	-30.00123000
192.39998875	0.00000000	-61.66338000	-30.00123000
192.59998874	0.00000000	-61.66338000	-30.00123000
192.79998872	0.00000000	-61.66338000	-30.00123000
192.99998871	0.00000000	-61.66338000	-30.00123000
193.19998870	0.00000000	-61.70644000	-30.00123000
193.39998869	0.00000000	-62.08169000	-29.95817000
193.59998868	0.00000000	-62.82603000	-29.58292000
193.79998866	0.00000000	-63.15207000	-28.83858000
193.99998865	0.00000000	-62.82603000	-28.46333000
194.19998864	0.00000000	-62.08169000	-28.42027000
194.39998863	0.00000000	-61.70644000	-28.42027000
194.59998862	0.00000000	-61.66338000	-28.42027000
194.79998861	0.00000000	-61.66338000	-28.42027000
194.99998859	0.00000000	-61.66338000	-28.42027000
195.19998858	0.00000000	-61.66338000	-28.42027000
195.39998857	0.00000000	-61.66338000	-28.42027000
195.59998856	0.00000000	-61.66338000	-28.42027000
195.79998855	0.00000000	-61.66338000	-28.42027000
195.99998853	0.00000000	-61.66338000	-28.42027000
