Time	Channel A	Channel B	Channel C
(us)	(V)	(mV)	(mV)

-4.49999956	0.00000000	-7.90477300	-8.26771600
-4.29999957	0.00000000	-7.90477300	-8.67987200
-4.09999958	0.00000000	-7.90477300	-8.64296200
-3.89999959	0.00000000	-7.90477300	-8.67987200
-3.69999960	0.00000000	-7.90477300	-8.26771600
-3.49999962	0.00000000	-7.90477300	-7.93553100
-3.29999963	0.00000000	-7.94783400	-7.93553100
-3.09999964	0.00000000	-8.28001900	-8.31077700
-2.89999965	0.00000000	-8.64911400	-9.00590400
-2.69999966	0.00000000	-8.28001900	-9.00590400
-2.49999968	0.00000000	-7.94783400	-8.35998900
-2.29999969	0.00000000	-7.90477300	-8.35998900
-2.09999970	0.00000000	-7.90477300	-9.00590400
-1.89999971	0.00000000	-7.90477300	-9.00590400
-1.69999972	0.00000000	-7.90477300	-8.31077700
-1.49999973	0.00000000	-7.90477300	-7.93553100
-1.29999975	0.00000000	-7.90477300	-7.93553100
-1.09999976	0.00000000	-7.94783400	-8.26771600
-0.89999977	0.00000000	-8.28001900	-8.67987200
-0.69999978	0.00000000	-8.64911400	-8.68602300
-0.49999979	0.00000000	-8.28001900	-9.05511800
-0.29999981	0.31803640	-7.94783400	-9.05511800
-0.09999982	0.63668800	-7.90477300	-8.68602300
0.10000017	0.95533960	-7.90477300	-8.67987200
0.30000016	1.11466500	-7.94783400	-8.31077700
0.50000015	0.79601380	-8.28001900	-8.35998900
0.70000013	0.31803640	-8.64911400	-9.05511800
0.90000012	-0.63668800	-8.28001900	-9.43036400
1.10000011	-1.59264300	-7.94783400	-9.43036400
1.30000010	-2.38927200	-7.90477300	-9.05511800
1.50000009	-2.86724900	-7.90477300	-8.31077700
1.70000008	-2.38927200	-7.90477300	-7.93553100
1.90000006	-1.11466500	-7.90477300	-7.89247000
2.10000005	0.79601380	-7.90477300	-7.89247000
2.30000004	2.86724900	-7.90477300	-7.89247000
2.50000003	4.61921700	-7.90477300	-7.89247000
2.70000002	5.41584600	-7.94783400	-7.93553100
2.90000000	4.77854300	-8.28001900	-8.31077700
3.09999999	2.70792300	-8.64911400	-9.05511800
3.29999998	-0.31803640	-8.32308000	-9.38115100
3.49999997	-3.82258900	-8.32308000	-9.05511800
3.69999996	-6.69045300	-8.64911400	-8.31077700
3.89999994	-7.96444400	-8.28001900	-7.93553100
4.09999993	-7.32714100	-7.94783400	-7.89247000
4.29999992	-4.77854300	-7.90477300	-7.89247000
4.49999991	-0.63668800	-7.90477300	-7.93553100
4.69999990	3.82258900	-7.94783400	-8.26771600
4.89999989	7.48646600	-8.32308000	-8.67987200
5.09999987	9.39837600	-9.01820900	-8.68602300
5.29999986	8.92039900	-9.06742000	-9.09817800
5.49999985	6.21247500	-8.69832600	-9.43036400
5.69999984	1.91129400	-8.73523500	-9.51648500
5.89999983	-2.86724900	-8.69832600	-9.84867000
6.09999981	-6.84916400	-9.06742000	-10.16855000
6.29999980	-9.23905000	-9.01820900	-9.42421200
6.49999979	-9.07972400	-8.32308000	-8.35998900
6.69999978	-6.84916400	-7.94783400	-7.93553100
6.89999977	-3.02657500	-7.90477300	-7.89247000
7.09999975	1.43331700	-7.90477300	-7.89247000
7.29999974	5.09719500	-7.90477300	-7.93553100
7.49999973	7.32714100	-7.90477300	-8.31077700
7.69999972	7.64579200	-7.90477300	-9.05511800
7.89999971	6.05315000	-7.90477300	-9.43036400
8.09999970	3.18590100	-7.90477300	-9.47342500
8.29999968	-0.15871060	-7.90477300	-9.47342500
8.49999967	-3.02657500	-7.90477300	-9.43036400
8.69999966	-4.77854300	-7.90477300	-9.05511800
8.89999965	-5.09719500	-7.90477300	-8.31077700
9.09999964	-4.30056600	-7.90477300	-7.93553100
9.29999962	-2.54859700	-7.90477300	-7.89247000
9.49999961	-0.47736220	-7.90477300	-7.93553100
9.69999960	1.27399100	-7.90477300	-8.26771600
9.89999959	2.22994600	-7.90477300	-8.63681000
10.09999958	2.54859700	-7.90477300	-8.31077700
10.29999956	2.22994600	-7.90477300	-8.35998900
10.49999955	1.27399100	-7.90477300	-9.05511800
10.69999954	0.47736220	-7.90477300	-9.38115100
10.89999953	-0.31803640	-7.90477300	-9.05511800
11.09999952	-0.79601380	-7.90477300	-8.31077700
11.29999951	-0.95533960	-7.90477300	-7.93553100
11.49999949	-0.95533960	-7.90477300	-7.93553100
11.69999948	-0.63668800	-7.94783400	-8.31077700
11.89999947	-0.31803640	-8.32308000	-9.00590400
12.09999946	-0.15871060	-9.06742000	-9.05511800
12.29999945	-0.15871060	-9.39345400	-8.68602300
12.49999943	0.00000000	-9.06742000	-8.72293300
12.69999942	0.00000000	-8.32308000	-8.68602300
12.89999941	0.00000000	-7.94783400	-9.05511800
13.09999940	0.15871060	-7.90477300	-9.00590400
13.29999939	0.15871060	-7.90477300	-8.35998900
13.49999937	0.00000000	-7.90477300	-8.35998900
13.69999936	0.00000000	-7.90477300	-9.05511800
13.89999935	0.00000000	-7.94783400	-9.43036400
14.09999934	-0.15871060	-8.28001900	-9.47342500
14.29999933	-0.15871060	-8.64911400	-9.47342500
14.49999932	-0.15871060	-8.28001900	-9.47342500
14.69999930	0.00000000	-7.94783400	-9.43036400
14.89999929	0.00000000	-7.90477300	-9.09817800
15.09999928	0.00000000	-7.90477300	-8.68602300
15.29999927	0.00000000	-7.90477300	-8.67987200
15.49999926	0.00000000	-7.94783400	-8.31077700
15.69999924	0.00000000	-8.32308000	-8.35998900
15.89999923	0.00000000	-9.06742000	-9.00590400
16.09999922	0.00000000	-9.39345400	-9.05511800
16.29999921	0.00000000	-9.06742000	-8.68602300
16.49999920	0.00000000	-8.32308000	-8.72293300
16.69999919	-0.15871060	-7.94783400	-8.64296200
16.89999917	0.00000000	-7.86171200	-8.67987200
17.09999916	0.00000000	-7.48646600	-8.31077700
17.29999915	0.00000000	-6.74212600	-8.31077700
17.49999914	0.00000000	-6.36687900	-8.63681000
17.69999913	0.00000000	-6.36687900	-8.26771600
17.89999911	0.00000000	-6.79133800	-7.98474400
18.09999910	0.00000000	-7.94783400	-8.26771600
18.29999909	0.00000000	-9.48572700	-8.63681000
18.49999908	0.00000000	-11.06668000	-8.26771600
18.69999907	0.00000000	-12.60458000	-7.98474400
18.89999905	0.00000000	-13.71801000	-8.31077700
19.09999904	0.00000000	-13.67495000	-9.05511800
19.29999903	0.00000000	-12.09400000	-9.43036400
19.49999902	0.00000000	-9.01820900	-9.43036400
19.69999901	0.00000000	-5.16117100	-9.05511800
19.89999900	0.00000000	-1.67322800	-8.35998900
20.09999898	0.00000000	1.07037400	-8.35998900
20.29999897	0.00000000	2.56520700	-9.05511800
20.49999896	0.00000000	2.05462600	-9.43036400
20.69999895	0.00000000	-1.43946800	-9.47342500
20.89999894	0.00000000	-7.66486200	-9.47342500
21.09999892	0.00000000	-14.97908000	-9.43036400
21.29999891	0.00000000	-22.36712000	-9.05511800
21.49999890	0.00000000	-27.63287000	-8.35998900
21.69999889	0.00000000	-29.15846000	-8.35998900
21.89999888	0.00000000	-25.58440000	-9.05511800
22.09999886	0.00000000	-17.48893000	-9.43036400
22.29999885	0.00000000	-6.18848400	-9.47342500
22.49999884	0.00000000	6.14542300	-9.47342500
22.69999883	0.00000000	16.93528000	-9.47342500
22.89999882	0.00000000	22.98843000	-9.43036400
23.09999881	0.00000000	22.14567000	-9.05511800
23.29999879	0.00000000	13.58883000	-8.31077700
23.49999878	0.00000000	-1.10728300	-7.89247000
23.69999877	0.00000000	-18.88533000	-7.47416300
23.89999876	0.00000000	-35.86368000	-6.77903500
24.09999875	0.00000000	-47.73622000	-6.77903500
24.29999873	0.00000000	-51.17495000	-7.51722400
24.49999872	0.00000000	-44.52510000	-8.31077700
24.69999871	0.00000000	-29.07234000	-9.51648500
24.89999870	0.00000000	-7.81250000	-11.04823000
25.09999869	0.00000000	14.14862000	-12.58612000
25.29999867	0.00000000	31.54527000	-13.74262000
25.49999866	0.00000000	40.43430000	-14.07480000
25.69999865	0.00000000	38.81028000	-13.28125000
25.89999864	0.00000000	26.38410000	-10.91289000
26.09999863	0.00000000	5.16732200	-7.43110200
26.29999862	0.00000000	-19.53740000	-3.20497000
26.49999860	0.00000000	-41.91683000	0.60285430
26.69999859	0.00000000	-56.98818000	2.50984200
26.89999858	0.00000000	-60.85137000	2.14074800
27.09999857	0.00000000	-53.13115000	-0.64591530
27.29999856	0.00000000	-35.35310000	-5.70866100
27.49999854	0.00000000	-11.44193000	-12.72146000
27.69999853	0.00000000	12.47539000	-20.39247000
27.89999852	0.00000000	31.08391000	-26.89468000
28.09999851	0.00000000	40.39124000	-29.91511000
28.29999850	0.00000000	38.85334000	-28.34030000
28.49999848	0.00000000	26.93774000	-22.10876000
28.69999847	0.00000000	7.63410400	-12.03248000
28.89999846	0.00000000	-14.00714000	-0.04306102
29.09999845	0.00000000	-33.72908000	11.47884000
29.29999844	0.00000000	-46.89345000	19.51279000
29.49999843	0.00000000	-50.89813000	21.41978000
29.69999841	0.00000000	-46.29060000	16.77534000
29.89999840	0.00000000	-34.28272000	6.27460600
30.09999839	0.00000000	-17.30438000	-8.40305000
30.29999838	0.00000000	0.42445860	-24.20029000
30.49999837	0.00000000	14.79454000	-37.34621000
30.69999835	0.00000000	23.03149000	-45.06028000
30.89999834	0.00000000	24.61245000	-45.76156000
31.09999833	0.00000000	19.58661000	-38.37352000
31.29999832	0.00000000	8.79675100	-24.10802000
31.49999831	0.00000000	-4.69980300	-6.31766700
31.69999829	0.00000000	-17.90723000	11.43578000
31.89999828	0.00000000	-28.37721000	25.31988000
32.09999827	0.00000000	-34.19045000	31.87746000
32.29999826	0.00000000	-34.23966000	29.97047000
32.49999825	0.00000000	-28.88779000	19.88804000
32.69999824	0.00000000	-19.99877000	3.72170300
32.89999822	0.00000000	-9.52879000	-14.85605000
33.09999821	0.00000000	0.51673230	-31.87131000
33.29999820	0.00000000	7.86786400	-44.22367000
33.49999819	0.00000000	10.98671000	-48.86811000
33.69999818	0.00000000	9.49187900	-45.01722000
33.89999816	0.00000000	4.09694900	-33.81520000
34.09999815	0.00000000	-3.62942900	-17.23056000
34.29999814	0.00000000	-12.09400000	0.51673230
34.49999813	0.00000000	-19.02067000	15.61270000
34.69999812	0.00000000	-22.55782000	25.27682000
34.89999810	0.00000000	-22.55782000	27.23302000
35.09999809	0.00000000	-19.11294000	21.46899000
35.29999808	0.00000000	-12.97982000	9.52263600
35.49999807	0.00000000	-6.45915300	-5.89320800
35.69999806	0.00000000	-1.02116100	-20.95226000
35.89999805	0.00000000	2.05462600	-32.56643000
36.09999803	0.00000000	2.05462600	-38.33046000
36.29999802	0.00000000	-0.97194880	-36.79257000
36.49999801	0.00000000	-5.94857300	-28.38337000
36.69999800	0.00000000	-10.97441000	-15.74188000
36.89999799	0.00000000	-15.25591000	-2.63902500
37.09999797	0.00000000	-17.90723000	7.76943800
37.29999796	0.00000000	-17.90723000	13.15207000
37.49999795	0.00000000	-15.25591000	12.03863000
37.69999794	0.00000000	-10.97441000	5.20423200
37.89999793	0.00000000	-5.99163300	-4.77977300
38.09999791	0.00000000	-1.39640700	-15.14518000
38.29999790	0.00000000	0.89197830	-23.17913000
38.49999789	0.00000000	0.60900590	-26.24877000
38.69999788	0.00000000	-1.71628900	-23.60359000
38.89999787	0.00000000	-5.16117100	-16.35089000
39.09999786	0.00000000	-9.11048200	-6.77903500
39.29999784	0.00000000	-12.97982000	1.91314000
39.49999783	0.00000000	-16.46161000	6.64370100
39.69999782	0.00000000	-18.32554000	6.32997000
39.89999781	0.00000000	-17.99951000	2.79281500
40.09999780	0.00000000	-15.67421000	-4.63828700
40.29999778	0.00000000	-12.22933000	-14.85605000
40.49999777	0.00000000	-8.32308000	-23.64665000
40.69999776	0.00000000	-4.83513700	-28.24803000
40.89999775	0.00000000	-2.04847400	-27.49754000
41.09999774	0.00000000	-0.17839570	-21.37057000
41.29999772	0.00000000	0.23375980	-12.16781000
41.49999771	0.00000000	-1.34104300	-2.12844500
41.69999770	0.00000000	-3.99852300	6.27460600
41.89999769	0.00000000	-7.52952700	10.54995000
42.09999768	0.00000000	-10.97441000	9.80561000
42.29999767	0.00000000	-13.71801000	4.78592500
42.49999765	0.00000000	-15.29897000	-3.66633800
42.69999764	0.00000000	-15.67421000	-13.23819000
42.89999763	0.00000000	-14.92372000	-20.95226000
43.09999762	0.00000000	-12.97982000	-25.22145000
43.29999761	0.00000000	-10.69144000	-25.22145000
43.49999759	0.00000000	-8.37229300	-21.08760000
43.69999758	0.00000000	-6.83439900	-14.58538000
43.89999757	0.00000000	-6.32381900	-7.98474400
44.09999756	0.00000000	-5.90551100	-2.17765700
44.29999755	0.00000000	-5.16117100	1.67322800
44.49999753	0.00000000	-4.78592500	2.46678100
44.69999752	0.00000000	-4.74286400	0.60285430
44.89999751	0.00000000	-4.74286400	-3.20497000
45.09999750	0.00000000	-4.78592500	-7.43110200
45.29999749	0.00000000	-5.21038300	-10.96211000
45.49999748	0.00000000	-6.45915300	-13.69956000
45.69999746	0.00000000	-8.83366100	-15.23130000
45.89999745	0.00000000	-12.64764000	-15.23130000
46.09999744	0.00000000	-16.46161000	-13.69956000
46.29999743	0.00000000	-18.79306000	-11.04823000
46.49999742	0.00000000	-19.53125000	-8.35383800
46.69999740	0.00000000	-17.90723000	-6.36072800
46.89999739	0.00000000	-13.67495000	-4.77977300
47.09999738	0.00000000	-7.86171200	-3.66633800
47.29999737	0.00000000	-1.62401600	-3.70939900
47.49999736	0.00000000	4.14616100	-5.29035400
47.69999734	0.00000000	7.91092400	-8.26771600
47.89999733	0.00000000	7.91092400	-11.32505000
48.09999732	0.00000000	4.05388800	-12.91215000
48.29999731	0.00000000	-2.55290300	-13.79183000
48.49999730	0.00000000	-11.10974000	-14.07480000
48.69999729	0.00000000	-19.90650000	-13.28125000
48.89999727	0.00000000	-26.46407000	-10.96211000
49.09999726	0.00000000	-28.74631000	-7.89247000
49.29999725	0.00000000	-26.46407000	-4.82283400
49.49999724	0.00000000	-19.86343000	-2.50369100
49.69999723	0.00000000	-10.59916000	-1.75319900
49.89999721	0.00000000	-0.59670270	-2.50369100
50.09999720	0.00000000	7.44955700	-4.87204700
50.29999719	0.00000000	10.93750000	-8.31077700
50.49999718	0.00000000	9.44881800	-12.21087000
50.69999717	0.00000000	3.67864200	-15.64960000
50.89999715	0.00000000	-4.83513700	-17.92569000
51.09999714	0.00000000	-14.05020000	-17.88263000
51.29999713	0.00000000	-21.76427000	-15.23130000
51.49999712	0.00000000	-25.58440000	-11.00517000
51.69999711	0.00000000	-24.88312000	-6.40378900
51.89999710	0.00000000	-19.90650000	-2.50369100
52.09999708	0.00000000	-12.60458000	-0.17839570
52.29999707	0.00000000	-4.87819900	0.55979330
52.49999706	0.00000000	1.63016700	-1.02116100
52.69999705	0.00000000	4.70595500	-4.77977300
52.89999704	0.00000000	3.63558100	-9.00590400
53.09999702	0.00000000	-0.59670270	-12.53691000
53.29999701	0.00000000	-6.74212600	-15.23130000
53.49999700	0.00000000	-13.20743000	-16.30167000
53.69999699	0.00000000	-17.48893000	-14.85605000
53.89999698	0.00000000	-18.74385000	-11.84178000
54.09999696	0.00000000	-17.90723000	-9.14124000
54.29999695	0.00000000	-14.41314000	-6.77903500
54.49999694	0.00000000	-8.74138700	-5.24729300
54.69999693	0.00000000	-3.75861200	-4.87204700
54.89999692	0.00000000	-0.64591530	-5.61638700
55.09999691	0.00000000	0.14148620	-7.51722400
55.29999689	0.00000000	-1.75935000	-9.38115100
55.49999688	0.00000000	-5.21038300	-10.53765000
55.69999687	0.00000000	-9.48572700	-10.53765000
55.89999686	0.00000000	-13.67495000	-9.38115100
56.09999685	0.00000000	-16.32628000	-7.47416300
56.29999683	0.00000000	-16.36934000	-5.24729300
56.49999682	0.00000000	-14.09326000	-4.17691900
56.69999681	0.00000000	-10.64838000	-5.29035400
56.89999680	0.00000000	-6.79133800	-7.93553100
57.09999679	0.00000000	-3.71555100	-11.04823000
57.29999677	0.00000000	-2.17765700	-14.16092000
57.49999676	0.00000000	-2.55290300	-16.76919000
57.69999675	0.00000000	-4.78592500	-17.46432000
57.89999674	0.00000000	-7.48646600	-15.14518000
58.09999673	0.00000000	-9.86097400	-10.58686000
58.29999672	0.00000000	-12.13706000	-5.15501900
58.49999670	0.00000000	-13.25664000	-0.13533460
58.69999669	0.00000000	-12.55536000	3.67249000
58.89999668	0.00000000	-11.02362000	4.74286400
59.09999667	0.00000000	-9.11048200	2.04847400
59.29999666	0.00000000	-7.20964500	-3.70939900
59.49999664	0.00000000	-6.41609200	-11.00517000
59.69999663	0.00000000	-6.36687900	-17.92569000
59.89999662	0.00000000	-6.79133800	-22.57628000
60.09999661	0.00000000	-7.94783400	-24.10802000
60.29999660	0.00000000	-9.44266700	-22.10876000
60.49999658	0.00000000	-10.59916000	-16.35089000
60.69999657	0.00000000	-10.93135000	-8.26771600
60.89999656	0.00000000	-10.23007000	-0.22145670
61.09999655	0.00000000	-8.69832600	5.94857300
61.29999654	0.00000000	-7.52952700	8.23080600
61.49999653	0.00000000	-6.32381900	6.36687900
61.69999651	0.00000000	-5.25344500	0.93503930
61.89999650	0.00000000	-5.25344500	-6.77903500
62.09999649	0.00000000	-6.41609200	-15.23130000
62.29999648	0.00000000	-8.32308000	-22.15797000
62.49999647	0.00000000	-10.64838000	-25.63976000
62.69999645	0.00000000	-12.55536000	-25.27067000
62.89999644	0.00000000	-13.71801000	-20.99532000
63.09999643	0.00000000	-13.67495000	-13.74262000
63.29999642	0.00000000	-12.13706000	-5.62253900
63.49999641	0.00000000	-9.48572700	1.30413400
63.69999639	0.00000000	-6.79133800	5.99163300
63.89999638	0.00000000	-4.83513700	7.11122000
64.09999637	0.00000000	-3.67249000	4.82898600
64.29999636	0.00000000	-3.67249000	-0.55364170
64.49999635	0.00000000	-4.83513700	-7.47416300
64.69999634	0.00000000	-6.79133800	-14.03174000
64.89999632	0.00000000	-9.48572700	-19.08834000
65.09999631	0.00000000	-12.13706000	-21.46284000
65.29999630	0.00000000	-13.67495000	-21.50590000
65.49999629	0.00000000	-13.71801000	-19.50664000
65.69999628	0.00000000	-12.55536000	-15.28051000
65.89999626	0.00000000	-10.64838000	-9.93479300
66.09999625	0.00000000	-8.32308000	-5.24729300
66.29999624	0.00000000	-6.45915300	-1.71013800
66.49999623	0.00000000	-5.67175200	0.60285430
66.69999622	0.00000000	-6.41609200	1.02116100
66.89999620	0.00000000	-7.90477300	-0.09227362
67.09999619	0.00000000	-9.44266700	-2.04232300
67.29999618	0.00000000	-10.59916000	-4.77977300
67.49999617	0.00000000	-10.97441000	-7.89247000
67.69999616	0.00000000	-10.59916000	-11.04823000
67.89999615	0.00000000	-9.44266700	-14.16092000
68.09999613	0.00000000	-7.86171200	-16.85531000
68.29999612	0.00000000	-5.99163300	-18.39321000
68.49999611	0.00000000	-4.50910400	-18.39321000
68.69999610	0.00000000	-4.92125900	-16.81225000
68.89999609	0.00000000	-6.79133800	-13.69956000
69.09999607	0.00000000	-9.52879000	-9.43036400
69.29999606	0.00000000	-12.60458000	-4.77977300
69.49999605	0.00000000	-15.29897000	-0.55364170
69.69999604	0.00000000	-16.74459000	2.14074800
69.89999603	0.00000000	-15.99409000	2.50984200
70.09999601	0.00000000	-12.93061000	0.60285430
70.29999600	0.00000000	-9.06742000	-3.29109200
70.49999599	0.00000000	-4.74286400	-8.31077700
70.69999598	0.00000000	-0.55364170	-13.69956000
70.89999597	0.00000000	2.09768700	-17.93184000
71.09999596	0.00000000	2.09768700	-19.88189000
71.29999594	0.00000000	-0.59670270	-19.50664000
71.49999593	0.00000000	-5.21038300	-16.81225000
71.69999592	0.00000000	-10.64838000	-12.58612000
71.89999591	0.00000000	-15.67421000	-7.93553100
72.09999590	0.00000000	-19.53125000	-3.70939900
72.29999588	0.00000000	-21.02608000	-1.01501000
72.49999587	0.00000000	-19.48819000	-0.55364170
72.69999586	0.00000000	-15.29897000	-1.71013800
72.89999585	0.00000000	-9.90403500	-4.03543200
73.09999584	0.00000000	-4.83513700	-7.47416300
73.29999582	0.00000000	-0.59670270	-10.49459000
73.49999581	0.00000000	1.72244100	-12.07554000
73.69999580	0.00000000	1.35334600	-12.11860000
73.89999579	0.00000000	-0.92888770	-11.00517000
74.09999578	0.00000000	-4.83513700	-9.51648500
74.29999577	0.00000000	-9.44266700	-8.35998900
74.49999575	0.00000000	-13.67495000	-7.98474400
74.69999574	0.00000000	-16.36934000	-8.35998900
74.89999573	0.00000000	-16.83686000	-9.51648500
75.09999572	0.00000000	-15.71727000	-11.00517000
75.29999571	0.00000000	-13.71801000	-12.11860000
75.49999569	0.00000000	-10.69144000	-12.11860000
75.69999568	0.00000000	-7.62795300	-10.91289000
75.89999567	0.00000000	-6.04084600	-8.58759800
76.09999566	0.00000000	-5.21038300	-5.15501900
76.29999565	0.00000000	-5.25344500	-2.12844500
76.49999563	0.00000000	-6.32381900	-0.55364170
76.69999562	0.00000000	-7.48646600	-0.59670270
76.89999561	0.00000000	-8.28001900	-2.54675200
77.09999560	0.00000000	-9.06742000	-6.40378900
77.29999559	0.00000000	-9.44266700	-11.04823000
77.49999558	0.00000000	-9.44266700	-15.69882000
77.69999556	0.00000000	-9.11048200	-19.50664000
77.89999555	0.00000000	-8.79060000	-20.99532000
78.09999554	0.00000000	-9.52879000	-19.50664000
78.29999553	0.00000000	-10.64838000	-15.60654000
78.49999552	0.00000000	-11.44193000	-10.21161000
78.69999550	0.00000000	-12.18012000	-4.04158400
78.89999549	0.00000000	-12.13706000	0.93503930
79.09999548	0.00000000	-10.97441000	3.67249000
79.29999547	0.00000000	-9.06742000	3.67249000
79.49999546	0.00000000	-6.74212600	0.97810030
79.69999544	0.00000000	-4.83513700	-3.62327700
79.89999543	0.00000000	-3.67249000	-9.05511800
80.09999542	0.00000000	-3.67249000	-14.07480000
80.29999541	0.00000000	-4.83513700	-17.97490000
80.49999540	0.00000000	-6.79133800	-19.88189000
80.69999539	0.00000000	-9.48572700	-19.55585000
80.89999537	0.00000000	-12.18012000	-17.23056000
81.09999536	0.00000000	-14.09326000	-13.74262000
81.29999535	0.00000000	-14.88066000	-9.47342500
81.49999534	0.00000000	-14.09326000	-5.19808000
81.69999533	0.00000000	-12.22933000	-1.75935000
81.89999531	0.00000000	-9.86097400	0.23375980
82.09999530	0.00000000	-7.52952700	0.28297240
82.29999529	0.00000000	-5.25344500	-0.51058070
82.49999528	0.00000000	-4.13385800	-2.50369100
82.69999527	0.00000000	-4.83513700	-5.93626900
82.89999525	0.00000000	-6.32381900	-9.42421200
83.09999524	0.00000000	-7.90477300	-12.62918000
83.29999523	0.00000000	-9.44266700	-15.69882000
83.49999522	0.00000000	-10.59916000	-17.97490000
83.69999521	0.00000000	-11.02362000	-18.35015000
83.89999520	0.00000000	-11.06668000	-16.85531000
84.09999518	0.00000000	-11.02362000	-14.11786000
84.29999517	0.00000000	-10.64838000	-10.58686000
84.49999516	0.00000000	-9.90403500	-6.31151500
84.69999515	0.00000000	-9.52879000	-2.08538400
84.89999514	0.00000000	-9.48572700	0.97810030
85.09999512	0.00000000	-9.44266700	2.13459600
85.29999511	0.00000000	-9.06742000	0.97810030
85.49999510	0.00000000	-8.28001900	-2.12844500
85.69999509	0.00000000	-7.52952700	-6.77903500
85.89999508	0.00000000	-6.74212600	-12.16166000
86.09999506	0.00000000	-6.41609200	-16.76919000
86.29999505	0.00000000	-6.79133800	-19.50664000
86.49999504	0.00000000	-7.94783400	-19.88189000
86.69999503	0.00000000	-9.48572700	-17.97490000
86.89999502	0.00000000	-11.02362000	-14.07480000
87.09999501	0.00000000	-12.22933000	-9.09817800
87.29999499	0.00000000	-12.97982000	-4.08464600
87.49999498	0.00000000	-13.34276000	-0.59670270
87.69999497	0.00000000	-12.51230000	0.97810030
87.89999496	0.00000000	-10.64838000	0.51673230
88.09999495	0.00000000	-8.32308000	-2.55290300
88.29999493	0.00000000	-6.41609200	-7.51722400
88.49999492	0.00000000	-5.25344500	-12.53691000
88.69999491	0.00000000	-5.25344500	-16.76919000
88.89999490	0.00000000	-6.36687900	-19.04527000
89.09999489	0.00000000	-7.90477300	-18.30093000
89.29999487	0.00000000	-9.48572700	-15.23130000
89.49999486	0.00000000	-11.02362000	-10.62992000
89.69999485	0.00000000	-12.18012000	-5.66560000
89.89999484	0.00000000	-12.55536000	-2.17765700
90.09999483	0.00000000	-12.18012000	-0.59670270
90.29999482	0.00000000	-11.02362000	-1.01501000
90.49999480	0.00000000	-9.52879000	-3.70939900
90.69999479	0.00000000	-8.32308000	-7.89247000
90.89999478	0.00000000	-7.52952700	-12.11860000
91.09999477	0.00000000	-6.79133800	-15.23130000
91.29999476	0.00000000	-6.79133800	-16.71998000
91.49999474	0.00000000	-7.52952700	-15.92642000
91.69999473	0.00000000	-8.28001900	-12.53691000
91.89999472	0.00000000	-9.06742000	-8.31077700
92.09999471	0.00000000	-9.44266700	-4.45374000
92.29999470	0.00000000	-9.48572700	-1.39025600
92.49999468	0.00000000	-9.48572700	-0.63976370
92.69999467	0.00000000	-9.52879000	-2.17765700
92.89999466	0.00000000	-9.86097400	-5.61638700
93.09999465	0.00000000	-10.31619000	-10.21161000
93.29999464	0.00000000	-10.65453000	-14.03174000
93.49999463	0.00000000	-11.43578000	-16.39395000
93.69999461	0.00000000	-11.34966000	-16.71998000
93.89999460	0.00000000	-10.64838000	-14.81299000
94.09999459	0.00000000	-9.44266700	-11.00517000
94.29999458	0.00000000	-7.90477300	-6.77903500
94.49999457	0.00000000	-6.32381900	-3.33415300
94.69999455	0.00000000	-4.78592500	-1.39025600
94.89999454	0.00000000	-3.67249000	-1.80241100
95.09999453	0.00000000	-3.71555100	-4.08464600
95.29999452	0.00000000	-5.25344500	-7.93553100
95.49999451	0.00000000	-7.94783400	-12.16166000
95.69999449	0.00000000	-11.02362000	-15.56348000
95.89999448	0.00000000	-13.71801000	-17.08907000
96.09999447	0.00000000	-15.29897000	-15.60654000
96.29999446	0.00000000	-15.67421000	-12.58612000
96.49999445	0.00000000	-14.83760000	-9.09817800
96.69999444	0.00000000	-12.13706000	-5.61638700
96.89999442	0.00000000	-8.32308000	-3.33415300
97.09999441	0.00000000	-4.83513700	-2.54675200
97.29999440	0.00000000	-2.09153500	-3.70939900
97.49999439	0.00000000	-0.55364170	-6.31151500
97.69999438	0.00000000	-0.59670270	-9.00590400
97.89999436	0.00000000	-2.50984200	-10.96211000
98.09999435	0.00000000	-5.99163300	-12.16166000
98.29999434	0.00000000	-9.86097400	-12.53691000
98.49999433	0.00000000	-13.76107000	-12.16166000
98.69999432	0.00000000	-16.79380000	-11.00517000
98.89999430	0.00000000	-17.99951000	-9.47342500
99.09999429	0.00000000	-17.21210000	-7.93553100
99.29999428	0.00000000	-14.88066000	-6.82209600
99.49999427	0.00000000	-11.02362000	-6.77903500
99.69999426	0.00000000	-6.83439900	-7.47416300
99.89999425	0.00000000	-3.67249000	-7.84940900
100.09999423	0.00000000	-1.71628900	-7.89247000
100.29999422	0.00000000	-0.92888770	-7.89247000
100.49999421	0.00000000	-1.71628900	-7.89247000
100.69999420	0.00000000	-3.67249000	-7.89247000
100.89999419	0.00000000	-6.74212600	-7.93553100
101.09999417	0.00000000	-10.23007000	-8.35998900
101.29999416	0.00000000	-12.93061000	-9.51648500
101.49999415	0.00000000	-14.92372000	-11.00517000
101.69999414	0.00000000	-15.63115000	-12.16166000
101.89999413	0.00000000	-14.92372000	-12.53691000
102.09999411	0.00000000	-12.97982000	-12.16166000
102.29999410	0.00000000	-10.64838000	-10.96211000
102.49999409	0.00000000	-7.94783400	-9.05511800
102.69999408	0.00000000	-5.62869100	-6.72982200
102.89999407	0.00000000	-4.45989200	-4.82283400
103.09999406	0.00000000	-3.99852300	-3.62327700
103.29999404	0.00000000	-4.45989200	-3.29109200
103.49999403	0.00000000	-5.57947800	-4.08464600
103.69999402	0.00000000	-7.57258800	-6.40378900
103.89999401	0.00000000	-9.81791200	-9.42421200
104.09999400	0.00000000	-11.76181000	-12.16781000
104.29999398	0.00000000	-12.55536000	-14.07480000
104.49999397	0.00000000	-12.60458000	-14.81299000
104.69999396	0.00000000	-12.18012000	-13.65650000
104.89999395	0.00000000	-11.02362000	-11.04823000
105.09999394	0.00000000	-9.48572700	-8.31077700
105.29999392	0.00000000	-7.94783400	-5.98548200
105.49999391	0.00000000	-6.79133800	-4.08464600
105.69999390	0.00000000	-6.41609200	-3.70939900
105.89999389	0.00000000	-6.74212600	-4.82283400
106.09999388	0.00000000	-7.57258800	-6.72982200
106.29999387	0.00000000	-8.69832600	-9.05511800
106.49999385	0.00000000	-10.23007000	-10.96211000
106.69999384	0.00000000	-10.97441000	-12.11860000
106.89999383	0.00000000	-11.02362000	-12.11860000
107.09999382	0.00000000	-10.59916000	-11.00517000
107.29999381	0.00000000	-9.44266700	-9.47342500
107.49999379	0.00000000	-7.99704600	-7.93553100
107.69999378	0.00000000	-7.20964500	-6.77903500
107.89999377	0.00000000	-7.57258800	-6.40378900
108.09999376	0.00000000	-8.32308000	-6.77903500
108.29999375	0.00000000	-9.48572700	-7.93553100
108.49999374	0.00000000	-10.64838000	-9.47342500
108.69999372	0.00000000	-11.44193000	-11.00517000
108.89999371	0.00000000	-12.18012000	-12.11860000
109.09999370	0.00000000	-12.13706000	-12.11860000
109.29999369	0.00000000	-11.02362000	-11.00517000
109.49999368	0.00000000	-9.48572700	-9.51648500
109.69999366	0.00000000	-7.90477300	-8.26771600
109.89999365	0.00000000	-6.41609200	-7.09891700
110.09999364	0.00000000	-5.67175200	-5.61638700
110.29999363	0.00000000	-6.36687900	-5.29035400
110.49999362	0.00000000	-7.48646600	-6.36072800
110.69999360	0.00000000	-8.32308000	-7.89247000
110.89999359	0.00000000	-9.48572700	-9.47342500
111.09999358	0.00000000	-10.64838000	-11.00517000
111.29999357	0.00000000	-11.39887000	-12.16166000
111.49999356	0.00000000	-11.76181000	-12.53691000
111.69999355	0.00000000	-11.02362000	-12.16166000
111.89999353	0.00000000	-9.90403500	-11.00517000
112.09999352	0.00000000	-9.11048200	-9.51648500
112.29999351	0.00000000	-8.32308000	-8.31077700
112.49999350	0.00000000	-7.94783400	-7.51722400
112.69999349	0.00000000	-7.90477300	-6.77903500
112.89999347	0.00000000	-7.94783400	-6.77903500
113.09999346	0.00000000	-8.32308000	-7.47416300
113.29999345	0.00000000	-9.06742000	-7.89247000
113.49999344	0.00000000	-9.44266700	-8.31077700
113.69999343	0.00000000	-9.48572700	-9.05511800
113.89999341	0.00000000	-9.48572700	-9.43036400
114.09999340	0.00000000	-9.48572700	-9.47342500
114.29999339	0.00000000	-9.48572700	-9.47342500
114.49999338	0.00000000	-9.44266700	-9.47342500
114.69999337	0.00000000	-9.06742000	-9.51648500
114.89999336	0.00000000	-8.32308000	-9.89173200
115.09999334	0.00000000	-7.94783400	-10.58686000
115.29999333	0.00000000	-7.90477300	-10.58686000
115.49999332	0.00000000	-7.94783400	-9.89173200
115.69999331	0.00000000	-8.32308000	-9.47342500
115.89999330	0.00000000	-9.06742000	-9.05511800
116.09999328	0.00000000	-9.48572700	-8.31077700
116.29999327	0.00000000	-9.90403500	-7.89247000
116.49999326	0.00000000	-10.64838000	-7.51722400
116.69999325	0.00000000	-10.97441000	-7.14812900
116.89999324	0.00000000	-10.64838000	-7.51722400
117.09999322	0.00000000	-9.86097400	-7.89247000
117.29999321	0.00000000	-9.11048200	-8.31077700
117.49999320	0.00000000	-8.28001900	-9.09817800
117.69999319	0.00000000	-7.52952700	-9.84867000
117.89999318	0.00000000	-6.74212600	-10.62992000
118.09999317	0.00000000	-6.41609200	-11.00517000
118.29999315	0.00000000	-6.79133800	-11.00517000
118.49999314	0.00000000	-7.90477300	-10.62992000
118.69999313	0.00000000	-9.06742000	-9.84867000
118.89999312	0.00000000	-9.86097400	-9.09817800
119.09999311	0.00000000	-10.69144000	-8.31077700
119.29999309	0.00000000	-11.39887000	-7.93553100
119.49999308	0.00000000	-11.81102000	-7.89247000
119.69999307	0.00000000	-11.39887000	-7.89247000
119.89999306	0.00000000	-10.64838000	-7.89247000
120.09999305	0.00000000	-9.44266700	-7.89247000
120.29999303	0.00000000	-7.94783400	-7.93553100
120.49999302	0.00000000	-6.74212600	-8.31077700
120.69999301	0.00000000	-5.99163300	-9.05511800
120.89999300	0.00000000	-5.62869100	-9.47342500
121.09999299	0.00000000	-6.41609200	-9.89173200
121.29999298	0.00000000	-7.90477300	-10.62992000
121.49999296	0.00000000	-9.44266700	-11.00517000
121.69999295	0.00000000	-10.59916000	-11.00517000
121.89999294	0.00000000	-11.06668000	-10.58686000
122.09999293	0.00000000	-11.44193000	-9.47342500
122.29999292	0.00000000	-11.81102000	-8.35998900
122.49999290	0.00000000	-11.39887000	-7.89247000
122.69999289	0.00000000	-10.64838000	-7.47416300
122.89999288	0.00000000	-9.48572700	-6.77903500
123.09999287	0.00000000	-8.37229300	-6.77903500
123.29999286	0.00000000	-7.90477300	-7.47416300
123.49999284	0.00000000	-7.48646600	-7.84940900
123.69999283	0.00000000	-6.79133800	-7.98474400
123.89999282	0.00000000	-6.79133800	-8.72908400
124.09999281	0.00000000	-7.52952700	-10.21161000
124.29999280	0.00000000	-8.28001900	-10.91289000
124.49999279	0.00000000	-9.11048200	-10.67298000
124.69999277	0.00000000	-9.86097400	-10.26698000
124.89999276	0.00000000	-10.64838000	-10.25467000
125.09999275	0.00000000	-11.02362000	-9.79945900
125.29999274	0.00000000	-11.06668000	-9.09817800
125.49999273	0.00000000	-11.02362000	-8.31077700
125.69999271	0.00000000	-10.64838000	-7.93553100
125.89999270	0.00000000	-9.86097400	-7.89247000
126.09999269	0.00000000	-9.11048200	-7.89247000
126.29999268	0.00000000	-8.32308000	-7.89247000
126.49999267	0.00000000	-7.90477300	-7.93553100
126.69999265	0.00000000	-7.52952700	-8.31077700
126.89999264	0.00000000	-7.16043300	-9.05511800
127.09999263	0.00000000	-7.57258800	-9.43036400
127.29999262	0.00000000	-8.32308000	-9.47342500
127.49999261	0.00000000	-9.48572700	-9.47342500
127.69999260	0.00000000	-10.59916000	-9.47342500
127.89999258	0.00000000	-11.02362000	-9.47342500
128.09999257	0.00000000	-11.06668000	-9.43036400
128.29999256	0.00000000	-11.02362000	-9.05511800
128.49999255	0.00000000	-10.59916000	-8.31077700
128.69999254	0.00000000	-9.48572700	-7.93553100
128.89999252	0.00000000	-8.32308000	-7.89247000
129.09999251	0.00000000	-7.57258800	-7.93553100
129.29999250	0.00000000	-7.16043300	-8.31077700
129.49999249	0.00000000	-7.57258800	-9.05511800
129.69999248	0.00000000	-8.28001900	-9.43036400
129.89999246	0.00000000	-9.11048200	-9.47342500
130.09999245	0.00000000	-9.86097400	-9.47342500
130.29999244	0.00000000	-10.64838000	-9.47342500
130.49999243	0.00000000	-11.02362000	-9.43036400
130.69999242	0.00000000	-11.02362000	-9.05511800
130.89999241	0.00000000	-10.59916000	-8.31077700
131.09999239	0.00000000	-9.48572700	-7.93553100
131.29999238	0.00000000	-8.37229300	-7.89247000
131.49999237	0.00000000	-7.94783400	-7.93553100
131.69999236	0.00000000	-7.90477300	-8.31077700
131.89999235	0.00000000	-7.94783400	-9.09817800
132.09999233	0.00000000	-8.37229300	-9.84867000
132.29999232	0.00000000	-9.48572700	-10.62992000
132.49999231	0.00000000	-10.59916000	-10.95595000
132.69999230	0.00000000	-11.02362000	-10.62992000
132.89999229	0.00000000	-11.02362000	-9.84867000
133.09999227	0.00000000	-10.64838000	-9.05511800
133.29999226	0.00000000	-9.90403500	-7.89247000
133.49999225	0.00000000	-9.52879000	-6.77903500
133.69999224	0.00000000	-9.48572700	-6.40378900
133.89999223	0.00000000	-9.48572700	-6.72982200
134.09999222	0.00000000	-9.48572700	-7.51722400
134.29999220	0.00000000	-9.48572700	-8.26771600
134.49999219	0.00000000	-9.48572700	-9.09817800
134.69999218	0.00000000	-9.48572700	-9.84867000
134.89999217	0.00000000	-9.48572700	-10.62992000
135.09999216	0.00000000	-9.44266700	-11.00517000
135.29999214	0.00000000	-9.11048200	-11.00517000
135.49999213	0.00000000	-8.69832600	-10.62992000
135.69999212	0.00000000	-8.73523500	-9.84867000
135.89999211	0.00000000	-8.69832600	-9.09817800
136.09999210	0.00000000	-9.11048200	-8.31077700
136.29999208	0.00000000	-9.48572700	-7.93553100
136.49999207	0.00000000	-9.90403500	-7.84940900
136.69999206	0.00000000	-10.64838000	-7.51722400
136.89999205	0.00000000	-10.97441000	-7.19734200
137.09999204	0.00000000	-10.64838000	-7.93553100
137.29999203	0.00000000	-9.86097400	-9.00590400
137.49999201	0.00000000	-9.11048200	-9.47342500
137.69999200	0.00000000	-8.28001900	-9.84867000
137.89999199	0.00000000	-7.57258800	-10.25467000
138.09999198	0.00000000	-7.16043300	-10.21776000
138.29999197	0.00000000	-7.57258800	-10.25467000
138.49999195	0.00000000	-8.28001900	-9.84867000
138.69999194	0.00000000	-9.11048200	-9.47342500
138.89999193	0.00000000	-9.86097400	-9.05511800
139.09999192	0.00000000	-10.64838000	-8.31077700
139.29999191	0.00000000	-11.02362000	-7.93553100
139.49999189	0.00000000	-11.02362000	-7.84940900
139.69999188	0.00000000	-10.64838000	-7.51722400
139.89999187	0.00000000	-9.86097400	-7.14812900
140.09999186	0.00000000	-9.11048200	-7.56028500
140.29999185	0.00000000	-8.32308000	-8.26771600
140.49999184	0.00000000	-7.94783400	-9.09817800
140.69999182	0.00000000	-7.94783400	-9.84867000
140.89999181	0.00000000	-8.32308000	-10.62992000
141.09999180	0.00000000	-9.06742000	-11.00517000
141.29999179	0.00000000	-9.48572700	-11.00517000
141.49999178	0.00000000	-9.86097400	-10.58686000
141.69999176	0.00000000	-10.23007000	-9.47342500
141.89999175	0.00000000	-9.86097400	-8.31077700
142.09999174	0.00000000	-9.52879000	-7.51722400
142.29999173	0.00000000	-9.44266700	-6.72982200
142.49999172	0.00000000	-9.11048200	-6.35457700
142.69999170	0.00000000	-8.74138700	-6.35457700
142.89999169	0.00000000	-9.11048200	-6.77903500
143.09999168	0.00000000	-9.44266700	-7.89247000
143.29999167	0.00000000	-9.48572700	-9.05511800
143.49999166	0.00000000	-9.48572700	-9.84867000
143.69999165	0.00000000	-9.48572700	-10.62992000
143.89999163	0.00000000	-9.48572700	-10.95595000
144.09999162	0.00000000	-9.48572700	-10.62992000
144.29999161	0.00000000	-9.48572700	-9.84867000
144.49999160	0.00000000	-9.44266700	-9.09817800
144.69999159	0.00000000	-9.06742000	-8.31077700
144.89999157	0.00000000	-8.37229300	-7.93553100
145.09999156	0.00000000	-8.37229300	-7.89247000
145.29999155	0.00000000	-9.06742000	-7.93553100
145.49999154	0.00000000	-9.44266700	-8.31077700
145.69999153	0.00000000	-9.48572700	-9.05511800
145.89999151	0.00000000	-9.52879000	-9.47342500
146.09999150	0.00000000	-9.86097400	-9.89173200
146.29999149	0.00000000	-10.23007000	-10.58686000
146.49999148	0.00000000	-9.86097400	-10.58686000
146.69999147	0.00000000	-9.48572700	-9.89173200
146.89999146	0.00000000	-9.06742000	-9.51648500
147.09999144	0.00000000	-8.32308000	-9.43036400
147.29999143	0.00000000	-7.99704600	-9.05511800
147.49999142	0.00000000	-8.32308000	-8.31077700
147.69999141	0.00000000	-9.06742000	-7.93553100
147.89999140	0.00000000	-9.44266700	-7.89247000
148.09999138	0.00000000	-9.48572700	-7.89247000
148.29999137	0.00000000	-9.48572700	-7.93553100
148.49999136	0.00000000	-9.52879000	-8.31077700
148.69999135	0.00000000	-9.86097400	-9.05511800
148.89999134	0.00000000	-10.23007000	-9.43036400
149.09999132	0.00000000	-9.86097400	-9.47342500
149.29999131	0.00000000	-9.52879000	-9.47342500
149.49999130	0.00000000	-9.48572700	-9.47342500
149.69999129	0.00000000	-9.44266700	-9.47342500
149.89999128	0.00000000	-9.11048200	-9.43036400
150.09999127	0.00000000	-8.74138700	-9.05511800
150.29999125	0.00000000	-9.11048200	-8.31077700
150.49999124	0.00000000	-9.44266700	-7.93553100
150.69999123	0.00000000	-9.48572700	-7.89247000
150.89999122	0.00000000	-9.48572700	-7.89247000
151.09999121	0.00000000	-9.48572700	-7.93553100
151.29999119	0.00000000	-9.52879000	-8.31077700
151.49999118	0.00000000	-9.86097400	-9.05511800
151.69999117	0.00000000	-10.23007000	-9.43036400
151.89999116	0.00000000	-9.86097400	-9.47342500
152.09999115	0.00000000	-9.52879000	-9.47342500
152.29999113	0.00000000	-9.44266700	-9.47342500
152.49999112	0.00000000	-9.06742000	-9.47342500
152.69999111	0.00000000	-8.32308000	-9.47342500
152.89999110	0.00000000	-7.94783400	-9.47342500
153.09999109	0.00000000	-7.94783400	-9.43036400
153.29999108	0.00000000	-8.32308000	-9.05511800
153.49999106	0.00000000	-9.06742000	-8.31077700
153.69999105	0.00000000	-9.44266700	-7.93553100
153.89999104	0.00000000	-9.48572700	-7.89247000
154.09999103	0.00000000	-9.48572700	-7.89247000
154.29999102	0.00000000	-9.48572700	-7.89247000
154.49999100	0.00000000	-9.48572700	-7.93553100
154.69999099	0.00000000	-9.48572700	-8.31077700
154.89999098	0.00000000	-9.48572700	-9.05511800
155.09999097	0.00000000	-9.48572700	-9.43036400
155.29999096	0.00000000	-9.44266700	-9.47342500
155.49999094	0.00000000	-9.06742000	-9.47342500
155.69999093	0.00000000	-8.32308000	-9.47342500
155.89999092	0.00000000	-7.99704600	-9.47342500
156.09999091	0.00000000	-8.32308000	-9.47342500
156.29999090	0.00000000	-9.06742000	-9.43036400
156.49999089	0.00000000	-9.44266700	-9.05511800
156.69999087	0.00000000	-9.48572700	-8.31077700
156.89999086	0.00000000	-9.52879000	-7.93553100
157.09999085	0.00000000	-9.90403500	-7.89247000
157.29999084	0.00000000	-10.59916000	-7.89247000
157.49999083	0.00000000	-10.59916000	-7.89247000
157.69999081	0.00000000	-9.90403500	-7.93553100
157.89999080	0.00000000	-9.52879000	-8.31077700
158.09999079	0.00000000	-9.48572700	-9.05511800
158.29999078	0.00000000	-9.48572700	-9.43036400
158.49999077	0.00000000	-9.48572700	-9.47342500
158.69999075	0.00000000	-9.48572700	-9.47342500
158.89999074	0.00000000	-9.48572700	-9.47342500
159.09999073	0.00000000	-9.48572700	-9.47342500
159.29999072	0.00000000	-9.48572700	-9.43036400
159.49999071	0.00000000	-9.48572700	-9.05511800
159.69999070	0.00000000	-9.48572700	-8.31077700
159.89999068	0.00000000	-9.52879000	-7.93553100
160.09999067	0.00000000	-9.86097400	-7.89247000
160.29999066	0.00000000	-10.23007000	-7.89247000
160.49999065	0.00000000	-9.86097400	-7.93553100
160.69999064	0.00000000	-9.52879000	-8.31077700
160.89999062	0.00000000	-9.48572700	-9.05511800
161.09999061	0.00000000	-9.48572700	-9.43036400
161.29999060	0.00000000	-9.48572700	-9.47342500
161.49999059	0.00000000	-9.48572700	-9.47342500
161.69999058	0.00000000	-9.48572700	-9.47342500
161.89999056	0.00000000	-9.48572700	-9.47342500
162.09999055	0.00000000	-9.48572700	-9.43036400
162.29999054	0.00000000	-9.48572700	-9.05511800
162.49999053	0.00000000	-9.48572700	-8.31077700
162.69999052	0.00000000	-9.48572700	-7.93553100
162.89999051	0.00000000	-9.52879000	-7.89247000
163.09999049	0.00000000	-9.86097400	-7.93553100
163.29999048	0.00000000	-10.27313000	-8.31077700
163.49999047	0.00000000	-10.27928000	-9.05511800
163.69999046	0.00000000	-10.69144000	-9.43036400
163.89999045	0.00000000	-10.97441000	-9.47342500
164.09999043	0.00000000	-10.64838000	-9.47342500
164.29999042	0.00000000	-9.90403500	-9.47342500
164.49999041	0.00000000	-9.52879000	-9.47342500
164.69999040	0.00000000	-9.48572700	-9.47342500
164.89999039	0.00000000	-9.44266700	-9.43036400
165.09999037	0.00000000	-9.11048200	-9.09817800
165.29999036	0.00000000	-8.69832600	-8.72908400
165.49999035	0.00000000	-8.73523500	-9.09817800
165.69999034	0.00000000	-8.74138700	-9.43036400
165.89999033	0.00000000	-9.48572700	-9.43036400
166.09999032	0.00000000	-10.18086000	-9.05511800
166.29999030	0.00000000	-9.90403500	-8.35998900
166.49999029	0.00000000	-9.90403500	-8.35998900
166.69999028	0.00000000	-10.23007000	-9.05511800
166.89999027	0.00000000	-9.86097400	-9.43036400
167.09999026	0.00000000	-9.52879000	-9.47342500
167.29999024	0.00000000	-9.48572700	-9.47342500
167.49999023	0.00000000	-9.48572700	-9.47342500
167.69999022	0.00000000	-9.48572700	-9.47342500
167.89999021	0.00000000	-9.48572700	-9.47342500
168.09999020	0.00000000	-9.48572700	-9.47342500
168.29999018	0.00000000	-9.48572700	-9.47342500
168.49999017	0.00000000	-9.48572700	-9.47342500
168.69999016	0.00000000	-9.48572700	-9.47342500
168.89999015	0.00000000	-9.48572700	-9.47342500
169.09999014	0.00000000	-9.48572700	-9.47342500
169.29999013	0.00000000	-9.48572700	-9.47342500
169.49999011	0.00000000	-9.48572700	-9.47342500
169.69999010	0.00000000	-9.52879000	-9.47342500
169.89999009	0.00000000	-9.86097400	-9.47342500
170.09999008	0.00000000	-10.23007000	-9.47342500
170.29999007	0.00000000	-9.86097400	-9.43036400
170.49999005	0.00000000	-9.52879000	-9.09817800
170.69999004	0.00000000	-9.48572700	-8.68602300
170.89999003	0.00000000	-9.48572700	-8.72293300
171.09999002	0.00000000	-9.48572700	-8.68602300
171.29999001	0.00000000	-9.48572700	-9.09817800
171.49998999	0.00000000	-9.48572700	-9.43036400
171.69998998	0.00000000	-9.48572700	-9.47342500
171.89998997	0.00000000	-9.48572700	-9.47342500
172.09998996	0.00000000	-9.48572700	-9.47342500
172.29998995	0.00000000	-9.48572700	-9.47342500
172.49998994	0.00000000	-9.48572700	-9.47342500
172.69998992	0.00000000	-9.48572700	-9.47342500
172.89998991	0.00000000	-9.48572700	-9.47342500
173.09998990	0.00000000	-9.48572700	-9.47342500
173.29998989	0.00000000	-9.48572700	-9.43036400
173.49998988	0.00000000	-9.48572700	-9.09817800
173.69998986	0.00000000	-9.48572700	-8.72908400
173.89998985	0.00000000	-9.48572700	-9.09817800
174.09998984	0.00000000	-9.48572700	-9.43036400
174.29998983	0.00000000	-9.48572700	-9.47342500
174.49998982	0.00000000	-9.48572700	-9.47342500
174.69998980	0.00000000	-9.48572700	-9.47342500
174.89998979	0.00000000	-9.48572700	-9.47342500
175.09998978	0.00000000	-9.48572700	-9.47342500
175.29998977	0.00000000	-9.48572700	-9.47342500
175.49998976	0.00000000	-9.52879000	-9.47342500
175.69998975	0.00000000	-9.86097400	-9.47342500
175.89998973	0.00000000	-10.23007000	-9.47342500
176.09998972	0.00000000	-9.86097400	-9.47342500
176.29998971	0.00000000	-9.52879000	-9.47342500
176.49998970	0.00000000	-9.48572700	-9.47342500
176.69998969	0.00000000	-9.48572700	-9.47342500
176.89998967	0.00000000	-9.48572700	-9.47342500
177.09998966	0.00000000	-9.48572700	-9.47342500
177.29998965	0.00000000	-9.48572700	-9.47342500
177.49998964	0.00000000	-9.48572700	-9.47342500
177.69998963	0.00000000	-9.48572700	-9.47342500
177.89998961	0.00000000	-9.48572700	-9.47342500
178.09998960	0.00000000	-9.48572700	-9.47342500
178.29998959	0.00000000	-9.48572700	-9.47342500
178.49998958	0.00000000	-9.48572700	-9.47342500
178.69998957	0.00000000	-9.48572700	-9.43036400
178.89998956	0.00000000	-9.48572700	-9.09817800
179.09998954	0.00000000	-9.48572700	-8.68602300
179.29998953	0.00000000	-9.48572700	-8.67987200
179.49998952	0.00000000	-9.48572700	-8.31077700
179.69998951	0.00000000	-9.48572700	-8.35998900
179.89998950	0.00000000	-9.44266700	-9.05511800
180.09998948	0.00000000	-9.11048200	-9.43036400
180.29998947	0.00000000	-8.74138700	-9.47342500
180.49998946	0.00000000	-9.11048200	-9.47342500
180.69998945	0.00000000	-9.44266700	-9.47342500
180.89998944	0.00000000	-9.48572700	-9.47342500
181.09998942	0.00000000	-9.48572700	-9.43036400
181.29998941	0.00000000	-9.48572700	-9.09817800
181.49998940	0.00000000	-9.48572700	-8.68602300
181.69998939	0.00000000	-9.48572700	-8.67987200
181.89998938	0.00000000	-9.48572700	-8.26771600
182.09998937	0.00000000	-9.48572700	-7.98474400
182.29998935	0.00000000	-9.48572700	-8.31077700
182.49998934	0.00000000	-9.48572700	-9.05511800
182.69998933	0.00000000	-9.48572700	-9.43036400
182.89998932	0.00000000	-9.48572700	-9.47342500
183.09998931	0.00000000	-9.48572700	-9.47342500
183.29998929	0.00000000	-9.48572700	-9.47342500
183.49998928	0.00000000	-9.48572700	-9.47342500
183.69998927	0.00000000	-9.48572700	-9.47342500
183.89998926	0.00000000	-9.48572700	-9.43036400
184.09998925	0.00000000	-9.48572700	-9.05511800
184.29998923	0.00000000	-9.48572700	-8.31077700
184.49998922	0.00000000	-9.48572700	-7.93553100
184.69998921	0.00000000	-9.48572700	-7.89247000
184.89998920	0.00000000	-9.48572700	-7.89247000
185.09998919	0.00000000	-9.48572700	-7.89247000
185.29998918	0.00000000	-9.48572700	-7.89247000
185.49998916	0.00000000	-9.48572700	-7.93553100
185.69998915	0.00000000	-9.48572700	-8.31077700
185.89998914	0.00000000	-9.48572700	-9.05511800
186.09998913	0.00000000	-9.48572700	-9.43036400
186.29998912	0.00000000	-9.48572700	-9.51648500
186.49998910	0.00000000	-9.48572700	-9.84867000
186.69998909	0.00000000	-9.48572700	-10.21161000
186.89998908	0.00000000	-9.48572700	-9.84867000
187.09998907	0.00000000	-9.52879000	-9.51648500
187.29998906	0.00000000	-9.86097400	-9.43036400
187.49998904	0.00000000	-10.23007000	-9.05511800
187.69998903	0.00000000	-9.86097400	-8.31077700
187.89998902	0.00000000	-9.52879000	-7.93553100
188.09998901	0.00000000	-9.48572700	-7.89247000
188.29998900	0.00000000	-9.48572700	-7.93553100
188.49998899	0.00000000	-9.48572700	-8.31077700
188.69998897	0.00000000	-9.48572700	-9.05511800
188.89998896	0.00000000	-9.48572700	-9.43036400
189.09998895	0.00000000	-9.48572700	-9.47342500
189.29998894	0.00000000	-9.48572700	-9.47342500
189.49998893	0.00000000	-9.52879000	-9.47342500
189.69998891	0.00000000	-9.86097400	-9.47342500
189.89998890	0.00000000	-10.23007000	-9.47342500
190.09998889	0.00000000	-9.86097400	-9.43036400
190.29998888	0.00000000	-9.52879000	-9.05511800
190.49998887	0.00000000	-9.48572700	-8.31077700
190.69998885	0.00000000	-9.48572700	-7.93553100
190.89998884	0.00000000	-9.48572700	-7.93553100
191.09998883	0.00000000	-9.48572700	-8.31077700
191.29998882	0.00000000	-9.48572700	-9.05511800
191.49998881	0.00000000	-9.48572700	-9.43036400
191.69998880	0.00000000	-9.48572700	-9.47342500
191.89998878	0.00000000	-9.48572700	-9.47342500
192.09998877	0.00000000	-9.48572700	-9.47342500
192.29998876	0.00000000	-9.48572700	-9.47342500
192.49998875	0.00000000	-9.48572700	-9.47342500
192.69998874	0.00000000	-9.48572700	-9.47342500
192.89998872	0.00000000	-9.52879000	-9.47342500
193.09998871	0.00000000	-9.86097400	-9.47342500
193.29998870	0.00000000	-10.27313000	-9.47342500
193.49998869	0.00000000	-10.23622000	-9.47342500
193.69998868	0.00000000	-10.27313000	-9.47342500
193.89998866	0.00000000	-9.86097400	-9.43036400
194.09998865	0.00000000	-9.52879000	-9.05511800
194.29998864	0.00000000	-9.48572700	-8.31077700
194.49998863	0.00000000	-9.48572700	-7.98474400
194.69998862	0.00000000	-9.48572700	-8.31077700
194.89998861	0.00000000	-9.48572700	-9.00590400
195.09998859	0.00000000	-9.48572700	-9.05511800
195.29998858	0.00000000	-9.48572700	-8.72908400
195.49998857	0.00000000	-9.48572700	-9.09817800
195.69998856	0.00000000	-9.48572700	-9.38115100
195.89998855	0.00000000	-9.48572700	-9.09817800
196.09998853	0.00000000	-9.48572700	-8.72908400
