Time	Channel A	Channel B	Channel C
(us)	(V)	(mV)	(mV)

-4.59999956	0.00000000	-55.33957000	-26.83932000
-4.39999957	0.00000000	-55.33957000	-26.83932000
-4.19999958	0.00000000	-55.33957000	-26.83932000
-3.99999959	0.00000000	-55.33957000	-26.83932000
-3.79999960	0.00000000	-55.33957000	-26.83932000
-3.59999962	0.00000000	-55.33957000	-26.83932000
-3.39999963	0.00000000	-55.33957000	-26.83932000
-3.19999964	0.00000000	-55.33957000	-26.83932000
-2.99999965	0.00000000	-55.33957000	-26.83932000
-2.79999966	0.00000000	-55.33957000	-26.83932000
-2.59999968	0.00000000	-55.33957000	-26.83932000
-2.39999969	0.00000000	-55.33957000	-26.83932000
-2.19999970	0.00000000	-55.33957000	-26.83932000
-1.99999971	0.00000000	-55.33957000	-26.83932000
-1.79999972	0.00000000	-55.33957000	-26.88238000
-1.59999973	0.00000000	-55.33957000	-27.21457000
-1.39999975	0.00000000	-55.33957000	-27.58366000
-1.19999976	0.00000000	-55.33957000	-27.21457000
-0.99999977	0.00000000	-55.38263000	-26.88238000
-0.79999978	0.00000000	-55.71481000	-26.88238000
-0.59999979	0.00000000	-56.08390000	-27.21457000
-0.39999981	0.15871060	-55.71481000	-27.58366000
-0.19999982	0.47736220	-55.38263000	-27.21457000
0.00000017	0.79601380	-55.38263000	-26.93159000
0.20000016	1.11466500	-55.75787000	-27.25763000
0.40000015	0.95533960	-56.50221000	-28.00197000
0.60000013	0.63668800	-56.82825000	-28.32800000
0.80000012	0.00000000	-56.50221000	-28.04503000
1.00000011	-0.95533960	-55.75787000	-27.63287000
1.20000010	-1.91129400	-55.43184000	-27.62672000
1.40000009	-2.70792300	-55.71481000	-27.21457000
1.60000008	-2.70792300	-56.08390000	-26.88238000
1.80000006	-1.91129400	-55.75787000	-26.83932000
2.00000005	-0.47736220	-55.75787000	-26.83932000
2.20000004	1.59264300	-56.08390000	-26.83932000
2.40000003	3.66326300	-55.71481000	-26.88238000
2.60000002	5.09719500	-55.43184000	-27.25763000
2.80000000	5.25652100	-55.71481000	-28.00197000
2.99999999	3.98191400	-56.08390000	-28.37721000
3.19999998	1.59264300	-55.71481000	-28.37721000
3.39999997	-1.75196900	-55.38263000	-28.00197000
3.59999996	-5.09719500	-55.33957000	-27.25763000
3.79999994	-7.32714100	-55.33957000	-26.88238000
3.99999993	-7.96444400	-55.33957000	-26.83932000
4.19999992	-6.53112700	-55.33957000	-26.83932000
4.39999991	-3.18590100	-55.33957000	-26.79626000
4.59999990	1.11466500	-55.33957000	-26.46407000
4.79999989	5.41584600	-55.38263000	-26.10113000
4.99999987	8.44242100	-55.71481000	-26.46407000
5.19999986	9.39837600	-56.12696000	-26.79626000
5.39999985	8.12377000	-56.13312000	-26.88238000
5.59999984	4.77854300	-56.54527000	-27.21457000
5.79999983	0.00000000	-56.82825000	-27.58366000
5.99999981	-4.61921700	-56.50221000	-27.21457000
6.19999980	-7.96444400	-55.75787000	-26.88238000
6.39999979	-9.39837600	-55.38263000	-26.83932000
6.59999978	-8.44242100	-55.33957000	-26.83932000
6.79999977	-5.41584600	-55.33957000	-26.83932000
6.99999975	-1.11466500	-55.33957000	-26.83932000
7.19999974	3.02657500	-55.33957000	-26.83932000
7.39999973	6.21247500	-55.33957000	-26.83932000
7.59999972	7.64579200	-55.38263000	-26.83932000
7.79999971	7.16781500	-55.75787000	-26.88238000
7.99999970	4.93786900	-56.50221000	-27.21457000
8.19999968	1.75196900	-56.82825000	-27.58366000
8.39999967	-1.43331700	-56.50221000	-27.21457000
8.59999966	-3.82258900	-55.75787000	-26.88238000
8.79999965	-5.09719500	-55.43184000	-26.83932000
8.99999964	-4.93786900	-55.71481000	-26.83932000
9.19999962	-3.66326300	-56.08390000	-26.83932000
9.39999961	-1.75196900	-55.71481000	-26.83932000
9.59999960	0.15871060	-55.38263000	-26.83932000
9.79999959	1.75196900	-55.33957000	-26.83932000
9.99999958	2.54859700	-55.33957000	-26.83932000
10.19999956	2.54859700	-55.33957000	-26.83932000
10.39999955	1.91129400	-55.38263000	-26.83932000
10.59999954	0.95533960	-55.75787000	-26.88238000
10.79999953	0.15871060	-56.50221000	-27.25763000
10.99999952	-0.47736220	-56.87746000	-28.00197000
11.19999951	-0.79601380	-56.92052000	-28.37721000
11.39999949	-0.95533960	-56.92052000	-28.42027000
11.59999948	-0.79601380	-56.92052000	-28.42027000
11.79999947	-0.47736220	-56.92052000	-28.42027000
11.99999946	-0.31803640	-56.92052000	-28.42027000
12.19999945	-0.15871060	-56.92052000	-28.42027000
12.39999943	-0.15871060	-56.92052000	-28.42027000
12.59999942	0.00000000	-56.92052000	-28.42027000
12.79999941	0.00000000	-56.92052000	-28.37721000
12.99999940	0.00000000	-56.92052000	-28.04503000
13.19999939	0.00000000	-56.92052000	-27.63287000
13.39999937	0.00000000	-56.92052000	-27.66978000
13.59999936	0.00000000	-56.92052000	-27.58981000
13.79999935	0.00000000	-56.92052000	-27.62672000
13.99999934	-0.15871060	-56.92052000	-27.21457000
14.19999933	-0.15871060	-56.92052000	-26.93159000
14.39999932	-0.15871060	-56.92052000	-27.21457000
14.59999930	-0.15871060	-56.92052000	-27.58366000
14.79999929	0.00000000	-56.92052000	-27.21457000
14.99999928	0.00000000	-56.92052000	-26.88238000
15.19999927	0.00000000	-56.92052000	-26.88238000
15.39999926	0.00000000	-56.92052000	-27.21457000
15.59999924	0.00000000	-56.92052000	-27.58366000
15.79999923	0.00000000	-56.92052000	-27.21457000
15.99999922	0.00000000	-56.92052000	-26.88238000
16.19999921	0.00000000	-56.92052000	-26.88238000
16.39999920	0.00000000	-56.92052000	-27.21457000
16.59999919	0.00000000	-56.87746000	-27.58366000
16.79999917	0.00000000	-56.50221000	-27.21457000
16.99999916	0.00000000	-55.75787000	-26.88238000
17.19999915	0.00000000	-55.38263000	-26.83932000
17.39999914	0.00000000	-55.33957000	-26.83932000
17.59999913	0.00000000	-55.33957000	-26.83932000
17.79999911	0.00000000	-55.38263000	-26.83932000
17.99999910	0.00000000	-55.75787000	-26.83932000
18.19999909	0.00000000	-56.58833000	-26.83932000
18.39999908	0.00000000	-57.75713000	-26.83932000
18.59999907	0.00000000	-59.66412000	-26.83932000
18.79999905	0.00000000	-61.15280000	-26.83932000
18.99999904	0.00000000	-61.57111000	-26.83932000
19.19999903	0.00000000	-61.15280000	-26.83932000
19.39999902	0.00000000	-59.52879000	-26.83932000
19.59999901	0.00000000	-56.45300000	-26.83932000
19.79999900	0.00000000	-52.59596000	-26.83932000
19.99999898	0.00000000	-49.10802000	-26.83932000
20.19999897	0.00000000	-46.40748000	-26.83932000
20.39999896	0.00000000	-45.33710000	-26.83932000
20.59999895	0.00000000	-46.96112000	-26.83932000
20.79999894	0.00000000	-51.61786000	-26.83932000
20.99999892	0.00000000	-58.59375000	-26.83932000
21.19999891	0.00000000	-66.32012000	-26.83932000
21.39999890	0.00000000	-73.25295000	-26.88238000
21.59999889	0.00000000	-77.39911000	-27.25763000
21.79999888	0.00000000	-76.93159000	-27.95275000
21.99999886	0.00000000	-71.11835000	-28.00197000
22.19999885	0.00000000	-61.06668000	-27.67593000
22.39999884	0.00000000	-49.01575000	-28.04503000
22.59999883	0.00000000	-37.05708000	-28.37721000
22.79999882	0.00000000	-27.89124000	-28.37721000
22.99999881	0.00000000	-24.85851000	-28.00197000
23.19999879	0.00000000	-29.14001000	-27.21457000
23.39999878	0.00000000	-40.02829000	-26.46407000
23.59999877	0.00000000	-55.94242000	-25.68282000
23.79999876	0.00000000	-73.67126000	-25.30758000
23.99999875	0.00000000	-89.06865000	-25.26452000
24.19999873	0.00000000	-97.91460000	-25.30758000
24.39999872	0.00000000	-97.87155000	-25.72589000
24.59999871	0.00000000	-88.47195000	-26.88853000
24.79999870	0.00000000	-70.65083000	-28.42027000
24.99999869	0.00000000	-47.94537000	-30.00123000
25.19999867	0.00000000	-26.35334000	-31.53297000
25.39999866	0.00000000	-11.32505000	-32.64640000
25.59999865	0.00000000	-6.29921200	-32.60334000
25.79999864	0.00000000	-12.90600000	-31.06545000
25.99999863	0.00000000	-29.51525000	-28.32800000
26.19999862	0.00000000	-52.73130000	-24.79700000
26.39999860	0.00000000	-77.39911000	-20.57087000
26.59999859	0.00000000	-97.45324000	-16.80610000
26.79999858	0.00000000	-107.96630000	-15.31742000
26.99999857	0.00000000	-107.17890000	-16.84916000
27.19999856	0.00000000	-95.54010000	-21.12451000
27.39999854	0.00000000	-74.69857000	-27.34990000
27.59999853	0.00000000	-50.07997000	-34.73794000
27.79999852	0.00000000	-27.97736000	-42.03371000
27.99999851	0.00000000	-12.85679000	-47.33021000
28.19999850	0.00000000	-7.46186000	-48.44980000
28.39999848	0.00000000	-13.23204000	-44.59276000
28.59999847	0.00000000	-28.62943000	-36.82948000
28.79999846	0.00000000	-49.48326000	-26.32874000
28.99999845	0.00000000	-71.11835000	-14.72072000
29.19999844	0.00000000	-88.56422000	-4.39837600
29.39999843	0.00000000	-98.28986000	1.72859200
29.59999841	0.00000000	-99.12032000	1.27337600
29.79999840	0.00000000	-91.02485000	-5.65944900
29.99999839	0.00000000	-76.41486000	-18.09793000
30.19999838	0.00000000	-59.01205000	-33.53223000
30.39999837	0.00000000	-42.72884000	-48.95423000
30.59999835	0.00000000	-30.67790000	-60.52534000
30.79999834	0.00000000	-24.81545000	-65.54503000
30.99999833	0.00000000	-25.93504000	-63.12745000
31.19999832	0.00000000	-33.23696000	-52.67593000
31.39999831	0.00000000	-44.86958000	-36.13435000
31.59999829	0.00000000	-58.41535000	-17.96260000
31.79999828	0.00000000	-71.16142000	-1.70398600
31.99999827	0.00000000	-80.09350000	9.48572700
32.19999826	0.00000000	-83.63065000	12.92446000
32.39999825	0.00000000	-81.71751000	7.90477300
32.59999824	0.00000000	-74.78469000	-4.86589500
32.79999822	0.00000000	-64.78223000	-22.61319000
32.99999821	0.00000000	-54.31225000	-41.52312000
33.19999820	0.00000000	-45.38017000	-57.36958000
33.39999819	0.00000000	-39.56693000	-66.66461000
33.59999818	0.00000000	-38.02903000	-67.82111000
33.79999816	0.00000000	-41.06176000	-60.52534000
33.99999815	0.00000000	-47.61319000	-46.63509000
34.19999814	0.00000000	-55.71481000	-29.62598000
34.39999813	0.00000000	-63.85334000	-12.57997000
34.59999812	0.00000000	-69.95570000	0.89812980
34.79999810	0.00000000	-72.32407000	7.86171200
34.99999809	0.00000000	-70.46629000	6.74827700
35.19999808	0.00000000	-65.85260000	-1.70398600
35.39999807	0.00000000	-59.66412000	-15.22515000
35.59999806	0.00000000	-53.14960000	-31.02239000
35.79999805	0.00000000	-48.54207000	-45.28789000
35.99999803	0.00000000	-46.91806000	-54.58292000
36.19999802	0.00000000	-48.08071000	-57.32037000
36.39999801	0.00000000	-51.56865000	-53.05118000
36.59999800	0.00000000	-56.92052000	-42.72884000
36.79999799	0.00000000	-62.27239000	-29.29995000
36.99999797	0.00000000	-65.76033000	-16.98450000
37.19999796	0.00000000	-66.97219000	-8.43996000
37.39999795	0.00000000	-65.76033000	-5.37032500
37.59999794	0.00000000	-62.31545000	-8.39074700
37.79999793	0.00000000	-57.33883000	-16.43085000
37.99999791	0.00000000	-52.73130000	-26.79626000
38.19999790	0.00000000	-49.56939000	-36.74335000
38.39999789	0.00000000	-48.03149000	-43.24557000
38.59999788	0.00000000	-48.45595000	-44.03912000
38.79999787	0.00000000	-51.15034000	-39.48080000
38.99999786	0.00000000	-55.33957000	-31.07160000
39.19999784	0.00000000	-59.61491000	-21.49975000
39.39999783	0.00000000	-63.10900000	-13.82874000
39.59999782	0.00000000	-65.47736000	-10.02092000
39.79999781	0.00000000	-66.22785000	-11.55266000
39.99999780	0.00000000	-65.47736000	-18.05487000
40.19999778	0.00000000	-63.10900000	-27.30684000
40.39999777	0.00000000	-59.66412000	-37.24778000
40.59999776	0.00000000	-55.75787000	-44.86958000
40.79999775	0.00000000	-52.31299000	-47.19488000
40.99999774	0.00000000	-49.94463000	-44.17446000
41.19999772	0.00000000	-49.15108000	-36.82948000
41.39999771	0.00000000	-49.52633000	-26.83932000
41.59999770	0.00000000	-51.15034000	-16.89222000
41.79999769	0.00000000	-54.22613000	-9.97170200
41.99999768	0.00000000	-58.03395000	-8.02165300
42.19999767	0.00000000	-61.15280000	-11.04208000
42.39999765	0.00000000	-63.15207000	-18.01181000
42.59999764	0.00000000	-64.31471000	-27.21457000
42.79999763	0.00000000	-64.31471000	-36.41117000
42.99999762	0.00000000	-63.15207000	-42.59350000
43.19999761	0.00000000	-61.24508000	-44.59276000
43.39999759	0.00000000	-58.91978000	-42.72884000
43.59999758	0.00000000	-57.01279000	-37.71530000
43.79999757	0.00000000	-55.80708000	-31.20078000
43.99999756	0.00000000	-55.38263000	-24.61245000
44.19999755	0.00000000	-55.29650000	-19.63582000
44.39999753	0.00000000	-54.92125000	-17.26747000
44.59999752	0.00000000	-54.17691000	-17.96260000
44.79999751	0.00000000	-53.80167000	-20.61393000
44.99999750	0.00000000	-53.80167000	-24.15108000
45.19999749	0.00000000	-54.22613000	-28.37721000
45.39999748	0.00000000	-55.43184000	-32.18504000
45.59999746	0.00000000	-57.38804000	-34.18430000
45.79999745	0.00000000	-60.12549000	-34.60261000
45.99999744	0.00000000	-63.24434000	-33.85211000
46.19999743	0.00000000	-66.32012000	-31.90822000
46.39999742	0.00000000	-68.59621000	-29.62598000
46.59999740	0.00000000	-68.92839000	-27.25763000
46.79999739	0.00000000	-66.92913000	-25.35064000
46.99999738	0.00000000	-62.27239000	-24.15108000
47.19999737	0.00000000	-55.71481000	-23.77584000
47.39999736	0.00000000	-49.15108000	-24.19414000
47.59999734	0.00000000	-43.75615000	-25.72589000
47.79999733	0.00000000	-41.10482000	-28.04503000
47.99999732	0.00000000	-42.31053000	-30.32726000
48.19999731	0.00000000	-47.33637000	-32.27731000
48.39999730	0.00000000	-55.47490000	-33.02165000
48.59999729	0.00000000	-64.68996000	-32.64640000
48.79999727	0.00000000	-72.78542000	-31.06545000
48.99999726	0.00000000	-77.39911000	-28.37721000
49.19999725	0.00000000	-77.44217000	-25.30758000
49.39999724	0.00000000	-73.16068000	-22.61319000
49.59999723	0.00000000	-65.43430000	-21.03838000
49.79999721	0.00000000	-55.75787000	-20.70620000
49.99999720	0.00000000	-46.54281000	-21.87500000
50.19999719	0.00000000	-39.98523000	-24.98154000
50.39999718	0.00000000	-38.07825000	-28.79552000
50.59999717	0.00000000	-41.14788000	-32.68946000
50.79999715	0.00000000	-48.45595000	-35.71604000
50.99999714	0.00000000	-58.04010000	-36.87254000
51.19999713	0.00000000	-66.92913000	-35.71604000
51.39999712	0.00000000	-73.11761000	-32.64640000
51.59999711	0.00000000	-75.44291000	-28.37721000
51.79999710	0.00000000	-73.11761000	-23.77584000
51.99999708	0.00000000	-67.01525000	-19.91880000
52.19999707	0.00000000	-58.91978000	-18.01181000
52.39999706	0.00000000	-51.24261000	-18.38706000
52.59999705	0.00000000	-45.84769000	-21.08145000
52.79999704	0.00000000	-44.30979000	-25.26452000
52.99999702	0.00000000	-46.91806000	-29.49065000
53.19999701	0.00000000	-52.26993000	-32.60334000
53.39999700	0.00000000	-58.45841000	-34.18430000
53.59999699	0.00000000	-64.22859000	-34.18430000
53.79999698	0.00000000	-68.04256000	-32.64640000
53.99999696	0.00000000	-68.46087000	-29.95201000
54.19999695	0.00000000	-65.80955000	-26.93159000
54.39999694	0.00000000	-61.19586000	-24.61245000
54.59999693	0.00000000	-55.80708000	-23.81890000
54.79999692	0.00000000	-51.24261000	-24.19414000
54.99999691	0.00000000	-48.91732000	-25.72589000
55.19999689	0.00000000	-49.66166000	-27.95891000
55.39999688	0.00000000	-52.68823000	-29.49065000
55.59999687	0.00000000	-56.92052000	-29.86589000
55.79999686	0.00000000	-61.15280000	-29.11540000
55.99999685	0.00000000	-64.27164000	-27.21457000
56.19999683	0.00000000	-65.80955000	-25.35064000
56.39999682	0.00000000	-65.38509000	-24.19414000
56.59999681	0.00000000	-62.73376000	-24.23720000
56.79999680	0.00000000	-58.91978000	-25.77510000
56.99999679	0.00000000	-55.47490000	-28.51255000
57.19999677	0.00000000	-53.10654000	-31.95128000
57.39999676	0.00000000	-52.35605000	-35.34079000
57.59999675	0.00000000	-53.10654000	-36.82948000
57.79999674	0.00000000	-55.43184000	-35.71604000
57.99999673	0.00000000	-58.40920000	-32.60334000
58.19999672	0.00000000	-60.77756000	-27.95275000
58.39999670	0.00000000	-61.99557000	-22.57013000
58.59999669	0.00000000	-62.73376000	-17.96260000
58.79999668	0.00000000	-62.31545000	-15.31742000
58.99999667	0.00000000	-60.45767000	-15.77879000
59.19999666	0.00000000	-58.54454000	-19.96186000
59.39999664	0.00000000	-56.96358000	-26.51329000
59.59999663	0.00000000	-55.85014000	-33.48917000
59.79999662	0.00000000	-55.85014000	-40.03444000
59.99999661	0.00000000	-56.96358000	-44.17446000
60.19999660	0.00000000	-58.50147000	-44.17446000
60.39999658	0.00000000	-60.03937000	-39.94832000
60.59999657	0.00000000	-61.15280000	-32.64640000
60.79999656	0.00000000	-61.15280000	-24.19414000
60.99999655	0.00000000	-60.03937000	-16.84916000
61.19999654	0.00000000	-58.50147000	-12.20472000
61.39999653	0.00000000	-56.96358000	-11.09129000
61.59999651	0.00000000	-55.80708000	-14.20399000
61.79999650	0.00000000	-55.43184000	-21.12451000
61.99999649	0.00000000	-55.85014000	-29.95817000
62.19999648	0.00000000	-57.38804000	-38.41043000
62.39999647	0.00000000	-59.66412000	-44.21752000
62.59999645	0.00000000	-61.57111000	-46.17372000
62.79999644	0.00000000	-62.77681000	-44.21752000
62.99999643	0.00000000	-63.15207000	-38.45964000
63.19999642	0.00000000	-62.73376000	-30.37647000
63.39999641	0.00000000	-61.15280000	-22.28100000
63.59999639	0.00000000	-58.50147000	-15.69267000
63.79999638	0.00000000	-55.80708000	-12.24778000
63.99999637	0.00000000	-53.89394000	-12.57382000
64.19999636	0.00000000	-53.10654000	-16.43085000
64.39999635	0.00000000	-53.89394000	-22.57013000
64.59999634	0.00000000	-55.75787000	-29.49065000
64.79999632	0.00000000	-58.12622000	-35.34079000
64.99999631	0.00000000	-60.45767000	-39.24704000
65.19999630	0.00000000	-62.73376000	-41.19709000
65.39999629	0.00000000	-63.85334000	-40.36663000
65.59999628	0.00000000	-63.15207000	-36.96481000
65.79999626	0.00000000	-61.62032000	-31.95128000
65.99999625	0.00000000	-59.66412000	-26.93159000
66.19999624	0.00000000	-57.38804000	-22.61319000
66.39999623	0.00000000	-55.85014000	-19.50049000
66.59999622	0.00000000	-55.47490000	-17.91953000
66.79999620	0.00000000	-56.22539000	-17.87647000
66.99999619	0.00000000	-58.12622000	-19.08218000
67.19999618	0.00000000	-59.99015000	-21.40748000
67.39999617	0.00000000	-61.15280000	-24.88927000
67.59999616	0.00000000	-61.15280000	-28.37721000
67.79999615	0.00000000	-60.03937000	-31.57603000
67.99999613	0.00000000	-58.45841000	-34.64567000
68.19999612	0.00000000	-56.54527000	-36.96481000
68.39999611	0.00000000	-54.64444000	-37.71530000
68.59999610	0.00000000	-53.93700000	-36.96481000
68.79999609	0.00000000	-54.68750000	-34.60261000
68.99999607	0.00000000	-57.05585000	-31.11466000
69.19999606	0.00000000	-60.45767000	-26.79626000
69.39999605	0.00000000	-63.93946000	-22.19488000
69.59999604	0.00000000	-66.22785000	-18.33784000
69.79999603	0.00000000	-67.01525000	-16.43085000
69.99999601	0.00000000	-65.76033000	-16.80610000
70.19999600	0.00000000	-62.31545000	-19.54355000
70.39999599	0.00000000	-57.33883000	-24.15108000
70.59999598	0.00000000	-52.73130000	-29.58292000
70.79999597	0.00000000	-49.56939000	-34.60261000
70.99999596	0.00000000	-48.08071000	-38.45964000
71.19999594	0.00000000	-48.87426000	-39.94832000
71.39999593	0.00000000	-52.35605000	-38.45964000
71.59999592	0.00000000	-57.33883000	-34.64567000
71.79999591	0.00000000	-62.78297000	-30.04429000
71.99999590	0.00000000	-67.39050000	-25.72589000
72.19999588	0.00000000	-70.13410000	-22.23794000
72.39999587	0.00000000	-70.50935000	-19.96186000
72.59999586	0.00000000	-68.55315000	-19.96186000
72.79999585	0.00000000	-64.27164000	-22.19488000
72.99999584	0.00000000	-58.54454000	-25.21530000
73.19999582	0.00000000	-53.14960000	-27.95891000
73.39999581	0.00000000	-49.66166000	-29.90895000
73.59999580	0.00000000	-48.45595000	-31.06545000
73.79999579	0.00000000	-49.61245000	-31.06545000
73.99999578	0.00000000	-52.68823000	-29.95201000
74.19999577	0.00000000	-56.96358000	-28.51255000
74.39999575	0.00000000	-61.62032000	-27.76821000
74.59999574	0.00000000	-65.80955000	-28.46333000
74.79999573	0.00000000	-68.13484000	-29.58292000
74.99999572	0.00000000	-67.80880000	-30.41954000
75.19999571	0.00000000	-65.94488000	-31.57603000
75.39999569	0.00000000	-63.20127000	-32.64640000
75.59999568	0.00000000	-60.12549000	-32.60334000
75.79999567	0.00000000	-57.43110000	-31.06545000
75.99999566	0.00000000	-55.85014000	-28.32800000
76.19999565	0.00000000	-55.43184000	-24.88927000
76.39999563	0.00000000	-55.80708000	-21.49975000
76.59999562	0.00000000	-56.96358000	-20.01107000
76.79999561	0.00000000	-58.45841000	-21.08145000
76.99999560	0.00000000	-59.61491000	-23.81890000
77.19999559	0.00000000	-60.03937000	-27.72515000
77.39999558	0.00000000	-60.08243000	-32.73868000
77.59999556	0.00000000	-60.08243000	-37.29700000
77.79999555	0.00000000	-60.08243000	-40.03444000
77.99999554	0.00000000	-60.12549000	-40.36663000
78.19999553	0.00000000	-60.50073000	-38.03519000
78.39999552	0.00000000	-61.28814000	-33.02165000
78.59999550	0.00000000	-61.99557000	-26.88853000
78.79999549	0.00000000	-62.40772000	-21.08145000
78.99999548	0.00000000	-61.94635000	-16.84916000
79.19999547	0.00000000	-60.82677000	-15.26821000
79.39999546	0.00000000	-58.87672000	-16.43085000
79.59999544	0.00000000	-56.96358000	-19.87574000
79.79999543	0.00000000	-55.38263000	-24.93233000
79.99999542	0.00000000	-54.26919000	-30.32726000
80.19999541	0.00000000	-54.31225000	-35.34079000
80.39999540	0.00000000	-55.80708000	-38.41043000
80.59999539	0.00000000	-58.12622000	-38.87795000
80.79999537	0.00000000	-60.45767000	-37.38312000
80.99999536	0.00000000	-62.77681000	-34.64567000
81.19999535	0.00000000	-64.27164000	-31.11466000
81.39999534	0.00000000	-64.31471000	-26.83932000
81.59999533	0.00000000	-63.15207000	-22.61319000
81.79999531	0.00000000	-61.24508000	-19.54355000
81.99999530	0.00000000	-58.91978000	-18.29478000
82.19999529	0.00000000	-56.96358000	-18.66388000
82.39999528	0.00000000	-55.43184000	-19.82652000
82.59999527	0.00000000	-54.68750000	-22.23794000
82.79999525	0.00000000	-55.43184000	-25.68282000
82.99999524	0.00000000	-56.92052000	-29.58292000
83.19999523	0.00000000	-58.50147000	-33.06471000
83.39999522	0.00000000	-60.03937000	-35.80217000
83.59999521	0.00000000	-61.19586000	-37.34006000
83.79999520	0.00000000	-61.57111000	-37.34006000
83.99999518	0.00000000	-61.24508000	-35.75910000
84.19999517	0.00000000	-60.50073000	-32.64640000
84.39999516	0.00000000	-60.12549000	-28.37721000
84.59999515	0.00000000	-60.08243000	-23.77584000
84.79999514	0.00000000	-60.08243000	-19.91880000
84.99999512	0.00000000	-60.08243000	-17.96260000
85.19999511	0.00000000	-60.03937000	-17.96260000
85.39999510	0.00000000	-59.66412000	-19.91880000
85.59999509	0.00000000	-58.87672000	-23.81890000
85.79999508	0.00000000	-58.12622000	-28.79552000
85.99999506	0.00000000	-57.33883000	-33.80905000
86.19999505	0.00000000	-57.01279000	-37.29700000
86.39999504	0.00000000	-57.38804000	-38.87795000
86.59999503	0.00000000	-58.54454000	-38.45349000
86.79999502	0.00000000	-60.08243000	-35.75910000
86.99999501	0.00000000	-61.62032000	-31.53297000
87.19999499	0.00000000	-62.77681000	-26.88238000
87.39999498	0.00000000	-63.15207000	-22.61319000
87.59999497	0.00000000	-62.77681000	-19.54355000
87.79999496	0.00000000	-61.62032000	-18.43012000
87.99999495	0.00000000	-60.08243000	-19.96186000
88.19999493	0.00000000	-58.50147000	-23.81890000
88.39999492	0.00000000	-56.96358000	-28.79552000
88.59999491	0.00000000	-55.85014000	-33.80905000
88.79999490	0.00000000	-55.85014000	-37.25394000
88.99999489	0.00000000	-56.96358000	-38.41043000
89.19999487	0.00000000	-58.54454000	-36.87869000
89.39999486	0.00000000	-60.45767000	-33.06471000
89.59999485	0.00000000	-62.35851000	-28.46333000
89.79999484	0.00000000	-63.15207000	-24.19414000
89.99999483	0.00000000	-63.20127000	-21.12451000
90.19999482	0.00000000	-62.77681000	-19.96801000
90.39999480	0.00000000	-61.62032000	-21.16757000
90.59999479	0.00000000	-60.12549000	-24.56939000
90.79999478	0.00000000	-58.91978000	-29.20767000
90.99999477	0.00000000	-58.16929000	-33.39690000
91.19999476	0.00000000	-57.75713000	-36.50344000
91.39999474	0.00000000	-58.12622000	-37.20472000
91.59999473	0.00000000	-58.50147000	-35.34079000
91.79999472	0.00000000	-58.91978000	-31.48376000
91.99999471	0.00000000	-59.66412000	-26.88238000
92.19999470	0.00000000	-60.03937000	-22.69931000
92.39999468	0.00000000	-60.08243000	-20.38632000
92.59999467	0.00000000	-60.08243000	-20.74926000
92.79999466	0.00000000	-60.12549000	-23.03149000
92.99999465	0.00000000	-60.50073000	-26.93159000
93.19999464	0.00000000	-61.28814000	-31.48376000
93.39999463	0.00000000	-61.99557000	-35.29773000
93.59999461	0.00000000	-62.40772000	-36.82948000
93.79999460	0.00000000	-61.99557000	-35.71604000
93.99999459	0.00000000	-61.24508000	-32.68946000
94.19999458	0.00000000	-60.03937000	-28.79552000
94.39999457	0.00000000	-58.50147000	-24.98154000
94.59999455	0.00000000	-56.92052000	-21.87500000
94.79999454	0.00000000	-55.43184000	-20.79847000
94.99999453	0.00000000	-54.68750000	-21.91806000
95.19999452	0.00000000	-55.47490000	-25.35679000
95.39999451	0.00000000	-57.38804000	-29.53371000
95.59999449	0.00000000	-60.12549000	-33.02165000
95.79999448	0.00000000	-63.20127000	-35.34079000
95.99999447	0.00000000	-65.89567000	-35.71604000
96.19999446	0.00000000	-67.39050000	-34.18430000
96.39999445	0.00000000	-67.01525000	-31.11466000
96.59999444	0.00000000	-64.73917000	-27.30684000
96.79999442	0.00000000	-61.62032000	-24.23720000
96.99999441	0.00000000	-58.08316000	-22.65625000
97.19999440	0.00000000	-54.26919000	-22.65625000
97.39999439	0.00000000	-51.56865000	-24.19414000
97.59999438	0.00000000	-50.77510000	-26.83932000
97.79999436	0.00000000	-51.56865000	-29.53371000
97.99999435	0.00000000	-54.31225000	-31.48991000
98.19999434	0.00000000	-58.50147000	-32.64640000
98.39999433	0.00000000	-62.77681000	-32.60334000
98.59999432	0.00000000	-66.27091000	-31.11466000
98.79999430	0.00000000	-68.59621000	-28.88164000
98.99999429	0.00000000	-68.97145000	-27.34990000
99.19999428	0.00000000	-67.43970000	-26.88238000
99.39999427	0.00000000	-64.36392000	-26.83932000
99.59999426	0.00000000	-60.50073000	-26.83932000
99.79999425	0.00000000	-56.96358000	-26.83932000
99.99999423	0.00000000	-53.89394000	-26.83932000
100.19999422	0.00000000	-51.99311000	-26.83932000
100.39999421	0.00000000	-52.35605000	-26.83932000
100.59999420	0.00000000	-54.22613000	-26.83932000
100.79999419	0.00000000	-56.96358000	-26.83932000
100.99999417	0.00000000	-60.08243000	-26.88238000
101.19999416	0.00000000	-63.15207000	-27.30684000
101.39999415	0.00000000	-65.47736000	-28.46333000
101.59999414	0.00000000	-66.31397000	-29.95201000
101.79999413	0.00000000	-66.31397000	-31.11466000
101.99999411	0.00000000	-65.47736000	-31.48376000
102.19999410	0.00000000	-63.20127000	-31.11466000
102.39999409	0.00000000	-60.50073000	-29.90895000
102.59999408	0.00000000	-58.16929000	-28.00197000
102.79999407	0.00000000	-56.22539000	-25.68282000
102.99999406	0.00000000	-55.43184000	-23.77584000
103.19999404	0.00000000	-55.38263000	-22.65625000
103.39999403	0.00000000	-55.85014000	-23.07455000
103.59999402	0.00000000	-57.38804000	-25.35064000
103.79999401	0.00000000	-59.70718000	-28.37721000
103.99999400	0.00000000	-61.99557000	-31.15772000
104.19999398	0.00000000	-63.93946000	-33.43996000
104.39999397	0.00000000	-64.68996000	-34.92249000
104.59999396	0.00000000	-64.35777000	-34.18430000
104.79999395	0.00000000	-63.20127000	-31.95128000
104.99999394	0.00000000	-61.66338000	-29.62598000
105.19999392	0.00000000	-60.08243000	-27.25763000
105.39999391	0.00000000	-58.59375000	-25.35064000
105.59999390	0.00000000	-57.80634000	-24.19414000
105.79999389	0.00000000	-58.16929000	-24.23720000
105.99999388	0.00000000	-58.91978000	-25.72589000
106.19999387	0.00000000	-60.08243000	-28.04503000
106.39999385	0.00000000	-61.24508000	-30.32726000
106.59999384	0.00000000	-61.99557000	-32.22810000
106.79999383	0.00000000	-62.40772000	-32.60334000
106.99999382	0.00000000	-61.99557000	-31.53297000
107.19999381	0.00000000	-61.24508000	-30.00123000
107.39999379	0.00000000	-60.08243000	-28.42027000
107.59999378	0.00000000	-58.96899000	-26.88853000
107.79999377	0.00000000	-58.59375000	-25.72589000
107.99999376	0.00000000	-58.91978000	-25.39985000
108.19999375	0.00000000	-59.70718000	-26.14419000
108.39999374	0.00000000	-60.50073000	-28.04503000
108.59999372	0.00000000	-61.66338000	-29.95201000
108.79999371	0.00000000	-62.77681000	-31.48991000
108.99999370	0.00000000	-63.15207000	-32.27116000
109.19999369	0.00000000	-62.77681000	-31.85900000
109.39999368	0.00000000	-61.62032000	-30.73942000
109.59999366	0.00000000	-60.12549000	-28.79552000
109.79999365	0.00000000	-58.91978000	-26.93159000
109.99999364	0.00000000	-58.16929000	-25.72589000
110.19999363	0.00000000	-57.75713000	-25.30758000
110.39999362	0.00000000	-58.16929000	-25.35679000
110.59999360	0.00000000	-58.91978000	-26.14419000
110.79999359	0.00000000	-60.12549000	-28.04503000
110.99999358	0.00000000	-61.62032000	-29.90895000
111.19999357	0.00000000	-62.77681000	-31.11466000
111.39999356	0.00000000	-63.15207000	-31.53297000
111.59999355	0.00000000	-62.82603000	-31.53297000
111.79999353	0.00000000	-62.03863000	-31.11466000
111.99999352	0.00000000	-61.24508000	-29.95201000
112.19999351	0.00000000	-60.08243000	-28.46333000
112.39999350	0.00000000	-58.96899000	-27.30684000
112.59999349	0.00000000	-58.59375000	-26.88238000
112.79999347	0.00000000	-58.91978000	-26.83932000
112.99999346	0.00000000	-59.66412000	-26.83932000
113.19999345	0.00000000	-60.08243000	-26.88238000
113.39999344	0.00000000	-60.50073000	-27.25763000
113.59999343	0.00000000	-61.24508000	-28.00197000
113.79999341	0.00000000	-61.57111000	-28.37721000
113.99999340	0.00000000	-61.28814000	-28.42027000
114.19999339	0.00000000	-60.87598000	-28.42027000
114.39999338	0.00000000	-60.86983000	-28.46333000
114.59999337	0.00000000	-60.45767000	-28.83858000
114.79999336	0.00000000	-60.12549000	-29.58292000
114.99999334	0.00000000	-60.08243000	-29.95817000
115.19999333	0.00000000	-60.08243000	-29.95817000
115.39999332	0.00000000	-60.08243000	-29.58292000
115.59999331	0.00000000	-60.08243000	-28.83858000
115.79999330	0.00000000	-60.12549000	-28.42027000
115.99999328	0.00000000	-60.50073000	-28.00197000
116.19999327	0.00000000	-61.24508000	-27.25763000
116.39999326	0.00000000	-61.62032000	-26.88238000
116.59999325	0.00000000	-61.66338000	-26.83932000
116.79999324	0.00000000	-61.66338000	-26.88238000
116.99999322	0.00000000	-61.62032000	-27.25763000
117.19999321	0.00000000	-61.24508000	-28.04503000
117.39999320	0.00000000	-60.45767000	-28.79552000
117.59999319	0.00000000	-59.66412000	-29.58292000
117.79999318	0.00000000	-58.54454000	-29.95817000
117.99999317	0.00000000	-57.80634000	-30.04429000
118.19999315	0.00000000	-58.16929000	-30.37647000
118.39999314	0.00000000	-58.91978000	-30.69636000
118.59999313	0.00000000	-60.12549000	-29.95201000
118.79999312	0.00000000	-61.62032000	-28.88779000
118.99999311	0.00000000	-62.77681000	-28.46333000
119.19999309	0.00000000	-63.24434000	-28.37721000
119.39999308	0.00000000	-63.61958000	-28.00197000
119.59999307	0.00000000	-63.93946000	-27.30684000
119.79999306	0.00000000	-63.15207000	-27.30684000
119.99999305	0.00000000	-61.66338000	-28.00197000
120.19999303	0.00000000	-60.12549000	-28.37721000
120.39999302	0.00000000	-58.91978000	-28.42027000
120.59999301	0.00000000	-58.16929000	-28.46333000
120.79999300	0.00000000	-57.75713000	-28.83858000
120.99999299	0.00000000	-58.16929000	-29.58292000
121.19999298	0.00000000	-58.91978000	-29.95817000
121.39999296	0.00000000	-60.12549000	-30.00123000
121.59999295	0.00000000	-61.62032000	-30.00123000
121.79999294	0.00000000	-62.82603000	-30.00123000
121.99999293	0.00000000	-63.61958000	-30.00123000
122.19999292	0.00000000	-64.35777000	-29.95817000
122.39999290	0.00000000	-64.35777000	-29.58292000
122.59999289	0.00000000	-63.61958000	-28.83858000
122.79999288	0.00000000	-62.82603000	-28.42027000
122.99999287	0.00000000	-61.66338000	-28.04503000
123.19999286	0.00000000	-60.54995000	-27.67593000
123.39999284	0.00000000	-60.08243000	-28.08809000
123.59999283	0.00000000	-59.70718000	-28.79552000
123.79999282	0.00000000	-59.33809000	-29.58292000
123.99999281	0.00000000	-59.75024000	-30.00123000
124.19999280	0.00000000	-60.45767000	-30.37647000
124.39999279	0.00000000	-61.24508000	-30.78248000
124.59999277	0.00000000	-61.66338000	-30.74557000
124.79999276	0.00000000	-62.08169000	-30.73942000
124.99999275	0.00000000	-62.82603000	-29.95201000
125.19999274	0.00000000	-63.20127000	-28.88779000
125.39999273	0.00000000	-63.20127000	-28.46333000
125.59999271	0.00000000	-62.82603000	-28.37721000
125.79999270	0.00000000	-62.03863000	-28.00197000
125.99999269	0.00000000	-61.28814000	-27.25763000
126.19999268	0.00000000	-60.50073000	-26.93159000
126.39999267	0.00000000	-60.08243000	-27.25763000
126.59999265	0.00000000	-59.70718000	-28.00197000
126.79999264	0.00000000	-59.33809000	-28.37721000
126.99999263	0.00000000	-59.75024000	-28.46333000
127.19999262	0.00000000	-60.45767000	-28.83858000
127.39999261	0.00000000	-61.28814000	-29.53371000
127.59999260	0.00000000	-62.03863000	-29.53371000
127.79999258	0.00000000	-62.82603000	-28.83858000
127.99999257	0.00000000	-63.20127000	-28.46333000
128.19999256	0.00000000	-63.20127000	-28.42027000
128.39999255	0.00000000	-62.77681000	-28.37721000
128.59999254	0.00000000	-61.66338000	-28.00197000
128.79999252	0.00000000	-60.50073000	-27.25763000
128.99999251	0.00000000	-59.70718000	-26.88238000
129.19999250	0.00000000	-58.91978000	-26.88238000
129.39999249	0.00000000	-58.59375000	-27.25763000
129.59999248	0.00000000	-58.96899000	-28.00197000
129.79999246	0.00000000	-60.12549000	-28.37721000
129.99999245	0.00000000	-61.62032000	-28.42027000
130.19999244	0.00000000	-62.77681000	-28.42027000
130.39999243	0.00000000	-63.20127000	-28.42027000
130.59999242	0.00000000	-63.20127000	-28.42027000
130.79999241	0.00000000	-62.77681000	-28.37721000
130.99999239	0.00000000	-61.66338000	-28.00197000
131.19999238	0.00000000	-60.54995000	-27.30684000
131.39999237	0.00000000	-60.12549000	-27.30684000
131.59999236	0.00000000	-60.08243000	-28.04503000
131.79999235	0.00000000	-60.08243000	-28.79552000
131.99999233	0.00000000	-60.12549000	-29.62598000
132.19999232	0.00000000	-60.50073000	-30.32726000
132.39999231	0.00000000	-61.28814000	-30.73942000
132.59999230	0.00000000	-62.03863000	-30.37647000
132.79999229	0.00000000	-62.77681000	-30.00123000
132.99999227	0.00000000	-62.77681000	-29.58292000
133.19999226	0.00000000	-62.08169000	-28.79552000
133.39999225	0.00000000	-61.70644000	-28.04503000
133.59999224	0.00000000	-61.66338000	-27.25763000
133.79999223	0.00000000	-61.66338000	-26.93159000
133.99999222	0.00000000	-61.66338000	-27.25763000
134.19999220	0.00000000	-61.66338000	-28.04503000
134.39999219	0.00000000	-61.66338000	-28.79552000
134.59999218	0.00000000	-61.66338000	-29.62598000
134.79999217	0.00000000	-61.66338000	-30.37647000
134.99999216	0.00000000	-61.62032000	-31.15772000
135.19999214	0.00000000	-61.28814000	-31.53297000
135.39999213	0.00000000	-60.91904000	-31.53297000
135.59999212	0.00000000	-61.28814000	-31.15772000
135.79999211	0.00000000	-61.62032000	-30.37647000
135.99999210	0.00000000	-61.70644000	-29.62598000
136.19999208	0.00000000	-62.08169000	-28.83858000
136.39999207	0.00000000	-62.82603000	-28.46333000
136.59999206	0.00000000	-63.20127000	-28.42027000
136.79999205	0.00000000	-63.24434000	-28.42027000
136.99999204	0.00000000	-63.20127000	-28.46333000
137.19999203	0.00000000	-62.82603000	-28.83858000
137.39999201	0.00000000	-62.08169000	-29.58292000
137.59999200	0.00000000	-61.66338000	-29.95817000
137.79999199	0.00000000	-61.24508000	-30.00123000
137.99999198	0.00000000	-60.50073000	-30.04429000
138.19999197	0.00000000	-60.17470000	-30.37647000
138.39999195	0.00000000	-60.50073000	-30.73942000
138.59999194	0.00000000	-61.28814000	-30.37647000
138.79999193	0.00000000	-62.03863000	-30.00123000
138.99999192	0.00000000	-62.82603000	-29.58292000
139.19999191	0.00000000	-63.20127000	-28.83858000
139.39999189	0.00000000	-63.24434000	-28.42027000
139.59999188	0.00000000	-63.20127000	-28.00197000
139.79999187	0.00000000	-62.77681000	-27.25763000
139.99999186	0.00000000	-61.66338000	-26.93159000
140.19999185	0.00000000	-60.59301000	-27.30684000
140.39999184	0.00000000	-60.50073000	-28.42027000
140.59999182	0.00000000	-60.86983000	-29.53371000
140.79999181	0.00000000	-60.87598000	-30.00123000
140.99999180	0.00000000	-61.28814000	-30.41954000
141.19999179	0.00000000	-61.66338000	-31.11466000
141.39999178	0.00000000	-62.08169000	-31.11466000
141.59999176	0.00000000	-62.77681000	-30.37647000
141.79999175	0.00000000	-62.77681000	-29.58292000
141.99999174	0.00000000	-62.08169000	-28.42027000
142.19999173	0.00000000	-61.66338000	-27.30684000
142.39999172	0.00000000	-61.28814000	-26.88238000
142.59999170	0.00000000	-60.91904000	-26.88238000
142.79999169	0.00000000	-61.28814000	-27.25763000
142.99999168	0.00000000	-61.62032000	-28.04503000
143.19999167	0.00000000	-61.66338000	-28.79552000
143.39999166	0.00000000	-61.70644000	-29.62598000
143.59999165	0.00000000	-62.03863000	-30.32726000
143.79999163	0.00000000	-62.40772000	-30.73942000
143.99999162	0.00000000	-62.03863000	-30.37647000
144.19999161	0.00000000	-61.70644000	-30.00123000
144.39999160	0.00000000	-61.66338000	-29.58292000
144.59999159	0.00000000	-61.62032000	-28.79552000
144.79999157	0.00000000	-61.28814000	-28.04503000
144.99999156	0.00000000	-60.91904000	-27.25763000
145.19999155	0.00000000	-61.28814000	-26.88238000
145.39999154	0.00000000	-61.62032000	-26.88238000
145.59999153	0.00000000	-61.70644000	-27.30684000
145.79999151	0.00000000	-62.03863000	-28.37721000
145.99999150	0.00000000	-62.40772000	-29.16461000
146.19999149	0.00000000	-62.08169000	-29.21383000
146.39999148	0.00000000	-62.08169000	-29.62598000
146.59999147	0.00000000	-62.40772000	-29.95817000
146.79999146	0.00000000	-62.03863000	-29.95817000
146.99999144	0.00000000	-61.70644000	-29.58292000
147.19999143	0.00000000	-61.66338000	-28.83858000
147.39999142	0.00000000	-61.66338000	-28.46333000
147.59999141	0.00000000	-61.66338000	-28.42027000
147.79999140	0.00000000	-61.66338000	-28.42027000
147.99999138	0.00000000	-61.70644000	-28.42027000
148.19999137	0.00000000	-62.08169000	-28.42027000
148.39999136	0.00000000	-62.82603000	-28.42027000
148.59999135	0.00000000	-63.20127000	-28.46333000
148.79999134	0.00000000	-63.24434000	-28.83858000
148.99999132	0.00000000	-63.20127000	-29.58292000
149.19999131	0.00000000	-62.82603000	-29.95817000
149.39999130	0.00000000	-62.08169000	-30.00123000
149.59999129	0.00000000	-61.70644000	-30.00123000
149.79999128	0.00000000	-61.66338000	-30.00123000
149.99999127	0.00000000	-61.66338000	-29.95817000
150.19999125	0.00000000	-61.66338000	-29.58292000
150.39999124	0.00000000	-61.66338000	-28.83858000
150.59999123	0.00000000	-61.66338000	-28.46333000
150.79999122	0.00000000	-61.70644000	-28.42027000
150.99999121	0.00000000	-62.08169000	-28.42027000
151.19999119	0.00000000	-62.82603000	-28.42027000
151.39999118	0.00000000	-63.20127000	-28.46333000
151.59999117	0.00000000	-63.24434000	-28.83858000
151.79999116	0.00000000	-63.24434000	-29.58292000
151.99999115	0.00000000	-63.24434000	-29.95817000
152.19999113	0.00000000	-63.20127000	-30.00123000
152.39999112	0.00000000	-62.82603000	-30.00123000
152.59999111	0.00000000	-62.08169000	-30.00123000
152.79999110	0.00000000	-61.70644000	-30.00123000
152.99999109	0.00000000	-61.66338000	-30.00123000
153.19999108	0.00000000	-61.66338000	-29.95817000
153.39999106	0.00000000	-61.66338000	-29.58292000
153.59999105	0.00000000	-61.70644000	-28.83858000
153.79999104	0.00000000	-62.08169000	-28.46333000
153.99999103	0.00000000	-62.82603000	-28.46333000
154.19999102	0.00000000	-63.20127000	-28.83858000
154.39999100	0.00000000	-63.24434000	-29.53371000
154.59999099	0.00000000	-63.24434000	-29.58292000
154.79999098	0.00000000	-63.20127000	-29.21383000
154.99999097	0.00000000	-62.82603000	-29.20767000
155.19999096	0.00000000	-62.08169000	-28.83858000
155.39999094	0.00000000	-61.70644000	-28.88779000
155.59999093	0.00000000	-61.66338000	-29.58292000
155.79999092	0.00000000	-61.66338000	-29.95817000
155.99999091	0.00000000	-61.66338000	-30.00123000
156.19999090	0.00000000	-61.66338000	-30.00123000
156.39999089	0.00000000	-61.70644000	-29.95817000
156.59999087	0.00000000	-62.08169000	-29.58292000
156.79999086	0.00000000	-62.82603000	-28.83858000
156.99999085	0.00000000	-63.20127000	-28.46333000
157.19999084	0.00000000	-63.24434000	-28.42027000
157.39999083	0.00000000	-63.24434000	-28.42027000
157.59999081	0.00000000	-63.24434000	-28.42027000
157.79999080	0.00000000	-63.20127000	-28.42027000
157.99999079	0.00000000	-62.82603000	-28.46333000
158.19999078	0.00000000	-62.08169000	-28.83858000
158.39999077	0.00000000	-61.70644000	-29.58292000
158.59999075	0.00000000	-61.66338000	-29.95817000
158.79999074	0.00000000	-61.66338000	-30.00123000
158.99999073	0.00000000	-61.66338000	-30.00123000
159.19999072	0.00000000	-61.66338000	-29.95817000
159.39999071	0.00000000	-61.70644000	-29.58292000
159.59999070	0.00000000	-62.08169000	-28.83858000
159.79999068	0.00000000	-62.82603000	-28.42027000
159.99999067	0.00000000	-63.20127000	-28.04503000
160.19999066	0.00000000	-63.24434000	-27.67593000
160.39999065	0.00000000	-63.24434000	-28.04503000
160.59999064	0.00000000	-63.24434000	-28.37721000
160.79999062	0.00000000	-63.24434000	-28.42027000
160.99999061	0.00000000	-63.24434000	-28.46333000
161.19999060	0.00000000	-63.20127000	-28.83858000
161.39999059	0.00000000	-62.82603000	-29.58292000
161.59999058	0.00000000	-62.08169000	-29.95817000
161.79999056	0.00000000	-61.70644000	-29.95817000
161.99999055	0.00000000	-61.66338000	-29.58292000
162.19999054	0.00000000	-61.66338000	-28.83858000
162.39999053	0.00000000	-61.66338000	-28.46333000
162.59999052	0.00000000	-61.70644000	-28.42027000
162.79999051	0.00000000	-62.08169000	-28.42027000
162.99999049	0.00000000	-62.82603000	-28.42027000
163.19999048	0.00000000	-63.20127000	-28.42027000
163.39999047	0.00000000	-63.24434000	-28.42027000
163.59999046	0.00000000	-63.24434000	-28.42027000
163.79999045	0.00000000	-63.24434000	-28.46333000
163.99999043	0.00000000	-63.24434000	-28.83858000
164.19999042	0.00000000	-63.24434000	-29.58292000
164.39999041	0.00000000	-63.24434000	-29.95817000
164.59999040	0.00000000	-63.20127000	-30.00123000
164.79999039	0.00000000	-62.82603000	-30.00123000
164.99999037	0.00000000	-62.08169000	-30.00123000
165.19999036	0.00000000	-61.70644000	-30.00123000
165.39999035	0.00000000	-61.66338000	-29.95817000
165.59999034	0.00000000	-61.70644000	-29.62598000
165.79999033	0.00000000	-62.08169000	-29.25689000
165.99999032	0.00000000	-62.82603000	-29.62598000
166.19999030	0.00000000	-63.20127000	-29.90895000
166.39999029	0.00000000	-63.28740000	-29.62598000
166.59999028	0.00000000	-63.61958000	-29.25689000
166.79999027	0.00000000	-64.03174000	-29.62598000
166.99999026	0.00000000	-63.99483000	-29.95817000
167.19999024	0.00000000	-64.03174000	-30.00123000
167.39999023	0.00000000	-63.61958000	-30.00123000
167.59999022	0.00000000	-63.28740000	-30.00123000
167.79999021	0.00000000	-63.20127000	-30.00123000
167.99999020	0.00000000	-62.82603000	-30.00123000
168.19999018	0.00000000	-62.13090000	-30.00123000
168.39999017	0.00000000	-62.13090000	-30.00123000
168.59999016	0.00000000	-62.82603000	-30.00123000
168.79999015	0.00000000	-63.20127000	-30.00123000
168.99999014	0.00000000	-63.24434000	-30.00123000
169.19999013	0.00000000	-63.24434000	-30.00123000
169.39999011	0.00000000	-63.24434000	-30.00123000
169.59999010	0.00000000	-63.28740000	-30.00123000
169.79999009	0.00000000	-63.61958000	-30.00123000
169.99999008	0.00000000	-63.98867000	-30.00123000
170.19999007	0.00000000	-63.61958000	-30.00123000
170.39999005	0.00000000	-63.28740000	-30.00123000
170.59999004	0.00000000	-63.24434000	-30.00123000
170.79999003	0.00000000	-63.24434000	-30.00123000
170.99999002	0.00000000	-63.24434000	-30.00123000
171.19999001	0.00000000	-63.20127000	-30.00123000
171.39998999	0.00000000	-62.82603000	-30.00123000
171.59998998	0.00000000	-62.13090000	-30.00123000
171.79998997	0.00000000	-62.13090000	-30.00123000
171.99998996	0.00000000	-62.82603000	-30.00123000
172.19998995	0.00000000	-63.20127000	-29.95817000
172.39998994	0.00000000	-63.24434000	-29.62598000
172.59998992	0.00000000	-63.24434000	-29.25689000
172.79998991	0.00000000	-63.24434000	-29.62598000
172.99998990	0.00000000	-63.24434000	-29.95817000
173.19998989	0.00000000	-63.24434000	-30.00123000
173.39998988	0.00000000	-63.24434000	-30.00123000
173.59998986	0.00000000	-63.24434000	-30.00123000
173.79998985	0.00000000	-63.24434000	-30.00123000
173.99998984	0.00000000	-63.20127000	-30.00123000
174.19998983	0.00000000	-62.86909000	-30.00123000
174.39998982	0.00000000	-62.50000000	-30.00123000
174.59998980	0.00000000	-62.86909000	-30.00123000
174.79998979	0.00000000	-63.20127000	-30.00123000
174.99998978	0.00000000	-63.24434000	-30.00123000
175.19998977	0.00000000	-63.24434000	-30.00123000
175.39998976	0.00000000	-63.24434000	-30.00123000
175.59998975	0.00000000	-63.24434000	-29.95817000
175.79998973	0.00000000	-63.24434000	-29.58292000
175.99998972	0.00000000	-63.24434000	-28.83858000
176.19998971	0.00000000	-63.24434000	-28.46333000
176.39998970	0.00000000	-63.20127000	-28.42027000
176.59998969	0.00000000	-62.86909000	-28.42027000
176.79998967	0.00000000	-62.50000000	-28.42027000
176.99998966	0.00000000	-62.86909000	-28.46333000
177.19998965	0.00000000	-63.20127000	-28.79552000
177.39998964	0.00000000	-63.24434000	-29.20767000
177.59998963	0.00000000	-63.24434000	-29.21383000
177.79998961	0.00000000	-63.24434000	-29.62598000
177.99998960	0.00000000	-63.24434000	-29.90895000
178.19998959	0.00000000	-63.24434000	-29.58292000
178.39998958	0.00000000	-63.24434000	-28.83858000
178.59998957	0.00000000	-63.24434000	-28.46333000
178.79998956	0.00000000	-63.24434000	-28.42027000
178.99998954	0.00000000	-63.24434000	-28.42027000
179.19998953	0.00000000	-63.24434000	-28.42027000
179.39998952	0.00000000	-63.24434000	-28.42027000
179.59998951	0.00000000	-63.24434000	-28.42027000
179.79998950	0.00000000	-63.24434000	-28.46333000
179.99998948	0.00000000	-63.24434000	-28.83858000
180.19998947	0.00000000	-63.24434000	-29.58292000
180.39998946	0.00000000	-63.24434000	-29.95817000
180.59998945	0.00000000	-63.24434000	-30.04429000
180.79998944	0.00000000	-63.24434000	-30.37647000
180.99998942	0.00000000	-63.24434000	-30.73942000
181.19998941	0.00000000	-63.24434000	-30.37647000
181.39998940	0.00000000	-63.24434000	-30.04429000
181.59998939	0.00000000	-63.24434000	-30.00123000
181.79998938	0.00000000	-63.24434000	-29.95817000
181.99998937	0.00000000	-63.24434000	-29.62598000
182.19998935	0.00000000	-63.24434000	-29.25689000
182.39998934	0.00000000	-63.24434000	-29.62598000
182.59998933	0.00000000	-63.24434000	-29.95817000
182.79998932	0.00000000	-63.24434000	-30.04429000
182.99998931	0.00000000	-63.24434000	-30.41954000
183.19998929	0.00000000	-63.24434000	-31.15772000
183.39998928	0.00000000	-63.24434000	-31.53297000
183.59998927	0.00000000	-63.24434000	-31.57603000
183.79998926	0.00000000	-63.28740000	-31.53297000
183.99998925	0.00000000	-63.66264000	-31.15772000
184.19998923	0.00000000	-64.40699000	-30.41954000
184.39998922	0.00000000	-64.78223000	-30.04429000
184.59998921	0.00000000	-64.82529000	-30.00123000
184.79998920	0.00000000	-64.78223000	-30.00123000
184.99998919	0.00000000	-64.40699000	-30.00123000
185.19998918	0.00000000	-63.66264000	-30.00123000
185.39998916	0.00000000	-63.28740000	-30.00123000
185.59998915	0.00000000	-63.24434000	-30.00123000
185.79998914	0.00000000	-63.24434000	-30.00123000
185.99998913	0.00000000	-63.24434000	-30.04429000
186.19998912	0.00000000	-63.24434000	-30.41954000
186.39998910	0.00000000	-63.24434000	-31.15772000
186.59998909	0.00000000	-63.24434000	-31.48376000
186.79998908	0.00000000	-63.24434000	-31.15772000
186.99998907	0.00000000	-63.24434000	-30.41954000
187.19998906	0.00000000	-63.24434000	-30.00123000
187.39998904	0.00000000	-63.28740000	-29.58292000
187.59998903	0.00000000	-63.66264000	-28.83858000
187.79998902	0.00000000	-64.35777000	-28.46333000
187.99998901	0.00000000	-64.35777000	-28.42027000
188.19998900	0.00000000	-63.66264000	-28.42027000
188.39998899	0.00000000	-63.28740000	-28.46333000
188.59998897	0.00000000	-63.24434000	-28.83858000
188.79998896	0.00000000	-63.24434000	-29.58292000
188.99998895	0.00000000	-63.24434000	-29.95817000
189.19998894	0.00000000	-63.24434000	-30.00123000
189.39998893	0.00000000	-63.24434000	-30.00123000
189.59998891	0.00000000	-63.24434000	-30.00123000
189.79998890	0.00000000	-63.24434000	-29.95817000
189.99998889	0.00000000	-63.28740000	-29.62598000
190.19998888	0.00000000	-63.66264000	-29.21383000
190.39998887	0.00000000	-64.35777000	-29.20767000
190.59998885	0.00000000	-64.35777000	-28.79552000
190.79998884	0.00000000	-63.66264000	-28.46333000
190.99998883	0.00000000	-63.28740000	-28.42027000
191.19998882	0.00000000	-63.24434000	-28.42027000
191.39998881	0.00000000	-63.24434000	-28.42027000
191.59998880	0.00000000	-63.24434000	-28.42027000
191.79998878	0.00000000	-63.24434000	-28.46333000
191.99998877	0.00000000	-63.24434000	-28.83858000
192.19998876	0.00000000	-63.24434000	-29.58292000
192.39998875	0.00000000	-63.24434000	-29.95817000
192.59998874	0.00000000	-63.24434000	-30.00123000
192.79998872	0.00000000	-63.24434000	-30.00123000
192.99998871	0.00000000	-63.28740000	-30.00123000
193.19998870	0.00000000	-63.61958000	-30.00123000
193.39998869	0.00000000	-64.03174000	-30.00123000
193.59998868	0.00000000	-64.03790000	-29.95817000
193.79998866	0.00000000	-64.40699000	-29.58292000
193.99998865	0.00000000	-64.35777000	-28.88779000
194.19998864	0.00000000	-63.66264000	-28.88779000
194.39998863	0.00000000	-63.28740000	-29.58292000
194.59998862	0.00000000	-63.24434000	-29.95817000
194.79998861	0.00000000	-63.24434000	-30.00123000
194.99998859	0.00000000	-63.24434000	-30.00123000
195.19998858	0.00000000	-63.24434000	-30.00123000
195.39998857	0.00000000	-63.24434000	-30.00123000
195.59998856	0.00000000	-63.28740000	-30.00123000
195.79998855	0.00000000	-63.66264000	-30.00123000
195.99998853	0.00000000	-64.40699000	-30.00123000
