Time	Channel A	Channel B	Channel C
(us)	(V)	(mV)	(mV)

-4.49999956	0.00000000	-22.09030000	-14.21014000
-4.29999957	0.00000000	-22.13336000	-14.21014000
-4.09999958	0.00000000	-22.13336000	-14.21014000
-3.89999959	0.00000000	-22.13336000	-14.21014000
-3.69999960	0.00000000	-22.13336000	-14.21014000
-3.49999962	0.00000000	-22.13336000	-14.21014000
-3.29999963	0.00000000	-22.13336000	-14.21014000
-3.09999964	0.00000000	-22.09030000	-14.21014000
-2.89999965	0.00000000	-21.75812000	-14.21014000
-2.69999966	0.00000000	-21.38902000	-14.21014000
-2.49999968	0.00000000	-21.75812000	-14.21014000
-2.29999969	0.00000000	-22.09030000	-14.21014000
-2.09999970	0.00000000	-22.13336000	-14.21014000
-1.89999971	0.00000000	-22.13336000	-14.21014000
-1.69999972	0.00000000	-22.13336000	-14.21014000
-1.49999973	0.00000000	-22.13336000	-14.21014000
-1.29999975	0.00000000	-22.13336000	-14.21014000
-1.09999976	0.00000000	-22.13336000	-14.21014000
-0.89999977	0.00000000	-22.13336000	-14.21014000
-0.69999978	0.00000000	-22.13336000	-14.25320000
-0.49999979	0.00000000	-22.13336000	-14.58538000
-0.29999981	0.31803640	-22.13336000	-14.94833000
-0.09999982	0.63668800	-22.13336000	-14.62844000
0.10000017	0.95533960	-22.13336000	-14.62844000
0.30000016	0.95533960	-22.13336000	-14.94833000
0.50000015	0.95533960	-22.13336000	-14.58538000
0.70000013	0.47736220	-22.13336000	-14.30241000
0.90000012	-0.47736220	-22.13336000	-14.62844000
1.10000011	-1.43331700	-22.13336000	-15.32357000
1.30000010	-2.22994600	-22.13336000	-15.36663000
1.50000009	-2.70792300	-22.13336000	-15.00369000
1.70000008	-2.54859700	-22.13336000	-14.99139000
1.90000006	-1.43331700	-22.13336000	-14.58538000
2.10000005	0.31803640	-22.13336000	-14.25320000
2.30000004	2.38927200	-22.13336000	-14.25320000
2.50000003	4.30056600	-22.13336000	-14.62844000
2.70000002	5.25652100	-22.13336000	-15.36663000
2.90000000	4.93786900	-22.13336000	-15.74188000
3.09999999	3.18590100	-22.13336000	-15.78494000
3.29999998	0.31803640	-22.13336000	-15.78494000
3.49999997	-3.02657500	-22.13336000	-15.74188000
3.69999996	-6.05315000	-22.13336000	-15.36663000
3.89999994	-7.80511800	-22.13336000	-14.62844000
4.09999993	-7.64579200	-22.13336000	-14.25320000
4.29999992	-5.41584600	-22.13336000	-14.21014000
4.49999991	-1.59264300	-22.13336000	-14.21014000
4.69999990	2.70792300	-22.13336000	-14.21014000
4.89999989	6.84916400	-22.13336000	-14.25320000
5.09999987	9.07972400	-22.13336000	-14.62844000
5.29999986	9.23905000	-22.13336000	-15.36663000
5.49999985	7.00848900	-22.17643000	-15.74188000
5.69999984	3.02657500	-22.50861000	-15.78494000
5.89999983	-1.75196900	-22.87770000	-15.78494000
6.09999981	-6.21247500	-22.50861000	-15.74188000
6.29999980	-8.92039900	-22.17643000	-15.36663000
6.49999979	-9.39837600	-22.13336000	-14.62844000
6.69999978	-7.64579200	-22.13336000	-14.25320000
6.89999977	-3.98191400	-22.13336000	-14.21014000
7.09999975	0.47736220	-22.13336000	-14.21014000
7.29999974	4.45989200	-22.13336000	-14.25320000
7.49999973	7.00848900	-22.13336000	-14.58538000
7.69999972	7.80511800	-22.13336000	-14.94833000
7.89999971	6.53112700	-22.13336000	-14.62844000
8.09999970	3.82258900	-22.13336000	-14.67150000
8.29999968	0.47736220	-22.13336000	-15.36663000
8.49999967	-2.54859700	-22.13336000	-15.69267000
8.69999966	-4.45989200	-22.13336000	-15.36663000
8.89999965	-5.25652100	-22.13336000	-14.62844000
9.09999964	-4.45989200	-22.13336000	-14.25320000
9.29999962	-2.86724900	-22.13336000	-14.21014000
9.49999961	-0.95533960	-22.13336000	-14.21014000
9.69999960	0.95533960	-22.13336000	-14.21014000
9.89999959	2.07062000	-22.13336000	-14.21014000
10.09999958	2.54859700	-22.13336000	-14.21014000
10.29999956	2.22994600	-22.13336000	-14.21014000
10.49999955	1.59264300	-22.13336000	-14.21014000
10.69999954	0.63668800	-22.13336000	-14.21014000
10.89999953	-0.15871060	-22.17643000	-14.21014000
11.09999952	-0.79601380	-22.50861000	-14.21014000
11.29999951	-0.95533960	-22.87770000	-14.21014000
11.49999949	-0.95533960	-22.50861000	-14.21014000
11.69999948	-0.79601380	-22.17643000	-14.21014000
11.89999947	-0.47736220	-22.13336000	-14.21014000
12.09999946	-0.15871060	-22.13336000	-14.21014000
12.29999945	-0.15871060	-22.13336000	-14.21014000
12.49999943	-0.15871060	-22.13336000	-14.21014000
12.69999942	0.00000000	-22.13336000	-14.21014000
12.89999941	0.00000000	-22.13336000	-14.21014000
13.09999940	0.00000000	-22.13336000	-14.21014000
13.29999939	0.15871060	-22.13336000	-14.21014000
13.49999937	0.00000000	-22.13336000	-14.25320000
13.69999936	0.00000000	-22.17643000	-14.62844000
13.89999935	0.00000000	-22.50861000	-15.36663000
14.09999934	0.00000000	-22.92076000	-15.74188000
14.29999933	-0.15871060	-22.92692000	-15.78494000
14.49999932	-0.15871060	-23.33907000	-15.78494000
14.69999930	0.00000000	-23.67126000	-15.78494000
14.89999929	0.00000000	-23.71432000	-15.78494000
15.09999928	0.00000000	-23.71432000	-15.78494000
15.29999927	0.00000000	-23.71432000	-15.78494000
15.49999926	0.00000000	-23.71432000	-15.78494000
15.69999924	0.00000000	-23.71432000	-15.78494000
15.89999923	0.00000000	-23.71432000	-15.78494000
16.09999922	0.00000000	-23.71432000	-15.78494000
16.29999921	0.00000000	-23.71432000	-15.78494000
16.49999920	-0.15871060	-23.67126000	-15.78494000
16.69999919	-0.15871060	-23.29601000	-15.78494000
16.89999917	0.00000000	-22.55167000	-15.78494000
17.09999916	0.00000000	-22.13336000	-15.78494000
17.29999915	0.00000000	-21.71506000	-15.78494000
17.49999914	0.00000000	-21.01993000	-15.78494000
17.69999913	0.00000000	-21.01993000	-15.78494000
17.89999911	0.00000000	-21.75812000	-15.74188000
18.09999910	0.00000000	-22.55167000	-15.36663000
18.29999909	0.00000000	-23.75738000	-14.62844000
18.49999908	0.00000000	-25.29527000	-14.30241000
18.69999907	0.00000000	-26.83317000	-14.58538000
18.89999905	0.00000000	-27.98966000	-14.94833000
19.09999904	0.00000000	-28.32185000	-14.58538000
19.29999903	0.00000000	-27.52830000	-14.30241000
19.49999902	0.00000000	-25.15994000	-14.62844000
19.69999901	0.00000000	-21.66585000	-15.36663000
19.89999900	0.00000000	-17.48277000	-15.74188000
20.09999898	0.00000000	-13.99483000	-15.78494000
20.29999897	0.00000000	-12.45079000	-15.74188000
20.49999896	0.00000000	-12.50615000	-15.36663000
20.69999895	0.00000000	-15.33587000	-14.67150000
20.89999894	0.00000000	-21.10605000	-14.62844000
21.09999892	0.00000000	-28.45718000	-14.99139000
21.29999891	0.00000000	-35.81446000	-15.00369000
21.49999890	0.00000000	-41.58464000	-15.40969000
21.69999889	0.00000000	-44.19291000	-15.74188000
21.89999888	0.00000000	-42.14444000	-15.78494000
22.09999886	0.00000000	-34.75024000	-15.74188000
22.29999885	0.00000000	-23.20374000	-15.40969000
22.49999884	0.00000000	-10.45768000	-15.04675000
22.69999883	0.00000000	0.38139760	-15.40969000
22.89999882	0.00000000	7.26500900	-15.69267000
23.09999881	0.00000000	7.91707600	-15.36663000
23.29999879	0.00000000	0.89812980	-14.62844000
23.49999878	0.00000000	-12.64149000	-14.25320000
23.69999877	0.00000000	-30.03814000	-14.21014000
23.89999876	0.00000000	-47.44094000	-14.21014000
24.09999875	0.00000000	-60.84522000	-14.21014000
24.29999873	0.00000000	-66.56618000	-14.25320000
24.49999872	0.00000000	-61.92175000	-14.67150000
24.69999871	0.00000000	-48.37598000	-15.83415000
24.89999870	0.00000000	-28.59867000	-17.36589000
25.09999869	0.00000000	-6.22539300	-18.90379000
25.29999867	0.00000000	13.08440000	-20.06029000
25.49999866	0.00000000	24.99385000	-20.43553000
25.69999865	0.00000000	26.43332000	-20.01722000
25.89999864	0.00000000	15.60039000	-18.39321000
26.09999863	0.00000000	-4.77977300	-15.27436000
26.29999862	0.00000000	-29.52756000	-11.04823000
26.49999860	0.00000000	-53.07578000	-6.82209600
26.69999859	0.00000000	-70.06028000	-3.79552100
26.89999858	0.00000000	-76.24876000	-3.05733300
27.09999857	0.00000000	-70.47859000	-5.42568800
27.29999856	0.00000000	-54.28149000	-10.44537000
27.49999854	0.00000000	-31.48376000	-17.45817000
27.69999853	0.00000000	-7.52337600	-25.17224000
27.89999852	0.00000000	12.57382000	-32.09276000
28.09999851	0.00000000	24.15723000	-36.23277000
28.29999850	0.00000000	24.61860000	-35.81446000
28.49999848	0.00000000	14.61614000	-30.37647000
28.69999847	0.00000000	-3.15575800	-21.08760000
28.89999846	0.00000000	-24.74163000	-9.43036400
29.09999845	0.00000000	-44.88804000	2.46678100
29.29999844	0.00000000	-59.26427000	11.66339000
29.49999843	0.00000000	-65.87106000	15.10827000
29.69999841	0.00000000	-63.17052000	12.03863000
29.89999840	0.00000000	-52.04847000	3.07578700
30.09999839	0.00000000	-35.85752000	-10.48843000
30.29999838	0.00000000	-18.41166000	-26.32874000
30.49999837	0.00000000	-3.29109200	-40.92643000
30.69999835	0.00000000	6.80364100	-50.54134000
30.89999834	0.00000000	9.92249000	-52.44832000
31.09999833	0.00000000	5.77632800	-46.26599000
31.29999832	0.00000000	-3.89394600	-33.12008000
31.49999831	0.00000000	-16.64616000	-15.74188000
31.69999829	0.00000000	-30.22884000	2.04847400
31.89999828	0.00000000	-41.44931000	16.68922000
32.09999827	0.00000000	-48.46825000	24.80930000
32.29999826	0.00000000	-50.00615000	24.40330000
32.49999825	0.00000000	-45.81693000	15.88952000
32.69999824	0.00000000	-37.34621000	0.46751960
32.89999822	0.00000000	-26.92544000	-18.06717000
33.09999821	0.00000000	-16.83071000	-35.48843000
33.29999820	0.00000000	-9.06126900	-49.05265000
33.49999819	0.00000000	-4.77977300	-55.56102000
33.69999818	0.00000000	-4.82283400	-53.65403000
33.89999816	0.00000000	-9.38730200	-43.62082000
34.09999815	0.00000000	-17.10753000	-27.86663000
34.29999814	0.00000000	-25.58440000	-10.44537000
34.49999813	0.00000000	-33.30462000	5.02583600
34.69999812	0.00000000	-37.95522000	15.88952000
34.89999810	0.00000000	-38.79798000	19.66658000
35.09999809	0.00000000	-36.46653000	15.56348000
35.29999808	0.00000000	-31.06545000	4.75516700
35.49999807	0.00000000	-24.22490000	-9.15354300
35.69999806	0.00000000	-18.41166000	-24.29257000
35.89999805	0.00000000	-14.91757000	-37.30315000
36.09999803	0.00000000	-14.13017000	-44.64198000
36.29999802	0.00000000	-16.40625000	-44.69119000
36.49999801	0.00000000	-20.64468000	-37.76451000
36.69999800	0.00000000	-25.67052000	-25.91043000
36.89999799	0.00000000	-30.64714000	-12.44464000
37.09999797	0.00000000	-33.67372000	-1.28567900
37.29999796	0.00000000	-33.76599000	5.30265700
37.49999795	0.00000000	-31.44069000	5.72096400
37.69999794	0.00000000	-27.57136000	0.38139760
37.89999793	0.00000000	-22.55167000	-8.82135800
38.09999791	0.00000000	-17.98720000	-19.55585000
38.29999790	0.00000000	-15.24975000	-28.34030000
38.49999789	0.00000000	-14.82529000	-32.60949000
38.69999788	0.00000000	-16.36319000	-31.45300000
38.89999787	0.00000000	-19.48204000	-25.31373000
39.09999786	0.00000000	-23.71432000	-15.78494000
39.29999784	0.00000000	-27.94660000	-6.26230300
39.49999783	0.00000000	-31.06545000	-0.08612204
39.69999782	0.00000000	-32.64640000	1.45177200
39.89999781	0.00000000	-32.64640000	-2.03617100
40.09999780	0.00000000	-31.10851000	-10.07013000
40.29999778	0.00000000	-28.36491000	-20.01722000
40.49999777	0.00000000	-24.87697000	-28.84473000
40.69999776	0.00000000	-21.01993000	-34.23351000
40.89999775	0.00000000	-17.94414000	-34.60876000
41.09999774	0.00000000	-16.32013000	-29.95817000
41.29999772	0.00000000	-15.94488000	-21.13066000
41.49999771	0.00000000	-16.73843000	-10.44537000
41.69999770	0.00000000	-19.10679000	-1.57480300
41.89999769	0.00000000	-22.55167000	3.45103300
42.09999768	0.00000000	-26.40871000	3.85703700
42.29999767	0.00000000	-29.48450000	-0.78124990
42.49999765	0.00000000	-31.10851000	-8.77829600
42.69999764	0.00000000	-31.52682000	-18.01796000
42.89999763	0.00000000	-31.10851000	-25.73203000
43.09999762	0.00000000	-29.52756000	-30.42569000
43.29999761	0.00000000	-26.91929000	-31.58218000
43.49999759	0.00000000	-24.60015000	-28.89395000
43.69999758	0.00000000	-23.33907000	-23.17298000
43.89999757	0.00000000	-22.13336000	-16.25246000
44.09999756	0.00000000	-21.06299000	-10.07013000
44.29999755	0.00000000	-20.97072000	-5.80093500
44.49999753	0.00000000	-21.29675000	-4.21998000
44.69999752	0.00000000	-20.92766000	-5.37647600
44.89999751	0.00000000	-20.59547000	-8.77829600
45.09999750	0.00000000	-20.59547000	-13.37352000
45.29999749	0.00000000	-21.01993000	-17.27977000
45.49999748	0.00000000	-22.26870000	-20.39247000
45.69999746	0.00000000	-24.60015000	-22.29331000
45.89999745	0.00000000	-28.08194000	-21.96727000
46.09999744	0.00000000	-31.57603000	-20.47859000
46.29999743	0.00000000	-34.65182000	-18.52854000
46.49999742	0.00000000	-36.50959000	-16.20325000
46.69999740	0.00000000	-35.67913000	-14.25320000
46.89999739	0.00000000	-32.18504000	-12.67224000
47.09999738	0.00000000	-26.36565000	-11.55881000
47.29999737	0.00000000	-19.43897000	-11.55881000
47.49999736	0.00000000	-13.24434000	-12.72146000
47.69999734	0.00000000	-9.01205700	-14.62844000
47.89999733	0.00000000	-7.89862200	-16.94759000
48.09999732	0.00000000	-10.64222000	-18.90379000
48.29999731	0.00000000	-16.83071000	-20.47859000
48.49999730	0.00000000	-25.34449000	-21.54897000
48.69999729	0.00000000	-34.23351000	-21.13066000
48.89999727	0.00000000	-41.53543000	-18.85458000
49.09999726	0.00000000	-45.34940000	-15.83415000
49.29999725	0.00000000	-44.14370000	-13.04749000
49.49999724	0.00000000	-37.99828000	-10.72219000
49.69999723	0.00000000	-28.41412000	-8.86441900
49.89999721	0.00000000	-18.41166000	-8.90747900
50.09999720	0.00000000	-10.59301000	-11.18356000
50.29999719	0.00000000	-5.98548200	-14.67150000
50.49999718	0.00000000	-5.66560000	-18.90379000
50.69999717	0.00000000	-10.64222000	-22.71161000
50.89999715	0.00000000	-19.06373000	-24.66781000
51.09999714	0.00000000	-28.32185000	-24.71087000
51.29999713	0.00000000	-36.41732000	-23.08686000
51.49999712	0.00000000	-41.07406000	-19.59892000
51.69999711	0.00000000	-41.49237000	-14.62844000
51.89999710	0.00000000	-38.04749000	-10.07013000
52.09999708	0.00000000	-31.48376000	-7.33267600
52.29999707	0.00000000	-23.80659000	-6.90821800
52.49999706	0.00000000	-16.87377000	-8.44611200
52.69999705	0.00000000	-12.64149000	-11.55881000
52.89999704	0.00000000	-12.26624000	-15.74188000
53.09999702	0.00000000	-15.66806000	-19.59892000
53.29999701	0.00000000	-21.80118000	-21.96727000
53.49999700	0.00000000	-28.27879000	-23.12992000
53.69999699	0.00000000	-33.34769000	-22.71161000
53.89999698	0.00000000	-35.63607000	-20.43553000
54.09999696	0.00000000	-34.92864000	-17.41511000
54.29999695	0.00000000	-31.44069000	-14.67150000
54.49999694	0.00000000	-26.50098000	-12.76452000
54.69999693	0.00000000	-21.48130000	-11.97711000
54.89999692	0.00000000	-17.98720000	-12.76452000
55.09999691	0.00000000	-16.45546000	-14.58538000
55.29999689	0.00000000	-17.24902000	-16.48622000
55.49999688	0.00000000	-20.68774000	-17.23056000
55.69999687	0.00000000	-25.25221000	-16.89837000
55.89999686	0.00000000	-29.48450000	-15.74188000
56.09999685	0.00000000	-32.17888000	-14.21014000
56.29999683	0.00000000	-32.60334000	-12.67224000
56.49999682	0.00000000	-31.06545000	-11.60187000
56.69999681	0.00000000	-27.98966000	-12.02018000
56.89999680	0.00000000	-24.18184000	-14.34547000
57.09999679	0.00000000	-21.10605000	-17.78420000
57.29999677	0.00000000	-19.52510000	-21.59203000
57.49999676	0.00000000	-19.52510000	-24.24335000
57.69999675	0.00000000	-21.06299000	-24.66781000
57.89999674	0.00000000	-23.71432000	-23.08686000
58.09999673	0.00000000	-26.40871000	-19.55585000
58.29999672	0.00000000	-28.36491000	-14.16708000
58.49999670	0.00000000	-29.52756000	-8.44611200
58.69999669	0.00000000	-29.52756000	-4.21998000
58.89999668	0.00000000	-28.36491000	-2.73129900
59.09999667	0.00000000	-26.50098000	-4.68134800
59.29999666	0.00000000	-24.55093000	-10.07013000
59.49999664	0.00000000	-23.38214000	-17.36589000
59.69999663	0.00000000	-22.64394000	-24.66166000
59.89999662	0.00000000	-23.01919000	-30.05044000
60.09999661	0.00000000	-24.50172000	-31.95743000
60.29999660	0.00000000	-25.67052000	-30.05044000
60.49999658	0.00000000	-26.87623000	-24.61860000
60.69999657	0.00000000	-27.94660000	-16.94759000
60.89999656	0.00000000	-27.94660000	-8.82135800
61.09999655	0.00000000	-26.83317000	-2.31299200
61.29999654	0.00000000	-25.29527000	1.11958700
61.49999653	0.00000000	-23.75738000	-0.03690945
61.69999651	0.00000000	-22.64394000	-5.38262700
61.89999650	0.00000000	-22.64394000	-13.09670000
62.09999649	0.00000000	-23.80659000	-21.59203000
62.29999648	0.00000000	-25.71358000	-28.89395000
62.49999647	0.00000000	-28.03888000	-33.16314000
62.69999645	0.00000000	-29.94586000	-33.58144000
62.89999644	0.00000000	-31.10851000	-30.46875000
63.09999643	0.00000000	-31.10851000	-24.28642000
63.29999642	0.00000000	-29.94586000	-16.20325000
63.49999641	0.00000000	-27.98966000	-8.53223400
63.69999639	0.00000000	-25.29527000	-3.05733300
63.89999638	0.00000000	-22.64394000	-0.77509840
64.09999637	0.00000000	-21.06299000	-1.94389800
64.29999636	0.00000000	-20.68774000	-6.91437000
64.49999635	0.00000000	-21.48130000	-13.83489000
64.69999634	0.00000000	-23.80659000	-20.76772000
64.89999632	0.00000000	-26.83317000	-26.56250000
65.09999631	0.00000000	-29.52756000	-29.31225000
65.29999630	0.00000000	-31.06545000	-29.40452000
65.49999629	0.00000000	-31.10851000	-27.44832000
65.69999628	0.00000000	-29.94586000	-23.59129000
65.89999626	0.00000000	-28.03888000	-18.94685000
66.09999625	0.00000000	-25.71358000	-14.25320000
66.29999624	0.00000000	-23.84965000	-10.02707000
66.49999623	0.00000000	-23.01919000	-7.28346400
66.69999622	0.00000000	-23.38214000	-6.44685000
66.89999620	0.00000000	-24.18184000	-6.82209600
67.09999619	0.00000000	-25.76279000	-8.40305000
67.29999618	0.00000000	-27.94660000	-11.09744000
67.49999617	0.00000000	-29.06619000	-14.25320000
67.69999616	0.00000000	-28.36491000	-17.74114000
67.89999615	0.00000000	-26.83317000	-21.26599000
68.09999613	0.00000000	-24.87697000	-23.96653000
68.29999612	0.00000000	-22.60088000	-25.91043000
68.49999611	0.00000000	-21.14911000	-26.24262000
68.69999610	0.00000000	-21.48130000	-24.71087000
68.89999609	0.00000000	-23.43135000	-21.59203000
69.09999607	0.00000000	-26.13189000	-17.32283000
69.29999606	0.00000000	-29.61983000	-12.67224000
69.49999605	0.00000000	-32.64640000	-8.44611200
69.69999604	0.00000000	-34.23351000	-5.70866100
69.89999603	0.00000000	-34.18430000	-4.95816900
70.09999601	0.00000000	-32.22810000	-6.12696800
70.29999600	0.00000000	-28.36491000	-9.65182000
70.49999599	0.00000000	-23.75738000	-14.62844000
70.69999598	0.00000000	-19.48204000	-20.06029000
70.89999597	0.00000000	-16.45546000	-24.66781000
71.09999596	0.00000000	-15.71112000	-27.40526000
71.29999594	0.00000000	-17.98720000	-27.77436000
71.49999593	0.00000000	-22.22564000	-25.86737000
71.69999592	0.00000000	-27.25147000	-22.01033000
71.89999591	0.00000000	-32.32037000	-17.36589000
72.09999590	0.00000000	-36.14050000	-12.76452000
72.29999588	0.00000000	-38.09055000	-9.28272600
72.49999587	0.00000000	-37.30315000	-8.11392700
72.69999586	0.00000000	-34.23351000	-8.82135800
72.89999585	0.00000000	-29.57677000	-11.14050000
73.09999584	0.00000000	-24.18184000	-14.21014000
73.29999582	0.00000000	-19.56816000	-17.27977000
73.49999581	0.00000000	-16.83071000	-19.55585000
73.69999580	0.00000000	-16.45546000	-20.01722000
73.89999579	0.00000000	-18.36245000	-19.27903000
74.09999578	0.00000000	-22.22564000	-18.15330000
74.29999577	0.00000000	-26.83317000	-16.62155000
74.49999575	0.00000000	-31.10851000	-15.92027000
74.69999574	0.00000000	-34.18430000	-16.25246000
74.89999573	0.00000000	-35.34695000	-17.40895000
75.09999572	0.00000000	-34.23351000	-18.94685000
75.29999571	0.00000000	-31.57603000	-20.43553000
75.49999569	0.00000000	-28.50024000	-21.13066000
75.69999568	0.00000000	-25.76279000	-19.97416000
75.89999567	0.00000000	-23.80659000	-17.32283000
76.09999566	0.00000000	-22.64394000	-14.21014000
76.29999565	0.00000000	-22.64394000	-11.14050000
76.49999563	0.00000000	-23.75738000	-8.86441900
76.69999562	0.00000000	-25.25221000	-8.48917200
76.89999561	0.00000000	-26.40871000	-10.02707000
77.09999560	0.00000000	-26.83317000	-13.18282000
77.29999559	0.00000000	-26.87623000	-17.83341000
77.49999558	0.00000000	-26.87623000	-23.17298000
77.69999556	0.00000000	-26.87623000	-27.35605000
77.89999555	0.00000000	-26.91929000	-28.89395000
78.09999554	0.00000000	-27.34375000	-27.40526000
78.29999553	0.00000000	-28.45718000	-23.54823000
78.49999552	0.00000000	-29.57062000	-18.52854000
78.69999550	0.00000000	-29.99508000	-13.04749000
78.89999549	0.00000000	-29.99508000	-8.12007800
79.09999548	0.00000000	-29.52756000	-4.97047200
79.29999547	0.00000000	-27.98966000	-4.58907500
79.49999546	0.00000000	-25.71358000	-6.12696800
79.69999544	0.00000000	-23.80659000	-10.07013000
79.89999543	0.00000000	-22.60088000	-15.78494000
80.09999542	0.00000000	-22.22564000	-21.54897000
80.29999541	0.00000000	-22.64394000	-25.82431000
80.49999540	0.00000000	-24.22490000	-27.82357000
80.69999539	0.00000000	-26.87623000	-27.86663000
80.89999537	0.00000000	-29.57062000	-26.28568000
81.09999536	0.00000000	-31.52682000	-23.17298000
81.29999535	0.00000000	-32.64640000	-18.94685000
81.49999534	0.00000000	-32.27116000	-14.67150000
81.69999533	0.00000000	-30.37032000	-11.18356000
81.89999531	0.00000000	-28.08194000	-8.77214500
82.09999530	0.00000000	-25.71358000	-7.65255800
82.29999529	0.00000000	-23.84965000	-7.65871000
82.49999528	0.00000000	-23.01919000	-9.65182000
82.69999527	0.00000000	-23.38214000	-13.04749000
82.89999525	0.00000000	-24.13263000	-16.94759000
83.09999524	0.00000000	-25.33834000	-20.47859000
83.29999523	0.00000000	-26.87623000	-23.59129000
83.49999522	0.00000000	-28.41412000	-25.91043000
83.69999521	0.00000000	-29.57062000	-26.66092000
83.89999520	0.00000000	-29.94586000	-25.91043000
84.09999518	0.00000000	-29.61983000	-23.54823000
84.29999517	0.00000000	-28.83243000	-20.06029000
84.49999516	0.00000000	-28.12500000	-15.78494000
84.69999515	0.00000000	-27.71284000	-11.55881000
84.89999514	0.00000000	-28.08194000	-8.44611200
85.09999512	0.00000000	-28.36491000	-6.90821800
85.29999511	0.00000000	-28.03888000	-7.33267600
85.49999510	0.00000000	-27.25147000	-10.02707000
85.69999509	0.00000000	-26.45792000	-14.25320000
85.89999508	0.00000000	-25.33834000	-18.90379000
86.09999506	0.00000000	-24.60015000	-23.17298000
86.29999505	0.00000000	-24.96309000	-26.24262000
86.49999504	0.00000000	-25.71358000	-27.39911000
86.69999503	0.00000000	-26.91929000	-26.19955000
86.89999502	0.00000000	-28.45718000	-22.75467000
87.09999501	0.00000000	-29.99508000	-17.74114000
87.29999499	0.00000000	-31.15157000	-12.72146000
87.49999498	0.00000000	-31.52682000	-8.48917200
87.69999497	0.00000000	-31.10851000	-6.21924200
87.89999496	0.00000000	-29.57062000	-6.95743000
88.09999495	0.00000000	-27.29453000	-9.98400600
88.29999493	0.00000000	-25.38755000	-14.25320000
88.49999492	0.00000000	-24.18184000	-18.90379000
88.69999491	0.00000000	-23.80659000	-23.12992000
88.89999490	0.00000000	-24.18184000	-25.77510000
89.09999489	0.00000000	-25.38755000	-25.82431000
89.29999487	0.00000000	-27.25147000	-23.50517000
89.49999486	0.00000000	-29.20152000	-19.64198000
89.69999485	0.00000000	-30.37032000	-14.67766000
89.89999484	0.00000000	-31.15157000	-10.48843000
90.09999483	0.00000000	-31.10851000	-8.48917200
90.29999482	0.00000000	-29.99508000	-8.48917200
90.49999480	0.00000000	-28.45718000	-10.44537000
90.69999479	0.00000000	-26.91929000	-14.30241000
90.89999478	0.00000000	-25.76279000	-18.90379000
91.09999477	0.00000000	-25.33834000	-23.08686000
91.29999476	0.00000000	-25.33834000	-25.35679000
91.49999474	0.00000000	-25.71358000	-24.61860000
91.69999473	0.00000000	-26.45792000	-21.59203000
91.89999472	0.00000000	-26.87623000	-17.36589000
92.09999471	0.00000000	-27.29453000	-13.13976000
92.29999470	0.00000000	-28.03888000	-10.07013000
92.49999468	0.00000000	-28.41412000	-8.91363100
92.69999467	0.00000000	-28.45718000	-10.07013000
92.89999466	0.00000000	-28.50024000	-13.13976000
93.09999465	0.00000000	-28.87549000	-17.36589000
93.29999464	0.00000000	-29.61983000	-21.59203000
93.49999463	0.00000000	-29.99508000	-24.66166000
93.69999461	0.00000000	-30.03814000	-25.78125000
93.89999460	0.00000000	-29.99508000	-24.24335000
94.09999459	0.00000000	-29.52756000	-20.47859000
94.29999458	0.00000000	-27.98966000	-16.25246000
94.49999457	0.00000000	-25.76279000	-12.76452000
94.69999455	0.00000000	-24.18184000	-10.44537000
94.89999454	0.00000000	-23.38214000	-10.11319000
95.09999453	0.00000000	-23.06225000	-12.02018000
95.29999452	0.00000000	-24.26796000	-15.83415000
95.49999451	0.00000000	-26.91929000	-20.01722000
95.69999449	0.00000000	-29.99508000	-23.12992000
95.89999448	0.00000000	-32.73868000	-24.66781000
96.09999447	0.00000000	-34.65182000	-24.29257000
96.29999446	0.00000000	-35.43922000	-22.01649000
96.49999445	0.00000000	-34.60876000	-18.94685000
96.69999444	0.00000000	-32.32037000	-15.83415000
96.89999442	0.00000000	-28.78937000	-13.13976000
97.09999441	0.00000000	-24.96309000	-11.64493000
97.29999440	0.00000000	-21.48130000	-12.02018000
97.49999439	0.00000000	-19.56816000	-14.25320000
97.69999438	0.00000000	-19.52510000	-16.94759000
97.89999436	0.00000000	-21.10605000	-19.27288000
98.09999435	0.00000000	-24.22490000	-21.22293000
98.29999434	0.00000000	-28.45718000	-21.92421000
98.49999433	0.00000000	-32.68946000	-21.22293000
98.69999432	0.00000000	-35.81446000	-19.32210000
98.89999430	0.00000000	-37.35236000	-17.45817000
99.09999429	0.00000000	-36.97712000	-16.20325000
99.29999428	0.00000000	-34.65182000	-15.45891000
99.49999427	0.00000000	-31.20078000	-15.04675000
99.69999426	0.00000000	-27.29453000	-15.40969000
99.89999425	0.00000000	-23.80659000	-15.74188000
100.09999423	0.00000000	-21.10605000	-15.78494000
100.29999422	0.00000000	-19.94340000	-15.78494000
100.49999421	0.00000000	-20.68774000	-15.78494000
100.69999420	0.00000000	-22.60088000	-15.78494000
100.89999419	0.00000000	-25.38755000	-15.78494000
101.09999417	0.00000000	-28.83243000	-15.87721000
101.29999416	0.00000000	-32.27116000	-16.62155000
101.49999415	0.00000000	-34.23351000	-18.15330000
101.69999414	0.00000000	-34.69488000	-19.27903000
101.89999413	0.00000000	-34.27657000	-20.10950000
102.09999411	0.00000000	-32.68946000	-20.39247000
102.29999410	0.00000000	-30.03814000	-19.64198000
102.49999409	0.00000000	-27.34375000	-17.69808000
102.69999408	0.00000000	-25.33834000	-15.40969000
102.89999407	0.00000000	-23.80659000	-13.09055000
103.09999406	0.00000000	-23.06225000	-11.60187000
103.29999404	0.00000000	-23.80659000	-11.55881000
103.49999403	0.00000000	-25.33834000	-12.72146000
103.69999402	0.00000000	-27.29453000	-14.67150000
103.89999401	0.00000000	-29.57062000	-17.36589000
104.09999400	0.00000000	-31.15157000	-20.06029000
104.29999398	0.00000000	-31.95128000	-21.96727000
104.49999397	0.00000000	-32.31422000	-22.75467000
104.69999396	0.00000000	-31.57603000	-21.96727000
104.89999395	0.00000000	-30.41338000	-20.06029000
105.09999394	0.00000000	-29.24459000	-17.36589000
105.29999392	0.00000000	-27.66978000	-14.67150000
105.49999391	0.00000000	-26.59326000	-12.76452000
105.69999390	0.00000000	-26.13189000	-11.97711000
105.89999389	0.00000000	-26.54404000	-12.76452000
106.09999388	0.00000000	-27.29453000	-14.67150000
106.29999387	0.00000000	-28.45718000	-17.32283000
106.49999385	0.00000000	-29.57062000	-19.59892000
106.69999384	0.00000000	-29.99508000	-20.43553000
106.89999383	0.00000000	-30.03814000	-20.48474000
107.09999382	0.00000000	-29.99508000	-20.01722000
107.29999381	0.00000000	-29.57062000	-18.52854000
107.49999379	0.00000000	-28.45718000	-16.62155000
107.69999378	0.00000000	-27.34375000	-15.45891000
107.89999377	0.00000000	-26.96850000	-14.67150000
108.09999376	0.00000000	-27.34375000	-14.76378000
108.29999375	0.00000000	-28.45718000	-16.25246000
108.49999374	0.00000000	-29.61983000	-18.47933000
108.69999372	0.00000000	-30.41338000	-20.06029000
108.89999371	0.00000000	-31.20078000	-20.85384000
109.09999370	0.00000000	-31.52682000	-21.22293000
109.29999369	0.00000000	-31.15157000	-20.43553000
109.49999368	0.00000000	-29.99508000	-18.94685000
109.69999366	0.00000000	-28.50024000	-17.36589000
109.89999365	0.00000000	-27.29453000	-15.83415000
110.09999364	0.00000000	-26.54404000	-14.67150000
110.29999363	0.00000000	-26.18110000	-14.30241000
110.49999362	0.00000000	-26.96850000	-14.67150000
110.69999360	0.00000000	-28.41412000	-15.83415000
110.89999359	0.00000000	-29.61983000	-17.36589000
111.09999358	0.00000000	-30.41338000	-18.90379000
111.29999357	0.00000000	-31.20078000	-20.06029000
111.49999356	0.00000000	-31.52682000	-20.48474000
111.69999355	0.00000000	-31.20078000	-20.48474000
111.89999353	0.00000000	-30.41338000	-20.10950000
112.09999352	0.00000000	-29.66289000	-19.32210000
112.29999351	0.00000000	-28.83243000	-18.52854000
112.49999350	0.00000000	-28.12500000	-17.36589000
112.69999349	0.00000000	-27.71284000	-16.25246000
112.89999347	0.00000000	-28.12500000	-15.87721000
113.09999346	0.00000000	-28.83243000	-16.20325000
113.29999345	0.00000000	-29.61983000	-16.94759000
113.49999344	0.00000000	-29.99508000	-17.36589000
113.69999343	0.00000000	-30.03814000	-17.78420000
113.89999341	0.00000000	-30.03814000	-18.52854000
114.09999340	0.00000000	-30.03814000	-18.90379000
114.29999339	0.00000000	-29.99508000	-18.94685000
114.49999338	0.00000000	-29.61983000	-18.94685000
114.69999337	0.00000000	-28.87549000	-18.94685000
114.89999336	0.00000000	-28.50024000	-18.94685000
115.09999334	0.00000000	-28.50024000	-18.94685000
115.29999333	0.00000000	-28.83243000	-18.90379000
115.49999332	0.00000000	-29.20152000	-18.52854000
115.69999331	0.00000000	-28.87549000	-17.74114000
115.89999330	0.00000000	-28.92470000	-16.99065000
116.09999328	0.00000000	-29.61983000	-16.20325000
116.29999327	0.00000000	-30.03814000	-15.82800000
116.49999326	0.00000000	-30.45644000	-15.78494000
116.69999325	0.00000000	-31.15157000	-15.78494000
116.89999324	0.00000000	-31.15157000	-15.78494000
117.09999322	0.00000000	-30.41338000	-15.82800000
117.29999321	0.00000000	-29.66289000	-16.20325000
117.49999320	0.00000000	-28.83243000	-16.99065000
117.69999319	0.00000000	-28.08194000	-17.74114000
117.89999318	0.00000000	-27.29453000	-18.52854000
118.09999317	0.00000000	-26.91929000	-18.90379000
118.29999315	0.00000000	-26.91929000	-18.90379000
118.49999314	0.00000000	-27.34375000	-18.52854000
118.69999313	0.00000000	-28.50024000	-17.78420000
118.89999312	0.00000000	-29.99508000	-17.36589000
119.09999311	0.00000000	-31.15157000	-16.94759000
119.29999309	0.00000000	-31.57603000	-16.20325000
119.49999308	0.00000000	-31.61909000	-15.82800000
119.69999307	0.00000000	-31.57603000	-15.78494000
119.89999306	0.00000000	-31.15157000	-15.82800000
120.09999305	0.00000000	-29.99508000	-16.20325000
120.29999303	0.00000000	-28.50024000	-16.94759000
120.49999302	0.00000000	-27.29453000	-17.32283000
120.69999301	0.00000000	-26.54404000	-17.40895000
120.89999300	0.00000000	-26.18110000	-17.78420000
121.09999299	0.00000000	-26.96850000	-18.52854000
121.29999298	0.00000000	-28.41412000	-18.90379000
121.49999296	0.00000000	-29.61983000	-18.94685000
121.69999295	0.00000000	-30.41338000	-18.94685000
121.89999294	0.00000000	-31.24384000	-18.90379000
122.09999293	0.00000000	-31.95128000	-18.52854000
122.29999292	0.00000000	-32.36343000	-17.78420000
122.49999290	0.00000000	-31.95128000	-17.36589000
122.69999289	0.00000000	-31.24384000	-16.94759000
122.89999288	0.00000000	-30.41338000	-16.25246000
123.09999287	0.00000000	-29.66289000	-16.25246000
123.29999286	0.00000000	-28.83243000	-16.94759000
123.49999284	0.00000000	-28.12500000	-17.36589000
123.69999283	0.00000000	-27.71284000	-17.78420000
123.89999282	0.00000000	-28.12500000	-18.52854000
124.09999281	0.00000000	-28.83243000	-18.94685000
124.29999280	0.00000000	-29.61983000	-19.36516000
124.49999279	0.00000000	-30.03814000	-20.10950000
124.69999277	0.00000000	-30.45644000	-20.43553000
124.89999276	0.00000000	-31.24384000	-20.10950000
125.09999275	0.00000000	-31.99434000	-19.32210000
125.29999274	0.00000000	-32.73252000	-18.57160000
125.49999273	0.00000000	-32.73252000	-17.78420000
125.69999271	0.00000000	-31.99434000	-17.40895000
125.89999270	0.00000000	-31.24384000	-17.36589000
126.09999269	0.00000000	-30.41338000	-17.36589000
126.29999268	0.00000000	-29.66289000	-17.36589000
126.49999267	0.00000000	-28.87549000	-17.36589000
126.69999265	0.00000000	-28.50024000	-17.40895000
126.89999264	0.00000000	-28.50024000	-17.78420000
127.09999263	0.00000000	-28.87549000	-18.52854000
127.29999262	0.00000000	-29.66289000	-18.90379000
127.49999261	0.00000000	-30.45644000	-18.94685000
127.69999260	0.00000000	-31.61909000	-18.94685000
127.89999258	0.00000000	-32.68946000	-18.94685000
128.09999257	0.00000000	-32.73252000	-18.90379000
128.29999256	0.00000000	-31.99434000	-18.52854000
128.49999255	0.00000000	-31.20078000	-17.78420000
128.69999254	0.00000000	-30.03814000	-17.40895000
128.89999252	0.00000000	-28.92470000	-17.36589000
129.09999251	0.00000000	-28.50024000	-17.36589000
129.29999250	0.00000000	-28.45718000	-17.36589000
129.49999249	0.00000000	-28.50024000	-17.40895000
129.69999248	0.00000000	-28.92470000	-17.78420000
129.89999246	0.00000000	-30.03814000	-18.52854000
130.09999245	0.00000000	-31.20078000	-18.85458000
130.29999244	0.00000000	-31.95128000	-18.52854000
130.49999243	0.00000000	-32.36343000	-17.78420000
130.69999242	0.00000000	-31.95128000	-17.36589000
130.89999241	0.00000000	-31.24384000	-16.99065000
131.09999239	0.00000000	-30.41338000	-16.62155000
131.29999238	0.00000000	-29.66289000	-16.99065000
131.49999237	0.00000000	-28.87549000	-17.36589000
131.69999236	0.00000000	-28.50024000	-17.78420000
131.89999235	0.00000000	-28.50024000	-18.52854000
132.09999233	0.00000000	-28.87549000	-18.90379000
132.29999232	0.00000000	-29.66289000	-18.94685000
132.49999231	0.00000000	-30.41338000	-18.94685000
132.69999230	0.00000000	-31.20078000	-18.90379000
132.89999229	0.00000000	-31.57603000	-18.52854000
133.09999227	0.00000000	-31.57603000	-17.74114000
133.29999226	0.00000000	-31.20078000	-16.99065000
133.49999225	0.00000000	-30.45644000	-16.20325000
133.69999224	0.00000000	-30.08120000	-15.82800000
133.89999223	0.00000000	-30.03814000	-15.82800000
134.09999222	0.00000000	-30.03814000	-16.20325000
134.29999220	0.00000000	-30.08120000	-16.99065000
134.49999219	0.00000000	-30.41338000	-17.74114000
134.69999218	0.00000000	-30.78248000	-18.57160000
134.89999217	0.00000000	-30.41338000	-19.32210000
135.09999216	0.00000000	-30.08120000	-20.06029000
135.29999214	0.00000000	-30.03814000	-20.06029000
135.49999213	0.00000000	-30.03814000	-19.36516000
135.69999212	0.00000000	-30.03814000	-18.94685000
135.89999211	0.00000000	-30.08120000	-18.47933000
136.09999210	0.00000000	-30.45644000	-17.36589000
136.29999208	0.00000000	-31.20078000	-16.25246000
136.49999207	0.00000000	-31.61909000	-15.87721000
136.69999206	0.00000000	-31.99434000	-16.20325000
136.89999205	0.00000000	-32.36343000	-16.94759000
137.09999204	0.00000000	-31.95128000	-17.36589000
137.29999203	0.00000000	-31.24384000	-17.78420000
137.49999201	0.00000000	-30.45644000	-18.52854000
137.69999200	0.00000000	-30.03814000	-18.94685000
137.89999199	0.00000000	-29.66289000	-19.36516000
138.09999198	0.00000000	-29.29380000	-20.10950000
138.29999197	0.00000000	-29.66289000	-20.48474000
138.49999195	0.00000000	-30.03814000	-20.48474000
138.69999194	0.00000000	-30.45644000	-20.10950000
138.89999193	0.00000000	-31.24384000	-19.32210000
139.09999192	0.00000000	-31.95128000	-18.57160000
139.29999191	0.00000000	-32.36343000	-17.74114000
139.49999189	0.00000000	-31.99434000	-17.03371000
139.69999188	0.00000000	-31.61909000	-16.62155000
139.89999187	0.00000000	-31.20078000	-16.99065000
140.09999186	0.00000000	-30.45644000	-17.36589000
140.29999185	0.00000000	-30.08120000	-17.78420000
140.49999184	0.00000000	-30.03814000	-18.57160000
140.69999182	0.00000000	-30.03814000	-19.32210000
140.89999181	0.00000000	-30.08120000	-20.10950000
141.09999180	0.00000000	-30.45644000	-20.48474000
141.29999179	0.00000000	-31.20078000	-20.48474000
141.49999178	0.00000000	-31.57603000	-20.10950000
141.69999176	0.00000000	-31.61909000	-19.32210000
141.89999175	0.00000000	-31.57603000	-18.57160000
142.09999174	0.00000000	-31.24384000	-17.78420000
142.29999173	0.00000000	-30.83169000	-17.36589000
142.49999172	0.00000000	-30.82554000	-16.99065000
142.69999170	0.00000000	-30.41338000	-16.62155000
142.89999169	0.00000000	-30.08120000	-17.03371000
143.09999168	0.00000000	-30.08120000	-17.74114000
143.29999167	0.00000000	-30.45644000	-18.57160000
143.49999166	0.00000000	-31.20078000	-19.32210000
143.69999165	0.00000000	-31.57603000	-20.10950000
143.89999163	0.00000000	-31.61909000	-20.48474000
144.09999162	0.00000000	-31.61909000	-20.48474000
144.29999161	0.00000000	-31.57603000	-20.06029000
144.49999160	0.00000000	-31.20078000	-18.94685000
144.69999159	0.00000000	-30.45644000	-17.83341000
144.89999157	0.00000000	-30.08120000	-17.40895000
145.09999156	0.00000000	-30.03814000	-17.36589000
145.29999155	0.00000000	-30.08120000	-17.36589000
145.49999154	0.00000000	-30.45644000	-17.36589000
145.69999153	0.00000000	-31.20078000	-17.40895000
145.89999151	0.00000000	-31.57603000	-17.78420000
146.09999150	0.00000000	-31.61909000	-18.52854000
146.29999149	0.00000000	-31.61909000	-18.90379000
146.49999148	0.00000000	-31.61909000	-18.94685000
146.69999147	0.00000000	-31.61909000	-18.94685000
146.89999146	0.00000000	-31.57603000	-18.94685000
147.09999144	0.00000000	-31.20078000	-18.90379000
147.29999143	0.00000000	-30.45644000	-18.52854000
147.49999142	0.00000000	-30.08120000	-17.78420000
147.69999141	0.00000000	-30.08120000	-17.40895000
147.89999140	0.00000000	-30.45644000	-17.36589000
148.09999138	0.00000000	-31.20078000	-17.36589000
148.29999137	0.00000000	-31.57603000	-17.40895000
148.49999136	0.00000000	-31.66215000	-17.78420000
148.69999135	0.00000000	-31.99434000	-18.52854000
148.89999134	0.00000000	-32.36343000	-18.90379000
149.09999132	0.00000000	-31.99434000	-18.94685000
149.29999131	0.00000000	-31.66215000	-18.94685000
149.49999130	0.00000000	-31.57603000	-18.94685000
149.69999129	0.00000000	-31.20078000	-18.94685000
149.89999128	0.00000000	-30.50566000	-18.94685000
150.09999127	0.00000000	-30.45644000	-18.90379000
150.29999125	0.00000000	-30.78248000	-18.52854000
150.49999124	0.00000000	-30.45644000	-17.78420000
150.69999123	0.00000000	-30.50566000	-17.40895000
150.89999122	0.00000000	-31.20078000	-17.36589000
151.09999121	0.00000000	-31.57603000	-17.36589000
151.29999119	0.00000000	-31.61909000	-17.36589000
151.49999118	0.00000000	-31.61909000	-17.40895000
151.69999117	0.00000000	-31.61909000	-17.78420000
151.89999116	0.00000000	-31.61909000	-18.52854000
152.09999115	0.00000000	-31.61909000	-18.90379000
152.29999113	0.00000000	-31.61909000	-18.94685000
152.49999112	0.00000000	-31.57603000	-18.90379000
152.69999111	0.00000000	-31.20078000	-18.57160000
152.89999110	0.00000000	-30.45644000	-18.20251000
153.09999109	0.00000000	-30.13041000	-18.57160000
153.29999108	0.00000000	-30.45644000	-18.90379000
153.49999106	0.00000000	-31.20078000	-18.90379000
153.69999105	0.00000000	-31.57603000	-18.52854000
153.89999104	0.00000000	-31.66215000	-17.83341000
154.09999103	0.00000000	-32.03740000	-17.83341000
154.29999102	0.00000000	-32.78174000	-18.52854000
154.49999100	0.00000000	-33.15699000	-18.90379000
154.69999099	0.00000000	-33.15699000	-18.94685000
154.89999098	0.00000000	-32.78174000	-18.94685000
155.09999097	0.00000000	-32.03740000	-18.94685000
155.29999096	0.00000000	-31.66215000	-18.94685000
155.49999094	0.00000000	-31.61909000	-18.94685000
155.69999093	0.00000000	-31.61909000	-18.94685000
155.89999092	0.00000000	-31.61909000	-18.94685000
156.09999091	0.00000000	-31.61909000	-18.94685000
156.29999090	0.00000000	-31.61909000	-18.94685000
156.49999089	0.00000000	-31.66215000	-18.94685000
156.69999087	0.00000000	-32.03740000	-18.90379000
156.89999086	0.00000000	-32.78174000	-18.57160000
157.09999085	0.00000000	-33.15699000	-18.15945000
157.29999084	0.00000000	-33.20005000	-18.15330000
157.49999083	0.00000000	-33.20005000	-17.78420000
157.69999081	0.00000000	-33.15699000	-17.83341000
157.89999080	0.00000000	-32.78174000	-18.52854000
158.09999079	0.00000000	-32.03740000	-18.90379000
158.29999078	0.00000000	-31.66215000	-18.94685000
158.49999077	0.00000000	-31.61909000	-18.98991000
158.69999075	0.00000000	-31.61909000	-19.32210000
158.89999074	0.00000000	-31.61909000	-19.69119000
159.09999073	0.00000000	-31.61909000	-19.32210000
159.29999072	0.00000000	-31.61909000	-18.98991000
159.49999071	0.00000000	-31.61909000	-18.90379000
159.69999070	0.00000000	-31.66215000	-18.52854000
159.89999068	0.00000000	-32.03740000	-17.78420000
160.09999067	0.00000000	-32.78174000	-17.40895000
160.29999066	0.00000000	-33.15699000	-17.36589000
160.49999065	0.00000000	-33.20005000	-17.40895000
160.69999064	0.00000000	-33.20005000	-17.78420000
160.89999062	0.00000000	-33.20005000	-18.52854000
161.09999061	0.00000000	-33.15699000	-18.90379000
161.29999060	0.00000000	-32.78174000	-18.94685000
161.49999059	0.00000000	-32.03740000	-18.94685000
161.69999058	0.00000000	-31.66215000	-18.94685000
161.89999056	0.00000000	-31.61909000	-18.94685000
162.09999055	0.00000000	-31.61909000	-18.94685000
162.29999054	0.00000000	-31.61909000	-18.90379000
162.49999053	0.00000000	-31.61909000	-18.52854000
162.69999052	0.00000000	-31.61909000	-17.78420000
162.89999051	0.00000000	-31.66215000	-17.45817000
163.09999049	0.00000000	-32.03740000	-17.74114000
163.29999048	0.00000000	-32.78174000	-18.15330000
163.49999047	0.00000000	-33.15699000	-18.15945000
163.69999046	0.00000000	-33.20005000	-18.57160000
163.89999045	0.00000000	-33.20005000	-18.90379000
164.09999043	0.00000000	-33.20005000	-18.94685000
164.29999042	0.00000000	-33.20005000	-18.90379000
164.49999041	0.00000000	-33.15699000	-18.57160000
164.69999040	0.00000000	-32.78174000	-18.20251000
164.89999039	0.00000000	-32.03740000	-18.57160000
165.09999037	0.00000000	-31.66215000	-18.90379000
165.29999036	0.00000000	-31.61909000	-18.94685000
165.49999035	0.00000000	-31.61909000	-18.94685000
165.69999034	0.00000000	-31.66215000	-18.90379000
165.89999033	0.00000000	-32.03740000	-18.57160000
166.09999032	0.00000000	-32.78174000	-18.20251000
166.29999030	0.00000000	-33.15699000	-18.57160000
166.49999029	0.00000000	-33.20005000	-18.90379000
166.69999028	0.00000000	-33.20005000	-18.94685000
166.89999027	0.00000000	-33.20005000	-18.94685000
167.09999026	0.00000000	-33.20005000	-18.94685000
167.29999024	0.00000000	-33.15699000	-18.94685000
167.49999023	0.00000000	-32.78174000	-18.94685000
167.69999022	0.00000000	-32.03740000	-18.94685000
167.89999021	0.00000000	-31.66215000	-18.94685000
168.09999020	0.00000000	-31.61909000	-18.94685000
168.29999018	0.00000000	-31.61909000	-18.94685000
168.49999017	0.00000000	-31.61909000	-18.94685000
168.69999016	0.00000000	-31.61909000	-18.94685000
168.89999015	0.00000000	-31.66215000	-18.94685000
169.09999014	0.00000000	-32.03740000	-18.94685000
169.29999013	0.00000000	-32.78174000	-18.94685000
169.49999011	0.00000000	-33.15699000	-18.94685000
169.69999010	0.00000000	-33.20005000	-18.94685000
169.89999009	0.00000000	-33.20005000	-18.94685000
170.09999008	0.00000000	-33.20005000	-18.98991000
170.29999007	0.00000000	-33.20005000	-19.32210000
170.49999005	0.00000000	-33.15699000	-19.69119000
170.69999004	0.00000000	-32.82480000	-19.32210000
170.89999003	0.00000000	-32.41265000	-18.98991000
171.09999002	0.00000000	-32.40649000	-18.98991000
171.29999001	0.00000000	-31.99434000	-19.32210000
171.49998999	0.00000000	-31.71137000	-19.73425000
171.69998998	0.00000000	-32.03740000	-19.69734000
171.89998997	0.00000000	-32.78174000	-19.73425000
172.09998996	0.00000000	-33.15699000	-19.32210000
172.29998995	0.00000000	-33.20005000	-19.03912000
172.49998994	0.00000000	-33.20005000	-19.27903000
172.69998992	0.00000000	-33.20005000	-19.31594000
172.89998991	0.00000000	-33.20005000	-18.57775000
173.09998990	0.00000000	-33.20005000	-18.61466000
173.29998989	0.00000000	-33.20005000	-18.90379000
173.49998988	0.00000000	-33.20005000	-18.94685000
173.69998986	0.00000000	-33.20005000	-18.98991000
173.89998985	0.00000000	-33.20005000	-19.32210000
174.09998984	0.00000000	-33.20005000	-19.73425000
174.29998983	0.00000000	-33.20005000	-19.74040000
174.49998982	0.00000000	-33.20005000	-20.10950000
174.69998980	0.00000000	-33.20005000	-20.10950000
174.89998979	0.00000000	-33.20005000	-19.78346000
175.09998978	0.00000000	-33.20005000	-20.10950000
175.29998977	0.00000000	-33.20005000	-20.06029000
175.49998976	0.00000000	-33.20005000	-19.36516000
175.69998975	0.00000000	-33.20005000	-18.98991000
175.89998973	0.00000000	-33.20005000	-18.94685000
176.09998972	0.00000000	-33.20005000	-18.94685000
176.29998971	0.00000000	-33.20005000	-18.94685000
176.49998970	0.00000000	-33.20005000	-18.94685000
176.69998969	0.00000000	-33.20005000	-18.94685000
176.89998967	0.00000000	-33.20005000	-18.94685000
177.09998966	0.00000000	-33.20005000	-18.94685000
177.29998965	0.00000000	-33.20005000	-18.94685000
177.49998964	0.00000000	-33.20005000	-18.94685000
177.69998963	0.00000000	-33.20005000	-18.94685000
177.89998961	0.00000000	-33.20005000	-18.94685000
178.09998960	0.00000000	-33.20005000	-18.94685000
178.29998959	0.00000000	-33.20005000	-18.94685000
178.49998958	0.00000000	-33.20005000	-18.94685000
178.69998957	0.00000000	-33.20005000	-18.90379000
178.89998956	0.00000000	-33.20005000	-18.52854000
179.09998954	0.00000000	-33.20005000	-17.78420000
179.29998953	0.00000000	-33.20005000	-17.40895000
179.49998952	0.00000000	-33.20005000	-17.36589000
179.69998951	0.00000000	-33.20005000	-17.40895000
179.89998950	0.00000000	-33.20005000	-17.78420000
180.09998948	0.00000000	-33.15699000	-18.52854000
180.29998947	0.00000000	-32.82480000	-18.90379000
180.49998946	0.00000000	-32.45571000	-18.94685000
180.69998945	0.00000000	-32.82480000	-18.94685000
180.89998944	0.00000000	-33.15699000	-18.94685000
181.09998942	0.00000000	-33.20005000	-18.94685000
181.29998941	0.00000000	-33.20005000	-18.94685000
181.49998940	0.00000000	-33.20005000	-18.94685000
181.69998939	0.00000000	-33.20005000	-18.94685000
181.89998938	0.00000000	-33.20005000	-18.94685000
182.09998937	0.00000000	-33.20005000	-18.94685000
182.29998935	0.00000000	-33.20005000	-18.94685000
182.49998934	0.00000000	-33.20005000	-18.94685000
182.69998933	0.00000000	-33.20005000	-18.94685000
182.89998932	0.00000000	-33.20005000	-18.98991000
183.09998931	0.00000000	-33.20005000	-19.36516000
183.29998929	0.00000000	-33.20005000	-20.10950000
183.49998928	0.00000000	-33.20005000	-20.48474000
183.69998927	0.00000000	-33.20005000	-20.52780000
183.89998926	0.00000000	-33.20005000	-20.52780000
184.09998925	0.00000000	-33.20005000	-20.52780000
184.29998923	0.00000000	-33.20005000	-20.48474000
184.49998922	0.00000000	-33.24311000	-20.10950000
184.69998921	0.00000000	-33.61835000	-19.36516000
184.89998920	0.00000000	-34.31963000	-18.98991000
185.09998919	0.00000000	-34.31963000	-18.94685000
185.29998918	0.00000000	-33.61835000	-18.94685000
185.49998916	0.00000000	-33.24311000	-18.94685000
185.69998915	0.00000000	-33.20005000	-18.98991000
185.89998914	0.00000000	-33.20005000	-19.36516000
186.09998913	0.00000000	-33.20005000	-20.10950000
186.29998912	0.00000000	-33.20005000	-20.48474000
186.49998910	0.00000000	-33.24311000	-20.52780000
186.69998909	0.00000000	-33.57529000	-20.52780000
186.89998908	0.00000000	-33.98745000	-20.52780000
187.09998907	0.00000000	-33.99975000	-20.48474000
187.29998906	0.00000000	-34.41191000	-20.10950000
187.49998904	0.00000000	-34.74409000	-19.36516000
187.69998903	0.00000000	-34.74409000	-18.98991000
187.89998902	0.00000000	-34.41191000	-18.94685000
188.09998901	0.00000000	-33.99975000	-18.94685000
188.29998900	0.00000000	-33.98745000	-18.94685000
188.49998899	0.00000000	-33.57529000	-18.98991000
188.69998897	0.00000000	-33.24311000	-19.36516000
188.89998896	0.00000000	-33.20005000	-20.10950000
189.09998895	0.00000000	-33.24311000	-20.48474000
189.29998894	0.00000000	-33.57529000	-20.52780000
189.49998893	0.00000000	-33.98745000	-20.52780000
189.69998891	0.00000000	-33.95054000	-20.48474000
189.89998890	0.00000000	-34.03666000	-20.10950000
190.09998889	0.00000000	-33.99975000	-19.36516000
190.29998888	0.00000000	-34.41191000	-18.98991000
190.49998887	0.00000000	-34.74409000	-18.94685000
190.69998885	0.00000000	-34.78716000	-18.94685000
190.89998884	0.00000000	-34.74409000	-18.94685000
191.09998883	0.00000000	-34.36884000	-18.94685000
191.29998882	0.00000000	-33.61835000	-18.94685000
191.49998881	0.00000000	-33.24311000	-18.94685000
191.69998880	0.00000000	-33.20005000	-18.94685000
191.89998878	0.00000000	-33.20005000	-18.94685000
192.09998877	0.00000000	-33.20005000	-18.94685000
192.29998876	0.00000000	-33.20005000	-18.94685000
192.49998875	0.00000000	-33.24311000	-18.94685000
192.69998874	0.00000000	-33.61835000	-18.94685000
192.89998872	0.00000000	-34.36884000	-18.94685000
193.09998871	0.00000000	-34.74409000	-18.94685000
193.29998870	0.00000000	-34.78716000	-18.94685000
193.49998869	0.00000000	-34.78716000	-18.94685000
193.69998868	0.00000000	-34.78716000	-18.94685000
193.89998866	0.00000000	-34.78716000	-18.94685000
194.09998865	0.00000000	-34.74409000	-18.94685000
194.29998864	0.00000000	-34.36884000	-18.94685000
194.49998863	0.00000000	-33.61835000	-18.94685000
194.69998862	0.00000000	-33.24311000	-18.94685000
194.89998861	0.00000000	-33.20005000	-18.94685000
195.09998859	0.00000000	-33.20005000	-18.94685000
195.29998858	0.00000000	-33.24311000	-18.94685000
195.49998857	0.00000000	-33.61835000	-18.94685000
195.69998856	0.00000000	-34.36884000	-18.94685000
195.89998855	0.00000000	-34.74409000	-18.94685000
196.09998853	0.00000000	-34.78716000	-18.94685000
