Time	Channel A	Channel B	Channel C
(us)	(V)	(mV)	(mV)

-4.49999956	0.00000000	17.39050000	11.09129000
-4.29999957	0.00000000	17.39050000	11.04823000
-4.09999958	0.00000000	17.39050000	11.04823000
-3.89999959	0.00000000	17.39050000	11.04823000
-3.69999960	0.00000000	17.39050000	11.04823000
-3.49999962	0.00000000	17.39050000	11.04823000
-3.29999963	0.00000000	17.39050000	11.04823000
-3.09999964	0.00000000	17.39050000	11.04823000
-2.89999965	0.00000000	17.34744000	11.04823000
-2.69999966	0.00000000	17.01525000	11.04823000
-2.49999968	0.00000000	16.64616000	11.04823000
-2.29999969	0.00000000	17.01525000	11.04823000
-2.09999970	0.00000000	17.34744000	11.00517000
-1.89999971	0.00000000	17.34744000	10.67298000
-1.69999972	0.00000000	17.01525000	10.31004000
-1.49999973	0.00000000	16.64616000	10.67298000
-1.29999975	0.00000000	17.01525000	11.00517000
-1.09999976	0.00000000	17.34744000	11.04823000
-0.89999977	0.00000000	17.39050000	11.04823000
-0.69999978	0.00000000	17.39050000	11.04823000
-0.49999979	0.00000000	17.39050000	11.04823000
-0.29999981	0.31803640	17.39050000	11.04823000
-0.09999982	0.63668800	17.39050000	11.04823000
0.10000017	0.95533960	17.39050000	11.04823000
0.30000016	0.95533960	17.39050000	11.04823000
0.50000015	0.95533960	17.39050000	11.04823000
0.70000013	0.31803640	17.39050000	11.04823000
0.90000012	-0.47736220	17.39050000	11.04823000
1.10000011	-1.43331700	17.39050000	11.04823000
1.30000010	-2.22994600	17.39050000	11.09129000
1.50000009	-2.70792300	17.39050000	11.46653000
1.70000008	-2.54859700	17.39050000	12.16166000
1.90000006	-1.43331700	17.39050000	12.16166000
2.10000005	0.31803640	17.39050000	11.46653000
2.30000004	2.38927200	17.39050000	11.09129000
2.50000003	4.30056600	17.39050000	11.04823000
2.70000002	5.25652100	17.39050000	11.04823000
2.90000000	4.93786900	17.39050000	11.04823000
3.09999999	3.18590100	17.39050000	11.04823000
3.29999998	0.31803640	17.39050000	11.04823000
3.49999997	-3.18590100	17.39050000	11.04823000
3.69999996	-6.21247500	17.39050000	11.09129000
3.89999994	-7.80511800	17.39050000	11.46653000
4.09999993	-7.64579200	17.39050000	12.21087000
4.29999992	-5.41584600	17.43356000	12.58612000
4.49999991	-1.43331700	17.76575000	12.62918000
4.69999990	3.02657500	18.13484000	12.62918000
4.89999989	6.84916400	17.76575000	12.58612000
5.09999987	9.07972400	17.43356000	12.21087000
5.29999986	9.23905000	17.39050000	11.46653000
5.49999985	6.84916400	17.39050000	11.09129000
5.69999984	2.86724900	17.39050000	11.04823000
5.89999983	-1.91129400	17.39050000	11.04823000
6.09999981	-6.21247500	17.39050000	11.09129000
6.29999980	-8.92039900	17.39050000	11.46653000
6.49999979	-9.39837600	17.43356000	12.21087000
6.69999978	-7.48646600	17.76575000	12.58612000
6.89999977	-3.82258900	18.13484000	12.62918000
7.09999975	0.47736220	17.76575000	12.62918000
7.29999974	4.45989200	17.43356000	12.62918000
7.49999973	7.00848900	17.39050000	12.62918000
7.69999972	7.64579200	17.39050000	12.58612000
7.89999971	6.37180100	17.39050000	12.21087000
8.09999970	3.82258900	17.39050000	11.46653000
8.29999968	0.47736220	17.39050000	11.09129000
8.49999967	-2.54859700	17.39050000	11.04823000
8.69999966	-4.61921700	17.39050000	11.09129000
8.89999965	-5.25652100	17.39050000	11.46653000
9.09999964	-4.45989200	17.39050000	12.21087000
9.29999962	-2.86724900	17.39050000	12.58612000
9.49999961	-0.95533960	17.39050000	12.58612000
9.69999960	0.95533960	17.39050000	12.25394000
9.89999959	2.07062000	17.43356000	11.84178000
10.09999958	2.54859700	17.76575000	11.83563000
10.29999956	2.22994600	18.13484000	11.46653000
10.49999955	1.59264300	17.76575000	11.46653000
10.69999954	0.63668800	17.43356000	11.79257000
10.89999953	-0.15871060	17.39050000	11.42347000
11.09999952	-0.79601380	17.39050000	11.09129000
11.29999951	-0.95533960	17.39050000	11.04823000
11.49999949	-0.95533960	17.39050000	11.04823000
11.69999948	-0.79601380	17.43356000	11.04823000
11.89999947	-0.47736220	17.76575000	11.04823000
12.09999946	-0.15871060	18.13484000	11.04823000
12.29999945	-0.15871060	17.76575000	11.04823000
12.49999943	-0.15871060	17.43356000	11.04823000
12.69999942	0.00000000	17.39050000	11.04823000
12.89999941	0.00000000	17.39050000	11.04823000
13.09999940	0.00000000	17.39050000	11.04823000
13.29999939	0.00000000	17.39050000	11.04823000
13.49999937	0.00000000	17.39050000	11.04823000
13.69999936	0.00000000	17.39050000	11.04823000
13.89999935	0.00000000	17.39050000	11.09129000
14.09999934	-0.15871060	17.39050000	11.42347000
14.29999933	-0.15871060	17.39050000	11.79257000
14.49999932	-0.15871060	17.39050000	11.46653000
14.69999930	0.00000000	17.39050000	11.46653000
14.89999929	0.00000000	17.39050000	11.79257000
15.09999928	0.00000000	17.39050000	11.42347000
15.29999927	0.00000000	17.39050000	11.14050000
15.49999926	0.00000000	17.39050000	11.42347000
15.69999924	0.00000000	17.39050000	11.79257000
15.89999923	0.00000000	17.39050000	11.42347000
16.09999922	0.00000000	17.39050000	11.09129000
16.29999921	-0.15871060	17.39050000	11.09129000
16.49999920	-0.15871060	17.43356000	11.42347000
16.69999919	-0.15871060	17.80881000	11.83563000
16.89999917	0.00000000	18.55315000	11.79872000
17.09999916	0.00000000	18.97145000	11.83563000
17.29999915	0.00000000	19.38976000	11.46653000
17.49999914	0.00000000	20.08489000	11.51575000
17.69999913	0.00000000	20.08489000	12.21087000
17.89999911	0.00000000	19.34670000	12.58612000
18.09999910	0.00000000	18.55315000	12.62918000
18.29999909	0.00000000	17.34744000	12.62918000
18.49999908	0.00000000	15.80955000	12.62918000
18.69999907	0.00000000	14.27165000	12.62918000
18.89999905	0.00000000	13.15822000	12.62918000
19.09999904	0.00000000	13.15822000	12.62918000
19.29999903	0.00000000	14.36393000	12.62918000
19.49999902	0.00000000	16.73843000	12.62918000
19.69999901	0.00000000	20.59547000	12.62918000
19.89999900	0.00000000	24.78469000	12.62918000
20.09999898	0.00000000	27.90354000	12.62918000
20.29999897	0.00000000	29.44143000	12.62918000
20.49999896	0.00000000	28.97392000	12.62918000
20.69999895	0.00000000	25.81201000	12.62918000
20.89999894	0.00000000	19.95571000	12.62918000
21.09999892	0.00000000	12.27239000	12.62918000
21.29999891	0.00000000	4.55831700	12.62918000
21.49999890	0.00000000	-0.79970470	12.62918000
21.69999889	0.00000000	-2.65748000	12.62918000
21.89999888	0.00000000	0.54749010	12.62918000
22.09999886	0.00000000	9.01205700	12.62918000
22.29999885	0.00000000	20.64468000	12.62918000
22.49999884	0.00000000	33.02165000	12.62918000
22.69999883	0.00000000	43.81151000	12.62918000
22.89999882	0.00000000	49.87081000	12.62918000
23.09999881	0.00000000	49.07726000	12.67224000
23.29999879	0.00000000	40.84645000	13.04749000
23.49999878	0.00000000	26.55635000	13.79183000
23.69999877	0.00000000	8.74138700	14.16708000
23.89999876	0.00000000	-8.15083600	14.21014000
24.09999875	0.00000000	-20.10335000	14.16708000
24.29999873	0.00000000	-23.50517000	13.74262000
24.49999872	0.00000000	-17.26747000	12.58612000
24.69999871	0.00000000	-2.14689900	11.04823000
24.89999870	0.00000000	19.06373000	9.47342500
25.09999869	0.00000000	41.07406000	7.93553100
25.29999867	0.00000000	58.84596000	6.82209600
25.49999866	0.00000000	68.43011000	6.86515700
25.69999865	0.00000000	66.80610000	8.40305000
25.89999864	0.00000000	53.68479000	11.09744000
26.09999863	0.00000000	32.09276000	14.25320000
26.29999862	0.00000000	7.34498000	17.78420000
26.49999860	0.00000000	-15.04060000	21.54897000
26.69999859	0.00000000	-30.11196000	23.78199000
26.89999858	0.00000000	-33.93208000	22.99459000
27.09999857	0.00000000	-25.87352000	19.50664000
27.29999856	0.00000000	-7.73252900	13.65650000
27.49999854	0.00000000	15.80955000	6.31766700
27.69999853	0.00000000	39.40084000	-0.97810030
27.89999852	0.00000000	57.96013000	-6.36687900
28.09999851	0.00000000	67.27362000	-8.23080600
28.29999850	0.00000000	65.73573000	-5.85629900
28.49999848	0.00000000	53.77706000	1.15034400
28.69999847	0.00000000	34.14124000	11.55881000
28.89999846	0.00000000	12.13091000	23.17298000
29.09999845	0.00000000	-7.22194800	33.58144000
29.29999844	0.00000000	-20.06029000	40.45890000
29.49999843	0.00000000	-24.01575000	41.52928000
29.69999841	0.00000000	-19.35900000	35.77140000
29.89999840	0.00000000	-6.98203700	24.52633000
30.09999839	0.00000000	10.69144000	10.21161000
30.29999838	0.00000000	28.46333000	-4.87819900
30.49999837	0.00000000	42.51968000	-17.15059000
30.69999835	0.00000000	51.07652000	-23.69586000
30.89999834	0.00000000	52.61442000	-22.49016000
31.09999833	0.00000000	46.88730000	-13.61959000
31.29999832	0.00000000	35.72219000	1.06422200
31.49999831	0.00000000	22.18258000	18.43627000
31.69999829	0.00000000	8.96899500	34.65182000
31.89999828	0.00000000	-1.50098400	46.26599000
32.09999827	0.00000000	-7.31422200	50.91658000
32.29999826	0.00000000	-7.31422200	47.80388000
32.49999825	0.00000000	-1.58710600	37.34621000
32.69999824	0.00000000	8.04010800	21.50590000
32.89999822	0.00000000	18.87918000	3.75246000
33.09999821	0.00000000	28.97392000	-12.08784000
33.29999820	0.00000000	36.28199000	-22.53937000
33.49999819	0.00000000	39.02559000	-25.69513000
33.69999818	0.00000000	36.79257000	-21.37672000
33.89999816	0.00000000	31.02239000	-10.17470000
34.09999815	0.00000000	23.29601000	6.02854300
34.29999814	0.00000000	15.15748000	22.95152000
34.49999813	0.00000000	8.63681000	36.92790000
34.69999812	0.00000000	5.11195900	45.06028000
34.89999810	0.00000000	5.52411400	46.26599000
35.09999809	0.00000000	9.30118100	40.41584000
35.29999808	0.00000000	15.43430000	28.51870000
35.49999807	0.00000000	21.57972000	13.51501000
35.69999806	0.00000000	26.27953000	-0.38139760
35.89999805	0.00000000	28.97392000	-10.50074000
36.09999803	0.00000000	28.93085000	-15.10212000
36.29999802	0.00000000	25.90428000	-13.19513000
36.49999801	0.00000000	20.92766000	-5.11811000
36.69999800	0.00000000	15.94488000	6.77903500
36.89999799	0.00000000	12.08784000	19.46358000
37.09999797	0.00000000	10.54995000	29.45374000
37.29999796	0.00000000	11.66339000	34.05511000
37.49999795	0.00000000	14.73917000	32.23425000
37.69999794	0.00000000	18.97145000	24.99385000
37.89999793	0.00000000	23.24680000	15.41585000
38.09999791	0.00000000	26.69783000	5.75172200
38.29999790	0.00000000	28.64173000	-1.49483300
38.49999789	0.00000000	28.22958000	-4.14000900
38.69999788	0.00000000	25.94734000	-1.11958700
38.89999787	0.00000000	22.04109000	6.48991100
39.09999786	0.00000000	17.43356000	15.69882000
39.29999784	0.00000000	13.20128000	24.15108000
39.49999783	0.00000000	10.45768000	29.45374000
39.69999782	0.00000000	9.66412400	29.45374000
39.89999781	0.00000000	10.45768000	24.10802000
40.09999780	0.00000000	13.20128000	15.32357000
40.29999778	0.00000000	17.39050000	5.70866100
40.49999777	0.00000000	21.66585000	-1.95620100
40.69999776	0.00000000	25.20300000	-5.81323800
40.89999775	0.00000000	27.90354000	-4.60752900
41.09999774	0.00000000	29.06619000	1.52559000
41.29999772	0.00000000	28.27879000	11.09744000
41.49999771	0.00000000	25.99040000	21.03838000
41.69999770	0.00000000	22.46555000	28.38337000
41.89999769	0.00000000	18.59621000	31.49606000
42.09999768	0.00000000	14.69611000	29.95817000
42.29999767	0.00000000	11.66339000	24.20029000
42.49999765	0.00000000	10.50689000	15.78494000
42.69999764	0.00000000	11.57726000	7.28346400
42.89999763	0.00000000	13.85334000	0.73203740
43.09999762	0.00000000	16.22785000	-2.74360200
43.29999761	0.00000000	18.97145000	-2.00541300
43.49999759	0.00000000	21.66585000	2.12844500
43.69999758	0.00000000	23.57899000	7.93553100
43.89999757	0.00000000	24.36639000	14.11786000
44.09999756	0.00000000	23.67126000	19.50664000
44.29999755	0.00000000	22.60088000	22.57628000
44.49999753	0.00000000	22.13336000	22.66855000
44.69999752	0.00000000	21.75812000	20.39247000
44.89999751	0.00000000	21.38902000	16.94759000
45.09999750	0.00000000	21.71506000	13.04749000
45.29999749	0.00000000	21.62278000	9.60875900
45.49999748	0.00000000	20.46014000	7.24040300
45.69999746	0.00000000	18.50394000	6.48991100
45.89999745	0.00000000	15.76649000	7.19734200
46.09999744	0.00000000	12.73991000	9.14124000
46.29999743	0.00000000	10.45768000	11.42347000
46.49999742	0.00000000	10.08243000	13.79183000
46.69999740	0.00000000	11.66339000	15.69882000
46.89999739	0.00000000	15.20054000	16.89837000
47.09999738	0.00000000	20.64468000	17.23056000
47.29999737	0.00000000	26.78395000	16.48622000
47.49999736	0.00000000	32.18504000	14.53617000
47.69999734	0.00000000	35.21161000	12.25394000
47.89999733	0.00000000	34.75024000	9.89173200
48.09999732	0.00000000	30.13656000	8.02780400
48.29999731	0.00000000	22.46555000	7.24040300
48.49999730	0.00000000	14.32087000	8.02780400
48.69999729	0.00000000	6.96973400	9.93479300
48.89999727	0.00000000	1.99311000	12.67224000
49.09999726	0.00000000	1.29183100	15.74188000
49.29999725	0.00000000	5.11195900	18.43627000
49.49999724	0.00000000	12.82603000	19.97416000
49.69999723	0.00000000	22.09030000	19.97416000
49.89999721	0.00000000	30.97933000	18.39321000
50.09999720	0.00000000	37.48769000	15.32357000
50.29999719	0.00000000	39.40084000	11.46653000
50.49999718	0.00000000	36.37426000	7.98474400
50.69999717	0.00000000	29.39837000	5.33341500
50.89999715	0.00000000	20.17716000	4.54601300
51.09999714	0.00000000	10.96826000	6.07160400
51.29999713	0.00000000	4.82283400	8.77214500
51.49999712	0.00000000	3.19881900	12.67224000
51.69999711	0.00000000	5.89936000	16.85531000
51.89999710	0.00000000	12.08784000	19.97416000
52.09999708	0.00000000	20.50935000	21.54897000
52.29999707	0.00000000	28.55561000	21.50590000
52.49999706	0.00000000	33.58760000	19.54970000
52.69999705	0.00000000	34.79330000	15.74188000
52.89999704	0.00000000	32.04970000	11.55881000
53.09999702	0.00000000	25.94734000	8.40305000
53.29999701	0.00000000	18.27633000	6.48991100
53.49999700	0.00000000	11.75566000	6.12696800
53.69999699	0.00000000	7.85556000	8.02780400
53.89999698	0.00000000	7.48031400	11.00517000
54.09999696	0.00000000	10.54995000	13.74262000
54.29999695	0.00000000	16.32013000	15.69882000
54.49999694	0.00000000	23.20374000	16.85531000
54.69999693	0.00000000	28.93085000	16.85531000
54.89999692	0.00000000	31.66830000	15.69882000
55.09999691	0.00000000	30.93012000	13.79183000
55.29999689	0.00000000	27.48524000	11.55881000
55.49999688	0.00000000	22.09030000	10.44537000
55.69999687	0.00000000	16.36319000	11.14050000
55.89999686	0.00000000	12.08784000	12.67224000
56.09999685	0.00000000	10.17470000	14.58538000
56.29999683	0.00000000	10.92520000	16.43701000
56.49999682	0.00000000	14.36393000	16.81225000
56.69999681	0.00000000	18.97145000	15.69882000
56.89999680	0.00000000	23.62205000	13.74262000
57.09999679	0.00000000	27.43602000	11.00517000
57.29999677	0.00000000	28.97392000	7.98474400
57.49999676	0.00000000	27.90354000	5.70866100
57.69999675	0.00000000	25.25221000	5.37647600
57.89999674	0.00000000	22.13336000	7.33267600
58.09999673	0.00000000	19.01451000	11.55881000
58.29999672	0.00000000	16.32013000	16.89837000
58.49999670	0.00000000	14.78223000	21.50590000
58.69999669	0.00000000	14.78223000	24.20029000
58.89999668	0.00000000	16.27707000	24.15723000
59.09999667	0.00000000	18.59621000	21.08760000
59.29999666	0.00000000	20.88459000	15.69882000
59.49999664	0.00000000	22.82849000	9.51648500
59.69999663	0.00000000	23.57899000	3.75861200
59.89999662	0.00000000	23.24680000	-0.09227362
60.09999661	0.00000000	22.13336000	-0.84276570
60.29999660	0.00000000	20.97072000	1.48253000
60.49999658	0.00000000	20.17716000	6.91437000
60.69999657	0.00000000	19.38976000	14.21014000
60.89999656	0.00000000	19.06373000	21.50590000
61.09999655	0.00000000	19.38976000	26.84547000
61.29999654	0.00000000	20.13410000	28.42643000
61.49999653	0.00000000	20.50935000	26.10728000
61.69999651	0.00000000	20.55241000	20.71235000
61.89999650	0.00000000	20.55241000	13.00443000
62.09999649	0.00000000	20.50935000	5.33341500
62.29999648	0.00000000	20.08489000	-0.46751960
62.49999647	0.00000000	18.97145000	-3.16190900
62.69999645	0.00000000	17.90108000	-2.00541300
62.89999644	0.00000000	17.90108000	2.59596400
63.09999643	0.00000000	18.97145000	9.55954600
63.29999642	0.00000000	20.13410000	17.23056000
63.49999641	0.00000000	20.97072000	23.82505000
63.69999639	0.00000000	22.13336000	27.68824000
63.89999638	0.00000000	23.20374000	28.47564000
64.09999637	0.00000000	23.20374000	25.73203000
64.29999636	0.00000000	22.13336000	20.01722000
64.49999635	0.00000000	20.97072000	13.09670000
64.69999634	0.00000000	20.13410000	6.90821800
64.89999632	0.00000000	18.97145000	2.59596400
65.09999631	0.00000000	17.90108000	0.63976370
65.29999630	0.00000000	17.90108000	1.01501000
65.49999629	0.00000000	18.97145000	3.70939900
65.69999628	0.00000000	20.08489000	7.98474400
65.89999626	0.00000000	20.55241000	13.00443000
66.09999625	0.00000000	20.97072000	18.01796000
66.29999624	0.00000000	21.66585000	21.50590000
66.49999623	0.00000000	21.62278000	23.12992000
66.69999622	0.00000000	20.55241000	23.12992000
66.89999620	0.00000000	19.38976000	21.59203000
67.09999619	0.00000000	18.63927000	18.89764000
67.29999618	0.00000000	18.27633000	15.78494000
67.49999617	0.00000000	19.10679000	12.62918000
67.69999616	0.00000000	20.97072000	9.51648500
67.89999615	0.00000000	23.29601000	6.82209600
68.09999613	0.00000000	25.20300000	5.24729300
68.29999612	0.00000000	26.36565000	4.82898600
68.49999611	0.00000000	26.27953000	5.29035400
68.69999610	0.00000000	24.36639000	7.24040300
68.89999609	0.00000000	20.88459000	10.72219000
69.09999607	0.00000000	17.05832000	14.62844000
69.29999606	0.00000000	13.57652000	18.90379000
69.49999605	0.00000000	11.71260000	22.71161000
69.69999604	0.00000000	12.03863000	24.61860000
69.89999603	0.00000000	14.40699000	24.29257000
70.09999601	0.00000000	18.27633000	21.92421000
70.29999600	0.00000000	23.33907000	18.06102000
70.49999599	0.00000000	28.32185000	13.00443000
70.69999598	0.00000000	32.13582000	8.02780400
70.89999597	0.00000000	33.25541000	4.12770700
71.09999596	0.00000000	30.97318000	2.22071800
71.29999594	0.00000000	26.40871000	2.59596400
71.49999593	0.00000000	20.92766000	5.33341500
71.69999592	0.00000000	15.52657000	9.93479300
71.89999591	0.00000000	10.88213000	15.28051000
72.09999590	0.00000000	8.59375000	19.50664000
72.29999588	0.00000000	8.96899500	21.50590000
72.49999587	0.00000000	12.08784000	21.54897000
72.69999586	0.00000000	17.43356000	20.01722000
72.89999585	0.00000000	23.20374000	17.32283000
73.09999584	0.00000000	27.90354000	14.25320000
73.29999582	0.00000000	31.02239000	11.51575000
73.49999581	0.00000000	32.17888000	9.60875900
73.69999580	0.00000000	30.97318000	8.82135800
73.89999579	0.00000000	27.52830000	9.55954600
74.09999578	0.00000000	22.55167000	11.04823000
74.29999577	0.00000000	17.94414000	12.58612000
74.49999575	0.00000000	14.73917000	13.69956000
74.69999574	0.00000000	12.82603000	13.74262000
74.89999573	0.00000000	12.50615000	13.00443000
75.09999572	0.00000000	14.78223000	12.25394000
75.29999571	0.00000000	18.50394000	11.46653000
75.49999569	0.00000000	21.66585000	11.18356000
75.69999568	0.00000000	24.04650000	11.93405000
75.89999567	0.00000000	25.94734000	13.87795000
76.09999566	0.00000000	26.32259000	16.16018000
76.29999565	0.00000000	25.25221000	18.47933000
76.49999563	0.00000000	23.71432000	19.93110000
76.69999562	0.00000000	22.17643000	19.50664000
76.89999561	0.00000000	21.01993000	16.81225000
77.09999560	0.00000000	20.59547000	12.62918000
77.29999559	0.00000000	20.55241000	8.35998900
77.49999558	0.00000000	20.55241000	4.91510800
77.69999556	0.00000000	20.55241000	2.97121000
77.89999555	0.00000000	20.50935000	3.42642700
78.09999554	0.00000000	20.13410000	6.08390700
78.29999553	0.00000000	19.38976000	10.72219000
78.49999552	0.00000000	19.01451000	15.74188000
78.69999550	0.00000000	19.01451000	20.39247000
78.89999549	0.00000000	19.43897000	23.82505000
79.09999548	0.00000000	20.64468000	24.61860000
79.29999547	0.00000000	22.55167000	23.12992000
79.49999546	0.00000000	24.82775000	19.97416000
79.69999544	0.00000000	26.36565000	15.36663000
79.89999543	0.00000000	26.74089000	10.35310000
80.09999542	0.00000000	25.99040000	6.53912400
80.29999541	0.00000000	24.04650000	4.50295200
80.49999540	0.00000000	21.71506000	4.49680100
80.69999539	0.00000000	19.01451000	5.66560000
80.89999537	0.00000000	16.73843000	8.40305000
81.09999536	0.00000000	15.98794000	12.21087000
81.29999535	0.00000000	16.69537000	15.74188000
81.49999534	0.00000000	18.63927000	18.85458000
81.69999533	0.00000000	20.97072000	21.17372000
81.89999531	0.00000000	23.67126000	21.96727000
82.09999530	0.00000000	25.94734000	21.59203000
82.29999529	0.00000000	26.74089000	20.06029000
82.49999528	0.00000000	26.40871000	17.74114000
82.69999527	0.00000000	25.20300000	15.36663000
82.89999525	0.00000000	23.29601000	12.62918000
83.09999524	0.00000000	21.01993000	9.93479300
83.29999523	0.00000000	19.48204000	7.98474400
83.49999522	0.00000000	19.01451000	6.82209600
83.69999521	0.00000000	19.01451000	6.86515700
83.89999520	0.00000000	19.43897000	8.40305000
84.09999518	0.00000000	20.59547000	11.14050000
84.29999517	0.00000000	22.09030000	14.62844000
84.49999516	0.00000000	23.24680000	18.47933000
84.69999515	0.00000000	23.62205000	21.54897000
84.89999514	0.00000000	23.29601000	23.08686000
85.09999512	0.00000000	22.55167000	22.71161000
85.29999511	0.00000000	22.17643000	20.39247000
85.49999510	0.00000000	22.17643000	16.90453000
85.69999509	0.00000000	22.55167000	12.62918000
85.89999508	0.00000000	23.29601000	8.40305000
86.09999506	0.00000000	23.62205000	5.33341500
86.29999505	0.00000000	23.29601000	4.17691900
86.49999504	0.00000000	22.50861000	5.33341500
86.69999503	0.00000000	21.71506000	8.40305000
86.89999502	0.00000000	20.55241000	12.67224000
87.09999501	0.00000000	19.43897000	17.27362000
87.29999499	0.00000000	19.06373000	21.13066000
87.49999498	0.00000000	19.43897000	23.03765000
87.69999497	0.00000000	20.59547000	22.66855000
87.89999496	0.00000000	22.09030000	19.97416000
88.09999495	0.00000000	23.29601000	15.74188000
88.29999493	0.00000000	24.08957000	11.09129000
88.49999492	0.00000000	24.82775000	6.86515700
88.69999491	0.00000000	24.78469000	4.21998000
88.89999490	0.00000000	23.67126000	4.21998000
89.09999489	0.00000000	22.13336000	6.90821800
89.29999487	0.00000000	20.59547000	11.46653000
89.49999486	0.00000000	19.48204000	16.48622000
89.69999485	0.00000000	19.43897000	20.34941000
89.89999484	0.00000000	20.13410000	22.66855000
90.09999483	0.00000000	20.55241000	22.61934000
90.29999482	0.00000000	20.97072000	19.97416000
90.49999480	0.00000000	21.75812000	15.74188000
90.69999479	0.00000000	22.50861000	11.09129000
90.89999478	0.00000000	23.24680000	6.86515700
91.09999477	0.00000000	23.24680000	4.21998000
91.29999476	0.00000000	22.55167000	4.21998000
91.49999474	0.00000000	22.17643000	6.90821800
91.69999473	0.00000000	22.13336000	11.51575000
91.89999472	0.00000000	22.13336000	16.85531000
92.09999471	0.00000000	22.13336000	21.08760000
92.29999470	0.00000000	22.13336000	23.03765000
92.49999468	0.00000000	22.13336000	22.66855000
92.69999467	0.00000000	22.09030000	19.92495000
92.89999466	0.00000000	21.66585000	15.36663000
93.09999465	0.00000000	20.55241000	10.35310000
93.29999464	0.00000000	19.43897000	6.53912400
93.49999463	0.00000000	19.01451000	4.59522600
93.69999461	0.00000000	19.06373000	5.37647600
93.89999460	0.00000000	19.85728000	8.40305000
94.09999459	0.00000000	21.75812000	12.67224000
94.29999458	0.00000000	23.67126000	17.27362000
94.49999457	0.00000000	25.29527000	21.03838000
94.69999455	0.00000000	26.78395000	22.20103000
94.89999454	0.00000000	27.52830000	20.39247000
95.09999453	0.00000000	26.74089000	17.32283000
95.29999452	0.00000000	24.82775000	13.79183000
95.49999451	0.00000000	22.09030000	9.98400600
95.69999449	0.00000000	19.01451000	7.33267600
95.89999448	0.00000000	16.32013000	6.90821800
96.09999447	0.00000000	14.78223000	8.40305000
96.29999446	0.00000000	14.78223000	11.09744000
96.49999445	0.00000000	16.36319000	14.16092000
96.69999444	0.00000000	19.48204000	16.90453000
96.89999442	0.00000000	23.67126000	18.81152000
97.09999441	0.00000000	27.52830000	19.55585000
97.29999440	0.00000000	29.90280000	18.43627000
97.49999439	0.00000000	31.06545000	16.16018000
97.69999438	0.00000000	30.59793000	13.83489000
97.89999436	0.00000000	27.94660000	11.55881000
98.09999435	0.00000000	24.08957000	10.40231000
98.29999434	0.00000000	20.22022000	10.72219000
98.49999433	0.00000000	16.69537000	11.46653000
98.69999432	0.00000000	14.40699000	12.62918000
98.89999430	0.00000000	13.61959000	13.74262000
99.09999429	0.00000000	14.82529000	14.21014000
99.29999428	0.00000000	17.90108000	14.62844000
99.49999427	0.00000000	22.09030000	15.36663000
99.69999426	0.00000000	25.94734000	15.74188000
99.89999425	0.00000000	28.32185000	15.82800000
100.09999423	0.00000000	29.52756000	16.20325000
100.29999422	0.00000000	29.52756000	16.94759000
100.49999421	0.00000000	28.36491000	17.27362000
100.69999420	0.00000000	26.40871000	16.89837000
100.89999419	0.00000000	23.67126000	15.74188000
101.09999417	0.00000000	20.59547000	14.21014000
101.29999416	0.00000000	17.90108000	12.62918000
101.49999415	0.00000000	16.36319000	11.09744000
101.69999414	0.00000000	16.32013000	9.98400600
101.89999413	0.00000000	17.48277000	9.98400600
102.09999411	0.00000000	19.43897000	11.14050000
102.29999410	0.00000000	22.13336000	13.09055000
102.49999409	0.00000000	24.82775000	15.78494000
102.69999408	0.00000000	26.78395000	18.43627000
102.89999407	0.00000000	27.94660000	20.01722000
103.09999406	0.00000000	27.94660000	20.39247000
103.29999404	0.00000000	26.83317000	19.59892000
103.49999403	0.00000000	25.25221000	17.27977000
103.69999402	0.00000000	23.29601000	14.21014000
103.89999401	0.00000000	21.01993000	11.09744000
104.09999400	0.00000000	19.48204000	8.44611200
104.29999398	0.00000000	19.01451000	7.28346400
104.49999397	0.00000000	19.06373000	8.02780400
104.69999396	0.00000000	19.85728000	9.93479300
104.89999395	0.00000000	21.75812000	12.67224000
105.09999394	0.00000000	23.62205000	15.74188000
105.29999392	0.00000000	24.82775000	18.39321000
105.49999391	0.00000000	25.25221000	19.55585000
105.69999390	0.00000000	25.25221000	18.85458000
105.89999389	0.00000000	24.82775000	17.32283000
106.09999388	0.00000000	23.67126000	15.32357000
106.29999387	0.00000000	22.17643000	12.67224000
106.49999385	0.00000000	21.01993000	10.40231000
106.69999384	0.00000000	20.59547000	9.60875900
106.89999383	0.00000000	20.59547000	9.98400600
107.09999382	0.00000000	21.01993000	11.51575000
107.29999381	0.00000000	22.17643000	13.79183000
107.49999379	0.00000000	23.67126000	15.69882000
107.69999378	0.00000000	24.78469000	16.89837000
107.89999377	0.00000000	24.78469000	17.23056000
108.09999376	0.00000000	23.71432000	16.52928000
108.29999375	0.00000000	22.55167000	14.96063000
108.49999374	0.00000000	21.75812000	13.45964000
108.69999372	0.00000000	20.97072000	11.88484000
108.89999371	0.00000000	20.59547000	11.14050000
109.09999370	0.00000000	20.59547000	11.14050000
109.29999369	0.00000000	21.01993000	11.93405000
109.49999368	0.00000000	22.17643000	13.83489000
109.69999366	0.00000000	23.67126000	15.69882000
109.89999365	0.00000000	24.82775000	16.94759000
110.09999364	0.00000000	25.25221000	17.69808000
110.29999363	0.00000000	25.25221000	18.06102000
110.49999362	0.00000000	24.82775000	17.27362000
110.69999360	0.00000000	23.71432000	15.78494000
110.89999359	0.00000000	22.55167000	14.21014000
111.09999358	0.00000000	21.75812000	12.67224000
111.29999357	0.00000000	21.01993000	11.51575000
111.49999356	0.00000000	21.01993000	11.14050000
111.69999355	0.00000000	21.75812000	11.51575000
111.89999353	0.00000000	22.50861000	12.62918000
112.09999352	0.00000000	23.29601000	13.79183000
112.29999351	0.00000000	23.67126000	14.58538000
112.49999350	0.00000000	23.75738000	15.36663000
112.69999349	0.00000000	24.08957000	15.74188000
112.89999347	0.00000000	24.50172000	15.78494000
113.09999346	0.00000000	24.46481000	15.78494000
113.29999345	0.00000000	24.50172000	15.74188000
113.49999344	0.00000000	24.08957000	15.36663000
113.69999343	0.00000000	23.75738000	14.62844000
113.89999341	0.00000000	23.71432000	14.25320000
114.09999340	0.00000000	23.71432000	14.21014000
114.29999339	0.00000000	23.67126000	14.16708000
114.49999338	0.00000000	23.33907000	13.79183000
114.69999337	0.00000000	22.96998000	13.04749000
114.89999336	0.00000000	23.33907000	12.67224000
115.09999334	0.00000000	23.67126000	12.62918000
115.29999333	0.00000000	23.71432000	12.67224000
115.49999332	0.00000000	23.71432000	13.09670000
115.69999331	0.00000000	23.71432000	14.21014000
115.89999330	0.00000000	23.71432000	15.32357000
116.09999328	0.00000000	23.71432000	15.78494000
116.29999327	0.00000000	23.67126000	16.20325000
116.49999326	0.00000000	23.29601000	16.94759000
116.69999325	0.00000000	22.55167000	17.27362000
116.89999324	0.00000000	22.17643000	16.89837000
117.09999322	0.00000000	22.17643000	15.78494000
117.29999321	0.00000000	22.55167000	14.62844000
117.49999320	0.00000000	23.33907000	13.83489000
117.69999319	0.00000000	24.08957000	13.04749000
117.89999318	0.00000000	24.87697000	12.67224000
118.09999317	0.00000000	25.25221000	12.67224000
118.29999315	0.00000000	25.25221000	13.04749000
118.49999314	0.00000000	24.82775000	13.83489000
118.69999313	0.00000000	23.71432000	14.58538000
118.89999312	0.00000000	22.55167000	15.40969000
119.09999311	0.00000000	21.75812000	16.16018000
119.29999309	0.00000000	20.97072000	16.94759000
119.49999308	0.00000000	20.64468000	17.27362000
119.69999307	0.00000000	21.01993000	16.94759000
119.89999306	0.00000000	22.17643000	16.16018000
120.09999305	0.00000000	23.71432000	15.40969000
120.29999303	0.00000000	25.25221000	14.62844000
120.49999302	0.00000000	26.40871000	14.21014000
120.69999301	0.00000000	26.78395000	13.79183000
120.89999300	0.00000000	26.45792000	13.04749000
121.09999299	0.00000000	25.67052000	12.72146000
121.29999298	0.00000000	24.87697000	13.04749000
121.49999296	0.00000000	23.67126000	13.79183000
121.69999295	0.00000000	22.17643000	14.16708000
121.89999294	0.00000000	21.01993000	14.25320000
122.09999293	0.00000000	20.59547000	14.62844000
122.29999292	0.00000000	20.59547000	15.36663000
122.49999290	0.00000000	21.01993000	15.74188000
122.69999289	0.00000000	22.17643000	15.78494000
122.89999288	0.00000000	23.67126000	15.78494000
123.09999287	0.00000000	24.82775000	15.74188000
123.29999286	0.00000000	25.25221000	15.36663000
123.49999284	0.00000000	25.29527000	14.62844000
123.69999283	0.00000000	25.29527000	14.25320000
123.89999282	0.00000000	25.25221000	14.21014000
124.09999281	0.00000000	24.87697000	14.21014000
124.29999280	0.00000000	24.08957000	14.21014000
124.49999279	0.00000000	23.33907000	14.21014000
124.69999277	0.00000000	22.55167000	14.21014000
124.89999276	0.00000000	22.17643000	14.25320000
125.09999275	0.00000000	22.13336000	14.62844000
125.29999274	0.00000000	22.13336000	15.32357000
125.49999273	0.00000000	22.17643000	15.36663000
125.69999271	0.00000000	22.55167000	15.04675000
125.89999270	0.00000000	23.33907000	15.40969000
126.09999269	0.00000000	24.08957000	15.74188000
126.29999268	0.00000000	24.92003000	15.74188000
126.49999267	0.00000000	25.62746000	15.36663000
126.69999265	0.00000000	26.03961000	14.62844000
126.89999264	0.00000000	25.62746000	14.25320000
127.09999263	0.00000000	24.92003000	14.21014000
127.29999262	0.00000000	24.08957000	14.21014000
127.49999261	0.00000000	23.33907000	14.21014000
127.69999260	0.00000000	22.55167000	14.21014000
127.89999258	0.00000000	22.17643000	14.25320000
128.09999257	0.00000000	22.17643000	14.62844000
128.29999256	0.00000000	22.60088000	15.36663000
128.49999255	0.00000000	23.71432000	15.74188000
128.69999254	0.00000000	24.87697000	15.78494000
128.89999252	0.00000000	25.67052000	15.78494000
129.09999251	0.00000000	26.40871000	15.78494000
129.29999250	0.00000000	26.40871000	15.74188000
129.49999249	0.00000000	25.67052000	15.36663000
129.69999248	0.00000000	24.87697000	14.62844000
129.89999246	0.00000000	23.71432000	14.25320000
130.09999245	0.00000000	22.60088000	14.21014000
130.29999244	0.00000000	22.17643000	14.25320000
130.49999243	0.00000000	22.17643000	14.62844000
130.69999242	0.00000000	22.60088000	15.36663000
130.89999241	0.00000000	23.71432000	15.74188000
131.09999239	0.00000000	24.82775000	15.78494000
131.29999238	0.00000000	25.25221000	15.78494000
131.49999237	0.00000000	25.29527000	15.78494000
131.69999236	0.00000000	25.29527000	15.74188000
131.89999235	0.00000000	25.29527000	15.36663000
132.09999233	0.00000000	25.25221000	14.62844000
132.29999232	0.00000000	24.87697000	14.25320000
132.49999231	0.00000000	24.13263000	14.21014000
132.69999230	0.00000000	23.75738000	14.25320000
132.89999229	0.00000000	23.71432000	14.62844000
133.09999227	0.00000000	23.71432000	15.36663000
133.29999226	0.00000000	23.71432000	15.78494000
133.49999225	0.00000000	23.71432000	16.20325000
133.69999224	0.00000000	23.71432000	16.89837000
133.89999223	0.00000000	23.71432000	16.89837000
134.09999222	0.00000000	23.71432000	16.16018000
134.29999220	0.00000000	23.71432000	15.40969000
134.49999219	0.00000000	23.75738000	14.58538000
134.69999218	0.00000000	24.13263000	13.83489000
134.89999217	0.00000000	24.87697000	13.04749000
135.09999216	0.00000000	25.25221000	12.67224000
135.29999214	0.00000000	25.29527000	12.67224000
135.49999213	0.00000000	25.25221000	13.04749000
135.69999212	0.00000000	24.87697000	13.83489000
135.89999211	0.00000000	24.13263000	14.58538000
136.09999210	0.00000000	23.71432000	15.36663000
136.29999208	0.00000000	23.29601000	15.74188000
136.49999207	0.00000000	22.55167000	15.78494000
136.69999206	0.00000000	22.22564000	15.78494000
136.89999205	0.00000000	22.55167000	15.74188000
137.09999204	0.00000000	23.33907000	15.32357000
137.29999203	0.00000000	24.08957000	14.21014000
137.49999201	0.00000000	24.92003000	13.09670000
137.69999200	0.00000000	25.62746000	12.67224000
137.89999199	0.00000000	26.03961000	12.62918000
138.09999198	0.00000000	25.67052000	12.67224000
138.29999197	0.00000000	25.29527000	13.04749000
138.49999195	0.00000000	24.87697000	13.79183000
138.69999194	0.00000000	24.08957000	14.21014000
138.89999193	0.00000000	23.33907000	14.67150000
139.09999192	0.00000000	22.60088000	15.74188000
139.29999191	0.00000000	22.60088000	16.48007000
139.49999189	0.00000000	23.33907000	16.16018000
139.69999188	0.00000000	24.08957000	15.82800000
139.89999187	0.00000000	24.87697000	15.78494000
140.09999186	0.00000000	25.25221000	15.74188000
140.29999185	0.00000000	25.29527000	15.36663000
140.49999184	0.00000000	25.29527000	14.62844000
140.69999182	0.00000000	25.29527000	14.25320000
140.89999181	0.00000000	25.25221000	14.21014000
141.09999180	0.00000000	24.87697000	14.21014000
141.29999179	0.00000000	24.13263000	14.25320000
141.49999178	0.00000000	23.80659000	14.62844000
141.69999176	0.00000000	24.08957000	15.40969000
141.89999175	0.00000000	24.50172000	16.16018000
142.09999174	0.00000000	24.50787000	16.94759000
142.29999173	0.00000000	24.92003000	17.32283000
142.49999172	0.00000000	25.25221000	17.32283000
142.69999170	0.00000000	25.29527000	16.94759000
142.89999169	0.00000000	25.29527000	16.16018000
143.09999168	0.00000000	25.29527000	15.40969000
143.29999167	0.00000000	25.29527000	14.62844000
143.49999166	0.00000000	25.29527000	14.25320000
143.69999165	0.00000000	25.29527000	14.21014000
143.89999163	0.00000000	25.29527000	14.21014000
144.09999162	0.00000000	25.29527000	14.25320000
144.29999161	0.00000000	25.29527000	14.62844000
144.49999160	0.00000000	25.29527000	15.40969000
144.69999159	0.00000000	25.33834000	16.16018000
144.89999157	0.00000000	25.67052000	16.94759000
145.09999156	0.00000000	26.03961000	17.32283000
145.29999155	0.00000000	25.67052000	17.32283000
145.49999154	0.00000000	25.29527000	16.94759000
145.69999153	0.00000000	24.92003000	16.16018000
145.89999151	0.00000000	24.50787000	15.40969000
146.09999150	0.00000000	24.54478000	14.62844000
146.29999149	0.00000000	24.50787000	14.25320000
146.49999148	0.00000000	24.92003000	14.21014000
146.69999147	0.00000000	25.25221000	14.25320000
146.89999146	0.00000000	25.29527000	14.62844000
147.09999144	0.00000000	25.29527000	15.36663000
147.29999143	0.00000000	25.29527000	15.78494000
147.49999142	0.00000000	25.29527000	16.16018000
147.69999141	0.00000000	25.29527000	16.52928000
147.89999140	0.00000000	25.29527000	16.16018000
148.09999138	0.00000000	25.25221000	15.82800000
148.29999137	0.00000000	24.87697000	15.78494000
148.49999136	0.00000000	24.18184000	15.78494000
148.69999135	0.00000000	24.18184000	15.74188000
148.89999134	0.00000000	24.87697000	15.36663000
149.09999132	0.00000000	25.25221000	14.62844000
149.29999131	0.00000000	25.29527000	14.25320000
149.49999130	0.00000000	25.29527000	14.21014000
149.69999129	0.00000000	25.29527000	14.25320000
149.89999128	0.00000000	25.29527000	14.62844000
150.09999127	0.00000000	25.29527000	15.36663000
150.29999125	0.00000000	25.29527000	15.74188000
150.49999124	0.00000000	25.25221000	15.78494000
150.69999123	0.00000000	24.87697000	15.78494000
150.89999122	0.00000000	24.13263000	15.78494000
151.09999121	0.00000000	23.75738000	15.78494000
151.29999119	0.00000000	23.75738000	15.78494000
151.49999118	0.00000000	24.13263000	15.74188000
151.69999117	0.00000000	24.87697000	15.36663000
151.89999116	0.00000000	25.25221000	14.62844000
152.09999115	0.00000000	25.29527000	14.30241000
152.29999113	0.00000000	25.33834000	14.58538000
152.49999112	0.00000000	25.67052000	14.99139000
152.69999111	0.00000000	26.08268000	14.95448000
152.89999110	0.00000000	26.04577000	15.04060000
153.09999109	0.00000000	26.08268000	15.00369000
153.29999108	0.00000000	25.67052000	15.40969000
153.49999106	0.00000000	25.33834000	15.74188000
153.69999105	0.00000000	25.25221000	15.78494000
153.89999104	0.00000000	24.87697000	15.78494000
154.09999103	0.00000000	24.13263000	15.78494000
154.29999102	0.00000000	23.75738000	15.74188000
154.49999100	0.00000000	23.75738000	15.40969000
154.69999099	0.00000000	24.13263000	15.04675000
154.89999098	0.00000000	24.87697000	15.36663000
155.09999097	0.00000000	25.29527000	15.32357000
155.29999096	0.00000000	25.71358000	14.62844000
155.49999094	0.00000000	26.45792000	14.30241000
155.69999093	0.00000000	26.83317000	14.62844000
155.89999092	0.00000000	26.83317000	15.36663000
156.09999091	0.00000000	26.45792000	15.74188000
156.29999090	0.00000000	25.67052000	15.78494000
156.49999089	0.00000000	24.96309000	15.82800000
156.69999087	0.00000000	24.50787000	16.20325000
156.89999086	0.00000000	24.50172000	16.94759000
157.09999085	0.00000000	24.13263000	17.27362000
157.29999084	0.00000000	24.18184000	16.94759000
157.49999083	0.00000000	24.87697000	16.20325000
157.69999081	0.00000000	25.25221000	15.82800000
157.89999080	0.00000000	25.33834000	15.74188000
158.09999079	0.00000000	25.71358000	15.40969000
158.29999078	0.00000000	26.45792000	15.04675000
158.49999077	0.00000000	26.83317000	15.40969000
158.69999075	0.00000000	26.87623000	15.74188000
158.89999074	0.00000000	26.83317000	15.78494000
159.09999073	0.00000000	26.45792000	15.78494000
159.29999072	0.00000000	25.71358000	15.78494000
159.49999071	0.00000000	25.33834000	15.82800000
159.69999070	0.00000000	25.29527000	16.20325000
159.89999068	0.00000000	25.29527000	16.89837000
160.09999067	0.00000000	25.29527000	16.94759000
160.29999066	0.00000000	25.29527000	16.57849000
160.49999065	0.00000000	25.29527000	16.57234000
160.69999064	0.00000000	25.29527000	16.11712000
160.89999062	0.00000000	25.29527000	15.45891000
161.09999061	0.00000000	25.33834000	15.04675000
161.29999060	0.00000000	25.71358000	15.40969000
161.49999059	0.00000000	26.45792000	15.74188000
161.69999058	0.00000000	26.78395000	15.78494000
161.89999056	0.00000000	26.45792000	15.78494000
162.09999055	0.00000000	25.76279000	15.82800000
162.29999054	0.00000000	25.71358000	16.16018000
162.49999053	0.00000000	26.03961000	16.52928000
162.69999052	0.00000000	25.67052000	16.16018000
162.89999051	0.00000000	25.33834000	15.82800000
163.09999049	0.00000000	25.29527000	15.78494000
163.29999048	0.00000000	25.29527000	15.78494000
163.49999047	0.00000000	25.29527000	15.78494000
163.69999046	0.00000000	25.29527000	15.78494000
163.89999045	0.00000000	25.29527000	15.78494000
164.09999043	0.00000000	25.29527000	15.78494000
164.29999042	0.00000000	25.33834000	15.78494000
164.49999041	0.00000000	25.71358000	15.78494000
164.69999040	0.00000000	26.45792000	15.78494000
164.89999039	0.00000000	26.83317000	15.78494000
165.09999037	0.00000000	26.87623000	15.78494000
165.29999036	0.00000000	26.87623000	15.78494000
165.49999035	0.00000000	26.87623000	15.78494000
165.69999034	0.00000000	26.83317000	15.78494000
165.89999033	0.00000000	26.45792000	15.78494000
166.09999032	0.00000000	25.71358000	15.78494000
166.29999030	0.00000000	25.33834000	15.78494000
166.49999029	0.00000000	25.29527000	15.78494000
166.69999028	0.00000000	25.29527000	15.78494000
166.89999027	0.00000000	25.29527000	15.78494000
167.09999026	0.00000000	25.33834000	15.78494000
167.29999024	0.00000000	25.71358000	15.78494000
167.49999023	0.00000000	26.45792000	15.78494000
167.69999022	0.00000000	26.83317000	15.78494000
167.89999021	0.00000000	26.87623000	15.78494000
168.09999020	0.00000000	26.87623000	15.78494000
168.29999018	0.00000000	26.87623000	15.78494000
168.49999017	0.00000000	26.87623000	15.78494000
168.69999016	0.00000000	26.83317000	15.78494000
168.89999015	0.00000000	26.45792000	15.78494000
169.09999014	0.00000000	25.71358000	15.78494000
169.29999013	0.00000000	25.33834000	15.78494000
169.49999011	0.00000000	25.33834000	15.78494000
169.69999010	0.00000000	25.67052000	15.78494000
169.89999009	0.00000000	26.08268000	15.78494000
170.09999008	0.00000000	26.04577000	15.78494000
170.29999007	0.00000000	26.08268000	15.78494000
170.49999005	0.00000000	25.67052000	15.78494000
170.69999004	0.00000000	25.38755000	15.78494000
170.89999003	0.00000000	25.67052000	15.78494000
171.09999002	0.00000000	26.08268000	15.78494000
171.29999001	0.00000000	26.08883000	15.78494000
171.49998999	0.00000000	26.50098000	15.78494000
171.69998998	0.00000000	26.83317000	15.78494000
171.89998997	0.00000000	26.87623000	15.78494000
172.09998996	0.00000000	26.87623000	15.78494000
172.29998995	0.00000000	26.83317000	15.78494000
172.49998994	0.00000000	26.50098000	15.78494000
172.69998992	0.00000000	26.13189000	15.78494000
172.89998991	0.00000000	26.50098000	15.78494000
173.09998990	0.00000000	26.78395000	15.78494000
173.29998989	0.00000000	26.50098000	15.78494000
173.49998988	0.00000000	26.13189000	15.78494000
173.69998986	0.00000000	26.50098000	15.78494000
173.89998985	0.00000000	26.83317000	15.78494000
174.09998984	0.00000000	26.87623000	15.82800000
174.29998983	0.00000000	26.87623000	16.16018000
174.49998982	0.00000000	26.87623000	16.52928000
174.69998980	0.00000000	26.87623000	16.16018000
174.89998979	0.00000000	26.87623000	15.82800000
175.09998978	0.00000000	26.87623000	15.78494000
175.29998977	0.00000000	26.87623000	15.78494000
175.49998976	0.00000000	26.87623000	15.78494000
175.69998975	0.00000000	26.87623000	15.78494000
175.89998973	0.00000000	26.87623000	15.78494000
176.09998972	0.00000000	26.87623000	15.78494000
176.29998971	0.00000000	26.87623000	15.82800000
176.49998970	0.00000000	26.87623000	16.16018000
176.69998969	0.00000000	26.87623000	16.52928000
176.89998967	0.00000000	26.87623000	16.16018000
177.09998966	0.00000000	26.87623000	15.82800000
177.29998965	0.00000000	26.87623000	15.78494000
177.49998964	0.00000000	26.87623000	15.78494000
177.69998963	0.00000000	26.87623000	15.78494000
177.89998961	0.00000000	26.87623000	15.82800000
178.09998960	0.00000000	26.87623000	16.20325000
178.29998959	0.00000000	26.87623000	16.89837000
178.49998958	0.00000000	26.87623000	16.89837000
178.69998957	0.00000000	26.87623000	16.20325000
178.89998956	0.00000000	26.87623000	15.82800000
179.09998954	0.00000000	26.87623000	15.78494000
179.29998953	0.00000000	26.87623000	15.78494000
179.49998952	0.00000000	26.87623000	15.78494000
179.69998951	0.00000000	26.87623000	15.78494000
179.89998950	0.00000000	26.87623000	15.78494000
180.09998948	0.00000000	26.87623000	15.78494000
180.29998947	0.00000000	26.87623000	15.78494000
180.49998946	0.00000000	26.87623000	15.78494000
180.69998945	0.00000000	26.87623000	15.78494000
180.89998944	0.00000000	26.87623000	15.78494000
181.09998942	0.00000000	26.87623000	15.78494000
181.29998941	0.00000000	26.87623000	15.78494000
181.49998940	0.00000000	26.87623000	15.78494000
181.69998939	0.00000000	26.87623000	15.78494000
181.89998938	0.00000000	26.87623000	15.78494000
182.09998937	0.00000000	26.87623000	15.78494000
182.29998935	0.00000000	26.87623000	15.78494000
182.49998934	0.00000000	26.87623000	15.78494000
182.69998933	0.00000000	26.87623000	15.78494000
182.89998932	0.00000000	26.87623000	15.78494000
183.09998931	0.00000000	26.87623000	15.78494000
183.29998929	0.00000000	26.87623000	15.78494000
183.49998928	0.00000000	26.87623000	15.78494000
183.69998927	0.00000000	26.87623000	15.78494000
183.89998926	0.00000000	26.83317000	15.78494000
184.09998925	0.00000000	26.50098000	15.78494000
184.29998923	0.00000000	26.13189000	15.78494000
184.49998922	0.00000000	26.50098000	15.78494000
184.69998921	0.00000000	26.83317000	15.82800000
184.89998920	0.00000000	26.87623000	16.20325000
185.09998919	0.00000000	26.87623000	16.89837000
185.29998918	0.00000000	26.91929000	16.89837000
185.49998916	0.00000000	27.29453000	16.20325000
185.69998915	0.00000000	27.98966000	15.82800000
185.89998914	0.00000000	27.98966000	15.78494000
186.09998913	0.00000000	27.29453000	15.74188000
186.29998912	0.00000000	26.91929000	15.40969000
186.49998910	0.00000000	26.87623000	15.04675000
186.69998909	0.00000000	26.87623000	15.40969000
186.89998908	0.00000000	26.87623000	15.78494000
187.09998907	0.00000000	26.87623000	16.20325000
187.29998906	0.00000000	26.87623000	16.94759000
187.49998904	0.00000000	26.87623000	17.32283000
187.69998903	0.00000000	26.87623000	17.36589000
187.89998902	0.00000000	26.91929000	17.36589000
188.09998901	0.00000000	27.29453000	17.32283000
188.29998900	0.00000000	28.03888000	16.94759000
188.49998899	0.00000000	28.41412000	16.20325000
188.69998897	0.00000000	28.45718000	15.82800000
188.89998896	0.00000000	28.45718000	15.78494000
189.09998895	0.00000000	28.41412000	15.78494000
189.29998894	0.00000000	28.03888000	15.78494000
189.49998893	0.00000000	27.29453000	15.78494000
189.69998891	0.00000000	26.91929000	15.78494000
189.89998890	0.00000000	26.87623000	15.78494000
190.09998889	0.00000000	26.87623000	15.78494000
190.29998888	0.00000000	26.87623000	15.82800000
190.49998887	0.00000000	26.87623000	16.20325000
190.69998885	0.00000000	26.87623000	16.94759000
190.89998884	0.00000000	26.87623000	17.32283000
191.09998883	0.00000000	26.87623000	17.32283000
191.29998882	0.00000000	26.87623000	16.99065000
191.49998881	0.00000000	26.91929000	16.57849000
191.69998880	0.00000000	27.29453000	16.57234000
191.89998878	0.00000000	28.03888000	16.16018000
192.09998877	0.00000000	28.36491000	15.82800000
192.29998876	0.00000000	28.03888000	15.78494000
192.49998875	0.00000000	27.29453000	15.78494000
192.69998874	0.00000000	26.91929000	15.78494000
192.89998872	0.00000000	26.87623000	15.82800000
193.09998871	0.00000000	26.87623000	16.20325000
193.29998870	0.00000000	26.87623000	16.94759000
193.49998869	0.00000000	26.87623000	17.32283000
193.69998868	0.00000000	26.91929000	17.36589000
193.89998866	0.00000000	27.29453000	17.36589000
194.09998865	0.00000000	28.03888000	17.36589000
194.29998864	0.00000000	28.41412000	17.36589000
194.49998863	0.00000000	28.45718000	17.36589000
194.69998862	0.00000000	28.45718000	17.36589000
194.89998861	0.00000000	28.45718000	17.32283000
195.09998859	0.00000000	28.45718000	16.99065000
195.29998858	0.00000000	28.45718000	16.62155000
195.49998857	0.00000000	28.45718000	16.94759000
195.69998856	0.00000000	28.45718000	16.89837000
195.89998855	0.00000000	28.41412000	16.25246000
196.09998853	0.00000000	28.08194000	16.25246000
