Time	Channel A	Channel B	Channel C
(us)	(V)	(mV)	(mV)

-4.59999956	0.00000000	12.64764000	7.89247000
-4.39999957	0.00000000	12.64764000	7.89247000
-4.19999958	0.00000000	12.64764000	7.93553100
-3.99999959	0.00000000	12.60458000	8.26771600
-3.79999960	0.00000000	12.27239000	8.67987200
-3.59999962	0.00000000	11.86024000	8.64296200
-3.39999963	0.00000000	11.89715000	8.67987200
-3.19999964	0.00000000	11.86024000	8.26771600
-2.99999965	0.00000000	12.22933000	7.93553100
-2.79999966	0.00000000	12.22933000	7.89247000
-2.59999968	0.00000000	11.86024000	7.89247000
-2.39999969	0.00000000	11.85408000	7.89247000
-2.19999970	0.00000000	11.48499000	7.89247000
-1.99999971	0.00000000	11.48499000	7.89247000
-1.79999972	0.00000000	11.85408000	7.89247000
-1.59999973	0.00000000	11.86024000	7.89247000
-1.39999975	0.00000000	12.22933000	7.89247000
-1.19999976	0.00000000	12.22933000	7.89247000
-0.99999977	0.00000000	11.90330000	7.89247000
-0.79999978	0.00000000	12.27239000	7.89247000
-0.59999979	0.00000000	12.60458000	7.89247000
-0.39999981	0.15871060	12.64764000	7.89247000
-0.19999982	0.47736220	12.64764000	7.89247000
0.00000017	0.79601380	12.60458000	7.89247000
0.20000016	0.95533960	12.22933000	7.89247000
0.40000015	0.95533960	11.48499000	7.89247000
0.60000013	0.63668800	11.10974000	7.89247000
0.80000012	-0.15871060	11.10974000	7.93553100
1.00000011	-1.11466500	11.48499000	8.31077700
1.20000010	-2.07062000	12.22933000	9.05511800
1.40000009	-2.70792300	12.55536000	9.43036400
1.60000008	-2.70792300	12.27239000	9.47342500
1.80000006	-1.75196900	11.90330000	9.47342500
2.00000005	-0.15871060	12.27239000	9.47342500
2.20000004	1.91129400	12.55536000	9.43036400
2.40000003	3.82258900	12.27239000	9.05511800
2.60000002	5.09719500	11.86024000	8.31077700
2.80000000	5.25652100	11.85408000	7.93553100
2.99999999	3.82258900	11.44193000	7.89247000
3.19999998	1.11466500	11.10974000	7.89247000
3.39999997	-2.22994600	11.06668000	7.89247000
3.59999996	-5.41584600	11.10974000	7.89247000
3.79999994	-7.48646600	11.44193000	7.93553100
3.99999993	-7.80511800	11.85408000	8.31077700
4.19999992	-6.21247500	11.86024000	9.05511800
4.39999991	-2.70792300	12.27239000	9.43036400
4.59999990	1.59264300	12.60458000	9.43036400
4.79999989	5.73449800	12.60458000	9.05511800
4.99999987	8.76107300	12.22933000	8.31077700
5.19999986	9.39837600	11.48499000	7.93553100
5.39999985	7.80511800	11.10974000	7.89247000
5.59999984	4.14124000	11.06668000	7.89247000
5.79999983	-0.47736220	11.06668000	7.89247000
5.99999981	-5.09719500	11.10974000	7.89247000
6.19999980	-8.44242100	11.48499000	7.93553100
6.39999979	-9.55770200	12.22933000	8.31077700
6.59999978	-8.28309500	12.55536000	9.05511800
6.79999977	-5.09719500	12.27239000	9.43036400
6.99999975	-0.63668800	11.90330000	9.43036400
7.19999974	3.50393700	12.22933000	9.05511800
7.39999973	6.53112700	12.18012000	8.31077700
7.59999972	7.80511800	11.48499000	7.93553100
7.79999971	7.00848900	11.10974000	7.89247000
7.99999970	4.61921700	11.06668000	7.89247000
8.19999968	1.43331700	11.06668000	7.89247000
8.39999967	-1.75196900	11.06668000	7.89247000
8.59999966	-4.14124000	11.10974000	7.89247000
8.79999965	-5.09719500	11.48499000	7.93553100
8.99999964	-4.77854300	12.22933000	8.31077700
9.19999962	-3.34522600	12.60458000	9.00590400
9.39999961	-1.43331700	12.64764000	9.00590400
9.59999960	0.47736220	12.60458000	8.35998900
9.79999959	1.91129400	12.27239000	8.31077700
9.99999958	2.54859700	11.90330000	8.63681000
10.19999956	2.38927200	12.27239000	8.26771600
10.39999955	1.75196900	12.55536000	7.93553100
10.59999954	0.95533960	12.22933000	7.89247000
10.79999953	0.00000000	11.48499000	7.89247000
10.99999952	-0.63668800	11.15896000	7.89247000
11.19999951	-0.95533960	11.48499000	7.89247000
11.39999949	-0.95533960	12.22933000	7.89247000
11.59999948	-0.79601380	12.60458000	7.89247000
11.79999947	-0.63668800	12.64764000	7.89247000
11.99999946	-0.31803640	12.64764000	7.89247000
12.19999945	-0.15871060	12.64764000	7.93553100
12.39999943	-0.15871060	12.64764000	8.26771600
12.59999942	0.00000000	12.64764000	8.63681000
12.79999941	0.00000000	12.60458000	8.31077700
12.99999940	0.15871060	12.27239000	8.31077700
13.19999939	0.00000000	11.86024000	8.63681000
13.39999937	0.00000000	11.89715000	8.31077700
13.59999936	0.00000000	11.86024000	8.31077700
13.79999935	0.00000000	12.27239000	8.63681000
13.99999934	-0.15871060	12.60458000	8.26771600
14.19999933	-0.15871060	12.64764000	7.93553100
14.39999932	-0.15871060	12.60458000	7.89247000
14.59999930	0.00000000	12.22933000	7.89247000
14.79999929	0.00000000	11.53420000	7.89247000
14.99999928	0.00000000	11.48499000	7.89247000
15.19999927	0.00000000	11.81102000	7.89247000
15.39999926	0.00000000	11.44193000	7.89247000
15.59999924	0.00000000	11.10974000	7.89247000
15.79999923	0.00000000	11.06668000	7.89247000
15.99999922	0.00000000	11.10974000	7.89247000
16.19999921	0.00000000	11.48499000	7.89247000
16.39999920	-0.15871060	12.22933000	7.89247000
16.59999919	-0.15871060	12.60458000	7.89247000
16.79999917	-0.15871060	12.64764000	7.89247000
16.99999916	0.00000000	12.69070000	7.89247000
17.19999915	0.00000000	13.06594000	7.89247000
17.39999914	0.00000000	13.81028000	7.89247000
17.59999913	0.00000000	14.13632000	7.89247000
17.79999911	0.00000000	13.76107000	7.89247000
17.99999910	0.00000000	12.60458000	7.89247000
18.19999909	0.00000000	11.02362000	7.89247000
18.39999908	0.00000000	9.11048200	7.89247000
18.59999907	0.00000000	7.20964500	7.89247000
18.79999905	0.00000000	6.41609200	7.89247000
18.99999904	0.00000000	6.41609200	7.89247000
19.19999903	0.00000000	7.25270600	7.89247000
19.39999902	0.00000000	9.57800100	7.89247000
19.59999901	0.00000000	12.73991000	7.89247000
19.79999900	0.00000000	16.60310000	7.89247000
19.99999898	0.00000000	20.78617000	7.89247000
20.19999897	0.00000000	23.06841000	7.89247000
20.39999896	0.00000000	23.06841000	7.93553100
20.59999895	0.00000000	20.65084000	8.26771600
20.79999894	0.00000000	15.21284000	8.63681000
20.99999892	0.00000000	7.90477300	8.26771600
21.19999891	0.00000000	0.51058070	7.93553100
21.39999890	0.00000000	-5.59178100	7.93553100
21.59999889	0.00000000	-8.60605200	8.31077700
21.79999888	0.00000000	-6.61294300	9.05511800
21.99999886	0.00000000	-0.00615157	9.38115100
22.19999885	0.00000000	10.50689000	9.05511800
22.39999884	0.00000000	23.20374000	8.31077700
22.59999883	0.00000000	34.75024000	7.93553100
22.79999882	0.00000000	42.05216000	7.89247000
22.99999881	0.00000000	43.17175000	7.93553100
23.19999879	0.00000000	37.26624000	8.31077700
23.39999878	0.00000000	24.84006000	9.05511800
23.59999877	0.00000000	7.81250000	9.47342500
23.79999876	0.00000000	-9.91018600	9.84867000
23.99999875	0.00000000	-24.15108000	10.21161000
24.19999873	0.00000000	-30.99163000	9.79945900
24.39999872	0.00000000	-27.82972000	9.05511800
24.59999871	0.00000000	-14.70842000	7.84940900
24.79999870	0.00000000	5.38877900	6.31151500
24.99999869	0.00000000	27.76821000	4.77977300
25.19999867	0.00000000	47.49015000	3.62327700
25.39999866	0.00000000	59.78100000	3.29109200
25.59999865	0.00000000	61.68799000	4.08464600
25.79999864	0.00000000	51.96850000	6.44685000
25.99999863	0.00000000	32.70177000	9.89173200
26.19999862	0.00000000	8.32308000	13.79183000
26.39999860	0.00000000	-15.59424000	17.23056000
26.59999859	0.00000000	-33.69217000	19.55585000
26.79999858	0.00000000	-41.04330000	19.83883000
26.99999857	0.00000000	-36.06668000	17.46432000
27.19999856	0.00000000	-20.61393000	12.03248000
27.39999854	0.00000000	2.17765700	4.73671200
27.59999853	0.00000000	26.83932000	-2.60211600
27.79999852	0.00000000	47.35482000	-8.40920300
27.99999851	0.00000000	59.40575000	-11.42962000
28.19999850	0.00000000	60.98671000	-10.54995000
28.39999848	0.00000000	52.05462000	-4.74286400
28.59999847	0.00000000	34.37500000	4.91510800
28.79999846	0.00000000	12.37082000	16.11712000
28.99999845	0.00000000	-8.10777600	26.98080000
29.19999844	0.00000000	-23.30832000	34.98400000
29.39999843	0.00000000	-30.24729000	38.04134000
29.59999841	0.00000000	-28.00812000	34.47342000
29.79999840	0.00000000	-17.21826000	24.84621000
29.99999839	0.00000000	-1.02731300	10.91289000
30.19999838	0.00000000	16.79380000	-4.14000900
30.39999837	0.00000000	32.65871000	-17.28592000
30.59999835	0.00000000	43.12869000	-25.74434000
30.79999834	0.00000000	46.29060000	-27.23302000
30.99999833	0.00000000	42.09522000	-21.00763000
31.19999832	0.00000000	32.09276000	-7.90477300
31.39999831	0.00000000	18.92839000	9.09817800
31.59999829	0.00000000	5.38877900	26.10728000
31.79999828	0.00000000	-5.86860200	39.99754000
31.99999827	0.00000000	-12.47539000	47.29330000
32.19999826	0.00000000	-13.72416000	46.17987000
32.39999825	0.00000000	-9.82406400	37.30315000
32.59999824	0.00000000	-1.72244100	22.61934000
32.79999822	0.00000000	9.06742000	5.20423200
32.99999821	0.00000000	19.48819000	-11.42962000
33.19999820	0.00000000	27.30069000	-24.16338000
33.39999819	0.00000000	31.53912000	-29.92126000
33.59999818	0.00000000	31.16388000	-27.27608000
33.79999816	0.00000000	26.18725000	-17.28592000
33.99999815	0.00000000	18.50394000	-2.55905500
34.19999814	0.00000000	10.03937000	14.07480000
34.39999813	0.00000000	3.06348400	29.49680000
34.59999812	0.00000000	-0.84891720	39.90526000
34.79999810	0.00000000	-1.63016700	43.06717000
34.99999809	0.00000000	1.06422200	38.84104000
35.19999808	0.00000000	6.41609200	28.43258000
35.39999807	0.00000000	12.55536000	14.12401000
35.59999806	0.00000000	17.99951000	-0.84276570
35.79999805	0.00000000	21.44439000	-12.81988000
35.99999803	0.00000000	22.23179000	-18.68233000
36.19999802	0.00000000	19.90650000	-18.35630000
36.39999801	0.00000000	15.34203000	-12.13091000
36.59999800	0.00000000	9.99630800	-1.02116100
36.79999799	0.00000000	5.76402500	11.65723000
36.99999797	0.00000000	3.80782500	22.44094000
37.19999796	0.00000000	4.13385800	28.98622000
37.39999795	0.00000000	6.45915300	29.36146000
37.59999794	0.00000000	9.95324800	23.68971000
37.79999793	0.00000000	14.22859000	14.11786000
37.99999791	0.00000000	18.41781000	3.80167300
38.19999790	0.00000000	21.11220000	-4.27534400
38.39999789	0.00000000	21.48745000	-7.76328700
38.59999788	0.00000000	19.58046000	-6.23154500
38.79999787	0.00000000	15.71727000	-0.09227362
38.99999786	0.00000000	11.10974000	9.05511800
39.19999784	0.00000000	6.83439900	17.83957000
39.39999783	0.00000000	3.71555100	23.64665000
39.59999782	0.00000000	2.17765700	25.13533000
39.79999781	0.00000000	2.55290300	21.64739000
39.99999780	0.00000000	4.87819900	13.65650000
40.19999778	0.00000000	8.37229300	4.08464600
40.39999777	0.00000000	12.64764000	-4.00467500
40.59999776	0.00000000	16.87992000	-9.01205700
40.79999775	0.00000000	19.99877000	-9.34424200
40.99999774	0.00000000	21.57972000	-4.74286400
41.19999772	0.00000000	21.57972000	3.70939900
41.39999771	0.00000000	19.99877000	13.65650000
41.59999770	0.00000000	16.87992000	22.10876000
41.79999769	0.00000000	12.64764000	26.75935000
41.99999768	0.00000000	8.41535400	26.75935000
42.19999767	0.00000000	5.29650500	22.15797000
42.39999765	0.00000000	3.71555100	14.11786000
42.59999764	0.00000000	3.71555100	5.29035400
42.79999763	0.00000000	5.25344500	-2.04847400
42.99999762	0.00000000	7.94783400	-6.32381900
43.19999761	0.00000000	11.02362000	-6.74212600
43.39999759	0.00000000	13.76107000	-3.72170300
43.59999758	0.00000000	15.67421000	1.66707700
43.79999757	0.00000000	16.50467000	7.84940900
43.99999756	0.00000000	16.14173000	13.61343000
44.19999755	0.00000000	15.43430000	17.50738000
44.39999753	0.00000000	14.60384000	18.67618000
44.59999752	0.00000000	13.89641000	17.59966000
44.79999751	0.00000000	13.48425000	14.49311000
44.99999750	0.00000000	13.81028000	10.67298000
45.19999749	0.00000000	13.71801000	6.77903500
45.39999748	0.00000000	12.60458000	3.75246000
45.59999746	0.00000000	11.02362000	2.50369100
45.79999745	0.00000000	9.01820900	2.87278500
45.99999744	0.00000000	6.32381900	4.03543200
46.19999743	0.00000000	3.67249000	6.36072800
46.39999742	0.00000000	2.22687000	9.00590400
46.59999740	0.00000000	3.02042300	11.00517000
46.79999739	0.00000000	6.50221400	12.53691000
46.99999738	0.00000000	11.53420000	13.28125000
47.19999737	0.00000000	17.34744000	12.49385000
47.39999736	0.00000000	22.74237000	10.62992000
47.59999734	0.00000000	26.18725000	8.31077700
47.79999733	0.00000000	26.92544000	6.31151500
47.99999732	0.00000000	24.13878000	4.40452700
48.19999731	0.00000000	17.95029000	2.92199800
48.39999730	0.00000000	9.48572700	3.29109200
48.59999729	0.00000000	1.06422200	4.77977300
48.79999727	0.00000000	-4.74901600	6.82209600
48.99999726	0.00000000	-6.66215500	9.89173200
49.19999725	0.00000000	-4.33070900	13.28125000
49.39999724	0.00000000	2.26993100	15.18824000
49.59999723	0.00000000	11.48499000	15.23130000
49.79999721	0.00000000	21.11220000	13.69956000
49.99999720	0.00000000	28.46333000	11.00517000
50.19999719	0.00000000	31.90822000	7.89247000
50.39999718	0.00000000	30.69636000	4.77977300
50.59999717	0.00000000	24.18799000	2.08538400
50.79999715	0.00000000	14.64690000	0.59670270
50.99999714	0.00000000	5.38877900	0.97194880
51.19999713	0.00000000	-1.58710600	3.29109200
51.39999712	0.00000000	-4.66289300	6.77903500
51.59999711	0.00000000	-3.16806100	11.00517000
51.79999710	0.00000000	2.22687000	14.81299000
51.99999708	0.00000000	9.90403500	16.76919000
52.19999707	0.00000000	17.99951000	16.81225000
52.39999706	0.00000000	24.13878000	15.23130000
52.59999705	0.00000000	26.83932000	12.11860000
52.79999704	0.00000000	25.30143000	7.93553100
52.99999702	0.00000000	19.95571000	4.08464600
53.19999701	0.00000000	12.64764000	1.75319900
53.39999700	0.00000000	5.38877900	0.97194880
53.59999699	0.00000000	0.36909450	2.12844500
53.79999698	0.00000000	-0.79970470	4.77977300
53.99999696	0.00000000	1.48253000	7.84940900
54.19999695	0.00000000	6.87746000	10.53765000
54.39999694	0.00000000	13.71801000	12.07554000
54.59999693	0.00000000	19.53125000	12.11860000
54.79999692	0.00000000	22.98228000	11.00517000
54.99999691	0.00000000	23.39444000	9.47342500
55.19999689	0.00000000	20.32480000	7.93553100
55.39999688	0.00000000	15.39124000	6.82209600
55.59999687	0.00000000	9.95324800	6.82209600
55.79999686	0.00000000	5.29650500	7.93553100
55.99999685	0.00000000	2.26993100	9.47342500
56.19999683	0.00000000	1.90083600	11.00517000
56.39999682	0.00000000	4.92125900	12.11860000
56.59999681	0.00000000	9.48572700	12.03248000
56.79999680	0.00000000	14.18553000	10.11934000
56.99999679	0.00000000	18.37475000	6.68676100
57.19999677	0.00000000	20.69390000	3.29109200
57.39999676	0.00000000	20.37401000	0.97194880
57.59999675	0.00000000	18.46087000	0.59670270
57.79999674	0.00000000	15.34203000	2.17765700
57.99999673	0.00000000	11.53420000	5.66560000
58.19999672	0.00000000	8.45841400	10.67298000
58.39999670	0.00000000	6.87746000	15.60654000
58.59999669	0.00000000	6.83439900	19.08834000
58.79999668	0.00000000	7.99704600	19.83883000
58.99999667	0.00000000	9.90403500	17.88263000
59.19999666	0.00000000	12.22933000	13.23819000
59.39999664	0.00000000	14.13632000	6.72982200
59.59999663	0.00000000	15.29897000	0.59670270
59.79999662	0.00000000	15.34203000	-3.67249000
59.99999661	0.00000000	14.60384000	-5.20423200
60.19999660	0.00000000	13.81028000	-3.58021600
60.39999658	0.00000000	12.60458000	1.39025600
60.59999657	0.00000000	11.15896000	8.67987200
60.79999656	0.00000000	10.41462000	15.60654000
60.99999655	0.00000000	11.10974000	21.03838000
61.19999654	0.00000000	12.18012000	23.68971000
61.39999653	0.00000000	12.60458000	22.53322000
61.59999651	0.00000000	12.69070000	17.92569000
61.79999650	0.00000000	13.02288000	10.96211000
61.99999649	0.00000000	13.34276000	3.24803100
62.19999648	0.00000000	12.55536000	-3.62942900
62.39999647	0.00000000	11.10974000	-7.48031400
62.59999645	0.00000000	9.95324800	-7.16043300
62.79999644	0.00000000	9.57800100	-3.67249000
62.99999643	0.00000000	9.95324800	2.54675200
63.19999642	0.00000000	11.10974000	10.58686000
63.39999641	0.00000000	12.60458000	17.88263000
63.59999639	0.00000000	13.81028000	22.57628000
63.79999638	0.00000000	14.56078000	24.10802000
63.99999637	0.00000000	14.97293000	22.20103000
64.19999636	0.00000000	14.56078000	17.18750000
64.39999635	0.00000000	13.81028000	10.67298000
64.59999634	0.00000000	12.60458000	4.08464600
64.79999632	0.00000000	11.10974000	-0.93503930
64.99999631	0.00000000	9.95324800	-3.71555100
65.19999630	0.00000000	9.57800100	-4.09079700
65.39999629	0.00000000	9.95324800	-2.14074800
65.59999628	0.00000000	11.10974000	2.08538400
65.79999626	0.00000000	12.60458000	7.42495000
65.99999625	0.00000000	13.76107000	12.11860000
66.19999624	0.00000000	14.13632000	15.64960000
66.39999623	0.00000000	13.76107000	17.97490000
66.59999622	0.00000000	12.60458000	18.39321000
66.79999620	0.00000000	11.10974000	17.27362000
66.99999619	0.00000000	9.95324800	15.27436000
67.19999618	0.00000000	9.57800100	12.16166000
67.39999617	0.00000000	9.99630800	8.35998900
67.59999616	0.00000000	11.57726000	5.19808000
67.79999615	0.00000000	14.22859000	2.82972400
67.99999613	0.00000000	16.87992000	0.87967510
68.19999612	0.00000000	18.41781000	0.13533460
68.39999611	0.00000000	18.37475000	0.51058070
68.59999610	0.00000000	16.46161000	2.08538400
68.79999609	0.00000000	13.02288000	4.82283400
68.99999607	0.00000000	9.52879000	8.35998900
69.19999606	0.00000000	6.36687900	12.58612000
69.39999605	0.00000000	3.75861200	16.43701000
69.59999604	0.00000000	3.02042300	18.76845000
69.79999603	0.00000000	4.92125900	19.50664000
69.99999601	0.00000000	8.41535400	17.93184000
70.19999600	0.00000000	13.11516000	14.11786000
70.39999599	0.00000000	18.46087000	9.47342500
70.59999598	0.00000000	22.65010000	4.77977300
70.79999597	0.00000000	24.23105000	0.55364170
70.99999596	0.00000000	23.06841000	-2.14074800
71.19999594	0.00000000	19.58046000	-2.50984200
71.39999593	0.00000000	14.18553000	-0.55979330
71.59999592	0.00000000	8.41535400	3.66633800
71.79999591	0.00000000	3.71555100	9.00590400
71.99999590	0.00000000	0.64591530	13.61343000
72.19999588	0.00000000	-0.09842519	16.39395000
72.39999587	0.00000000	2.22687000	17.18750000
72.59999586	0.00000000	6.83439900	16.43701000
72.79999585	0.00000000	12.60458000	14.11786000
72.99999584	0.00000000	18.04257000	11.04823000
73.19999582	0.00000000	21.90576000	7.93553100
73.39999581	0.00000000	23.85581000	5.29035400
73.59999580	0.00000000	23.06841000	4.12770700
73.79999579	0.00000000	19.99877000	4.82283400
73.99999578	0.00000000	15.39124000	6.31151500
74.19999577	0.00000000	10.37155000	7.84940900
74.39999575	0.00000000	6.50221400	9.00590400
74.59999574	0.00000000	4.13385800	9.38115100
74.79999573	0.00000000	3.75861200	9.00590400
74.99999572	0.00000000	5.25344500	7.89247000
75.19999571	0.00000000	7.94783400	6.77903500
75.39999569	0.00000000	11.06668000	6.40378900
75.59999568	0.00000000	14.13632000	6.82209600
75.79999567	0.00000000	16.46161000	8.40305000
75.99999566	0.00000000	17.25517000	11.04823000
76.19999565	0.00000000	16.92298000	13.69956000
76.39999563	0.00000000	15.76649000	15.23130000
76.59999562	0.00000000	14.27165000	15.18824000
76.79999561	0.00000000	13.06594000	13.23819000
76.99999560	0.00000000	12.27239000	9.43036400
77.19999559	0.00000000	11.53420000	5.19808000
77.39999558	0.00000000	11.48499000	1.71013800
77.59999556	0.00000000	11.81102000	-0.60285430
77.79999555	0.00000000	11.44193000	-0.97810030
77.99999554	0.00000000	11.06668000	0.59670270
78.19999553	0.00000000	10.64838000	4.08464600
78.39999552	0.00000000	9.90403500	9.09817800
78.59999550	0.00000000	9.57800100	14.07480000
78.79999549	0.00000000	9.95324800	17.97490000
78.99999548	0.00000000	11.10974000	19.83883000
79.19999547	0.00000000	12.69070000	19.08834000
79.39999546	0.00000000	14.60384000	15.64960000
79.59999544	0.00000000	16.50467000	11.04823000
79.79999543	0.00000000	17.25517000	6.35457700
79.99999542	0.00000000	16.87992000	2.12844500
80.19999541	0.00000000	15.29897000	-0.55979330
80.39999540	0.00000000	12.64764000	-0.97810030
80.59999539	0.00000000	9.95324800	0.51058070
80.79999537	0.00000000	7.99704600	3.19881900
80.99999536	0.00000000	6.83439900	6.31151500
81.19999535	0.00000000	6.87746000	9.47342500
81.39999534	0.00000000	8.37229300	12.58612000
81.59999533	0.00000000	10.69144000	15.23130000
81.79999531	0.00000000	13.02288000	16.43701000
81.99999530	0.00000000	15.34203000	16.06791000
82.19999529	0.00000000	16.87992000	14.90526000
82.39999528	0.00000000	17.25517000	12.58612000
82.59999527	0.00000000	16.50467000	9.89173200
82.79999525	0.00000000	14.56078000	7.47416300
82.99999524	0.00000000	12.31545000	4.77977300
83.19999523	0.00000000	10.37155000	2.46063000
83.39999522	0.00000000	9.57800100	1.29183100
83.59999521	0.00000000	9.52879000	0.92888770
83.79999520	0.00000000	9.95324800	2.12844500
83.99999518	0.00000000	11.06668000	4.77977300
84.19999517	0.00000000	12.22933000	7.93553100
84.39999516	0.00000000	12.97982000	11.42347000
84.59999515	0.00000000	13.39198000	14.90526000
84.79999514	0.00000000	13.02288000	17.13829000
84.99999512	0.00000000	12.69070000	17.55044000
85.19999511	0.00000000	12.64764000	15.60654000
85.39999510	0.00000000	12.64764000	12.16166000
85.59999509	0.00000000	12.69070000	7.89247000
85.79999508	0.00000000	13.06594000	3.66633800
85.99999506	0.00000000	13.76107000	0.55364170
86.19999505	0.00000000	13.71801000	-0.97810030
86.39999504	0.00000000	12.64764000	-0.60285430
86.59999503	0.00000000	11.48499000	1.75935000
86.79999502	0.00000000	10.69144000	5.61638700
86.99999501	0.00000000	9.90403500	10.62992000
87.19999499	0.00000000	9.57800100	15.18824000
87.39999498	0.00000000	9.95324800	17.92569000
87.59999497	0.00000000	11.06668000	18.30093000
87.79999496	0.00000000	12.22933000	16.35089000
87.99999495	0.00000000	13.06594000	12.11860000
88.19999493	0.00000000	14.22859000	6.77903500
88.39999492	0.00000000	15.29897000	2.17765700
88.59999491	0.00000000	15.29897000	-0.55979330
88.79999490	0.00000000	14.18553000	-0.93503930
88.99999489	0.00000000	12.64764000	0.97194880
89.19999487	0.00000000	11.10974000	4.82898600
89.39999486	0.00000000	9.95324800	9.47342500
89.59999485	0.00000000	9.52879000	14.11786000
89.79999484	0.00000000	9.52879000	17.88263000
89.99999483	0.00000000	9.95324800	19.04527000
90.19999482	0.00000000	11.06668000	17.14444000
90.39999480	0.00000000	12.22933000	13.28125000
90.59999479	0.00000000	12.97982000	7.89247000
90.79999478	0.00000000	13.43504000	2.59596400
90.99999477	0.00000000	13.39813000	-0.51673230
91.19999476	0.00000000	13.43504000	-0.93503930
91.39999474	0.00000000	13.02288000	0.97194880
91.59999473	0.00000000	12.69070000	4.87204700
91.79999472	0.00000000	12.64764000	9.84867000
91.99999471	0.00000000	12.64764000	14.81299000
92.19999470	0.00000000	12.64764000	17.83957000
92.39999468	0.00000000	12.64764000	17.92569000
92.59999467	0.00000000	12.60458000	15.60654000
92.79999466	0.00000000	12.18012000	11.74336000
92.99999465	0.00000000	11.06668000	6.72982200
93.19999464	0.00000000	9.90403500	2.17765700
93.39999463	0.00000000	9.15354300	-0.51673230
93.59999461	0.00000000	8.79060000	-0.51673230
93.79999460	0.00000000	9.57800100	2.12844500
93.99999459	0.00000000	11.10974000	6.35457700
94.19999458	0.00000000	13.06594000	10.95595000
94.39999457	0.00000000	15.39124000	14.76993000
94.59999455	0.00000000	17.29823000	16.34473000
94.79999454	0.00000000	18.41781000	15.60654000
94.99999453	0.00000000	18.04257000	13.28125000
95.19999452	0.00000000	16.09252000	9.43036400
95.39999451	0.00000000	13.39198000	5.24729300
95.59999449	0.00000000	9.90403500	2.17765700
95.79999448	0.00000000	6.87746000	1.01501000
95.99999447	0.00000000	5.29650500	2.12844500
96.19999446	0.00000000	5.25344500	4.82283400
96.39999445	0.00000000	6.45915300	8.26771600
96.59999444	0.00000000	8.83366100	11.70029000
96.79999442	0.00000000	12.69070000	13.65650000
96.99999441	0.00000000	16.87992000	14.07480000
97.19999440	0.00000000	19.99877000	13.32431000
97.39999439	0.00000000	21.53666000	11.38041000
97.59999438	0.00000000	21.16142000	9.09817800
97.79999436	0.00000000	18.83612000	6.77903500
97.99999435	0.00000000	15.34203000	5.29035400
98.19999434	0.00000000	11.10974000	5.19808000
98.39999433	0.00000000	7.25270600	5.93626900
98.59999432	0.00000000	4.87819900	6.68676100
98.79999430	0.00000000	3.71555100	7.51722400
98.99999429	0.00000000	4.18307100	8.26771600
99.19999428	0.00000000	6.83439900	9.05511800
99.39999427	0.00000000	10.64838000	9.43036400
99.59999426	0.00000000	14.18553000	9.51648500
99.79999425	0.00000000	17.29823000	9.89173200
99.99999423	0.00000000	19.58046000	10.62992000
100.19999422	0.00000000	19.99877000	11.00517000
100.39999421	0.00000000	18.87918000	11.04823000
100.59999420	0.00000000	16.92298000	11.00517000
100.79999419	0.00000000	14.18553000	10.58686000
100.99999417	0.00000000	11.10974000	9.38115100
101.19999416	0.00000000	8.41535400	7.51722400
101.39999415	0.00000000	6.83439900	5.57332700
101.59999414	0.00000000	6.41609200	4.45374000
101.79999413	0.00000000	6.83439900	4.04158400
101.99999411	0.00000000	8.41535400	4.87204700
102.19999410	0.00000000	11.02362000	6.77903500
102.39999409	0.00000000	13.39198000	9.47342500
102.59999408	0.00000000	14.97908000	12.16781000
102.79999407	0.00000000	16.55389000	14.11786000
102.99999406	0.00000000	17.25517000	15.23130000
103.19999404	0.00000000	16.87992000	14.81299000
103.39999403	0.00000000	15.34203000	12.53691000
103.59999402	0.00000000	13.06594000	9.47342500
103.79999401	0.00000000	11.10974000	6.36072800
103.99999400	0.00000000	9.52879000	3.66633800
104.19999398	0.00000000	8.41535400	2.17150600
104.39999397	0.00000000	8.37229300	2.50369100
104.59999396	0.00000000	9.15354300	4.44758800
104.79999395	0.00000000	10.27928000	7.10506800
104.99999394	0.00000000	11.89715000	10.21161000
105.19999392	0.00000000	13.39813000	12.49385000
105.39999391	0.00000000	14.92372000	13.69956000
105.59999390	0.00000000	15.29897000	13.65650000
105.79999389	0.00000000	14.60384000	12.16781000
105.99999388	0.00000000	13.81028000	9.84867000
106.19999387	0.00000000	12.60458000	7.56643700
106.39999385	0.00000000	11.10974000	5.61638700
106.59999384	0.00000000	9.99630800	4.87204700
106.79999383	0.00000000	9.95324800	5.19808000
106.99999382	0.00000000	10.69144000	6.36072800
107.19999381	0.00000000	11.48499000	7.89247000
107.39999379	0.00000000	12.64764000	9.47342500
107.59999378	0.00000000	13.76107000	11.00517000
107.79999377	0.00000000	14.13632000	12.11860000
107.99999376	0.00000000	13.76107000	12.07554000
108.19999375	0.00000000	12.64764000	10.58686000
108.39999374	0.00000000	11.48499000	8.31077700
108.59999372	0.00000000	10.69144000	6.40378900
108.79999371	0.00000000	9.95324800	5.24729300
108.99999370	0.00000000	9.95324800	5.24729300
109.19999369	0.00000000	10.69144000	6.36072800
109.39999368	0.00000000	11.48499000	7.89247000
109.59999366	0.00000000	12.64764000	9.47342500
109.79999365	0.00000000	13.81028000	11.00517000
109.99999364	0.00000000	14.56078000	12.11860000
110.19999363	0.00000000	14.97293000	12.11860000
110.39999362	0.00000000	14.56078000	11.00517000
110.59999360	0.00000000	13.81028000	9.47342500
110.79999359	0.00000000	12.64764000	7.93553100
110.99999358	0.00000000	11.53420000	6.77903500
111.19999357	0.00000000	11.10974000	6.35457700
111.39999356	0.00000000	11.06668000	6.31151500
111.59999355	0.00000000	11.06668000	6.35457700
111.79999353	0.00000000	11.10974000	6.77903500
111.99999352	0.00000000	11.48499000	7.89247000
112.19999351	0.00000000	12.22933000	9.00590400
112.39999350	0.00000000	12.60458000	9.47342500
112.59999349	0.00000000	12.64764000	9.84867000
112.79999347	0.00000000	12.64764000	10.21161000
112.99999346	0.00000000	12.64764000	9.84867000
113.19999345	0.00000000	12.64764000	9.51648500
113.39999344	0.00000000	12.64764000	9.43036400
113.59999343	0.00000000	12.64764000	9.05511800
113.79999341	0.00000000	12.64764000	8.31077700
113.99999340	0.00000000	12.64764000	7.93553100
114.19999339	0.00000000	12.64764000	7.89247000
114.39999338	0.00000000	12.64764000	7.84940900
114.59999337	0.00000000	12.64764000	7.47416300
114.79999336	0.00000000	12.64764000	6.72982200
114.99999334	0.00000000	12.64764000	6.40378900
115.19999333	0.00000000	12.64764000	6.72982200
115.39999332	0.00000000	12.64764000	7.51722400
115.59999331	0.00000000	12.64764000	8.26771600
115.79999330	0.00000000	12.64764000	9.09817800
115.99999328	0.00000000	12.64764000	9.84867000
116.19999327	0.00000000	12.64764000	10.62992000
116.39999326	0.00000000	12.60458000	11.00517000
116.59999325	0.00000000	12.27239000	11.00517000
116.79999324	0.00000000	11.90330000	10.58686000
116.99999322	0.00000000	12.27239000	9.47342500
117.19999321	0.00000000	12.60458000	8.35998900
117.39999320	0.00000000	12.69070000	7.89247000
117.59999319	0.00000000	13.06594000	7.47416300
117.79999318	0.00000000	13.81028000	6.72982200
117.99999317	0.00000000	14.18553000	6.40378900
118.19999315	0.00000000	14.18553000	6.72982200
118.39999314	0.00000000	13.81028000	7.51722400
118.59999313	0.00000000	13.02288000	8.26771600
118.79999312	0.00000000	12.22933000	9.09817800
118.99999311	0.00000000	11.06668000	9.84867000
119.19999309	0.00000000	9.99630800	10.62992000
119.39999308	0.00000000	9.95324800	11.00517000
119.59999307	0.00000000	10.69144000	11.00517000
119.79999306	0.00000000	11.48499000	10.62992000
119.99999305	0.00000000	12.64764000	9.84867000
120.19999303	0.00000000	13.81028000	9.09817800
120.39999302	0.00000000	14.60384000	8.31077700
120.59999301	0.00000000	15.39124000	7.93553100
120.79999300	0.00000000	15.71727000	7.84940900
120.99999299	0.00000000	15.34203000	7.47416300
121.19999298	0.00000000	14.18553000	6.77903500
121.39999296	0.00000000	12.64764000	6.77903500
121.59999295	0.00000000	11.10974000	7.47416300
121.79999294	0.00000000	9.95324800	7.89247000
121.99999293	0.00000000	9.52879000	8.31077700
122.19999292	0.00000000	9.52879000	9.05511800
122.39999290	0.00000000	9.95324800	9.43036400
122.59999289	0.00000000	11.06668000	9.47342500
122.79999288	0.00000000	12.22933000	9.47342500
122.99999287	0.00000000	13.02288000	9.47342500
123.19999286	0.00000000	13.81028000	9.47342500
123.39999284	0.00000000	14.18553000	9.43036400
123.59999283	0.00000000	14.22859000	9.05511800
123.79999282	0.00000000	14.22859000	8.31077700
123.99999281	0.00000000	14.18553000	7.93553100
124.19999280	0.00000000	13.76107000	7.89247000
124.39999279	0.00000000	12.64764000	7.89247000
124.59999277	0.00000000	11.48499000	7.89247000
124.79999276	0.00000000	10.73450000	7.89247000
124.99999275	0.00000000	10.32234000	7.93553100
125.19999274	0.00000000	10.69144000	8.26771600
125.39999273	0.00000000	11.06668000	8.72293300
125.59999271	0.00000000	11.48499000	9.10433000
125.79999270	0.00000000	12.27239000	10.21161000
125.99999269	0.00000000	13.02288000	10.53765000
126.19999268	0.00000000	13.85334000	9.89173200
126.39999267	0.00000000	14.60384000	9.51648500
126.59999265	0.00000000	15.34203000	9.43036400
126.79999264	0.00000000	15.29897000	9.05511800
126.99999263	0.00000000	14.18553000	8.31077700
127.19999262	0.00000000	12.69070000	7.93553100
127.39999261	0.00000000	11.48499000	7.89247000
127.59999260	0.00000000	10.69144000	7.89247000
127.79999258	0.00000000	9.90403500	7.89247000
127.99999257	0.00000000	9.57800100	7.93553100
128.19999256	0.00000000	9.95324800	8.31077700
128.39999255	0.00000000	11.10974000	9.05511800
128.59999254	0.00000000	12.60458000	9.43036400
128.79999252	0.00000000	13.81028000	9.47342500
128.99999251	0.00000000	14.56078000	9.47342500
129.19999250	0.00000000	14.97293000	9.43036400
129.39999249	0.00000000	14.56078000	9.05511800
129.59999248	0.00000000	13.81028000	8.31077700
129.79999246	0.00000000	12.64764000	7.93553100
129.99999245	0.00000000	11.53420000	7.89247000
130.19999244	0.00000000	11.10974000	7.89247000
130.39999243	0.00000000	11.06668000	7.93553100
130.59999242	0.00000000	11.10974000	8.31077700
130.79999241	0.00000000	11.53420000	9.05511800
130.99999239	0.00000000	12.64764000	9.43036400
131.19999238	0.00000000	13.76107000	9.47342500
131.39999237	0.00000000	14.18553000	9.43036400
131.59999236	0.00000000	14.18553000	9.05511800
131.79999235	0.00000000	13.81028000	8.31077700
131.99999233	0.00000000	13.06594000	7.93553100
132.19999232	0.00000000	12.69070000	7.89247000
132.39999231	0.00000000	12.60458000	7.89247000
132.59999230	0.00000000	12.22933000	7.89247000
132.79999229	0.00000000	11.53420000	7.93553100
132.99999227	0.00000000	11.53420000	8.31077700
133.19999226	0.00000000	12.22933000	9.09817800
133.39999225	0.00000000	12.60458000	9.79945900
133.59999224	0.00000000	12.64764000	10.21161000
133.79999223	0.00000000	12.64764000	9.84867000
133.99999222	0.00000000	12.64764000	9.47342500
134.19999220	0.00000000	12.64764000	9.05511800
134.39999219	0.00000000	12.64764000	8.31077700
134.59999218	0.00000000	12.64764000	7.89247000
134.79999217	0.00000000	12.64764000	7.47416300
134.99999216	0.00000000	12.69070000	6.77903500
135.19999214	0.00000000	13.06594000	6.77903500
135.39999213	0.00000000	13.76107000	7.51722400
135.59999212	0.00000000	13.76107000	8.26771600
135.79999211	0.00000000	13.02288000	9.05511800
135.99999210	0.00000000	12.27239000	9.47342500
136.19999208	0.00000000	11.48499000	9.84867000
136.39999207	0.00000000	11.10974000	10.21161000
136.59999206	0.00000000	11.06668000	9.84867000
136.79999205	0.00000000	11.10974000	9.51648500
136.99999204	0.00000000	11.48499000	9.43036400
137.19999203	0.00000000	12.27239000	9.05511800
137.39999201	0.00000000	13.02288000	8.31077700
137.59999200	0.00000000	13.81028000	7.89247000
137.79999199	0.00000000	14.18553000	7.51722400
137.99999198	0.00000000	14.18553000	7.14812900
138.19999197	0.00000000	13.81028000	7.51722400
138.39999195	0.00000000	13.02288000	7.84940900
138.59999194	0.00000000	12.27239000	7.93553100
138.79999193	0.00000000	11.48499000	8.31077700
138.99999192	0.00000000	11.10974000	9.05511800
139.19999191	0.00000000	11.10974000	9.47342500
139.39999189	0.00000000	11.48499000	9.84867000
139.59999188	0.00000000	12.22933000	10.21161000
139.79999187	0.00000000	12.64764000	9.84867000
139.99999186	0.00000000	13.02288000	9.47342500
140.19999185	0.00000000	13.43504000	9.05511800
140.39999184	0.00000000	13.39813000	8.26771600
140.59999182	0.00000000	13.43504000	7.51722400
140.79999181	0.00000000	13.02288000	6.72982200
140.99999180	0.00000000	12.64764000	6.40378900
141.19999179	0.00000000	12.27239000	6.72982200
141.39999178	0.00000000	11.86024000	7.47416300
141.59999176	0.00000000	11.89715000	7.89247000
141.79999175	0.00000000	11.86024000	8.31077700
141.99999174	0.00000000	12.27239000	9.09817800
142.19999173	0.00000000	12.60458000	9.84867000
142.39999172	0.00000000	12.64764000	10.58686000
142.59999170	0.00000000	12.69070000	10.58686000
142.79999169	0.00000000	13.02288000	9.84867000
142.99999168	0.00000000	13.39198000	9.09817800
143.19999167	0.00000000	13.02288000	8.26771600
143.39999166	0.00000000	12.69070000	7.51722400
143.59999165	0.00000000	12.64764000	6.77903500
143.79999163	0.00000000	12.64764000	6.77903500
143.99999162	0.00000000	12.64764000	7.47416300
144.19999161	0.00000000	12.64764000	7.89247000
144.39999160	0.00000000	12.64764000	8.31077700
144.59999159	0.00000000	12.64764000	9.05511800
144.79999157	0.00000000	12.64764000	9.43036400
144.99999156	0.00000000	12.64764000	9.47342500
145.19999155	0.00000000	12.64764000	9.47342500
145.39999154	0.00000000	12.64764000	9.43036400
145.59999153	0.00000000	12.60458000	9.05511800
145.79999151	0.00000000	12.27239000	8.31077700
145.99999150	0.00000000	11.90330000	7.93553100
146.19999149	0.00000000	12.27239000	7.89247000
146.39999148	0.00000000	12.60458000	7.89247000
146.59999147	0.00000000	12.64764000	7.89247000
146.79999146	0.00000000	12.69070000	7.93553100
146.99999144	0.00000000	13.02288000	8.31077700
147.19999143	0.00000000	13.39198000	9.05511800
147.39999142	0.00000000	13.02288000	9.43036400
147.59999141	0.00000000	12.69070000	9.47342500
147.79999140	0.00000000	12.64764000	9.47342500
147.99999138	0.00000000	12.60458000	9.47342500
148.19999137	0.00000000	12.27239000	9.47342500
148.39999136	0.00000000	11.86024000	9.43036400
148.59999135	0.00000000	11.89715000	9.05511800
148.79999134	0.00000000	11.86024000	8.31077700
148.99999132	0.00000000	12.27239000	7.93553100
149.19999131	0.00000000	12.64764000	7.89247000
149.39999130	0.00000000	13.02288000	7.89247000
149.59999129	0.00000000	13.43504000	7.93553100
149.79999128	0.00000000	13.39813000	8.31077700
149.99999127	0.00000000	13.43504000	9.05511800
150.19999125	0.00000000	13.02288000	9.43036400
150.39999124	0.00000000	12.69070000	9.47342500
150.59999123	0.00000000	12.64764000	9.47342500
150.79999122	0.00000000	12.64764000	9.47342500
150.99999121	0.00000000	12.64764000	9.47342500
151.19999119	0.00000000	12.60458000	9.47342500
151.39999118	0.00000000	12.27239000	9.47342500
151.59999117	0.00000000	11.90330000	9.43036400
151.79999116	0.00000000	12.27239000	9.05511800
151.99999115	0.00000000	12.60458000	8.31077700
152.19999113	0.00000000	12.64764000	7.93553100
152.39999112	0.00000000	12.69070000	7.93553100
152.59999111	0.00000000	13.06594000	8.31077700
152.79999110	0.00000000	13.76107000	9.05511800
152.99999109	0.00000000	13.76107000	9.43036400
153.19999108	0.00000000	13.06594000	9.47342500
153.39999106	0.00000000	12.69070000	9.47342500
153.59999105	0.00000000	12.64764000	9.47342500
153.79999104	0.00000000	12.60458000	9.47342500
153.99999103	0.00000000	12.22933000	9.47342500
154.19999102	0.00000000	11.53420000	9.47342500
154.39999100	0.00000000	11.53420000	9.47342500
154.59999099	0.00000000	12.22933000	9.47342500
154.79999098	0.00000000	12.60458000	9.43036400
154.99999097	0.00000000	12.64764000	9.05511800
155.19999096	0.00000000	12.69070000	8.31077700
155.39999094	0.00000000	13.06594000	7.93553100
155.59999093	0.00000000	13.81028000	7.93553100
155.79999092	0.00000000	14.18553000	8.31077700
155.99999091	0.00000000	14.18553000	9.05511800
156.19999090	0.00000000	13.81028000	9.43036400
156.39999089	0.00000000	13.02288000	9.47342500
156.59999087	0.00000000	12.31545000	9.47342500
156.79999086	0.00000000	11.90330000	9.47342500
156.99999085	0.00000000	12.22933000	9.47342500
157.19999084	0.00000000	12.22933000	9.47342500
157.39999083	0.00000000	11.90330000	9.43036400
157.59999081	0.00000000	12.27239000	9.05511800
157.79999080	0.00000000	12.64764000	8.31077700
157.99999079	0.00000000	13.06594000	7.93553100
158.19999078	0.00000000	13.76107000	7.89247000
158.39999077	0.00000000	13.81028000	7.89247000
158.59999075	0.00000000	13.44119000	7.89247000
158.79999074	0.00000000	13.43504000	7.93553100
158.99999073	0.00000000	13.02288000	8.31077700
159.19999072	0.00000000	12.69070000	9.05511800
159.39999071	0.00000000	12.64764000	9.43036400
159.59999070	0.00000000	12.64764000	9.47342500
159.79999068	0.00000000	12.64764000	9.47342500
159.99999067	0.00000000	12.64764000	9.47342500
160.19999066	0.00000000	12.64764000	9.47342500
160.39999065	0.00000000	12.64764000	9.43036400
160.59999064	0.00000000	12.64764000	9.05511800
160.79999062	0.00000000	12.64764000	8.31077700
160.99999061	0.00000000	12.64764000	7.93553100
161.19999060	0.00000000	12.64764000	7.89247000
161.39999059	0.00000000	12.64764000	7.89247000
161.59999058	0.00000000	12.64764000	7.89247000
161.79999056	0.00000000	12.64764000	7.89247000
161.99999055	0.00000000	12.64764000	7.93553100
162.19999054	0.00000000	12.64764000	8.31077700
162.39999053	0.00000000	12.64764000	9.05511800
162.59999052	0.00000000	12.64764000	9.43036400
162.79999051	0.00000000	12.64764000	9.47342500
162.99999049	0.00000000	12.60458000	9.47342500
163.19999048	0.00000000	12.27239000	9.47342500
163.39999047	0.00000000	11.86024000	9.43036400
163.59999046	0.00000000	11.85408000	9.09817800
163.79999045	0.00000000	11.48499000	8.68602300
163.99999043	0.00000000	11.53420000	8.67987200
164.19999042	0.00000000	12.22933000	8.26771600
164.39999041	0.00000000	12.60458000	7.93553100
164.59999040	0.00000000	12.64764000	7.93553100
164.79999039	0.00000000	12.69070000	8.26771600
164.99999037	0.00000000	13.06594000	8.67987200
165.19999036	0.00000000	13.76107000	8.68602300
165.39999035	0.00000000	13.76107000	9.09817800
165.59999034	0.00000000	13.06594000	9.43036400
165.79999033	0.00000000	12.69070000	9.47342500
165.99999032	0.00000000	12.64764000	9.47342500
166.19999030	0.00000000	12.64764000	9.47342500
166.39999029	0.00000000	12.60458000	9.43036400
166.59999028	0.00000000	12.27239000	9.05511800
166.79999027	0.00000000	11.90330000	8.31077700
166.99999026	0.00000000	12.27239000	7.93553100
167.19999024	0.00000000	12.60458000	7.89247000
167.39999023	0.00000000	12.64764000	7.89247000
167.59999022	0.00000000	12.64764000	7.89247000
167.79999021	0.00000000	12.64764000	7.93553100
167.99999020	0.00000000	12.64764000	8.26771600
168.19999018	0.00000000	12.64764000	8.63681000
168.39999017	0.00000000	12.64764000	8.26771600
168.59999016	0.00000000	12.64764000	7.98474400
168.79999015	0.00000000	12.64764000	8.26771600
168.99999014	0.00000000	12.64764000	8.67987200
169.19999013	0.00000000	12.64764000	8.68602300
169.39999011	0.00000000	12.64764000	9.05511800
169.59999010	0.00000000	12.64764000	9.00590400
169.79999009	0.00000000	12.64764000	8.35998900
169.99999008	0.00000000	12.64764000	8.35998900
170.19999007	0.00000000	12.64764000	9.00590400
170.39999005	0.00000000	12.64764000	9.05511800
170.59999004	0.00000000	12.64764000	8.72908400
170.79999003	0.00000000	12.64764000	9.05511800
170.99999002	0.00000000	12.64764000	9.00590400
171.19999001	0.00000000	12.64764000	8.35998900
171.39998999	0.00000000	12.64764000	8.31077700
171.59998998	0.00000000	12.69070000	8.63681000
171.79998997	0.00000000	13.02288000	8.26771600
171.99998996	0.00000000	13.39198000	7.93553100
172.19998995	0.00000000	13.02288000	7.93553100
172.39998994	0.00000000	12.69070000	8.31077700
172.59998992	0.00000000	12.64764000	9.05511800
172.79998991	0.00000000	12.64764000	9.38115100
172.99998990	0.00000000	12.64764000	9.05511800
173.19998989	0.00000000	12.64764000	8.35998900
173.39998988	0.00000000	12.64764000	8.35998900
173.59998986	0.00000000	12.64764000	9.05511800
173.79998985	0.00000000	12.64764000	9.38115100
173.99998984	0.00000000	12.64764000	9.05511800
174.19998983	0.00000000	12.64764000	8.31077700
174.39998982	0.00000000	12.64764000	7.98474400
174.59998980	0.00000000	12.64764000	8.26771600
174.79998979	0.00000000	12.64764000	8.63681000
174.99998978	0.00000000	12.64764000	8.31077700
175.19998977	0.00000000	12.64764000	8.31077700
175.39998976	0.00000000	12.64764000	8.67987200
175.59998975	0.00000000	12.64764000	8.64296200
175.79998973	0.00000000	12.64764000	8.72293300
175.99998972	0.00000000	12.64764000	8.68602300
176.19998971	0.00000000	12.64764000	9.05511800
176.39998970	0.00000000	12.64764000	9.05511800
176.59998969	0.00000000	12.64764000	8.72908400
176.79998967	0.00000000	12.64764000	9.05511800
176.99998966	0.00000000	12.64764000	9.00590400
177.19998965	0.00000000	12.64764000	8.35998900
177.39998964	0.00000000	12.64764000	8.35998900
177.59998963	0.00000000	12.64764000	9.05511800
177.79998961	0.00000000	12.64764000	9.43036400
177.99998960	0.00000000	12.64764000	9.43036400
178.19998959	0.00000000	12.64764000	9.09817800
178.39998958	0.00000000	12.64764000	8.72908400
178.59998957	0.00000000	12.64764000	9.09817800
178.79998956	0.00000000	12.64764000	9.43036400
178.99998954	0.00000000	12.64764000	9.47342500
179.19998953	0.00000000	12.64764000	9.43036400
179.39998952	0.00000000	12.64764000	9.05511800
179.59998951	0.00000000	12.64764000	8.31077700
179.79998950	0.00000000	12.64764000	7.93553100
179.99998948	0.00000000	12.64764000	7.89247000
180.19998947	0.00000000	12.64764000	7.89247000
180.39998946	0.00000000	12.64764000	7.89247000
180.59998945	0.00000000	12.64764000	7.93553100
180.79998944	0.00000000	12.64764000	8.31077700
180.99998942	0.00000000	12.64764000	9.05511800
181.19998941	0.00000000	12.64764000	9.43036400
181.39998940	0.00000000	12.64764000	9.47342500
181.59998939	0.00000000	12.64764000	9.47342500
181.79998938	0.00000000	12.64764000	9.47342500
181.99998937	0.00000000	12.64764000	9.47342500
182.19998935	0.00000000	12.64764000	9.47342500
182.39998934	0.00000000	12.64764000	9.47342500
182.59998933	0.00000000	12.64764000	9.43036400
182.79998932	0.00000000	12.64764000	9.05511800
182.99998931	0.00000000	12.64764000	8.31077700
183.19998929	0.00000000	12.64764000	7.93553100
183.39998928	0.00000000	12.64764000	7.89247000
183.59998927	0.00000000	12.64764000	7.93553100
183.79998926	0.00000000	12.64764000	8.31077700
183.99998925	0.00000000	12.64764000	9.05511800
184.19998923	0.00000000	12.64764000	9.43036400
184.39998922	0.00000000	12.64764000	9.47342500
184.59998921	0.00000000	12.64764000	9.47342500
184.79998920	0.00000000	12.64764000	9.47342500
184.99998919	0.00000000	12.64764000	9.47342500
185.19998918	0.00000000	12.64764000	9.43036400
185.39998916	0.00000000	12.64764000	9.05511800
185.59998915	0.00000000	12.64764000	8.31077700
185.79998914	0.00000000	12.64764000	7.93553100
185.99998913	0.00000000	12.64764000	7.89247000
186.19998912	0.00000000	12.64764000	7.89247000
186.39998910	0.00000000	12.64764000	7.89247000
186.59998909	0.00000000	12.64764000	7.93553100
186.79998908	0.00000000	12.64764000	8.31077700
186.99998907	0.00000000	12.64764000	9.05511800
187.19998906	0.00000000	12.64764000	9.43036400
187.39998904	0.00000000	12.64764000	9.47342500
187.59998903	0.00000000	12.64764000	9.47342500
187.79998902	0.00000000	12.64764000	9.47342500
187.99998901	0.00000000	12.64764000	9.47342500
188.19998900	0.00000000	12.64764000	9.43036400
188.39998899	0.00000000	12.64764000	9.05511800
188.59998897	0.00000000	12.64764000	8.31077700
188.79998896	0.00000000	12.69070000	7.93553100
188.99998895	0.00000000	13.02288000	7.89247000
189.19998894	0.00000000	13.39198000	7.89247000
189.39998893	0.00000000	13.02288000	7.89247000
189.59998891	0.00000000	12.69070000	7.89247000
189.79998890	0.00000000	12.64764000	7.93553100
189.99998889	0.00000000	12.64764000	8.31077700
190.19998888	0.00000000	12.64764000	9.05511800
190.39998887	0.00000000	12.60458000	9.43036400
190.59998885	0.00000000	12.27239000	9.47342500
190.79998884	0.00000000	11.90330000	9.47342500
190.99998883	0.00000000	12.27239000	9.47342500
191.19998882	0.00000000	12.60458000	9.47342500
191.39998881	0.00000000	12.64764000	9.43036400
191.59998880	0.00000000	12.64764000	9.05511800
191.79998878	0.00000000	12.64764000	8.35998900
191.99998877	0.00000000	12.64764000	8.31077700
192.19998876	0.00000000	12.64764000	8.63681000
192.39998875	0.00000000	12.64764000	8.26771600
192.59998874	0.00000000	12.64764000	7.98474400
192.79998872	0.00000000	12.64764000	8.31077700
192.99998871	0.00000000	12.64764000	9.05511800
193.19998870	0.00000000	12.64764000	9.43036400
193.39998869	0.00000000	12.64764000	9.47342500
193.59998868	0.00000000	12.64764000	9.47342500
193.79998866	0.00000000	12.64764000	9.47342500
193.99998865	0.00000000	12.64764000	9.47342500
194.19998864	0.00000000	12.64764000	9.47342500
194.39998863	0.00000000	12.64764000	9.47342500
194.59998862	0.00000000	12.64764000	9.47342500
194.79998861	0.00000000	12.69070000	9.47342500
194.99998859	0.00000000	13.02288000	9.47342500
195.19998858	0.00000000	13.39198000	9.47342500
195.39998857	0.00000000	13.02288000	9.43036400
195.59998856	0.00000000	12.69070000	9.05511800
195.79998855	0.00000000	12.64764000	8.35998900
195.99998853	0.00000000	12.64764000	8.31077700
