Time	Channel A	Channel B	Channel C
(us)	(V)	(mV)	(mV)

-4.49999956	0.00000000	39.94832000	22.10261000
-4.29999957	0.00000000	39.57308000	22.10261000
-4.09999958	0.00000000	39.57308000	22.10261000
-3.89999959	0.00000000	39.90526000	22.10261000
-3.69999960	0.00000000	40.27436000	22.05955000
-3.49999962	0.00000000	39.90526000	21.72736000
-3.29999963	0.00000000	39.57308000	21.36442000
-3.09999964	0.00000000	39.53002000	21.72736000
-2.89999965	0.00000000	39.53002000	22.05955000
-2.69999966	0.00000000	39.53002000	22.10261000
-2.49999968	0.00000000	39.57308000	22.10261000
-2.29999969	0.00000000	39.94832000	22.10261000
-2.09999970	0.00000000	40.69267000	22.10261000
-1.89999971	0.00000000	41.06791000	22.10261000
-1.69999972	0.00000000	41.11097000	22.10261000
-1.49999973	0.00000000	41.11097000	22.10261000
-1.29999975	0.00000000	41.06791000	22.10261000
-1.09999976	0.00000000	40.73573000	22.10261000
-0.89999977	0.00000000	40.36663000	22.10261000
-0.69999978	0.00000000	40.73573000	22.10261000
-0.49999979	0.00000000	41.06791000	22.10261000
-0.29999981	0.31803640	41.11097000	22.10261000
-0.09999982	0.63668800	41.06791000	22.10261000
0.10000017	0.95533960	40.73573000	22.10261000
0.30000016	0.95533960	40.32357000	22.10261000
0.50000015	0.79601380	40.36048000	22.10261000
0.70000013	0.31803640	40.32357000	22.10261000
0.90000012	-0.47736220	40.73573000	22.10261000
1.10000011	-1.43331700	41.06791000	22.10261000
1.30000010	-2.22994600	41.11097000	22.10261000
1.50000009	-2.86724900	41.11097000	22.10261000
1.70000008	-2.54859700	41.11097000	22.14567000
1.90000006	-1.43331700	41.11097000	22.52091000
2.10000005	0.31803640	41.11097000	23.21604000
2.30000004	2.54859700	41.11097000	23.21604000
2.50000003	4.30056600	41.11097000	22.52091000
2.70000002	5.25652100	41.11097000	22.14567000
2.90000000	4.93786900	41.11097000	22.10261000
3.09999999	3.18590100	41.11097000	22.10261000
3.29999998	0.15871060	41.11097000	22.10261000
3.49999997	-3.34522600	41.11097000	22.10261000
3.69999996	-6.21247500	41.11097000	22.10261000
3.89999994	-7.96444400	41.11097000	22.14567000
4.09999993	-7.64579200	41.11097000	22.52091000
4.29999992	-5.25652100	41.11097000	23.26525000
4.49999991	-1.43331700	41.11097000	23.59129000
4.69999990	3.02657500	41.11097000	23.26525000
4.89999989	6.84916400	41.11097000	22.52091000
5.09999987	9.07972400	41.11097000	22.14567000
5.29999986	9.23905000	41.11097000	22.05955000
5.49999985	6.84916400	41.11097000	21.68430000
5.69999984	2.70792300	41.11097000	20.98917000
5.89999983	-2.07062000	41.11097000	20.98917000
6.09999981	-6.37180100	41.11097000	21.68430000
6.29999980	-9.07972400	41.11097000	22.05955000
6.49999979	-9.39837600	41.11097000	22.10261000
6.69999978	-7.32714100	41.11097000	22.10261000
6.89999977	-3.82258900	41.11097000	22.10261000
7.09999975	0.63668800	41.11097000	22.10261000
7.29999974	4.61921700	41.11097000	22.10261000
7.49999973	7.16781500	41.11097000	22.10261000
7.69999972	7.80511800	41.11097000	22.05955000
7.89999971	6.37180100	41.11097000	21.68430000
8.09999970	3.66326300	41.11097000	20.98917000
8.29999968	0.31803640	41.11097000	20.98917000
8.49999967	-2.54859700	41.11097000	21.68430000
8.69999966	-4.61921700	41.11097000	22.05955000
8.89999965	-5.25652100	41.11097000	22.10261000
9.09999964	-4.45989200	41.11097000	22.10261000
9.29999962	-2.86724900	41.11097000	22.10261000
9.49999961	-0.79601380	41.11097000	22.10261000
9.69999960	0.95533960	41.11097000	22.05955000
9.89999959	2.07062000	41.11097000	21.72736000
10.09999958	2.54859700	41.11097000	21.36442000
10.29999956	2.22994600	41.11097000	21.72736000
10.49999955	1.43331700	41.11097000	22.05955000
10.69999954	0.63668800	41.11097000	22.10261000
10.89999953	-0.15871060	41.11097000	22.10261000
11.09999952	-0.79601380	41.11097000	22.10261000
11.29999951	-0.95533960	41.11097000	22.10261000
11.49999949	-0.95533960	41.11097000	22.10261000
11.69999948	-0.79601380	41.11097000	22.10261000
11.89999947	-0.47736220	41.11097000	22.10261000
12.09999946	-0.15871060	41.11097000	22.10261000
12.29999945	-0.15871060	41.11097000	22.10261000
12.49999943	0.00000000	41.11097000	22.10261000
12.69999942	0.00000000	41.11097000	22.10261000
12.89999941	0.00000000	41.11097000	22.10261000
13.09999940	0.00000000	41.11097000	22.10261000
13.29999939	0.15871060	41.11097000	22.10261000
13.49999937	0.00000000	41.11097000	22.10261000
13.69999936	0.00000000	41.11097000	22.10261000
13.89999935	0.00000000	41.11097000	22.10261000
14.09999934	-0.15871060	41.11097000	22.10261000
14.29999933	-0.15871060	41.11097000	22.10261000
14.49999932	-0.15871060	41.11097000	22.10261000
14.69999930	-0.15871060	41.15403000	22.14567000
14.89999929	0.00000000	41.52928000	22.47785000
15.09999928	0.00000000	42.22441000	22.84695000
15.29999927	0.00000000	42.22441000	22.52091000
15.49999926	0.00000000	41.52928000	22.57013000
15.69999924	0.00000000	41.15403000	23.21604000
15.89999923	0.00000000	41.11097000	23.21604000
16.09999922	0.00000000	41.11097000	22.57013000
16.29999921	-0.15871060	41.11097000	22.57013000
16.49999920	-0.15871060	41.15403000	23.21604000
16.69999919	-0.15871060	41.52928000	23.21604000
16.89999917	0.00000000	42.27362000	22.57013000
17.09999916	0.00000000	42.69193000	22.52091000
17.29999915	0.00000000	43.11023000	22.84695000
17.49999914	0.00000000	43.80536000	22.52091000
17.69999913	0.00000000	43.80536000	22.52091000
17.89999911	0.00000000	43.06717000	22.84695000
18.09999910	0.00000000	42.22441000	22.47785000
18.29999909	0.00000000	40.69267000	22.19488000
18.49999908	0.00000000	38.78568000	22.52091000
18.69999907	0.00000000	37.61687000	23.21604000
18.89999905	0.00000000	36.83563000	23.21604000
19.09999904	0.00000000	36.87869000	22.52091000
19.29999903	0.00000000	38.08440000	22.14567000
19.49999902	0.00000000	40.41584000	22.10261000
19.69999901	0.00000000	43.94069000	22.10261000
19.89999900	0.00000000	47.76698000	22.10261000
20.09999898	0.00000000	51.24877000	22.10261000
20.29999897	0.00000000	53.11269000	22.10261000
20.49999896	0.00000000	52.65133000	22.10261000
20.69999895	0.00000000	49.11417000	22.10261000
20.89999894	0.00000000	42.55659000	22.10261000
21.09999892	-0.15871060	34.83022000	22.10261000
21.29999891	0.00000000	27.47908000	22.10261000
21.49999890	0.00000000	22.12721000	22.10261000
21.69999889	0.00000000	20.68159000	22.10261000
21.89999888	0.00000000	24.21875000	22.10261000
22.09999886	0.00000000	32.73252000	22.10261000
22.29999885	0.00000000	44.35900000	22.10261000
22.49999884	0.00000000	56.74212000	22.10261000
22.69999883	0.00000000	67.53198000	22.10261000
22.89999882	0.00000000	73.59129000	22.10261000
23.09999881	0.00000000	72.74852000	22.14567000
23.29999879	0.00000000	64.19168000	22.52091000
23.49999878	0.00000000	49.44020000	23.26525000
23.69999877	0.00000000	31.33612000	23.64050000
23.89999876	0.00000000	13.98868000	23.68356000
24.09999875	0.00000000	2.44217500	23.64050000
24.29999873	0.00000000	-0.99655500	23.21604000
24.49999872	0.00000000	5.28420300	22.05955000
24.69999871	0.00000000	20.72466000	20.52780000
24.89999870	0.00000000	41.62155000	18.98991000
25.09999869	0.00000000	63.62573000	17.83341000
25.29999867	0.00000000	81.72366000	17.40895000
25.49999866	0.00000000	90.94487000	17.45817000
25.69999865	0.00000000	88.98868000	18.29478000
25.89999864	0.00000000	75.81815000	20.66314000
26.09999863	0.00000000	54.23228000	24.15108000
26.29999862	0.00000000	29.52141000	28.37721000
26.49999860	0.00000000	7.46801100	32.18504000
26.69999859	0.00000000	-7.18503900	34.04897000
26.89999858	0.00000000	-11.04208000	33.29847000
27.09999857	0.00000000	-2.90354300	29.77362000
27.29999856	0.00000000	15.19439000	24.33563000
27.49999854	0.00000000	39.15477000	17.32283000
27.69999853	0.00000000	63.07209000	10.02707000
27.89999852	0.00000000	81.68060000	4.31225400
28.09999851	0.00000000	90.94487000	2.07923200
28.29999850	0.00000000	89.07480000	4.77362200
28.49999848	0.00000000	76.75320000	11.73720000
28.69999847	0.00000000	57.48647000	21.45669000
28.89999846	0.00000000	35.80217000	32.73868000
29.09999845	0.00000000	16.44931000	43.47933000
29.29999844	0.00000000	3.28494100	51.09497000
29.49999843	0.00000000	-0.99655500	52.54060000
29.69999841	0.00000000	4.35531500	46.77657000
29.89999840	0.00000000	17.42741000	35.20546000
30.09999839	0.00000000	34.78716000	20.47859000
30.29999838	0.00000000	52.23302000	5.42568800
30.49999837	0.00000000	66.19094000	-6.88361200
30.69999835	0.00000000	74.37868000	-13.01673000
30.89999834	0.00000000	75.21530000	-11.48499000
31.09999833	0.00000000	69.48818000	-2.56520700
31.29999832	0.00000000	59.01821000	12.11245000
31.49999831	0.00000000	45.80462000	29.49065000
31.69999829	0.00000000	32.30807000	45.70620000
31.89999828	0.00000000	21.47515000	57.32037000
32.09999827	0.00000000	16.07406000	61.97096000
32.29999826	0.00000000	16.73228000	58.85826000
32.49999825	0.00000000	22.86540000	48.40059000
32.69999824	0.00000000	32.12967000	32.56028000
32.89999822	0.00000000	42.64272000	14.80684000
33.09999821	0.00000000	52.69439000	-1.03346500
33.29999820	0.00000000	60.00246000	-11.48499000
33.49999819	0.00000000	62.73991000	-14.59769000
33.69999818	0.00000000	60.50689000	-9.95324800
33.89999816	0.00000000	54.74286000	1.61786400
34.09999815	0.00000000	47.01648000	17.45817000
34.29999814	0.00000000	38.87795000	34.04897000
34.49999813	0.00000000	32.30807000	47.93922000
34.69999812	0.00000000	28.45103000	55.69635000
34.89999810	0.00000000	28.45103000	56.16388000
35.09999809	0.00000000	32.26501000	49.98154000
35.29999808	0.00000000	38.36737000	38.36737000
35.49999807	0.00000000	44.92495000	23.72662000
35.69999806	0.00000000	49.90772000	9.46727400
35.89999805	0.00000000	52.27608000	-0.94119090
36.09999803	0.00000000	51.53174000	-5.25959600
36.29999802	0.00000000	48.46210000	-2.94045300
36.49999801	0.00000000	43.85457000	5.09965500
36.69999800	0.00000000	38.83489000	17.03986000
36.89999799	0.00000000	35.00861000	29.31225000
37.09999797	0.00000000	33.05856000	38.97638000
37.29999796	0.00000000	33.84596000	43.57775000
37.49999795	0.00000000	36.92175000	42.08292000
37.69999794	0.00000000	41.52928000	35.20546000
37.89999793	0.00000000	46.54896000	25.26452000
38.09999791	0.00000000	50.36909000	15.27436000
38.29999790	0.00000000	52.36220000	8.02165300
38.49999789	0.00000000	51.95005000	5.70251000
38.69999788	0.00000000	49.66781000	9.13508800
38.89999787	0.00000000	45.76156000	16.75689000
39.09999786	0.00000000	41.15403000	26.32874000
39.29999784	0.00000000	36.87869000	34.74409000
39.49999783	0.00000000	33.80290000	39.34547000
39.69999782	0.00000000	32.64025000	38.97638000
39.89999781	0.00000000	33.75369000	33.58760000
40.09999780	0.00000000	36.45423000	24.79700000
40.29999778	0.00000000	39.99754000	15.18209000
40.49999777	0.00000000	44.27288000	7.51107200
40.69999776	0.00000000	48.50517000	3.70324800
40.89999775	0.00000000	51.58095000	5.27805100
41.09999774	0.00000000	52.78666000	12.11245000
41.29999772	0.00000000	51.99926000	21.68430000
41.49999771	0.00000000	49.66781000	30.97933000
41.69999770	0.00000000	45.81078000	38.27509000
41.89999769	0.00000000	41.57849000	41.71383000
42.09999768	0.00000000	38.04134000	39.85605000
42.29999767	0.00000000	35.34079000	34.14124000
42.49999765	0.00000000	34.17815000	26.37795000
42.69999764	0.00000000	34.92249000	17.91953000
42.89999763	0.00000000	36.83563000	10.99901000
43.09999762	0.00000000	39.57308000	7.51107200
43.29999761	0.00000000	42.64886000	7.88631800
43.49999759	0.00000000	45.34325000	12.06939000
43.69999758	0.00000000	46.92421000	18.52854000
43.89999757	0.00000000	47.34252000	24.71087000
44.09999756	0.00000000	47.01648000	29.40452000
44.29999755	0.00000000	46.22908000	32.14198000
44.49999753	0.00000000	45.47859000	32.56028000
44.69999752	0.00000000	44.69119000	30.97933000
44.89999751	0.00000000	44.31594000	27.53445000
45.09999750	0.00000000	44.27288000	23.03149000
45.29999749	0.00000000	44.22982000	19.87574000
45.49999748	0.00000000	43.76230000	18.23942000
45.69999746	0.00000000	42.18134000	17.08907000
45.89999745	0.00000000	39.48696000	17.54429000
46.09999744	0.00000000	36.45423000	19.40822000
46.29999743	0.00000000	34.12894000	22.10261000
46.49999742	0.00000000	33.42765000	24.75394000
46.69999740	0.00000000	34.63951000	26.37795000
46.89999739	0.00000000	38.54576000	27.17150000
47.09999738	0.00000000	44.31594000	27.53445000
47.29999737	0.00000000	50.50443000	26.70398000
47.49999736	0.00000000	55.85630000	24.84621000
47.69999734	0.00000000	58.55069000	22.52091000
47.89999733	0.00000000	57.72022000	20.57087000
48.09999732	0.00000000	53.48179000	18.98991000
48.29999731	0.00000000	46.09375000	17.91953000
48.49999730	0.00000000	37.65994000	18.33784000
48.69999729	0.00000000	29.89665000	20.61393000
48.89999727	0.00000000	24.95694000	23.64050000
49.09999726	0.00000000	24.21875000	26.42101000
49.29999725	0.00000000	28.45103000	28.74631000
49.49999724	0.00000000	36.50344000	30.60408000
49.69999723	0.00000000	45.81078000	30.56102000
49.89999721	0.00000000	54.69365000	28.32800000
50.09999720	0.00000000	61.20817000	25.21530000
50.29999719	0.00000000	63.11515000	21.72736000
50.49999718	0.00000000	60.04552000	18.25172000
50.69999717	0.00000000	52.73745000	15.96334000
50.89999715	0.00000000	43.15329000	15.18209000
51.09999714	0.00000000	34.26427000	16.38779000
51.29999713	0.00000000	28.07579000	19.40822000
51.49999712	0.00000000	25.79970000	23.30832000
51.69999711	0.00000000	28.49409000	27.17150000
51.89999710	0.00000000	35.34079000	30.64714000
52.09999708	0.00000000	43.80536000	32.51107000
52.29999707	0.00000000	51.48868000	32.14198000
52.49999706	0.00000000	56.50836000	29.44759000
52.69999705	0.00000000	57.30192000	25.26452000
52.89999704	0.00000000	54.27534000	21.03838000
53.09999702	0.00000000	48.46210000	17.91953000
53.29999701	0.00000000	41.15403000	16.33858000
53.49999700	0.00000000	34.31348000	16.33858000
53.69999699	0.00000000	30.45029000	17.87647000
53.89999698	0.00000000	30.77018000	20.57087000
54.09999696	0.00000000	34.22121000	23.59129000
54.29999695	0.00000000	40.04060000	25.91043000
54.49999694	0.00000000	46.88115000	26.70398000
54.69999693	0.00000000	52.27608000	26.37795000
54.89999692	0.00000000	54.60752000	25.21530000
55.09999691	0.00000000	53.85703000	23.68356000
55.29999689	0.00000000	50.04306000	22.15182000
55.49999688	0.00000000	44.69119000	21.03838000
55.69999687	0.00000000	39.62229000	21.03838000
55.89999686	0.00000000	35.38385000	22.19488000
56.09999685	0.00000000	33.10777000	24.05881000
56.29999683	0.00000000	33.88902000	25.95964000
56.49999682	0.00000000	37.29700000	26.66092000
56.69999681	0.00000000	42.27362000	25.91043000
56.89999680	0.00000000	46.88115000	23.59129000
57.09999679	0.00000000	50.04306000	20.52780000
57.29999677	0.00000000	51.58095000	17.45817000
57.49999676	0.00000000	51.20571000	15.22515000
57.69999675	0.00000000	48.88041000	15.27436000
57.89999674	0.00000000	45.43553000	17.91953000
58.09999673	0.00000000	41.57849000	22.14567000
58.29999672	0.00000000	38.50270000	26.79626000
58.49999670	0.00000000	36.96481000	31.02239000
58.69999669	0.00000000	37.34006000	33.71678000
58.89999668	0.00000000	39.57308000	34.04897000
59.09999667	0.00000000	42.22441000	31.67446000
59.29999666	0.00000000	44.22982000	26.28568000
59.49999664	0.00000000	45.81078000	19.45743000
59.69999663	0.00000000	46.92421000	13.65034000
59.89999662	0.00000000	46.92421000	10.16240000
60.09999661	0.00000000	45.81078000	9.46727400
60.29999660	0.00000000	44.31594000	12.53076000
60.49999658	0.00000000	43.15945000	18.66388000
60.69999657	0.00000000	42.73499000	25.63976000
60.89999656	0.00000000	42.73499000	32.60334000
61.09999655	0.00000000	43.11023000	37.89985000
61.29999654	0.00000000	43.85457000	39.43774000
61.49999653	0.00000000	44.22982000	36.78642000
61.69999651	0.00000000	44.27288000	31.02239000
61.89999650	0.00000000	44.22982000	23.63435000
62.09999649	0.00000000	43.85457000	15.96334000
62.29999648	0.00000000	43.06717000	9.83636800
62.49999647	0.00000000	42.31668000	7.51107200
62.69999645	0.00000000	41.57849000	8.99975300
62.89999644	0.00000000	41.62155000	13.65034000
63.09999643	0.00000000	42.69193000	20.61393000
63.29999642	0.00000000	43.85457000	28.28494000
63.49999641	0.00000000	44.69119000	34.87943000
63.69999639	0.00000000	45.85384000	38.74261000
63.89999638	0.00000000	46.96727000	39.53002000
64.09999637	0.00000000	47.29946000	36.78642000
64.29999636	0.00000000	46.54896000	31.06545000
64.49999635	0.00000000	44.69119000	24.14493000
64.69999634	0.00000000	43.15945000	17.91953000
64.89999632	0.00000000	42.31668000	13.27510000
65.09999631	0.00000000	41.57849000	10.95595000
65.29999630	0.00000000	41.62155000	11.69414000
65.49999629	0.00000000	42.69193000	14.76378000
65.69999628	0.00000000	43.85457000	19.36516000
65.89999626	0.00000000	44.64813000	24.42790000
66.09999625	0.00000000	45.38631000	28.66018000
66.29999624	0.00000000	45.34325000	31.80979000
66.49999623	0.00000000	44.22982000	32.97859000
66.69999622	0.00000000	42.73499000	32.68946000
66.89999620	0.00000000	41.57849000	31.48991000
67.09999619	0.00000000	41.20325000	29.49065000
67.29999618	0.00000000	41.57849000	26.37795000
67.49999617	0.00000000	42.78420000	22.57013000
67.69999616	0.00000000	44.69119000	19.40822000
67.89999615	0.00000000	47.01648000	17.03986000
68.09999613	0.00000000	48.92347000	15.08981000
68.29999612	0.00000000	50.04306000	14.38853000
68.49999611	0.00000000	49.62475000	15.13902000
68.69999610	0.00000000	47.29946000	17.45817000
68.89999609	0.00000000	43.85457000	20.57087000
69.09999607	0.00000000	39.94832000	24.10187000
69.29999606	0.00000000	36.50344000	28.00197000
69.49999605	0.00000000	34.22121000	31.44069000
69.69999604	0.00000000	34.26427000	33.76599000
69.89999603	0.00000000	36.96481000	34.09203000
70.09999601	0.00000000	41.57849000	32.14198000
70.29999600	0.00000000	46.96727000	27.90969000
70.49999599	0.00000000	51.62401000	22.52091000
70.69999598	0.00000000	54.74286000	17.50123000
70.89999597	0.00000000	55.85630000	13.60113000
71.09999596	0.00000000	54.27534000	11.73720000
71.29999594	0.00000000	50.04306000	12.48770000
71.49999593	0.00000000	44.27288000	15.92027000
71.69999592	0.00000000	38.45964000	20.52780000
71.89999591	0.00000000	33.84596000	25.17224000
72.09999590	0.00000000	31.52067000	29.07234000
72.29999588	0.00000000	32.26501000	31.39763000
72.49999587	0.00000000	35.38385000	32.18504000
72.69999586	0.00000000	40.41584000	31.02239000
72.89999585	0.00000000	46.54896000	28.32800000
73.09999584	0.00000000	51.53174000	24.88927000
73.29999582	0.00000000	54.36761000	21.45669000
73.49999581	0.00000000	55.11196000	19.50049000
73.69999580	0.00000000	53.94316000	19.08218000
73.89999579	0.00000000	50.46136000	19.82652000
74.09999578	0.00000000	45.85384000	21.68430000
74.29999577	0.00000000	41.20325000	23.17298000
74.49999575	0.00000000	37.34006000	23.59129000
74.69999574	0.00000000	35.43307000	23.26525000
74.89999573	0.00000000	35.75910000	22.47785000
75.09999572	0.00000000	38.08440000	21.77658000
75.29999571	0.00000000	41.52928000	21.36442000
75.49999569	0.00000000	45.38631000	21.81964000
75.69999568	0.00000000	48.41904000	22.98843000
75.89999567	0.00000000	49.66781000	25.30758000
76.09999566	0.00000000	49.34793000	27.95891000
76.29999565	0.00000000	48.59744000	29.86589000
76.49999563	0.00000000	47.39173000	30.64714000
76.69999562	0.00000000	45.89690000	29.82283000
76.89999561	0.00000000	44.69119000	27.49138000
77.09999560	0.00000000	43.94069000	23.64050000
77.29999559	0.00000000	43.52854000	19.40822000
77.49999558	0.00000000	43.89763000	15.96334000
77.69999556	0.00000000	44.22982000	14.01944000
77.89999555	0.00000000	44.22982000	14.48081000
78.09999554	0.00000000	43.85457000	17.13213000
78.29999553	0.00000000	43.11023000	21.77042000
78.49999552	0.00000000	42.73499000	26.79626000
78.69999550	0.00000000	42.73499000	31.44069000
78.89999549	0.00000000	43.15945000	34.87328000
79.09999548	0.00000000	44.31594000	35.67298000
79.29999547	0.00000000	45.85384000	34.13509000
79.49999546	0.00000000	47.43479000	30.64714000
79.69999544	0.00000000	48.92347000	25.63976000
79.89999543	0.00000000	49.66781000	20.66314000
80.09999542	0.00000000	48.88041000	16.76304000
80.29999541	0.00000000	47.01648000	14.80684000
80.49999540	0.00000000	44.64813000	14.76378000
80.69999539	0.00000000	42.31668000	16.29552000
80.89999537	0.00000000	40.04060000	19.03297000
81.09999536	0.00000000	38.92101000	22.52091000
81.29999535	0.00000000	39.66535000	26.37795000
81.49999534	0.00000000	41.57849000	29.44759000
81.69999533	0.00000000	44.27288000	31.06545000
81.89999531	0.00000000	46.96727000	31.48376000
82.09999530	0.00000000	48.92347000	31.06545000
82.29999529	0.00000000	50.08612000	29.53371000
82.49999528	0.00000000	50.04306000	27.21457000
82.69999527	0.00000000	48.54823000	24.84621000
82.89999525	0.00000000	46.27214000	22.10261000
83.09999524	0.00000000	44.31594000	19.40822000
83.29999523	0.00000000	42.73499000	17.45817000
83.49999522	0.00000000	41.62155000	16.29552000
83.69999521	0.00000000	41.62155000	16.33858000
83.89999520	0.00000000	42.69193000	17.87647000
84.09999518	0.00000000	43.85457000	20.61393000
84.29999517	0.00000000	44.64813000	24.10187000
84.49999516	0.00000000	45.43553000	27.95275000
84.69999515	0.00000000	45.81078000	31.02239000
84.89999514	0.00000000	45.85384000	32.60334000
85.09999512	0.00000000	45.85384000	32.56028000
85.29999511	0.00000000	45.85384000	30.60408000
85.49999510	0.00000000	45.85384000	26.74705000
85.69999509	0.00000000	45.85384000	22.14567000
85.89999508	0.00000000	45.85384000	17.87647000
86.09999506	0.00000000	45.85384000	14.80684000
86.29999505	0.00000000	45.81078000	13.65034000
86.49999504	0.00000000	45.38631000	14.80684000
86.69999503	0.00000000	44.27288000	17.87647000
86.89999502	0.00000000	43.15945000	22.14567000
87.09999501	0.00000000	42.73499000	26.79626000
87.29999499	0.00000000	42.69193000	30.97933000
87.49999498	0.00000000	42.78420000	33.29847000
87.69999497	0.00000000	43.52854000	32.92938000
87.89999496	0.00000000	45.06028000	30.60408000
88.09999495	0.00000000	46.22908000	26.32874000
88.29999493	0.00000000	47.39173000	20.98917000
88.49999492	0.00000000	48.12992000	16.43085000
88.69999491	0.00000000	47.76698000	14.06865000
88.89999490	0.00000000	47.01648000	14.43159000
89.09999489	0.00000000	45.81078000	16.76304000
89.29999487	0.00000000	44.31594000	21.03223000
89.49999486	0.00000000	43.15945000	26.37795000
89.69999485	0.00000000	42.78420000	30.97933000
89.89999484	0.00000000	43.11023000	33.67372000
90.09999483	0.00000000	43.89763000	33.67372000
90.29999482	0.00000000	44.64813000	30.97933000
90.49999480	0.00000000	45.43553000	26.37795000
90.69999479	0.00000000	45.81078000	21.03223000
90.89999478	0.00000000	45.85384000	16.80610000
91.09999477	0.00000000	45.85384000	14.84990000
91.29999476	0.00000000	45.85384000	15.22515000
91.49999474	0.00000000	45.85384000	17.96260000
91.69999473	0.00000000	45.85384000	22.57013000
91.89999472	0.00000000	45.89690000	27.90969000
92.09999471	0.00000000	46.22908000	32.14198000
92.29999470	0.00000000	46.59818000	34.04897000
92.49999468	0.00000000	46.22908000	33.29847000
92.69999467	0.00000000	45.85384000	29.86589000
92.89999466	0.00000000	45.38631000	25.26452000
93.09999465	0.00000000	44.27288000	20.61393000
93.29999464	0.00000000	43.15945000	16.80610000
93.49999463	0.00000000	42.73499000	15.26821000
93.69999461	0.00000000	42.73499000	16.38779000
93.89999460	0.00000000	43.20251000	19.45743000
94.09999459	0.00000000	44.74040000	23.68356000
94.29999458	0.00000000	47.05954000	27.90969000
94.49999457	0.00000000	49.34793000	30.97933000
94.69999455	0.00000000	51.24877000	32.13582000
94.89999454	0.00000000	51.62401000	30.97933000
95.09999453	0.00000000	50.50443000	27.95275000
95.29999452	0.00000000	48.54823000	24.10187000
95.49999451	0.00000000	45.81078000	20.66314000
95.69999449	0.00000000	42.69193000	18.33784000
95.89999448	0.00000000	39.66535000	17.96260000
96.09999447	0.00000000	37.76451000	19.45743000
96.29999446	0.00000000	38.12746000	22.15182000
96.49999445	0.00000000	40.04060000	25.21530000
96.69999444	0.00000000	43.15945000	27.90969000
96.89999442	0.00000000	47.01648000	29.44759000
97.09999441	0.00000000	50.50443000	29.49065000
97.29999440	0.00000000	53.24803000	28.32800000
97.49999439	0.00000000	54.74286000	26.42101000
97.69999438	0.00000000	54.31840000	24.10187000
97.89999436	0.00000000	51.62401000	22.19488000
98.09999435	0.00000000	47.43479000	20.98917000
98.29999434	0.00000000	43.15945000	20.62008000
98.49999433	0.00000000	39.66535000	20.98917000
98.69999432	0.00000000	37.34006000	22.15182000
98.89999430	0.00000000	36.96481000	23.64050000
99.09999429	0.00000000	38.45964000	24.79700000
99.29999428	0.00000000	41.20325000	25.22145000
99.49999427	0.00000000	44.69119000	25.26452000
99.69999426	0.00000000	48.54823000	25.26452000
99.89999425	0.00000000	51.62401000	25.30758000
100.09999423	0.00000000	53.20496000	25.68282000
100.29999422	0.00000000	53.20496000	26.42101000
100.49999421	0.00000000	51.66707000	26.74705000
100.69999420	0.00000000	48.97269000	26.37795000
100.89999419	0.00000000	45.89690000	25.21530000
101.09999417	0.00000000	43.11023000	23.68356000
101.29999416	0.00000000	40.82800000	22.10261000
101.49999415	0.00000000	39.25320000	20.57087000
101.69999414	0.00000000	39.29010000	19.45743000
101.89999413	0.00000000	40.41584000	19.45743000
102.09999411	0.00000000	42.73499000	20.61393000
102.29999410	0.00000000	45.38631000	22.57013000
102.49999409	0.00000000	47.39173000	25.26452000
102.69999408	0.00000000	48.97269000	27.95891000
102.89999407	0.00000000	50.08612000	29.86589000
103.09999406	0.00000000	50.08612000	30.60408000
103.29999404	0.00000000	48.97269000	29.44759000
103.49999403	0.00000000	47.43479000	26.79626000
103.69999402	0.00000000	45.85384000	23.68356000
103.89999401	0.00000000	44.27288000	20.61393000
104.09999400	0.00000000	42.73499000	18.29478000
104.29999398	0.00000000	41.57849000	17.54429000
104.49999397	0.00000000	41.24631000	18.29478000
104.69999396	0.00000000	41.99680000	20.61393000
104.89999395	0.00000000	43.89763000	23.68356000
105.09999394	0.00000000	45.81078000	26.75320000
105.29999392	0.00000000	47.39173000	29.07234000
105.49999391	0.00000000	48.54823000	29.86589000
105.69999390	0.00000000	48.92347000	29.49065000
105.89999389	0.00000000	48.54823000	27.90969000
106.09999388	0.00000000	47.39173000	25.26452000
106.29999387	0.00000000	45.89690000	22.61319000
106.49999385	0.00000000	44.74040000	21.03838000
106.69999384	0.00000000	44.31594000	20.62008000
106.89999383	0.00000000	44.31594000	20.98917000
107.09999382	0.00000000	44.74040000	22.19488000
107.29999381	0.00000000	45.89690000	24.10187000
107.49999379	0.00000000	47.39173000	26.37795000
107.69999378	0.00000000	48.50517000	27.86663000
107.89999377	0.00000000	48.54823000	27.90969000
108.09999376	0.00000000	47.81004000	26.79626000
108.29999375	0.00000000	47.05954000	25.26452000
108.49999374	0.00000000	46.22908000	23.72662000
108.69999372	0.00000000	45.47859000	22.57013000
108.89999371	0.00000000	44.69119000	22.14567000
109.09999370	0.00000000	44.36515000	22.14567000
109.29999369	0.00000000	44.74040000	22.57013000
109.49999368	0.00000000	45.85384000	23.72662000
109.69999366	0.00000000	47.01648000	25.26452000
109.89999365	0.00000000	47.81004000	26.79626000
110.09999364	0.00000000	48.59744000	27.90969000
110.29999363	0.00000000	48.92347000	27.90969000
110.49999362	0.00000000	48.54823000	26.79626000
110.69999360	0.00000000	47.43479000	25.30758000
110.89999359	0.00000000	46.27214000	24.10187000
111.09999358	0.00000000	45.47859000	23.30832000
111.29999357	0.00000000	44.69119000	22.52091000
111.49999356	0.00000000	44.36515000	22.14567000
111.69999355	0.00000000	44.69119000	22.14567000
111.89999353	0.00000000	45.47859000	22.57013000
112.09999352	0.00000000	46.22908000	23.68356000
112.29999351	0.00000000	47.01648000	24.84621000
112.49999350	0.00000000	47.39173000	25.63976000
112.69999349	0.00000000	47.43479000	26.42101000
112.89999347	0.00000000	47.43479000	26.74705000
113.09999346	0.00000000	47.39173000	26.42101000
113.29999345	0.00000000	47.01648000	25.68282000
113.49999344	0.00000000	46.27214000	25.30758000
113.69999343	0.00000000	45.89690000	25.22145000
113.89999341	0.00000000	45.85384000	24.84621000
114.09999340	0.00000000	45.85384000	24.10187000
114.29999339	0.00000000	45.85384000	23.68356000
114.49999338	0.00000000	45.85384000	23.26525000
114.69999337	0.00000000	45.85384000	22.52091000
114.89999336	0.00000000	45.85384000	22.14567000
115.09999334	0.00000000	45.85384000	22.14567000
115.29999333	0.00000000	45.89690000	22.52091000
115.49999332	0.00000000	46.27214000	23.30832000
115.69999331	0.00000000	46.96727000	24.05881000
115.89999330	0.00000000	46.96727000	24.88927000
116.09999328	0.00000000	46.27214000	25.63976000
116.29999327	0.00000000	45.89690000	26.42101000
116.49999326	0.00000000	45.85384000	26.74705000
116.69999325	0.00000000	45.85384000	26.42101000
116.89999324	0.00000000	45.85384000	25.63976000
117.09999322	0.00000000	45.85384000	24.84621000
117.29999321	0.00000000	45.89690000	23.68356000
117.49999320	0.00000000	46.27214000	22.57013000
117.69999319	0.00000000	47.01648000	22.14567000
117.89999318	0.00000000	47.39173000	22.10261000
118.09999317	0.00000000	47.43479000	22.14567000
118.29999315	0.00000000	47.39173000	22.52091000
118.49999314	0.00000000	47.01648000	23.30832000
118.69999313	0.00000000	46.22908000	24.05881000
118.89999312	0.00000000	45.47859000	24.88927000
119.09999311	0.00000000	44.69119000	25.63976000
119.29999309	0.00000000	44.31594000	26.42101000
119.49999308	0.00000000	44.31594000	26.79626000
119.69999307	0.00000000	44.69119000	26.79626000
119.89999306	0.00000000	45.52165000	26.42101000
120.09999305	0.00000000	46.64739000	25.63976000
120.29999303	0.00000000	48.17913000	24.88927000
120.49999302	0.00000000	48.97269000	24.10187000
120.69999301	0.00000000	49.39099000	23.72662000
120.89999300	0.00000000	49.71087000	23.68356000
121.09999299	0.00000000	48.92347000	23.68356000
121.29999298	0.00000000	47.43479000	23.68356000
121.49999296	0.00000000	45.89690000	23.72662000
121.69999295	0.00000000	44.74040000	24.10187000
121.89999294	0.00000000	44.31594000	24.84621000
122.09999293	0.00000000	44.27288000	25.22145000
122.29999292	0.00000000	44.31594000	25.30758000
122.49999290	0.00000000	44.74040000	25.68282000
122.69999289	0.00000000	45.85384000	26.42101000
122.89999288	0.00000000	47.01648000	26.79626000
123.09999287	0.00000000	47.81004000	26.79626000
123.29999286	0.00000000	48.59744000	26.42101000
123.49999284	0.00000000	49.01575000	25.68282000
123.69999283	0.00000000	49.39099000	25.26452000
123.89999282	0.00000000	49.71087000	24.88927000
124.09999281	0.00000000	48.97269000	24.47712000
124.29999280	0.00000000	47.85310000	24.47096000
124.49999279	0.00000000	47.05954000	24.05881000
124.69999277	0.00000000	46.22908000	23.77584000
124.89999276	0.00000000	45.47859000	24.10187000
125.09999275	0.00000000	44.74040000	24.84621000
125.29999274	0.00000000	44.74040000	25.26452000
125.49999273	0.00000000	45.47859000	25.68282000
125.69999271	0.00000000	46.22908000	26.42101000
125.89999270	0.00000000	47.05954000	26.79626000
126.09999269	0.00000000	47.85310000	26.83932000
126.29999268	0.00000000	49.01575000	26.79626000
126.49999267	0.00000000	50.08612000	26.42101000
126.69999265	0.00000000	50.12918000	25.63976000
126.89999264	0.00000000	49.39099000	24.88927000
127.09999263	0.00000000	48.59744000	24.10187000
127.29999262	0.00000000	47.39173000	23.72662000
127.49999261	0.00000000	45.89690000	23.68356000
127.69999260	0.00000000	44.74040000	23.68356000
127.89999258	0.00000000	44.36515000	23.72662000
128.09999257	0.00000000	44.69119000	24.10187000
128.29999256	0.00000000	45.47859000	24.84621000
128.49999255	0.00000000	46.27214000	25.22145000
128.69999254	0.00000000	47.43479000	25.26452000
128.89999252	0.00000000	48.54823000	25.26452000
129.09999251	0.00000000	48.97269000	25.26452000
129.29999250	0.00000000	48.97269000	25.22145000
129.49999249	0.00000000	48.54823000	24.84621000
129.69999248	0.00000000	47.43479000	24.10187000
129.89999246	0.00000000	46.32135000	23.72662000
130.09999245	0.00000000	45.85384000	23.68356000
130.29999244	0.00000000	45.47859000	23.72662000
130.49999243	0.00000000	45.10950000	24.10187000
130.69999242	0.00000000	45.52165000	24.84621000
130.89999241	0.00000000	46.27214000	25.22145000
131.09999239	0.00000000	47.43479000	25.26452000
131.29999238	0.00000000	48.54823000	25.26452000
131.49999237	0.00000000	48.97269000	25.22145000
131.69999236	0.00000000	48.97269000	24.84621000
131.89999235	0.00000000	48.54823000	24.10187000
132.09999233	0.00000000	47.47785000	23.72662000
132.29999232	0.00000000	46.69045000	23.68356000
132.49999231	0.00000000	46.64124000	23.68356000
132.69999230	0.00000000	46.27214000	23.72662000
132.89999229	0.00000000	46.32135000	24.10187000
133.09999227	0.00000000	47.01648000	24.88927000
133.29999226	0.00000000	47.39173000	25.63976000
133.49999225	0.00000000	47.43479000	26.42101000
133.69999224	0.00000000	47.43479000	26.79626000
133.89999223	0.00000000	47.43479000	26.79626000
134.09999222	0.00000000	47.43479000	26.37795000
134.29999220	0.00000000	47.43479000	25.26452000
134.49999219	0.00000000	47.43479000	24.15108000
134.69999218	0.00000000	47.47785000	23.72662000
134.89999217	0.00000000	47.85310000	23.68356000
135.09999216	0.00000000	48.59744000	23.68356000
135.29999214	0.00000000	48.92347000	23.68356000
135.49999213	0.00000000	48.59744000	23.72662000
135.69999212	0.00000000	47.85310000	24.10187000
135.89999211	0.00000000	47.43479000	24.88927000
136.09999210	0.00000000	47.01648000	25.63976000
136.29999208	0.00000000	46.27214000	26.42101000
136.49999207	0.00000000	45.89690000	26.74705000
136.69999206	0.00000000	45.89690000	26.42101000
136.89999205	0.00000000	46.27214000	25.68282000
137.09999204	0.00000000	47.05954000	25.26452000
137.29999203	0.00000000	47.81004000	24.84621000
137.49999201	0.00000000	48.59744000	24.10187000
137.69999200	0.00000000	48.97269000	23.72662000
137.89999199	0.00000000	49.01575000	23.68356000
138.09999198	0.00000000	48.97269000	23.68356000
138.29999197	0.00000000	48.59744000	23.72662000
138.49999195	0.00000000	47.81004000	24.15108000
138.69999194	0.00000000	47.05954000	25.21530000
138.89999193	0.00000000	46.27214000	26.00270000
139.09999192	0.00000000	45.94611000	26.05807000
139.29999191	0.00000000	46.27214000	26.46407000
139.49999189	0.00000000	47.01648000	26.79626000
139.69999188	0.00000000	47.43479000	26.79626000
139.89999187	0.00000000	47.85310000	26.42101000
140.09999186	0.00000000	48.59744000	25.68282000
140.29999185	0.00000000	48.97269000	25.26452000
140.49999184	0.00000000	48.97269000	24.84621000
140.69999182	0.00000000	48.59744000	24.10187000
140.89999181	0.00000000	47.85310000	23.72662000
141.09999180	0.00000000	47.47785000	23.72662000
141.29999179	0.00000000	47.43479000	24.10187000
141.49999178	0.00000000	47.43479000	24.84621000
141.69999176	0.00000000	47.43479000	25.26452000
141.89999175	0.00000000	47.43479000	25.68282000
142.09999174	0.00000000	47.43479000	26.42101000
142.29999173	0.00000000	47.47785000	26.79626000
142.49999172	0.00000000	47.85310000	26.79626000
142.69999170	0.00000000	48.59744000	26.42101000
142.89999169	0.00000000	48.92347000	25.63976000
143.09999168	0.00000000	48.59744000	24.88927000
143.29999167	0.00000000	47.85310000	24.10187000
143.49999166	0.00000000	47.47785000	23.72662000
143.69999165	0.00000000	47.43479000	23.68356000
143.89999163	0.00000000	47.47785000	23.72662000
144.09999162	0.00000000	47.85310000	24.10187000
144.29999161	0.00000000	48.59744000	24.84621000
144.49999160	0.00000000	48.97269000	25.26452000
144.69999159	0.00000000	49.01575000	25.68282000
144.89999157	0.00000000	49.01575000	26.42101000
145.09999156	0.00000000	48.97269000	26.79626000
145.29999155	0.00000000	48.59744000	26.79626000
145.49999154	0.00000000	47.85310000	26.42101000
145.69999153	0.00000000	47.47785000	25.63976000
145.89999151	0.00000000	47.43479000	24.88927000
146.09999150	0.00000000	47.43479000	24.10187000
146.29999149	0.00000000	47.43479000	23.72662000
146.49999148	0.00000000	47.43479000	23.68356000
146.69999147	0.00000000	47.47785000	23.68356000
146.89999146	0.00000000	47.85310000	23.72662000
147.09999144	0.00000000	48.59744000	24.10187000
147.29999143	0.00000000	48.97269000	24.84621000
147.49999142	0.00000000	48.97269000	25.22145000
147.69999141	0.00000000	48.64050000	25.30758000
147.89999140	0.00000000	48.22834000	25.63976000
148.09999138	0.00000000	48.22219000	26.00270000
148.29999137	0.00000000	47.81004000	25.63976000
148.49999136	0.00000000	47.47785000	25.26452000
148.69999135	0.00000000	47.43479000	24.84621000
148.89999134	0.00000000	47.43479000	24.10187000
149.09999132	0.00000000	47.47785000	23.72662000
149.29999131	0.00000000	47.85310000	23.68356000
149.49999130	0.00000000	48.59744000	23.72662000
149.69999129	0.00000000	48.97269000	24.10187000
149.89999128	0.00000000	49.01575000	24.84621000
150.09999127	0.00000000	49.01575000	25.22145000
150.29999125	0.00000000	48.97269000	25.26452000
150.49999124	0.00000000	48.59744000	25.26452000
150.69999123	0.00000000	47.85310000	25.26452000
150.89999122	0.00000000	47.47785000	25.26452000
151.09999121	0.00000000	47.43479000	25.26452000
151.29999119	0.00000000	47.43479000	25.26452000
151.49999118	0.00000000	47.43479000	25.26452000
151.69999117	0.00000000	47.47785000	25.26452000
151.89999116	0.00000000	47.85310000	25.26452000
152.09999115	0.00000000	48.54823000	25.26452000
152.29999113	0.00000000	48.59744000	25.26452000
152.49999112	0.00000000	48.27140000	25.26452000
152.69999111	0.00000000	48.64050000	25.26452000
152.89999110	0.00000000	48.97269000	25.30758000
153.09999109	0.00000000	49.01575000	25.63976000
153.29999108	0.00000000	48.97269000	26.04577000
153.49999106	0.00000000	48.64050000	26.05807000
153.69999105	0.00000000	48.22834000	26.46407000
153.89999104	0.00000000	48.22219000	26.79626000
154.09999103	0.00000000	47.81004000	26.83932000
154.29999102	0.00000000	47.47785000	26.79626000
154.49999100	0.00000000	47.43479000	26.42101000
154.69999099	0.00000000	47.47785000	25.68282000
154.89999098	0.00000000	47.85310000	25.30758000
155.09999097	0.00000000	48.64050000	25.26452000
155.29999096	0.00000000	49.34793000	25.26452000
155.49999094	0.00000000	49.80315000	25.26452000
155.69999093	0.00000000	49.76624000	25.26452000
155.89999092	0.00000000	49.80315000	25.30758000
156.09999091	0.00000000	49.39099000	25.68282000
156.29999090	0.00000000	49.05881000	26.42101000
156.49999089	0.00000000	48.97269000	26.79626000
156.69999087	0.00000000	48.59744000	26.83932000
156.89999086	0.00000000	47.85310000	26.83932000
157.09999085	0.00000000	47.47785000	26.83932000
157.29999084	0.00000000	47.43479000	26.79626000
157.49999083	0.00000000	47.43479000	26.42101000
157.69999081	0.00000000	47.47785000	25.68282000
157.89999080	0.00000000	47.85310000	25.30758000
158.09999079	0.00000000	48.59744000	25.26452000
158.29999078	0.00000000	49.01575000	25.26452000
158.49999077	0.00000000	49.39099000	25.26452000
158.69999075	0.00000000	49.76009000	25.26452000
158.89999074	0.00000000	49.39099000	25.26452000
159.09999073	0.00000000	49.05881000	25.26452000
159.29999072	0.00000000	48.97269000	25.26452000
159.49999071	0.00000000	48.59744000	25.30758000
159.69999070	0.00000000	47.90231000	25.68282000
159.89999068	0.00000000	47.85310000	26.42101000
160.09999067	0.00000000	48.17913000	26.74705000
160.29999066	0.00000000	47.85310000	26.42101000
160.49999065	0.00000000	47.85310000	25.68282000
160.69999064	0.00000000	48.22219000	25.30758000
160.89999062	0.00000000	48.22834000	25.22145000
161.09999061	0.00000000	48.64050000	24.84621000
161.29999060	0.00000000	48.97269000	24.10187000
161.49999059	0.00000000	49.01575000	23.77584000
161.69999058	0.00000000	49.01575000	24.10187000
161.89999056	0.00000000	49.01575000	24.84621000
162.09999055	0.00000000	49.01575000	25.22145000
162.29999054	0.00000000	49.01575000	25.26452000
162.49999053	0.00000000	49.01575000	25.26452000
162.69999052	0.00000000	49.01575000	25.26452000
162.89999051	0.00000000	48.97269000	25.26452000
163.09999049	0.00000000	48.59744000	25.26452000
163.29999048	0.00000000	47.85310000	25.26452000
163.49999047	0.00000000	47.47785000	25.26452000
163.69999046	0.00000000	47.43479000	25.26452000
163.89999045	0.00000000	47.47785000	25.26452000
164.09999043	0.00000000	47.81004000	25.26452000
164.29999042	0.00000000	48.22219000	25.26452000
164.49999041	0.00000000	48.22834000	25.26452000
164.69999040	0.00000000	48.64050000	25.26452000
164.89999039	0.00000000	48.97269000	25.26452000
165.09999037	0.00000000	49.05881000	25.26452000
165.29999036	0.00000000	49.39099000	25.26452000
165.49999035	0.00000000	49.76009000	25.26452000
165.69999034	0.00000000	49.34793000	25.26452000
165.89999033	0.00000000	48.68356000	25.26452000
166.09999032	0.00000000	48.22834000	25.26452000
166.29999030	0.00000000	48.26525000	25.26452000
166.49999029	0.00000000	48.22834000	25.26452000
166.69999028	0.00000000	48.64050000	25.26452000
166.89999027	0.00000000	48.97269000	25.26452000
167.09999026	0.00000000	49.01575000	25.26452000
167.29999024	0.00000000	49.01575000	25.26452000
167.49999023	0.00000000	49.01575000	25.26452000
167.69999022	0.00000000	49.01575000	25.26452000
167.89999021	0.00000000	49.01575000	25.26452000
168.09999020	0.00000000	49.01575000	25.26452000
168.29999018	0.00000000	49.01575000	25.26452000
168.49999017	0.00000000	49.01575000	25.26452000
168.69999016	0.00000000	49.01575000	25.26452000
168.89999015	0.00000000	49.01575000	25.26452000
169.09999014	0.00000000	49.01575000	25.26452000
169.29999013	0.00000000	49.01575000	25.26452000
169.49999011	0.00000000	49.01575000	25.30758000
169.69999010	0.00000000	49.01575000	25.63976000
169.89999009	0.00000000	49.01575000	26.00270000
170.09999008	0.00000000	48.97269000	25.63976000
170.29999007	0.00000000	48.68356000	25.35679000
170.49999005	0.00000000	48.64665000	25.68282000
170.69999004	0.00000000	49.38484000	26.37795000
170.89999003	0.00000000	49.39099000	26.42101000
171.09999002	0.00000000	49.48326000	26.10113000
171.29999001	0.00000000	50.12918000	26.42101000
171.49998999	0.00000000	50.12918000	26.37795000
171.69998998	0.00000000	49.43405000	25.68282000
171.89998997	0.00000000	49.05881000	25.30758000
172.09998996	0.00000000	49.01575000	25.26452000
172.29998995	0.00000000	49.01575000	25.26452000
172.49998994	0.00000000	49.01575000	25.30758000
172.69998992	0.00000000	49.01575000	25.63976000
172.89998991	0.00000000	49.01575000	26.00270000
173.09998990	0.00000000	49.01575000	25.63976000
173.29998989	0.00000000	49.01575000	25.30758000
173.49998988	0.00000000	49.01575000	25.26452000
173.69998986	0.00000000	49.01575000	25.26452000
173.89998985	0.00000000	49.01575000	25.26452000
174.09998984	0.00000000	49.01575000	25.26452000
174.29998983	0.00000000	49.01575000	25.26452000
174.49998982	0.00000000	49.01575000	25.26452000
174.69998980	0.00000000	49.01575000	25.26452000
174.89998979	0.00000000	49.01575000	25.26452000
175.09998978	0.00000000	49.01575000	25.26452000
175.29998977	0.00000000	49.01575000	25.26452000
175.49998976	0.00000000	49.01575000	25.26452000
175.69998975	0.00000000	49.01575000	25.26452000
175.89998973	0.00000000	49.05881000	25.26452000
176.09998972	0.00000000	49.39099000	25.26452000
176.29998971	0.00000000	49.76009000	25.26452000
176.49998970	0.00000000	49.39099000	25.26452000
176.69998969	0.00000000	49.05881000	25.26452000
176.89998967	0.00000000	49.01575000	25.26452000
177.09998966	0.00000000	49.01575000	25.26452000
177.29998965	0.00000000	49.01575000	25.26452000
177.49998964	0.00000000	49.01575000	25.26452000
177.69998963	0.00000000	49.01575000	25.26452000
177.89998961	0.00000000	49.01575000	25.26452000
178.09998960	0.00000000	49.01575000	25.26452000
178.29998959	0.00000000	49.01575000	25.26452000
178.49998958	0.00000000	49.01575000	25.26452000
178.69998957	0.00000000	49.01575000	25.26452000
178.89998956	0.00000000	49.01575000	25.26452000
179.09998954	0.00000000	49.01575000	25.26452000
179.29998953	0.00000000	49.01575000	25.26452000
179.49998952	0.00000000	49.01575000	25.26452000
179.69998951	0.00000000	49.01575000	25.26452000
179.89998950	0.00000000	49.01575000	25.26452000
180.09998948	0.00000000	49.01575000	25.26452000
180.29998947	0.00000000	49.01575000	25.26452000
180.49998946	0.00000000	49.01575000	25.26452000
180.69998945	0.00000000	49.01575000	25.26452000
180.89998944	0.00000000	49.01575000	25.26452000
181.09998942	0.00000000	49.01575000	25.26452000
181.29998941	0.00000000	49.01575000	25.30758000
181.49998940	0.00000000	49.01575000	25.68282000
181.69998939	0.00000000	49.01575000	26.42101000
181.89998938	0.00000000	49.01575000	26.74705000
182.09998937	0.00000000	49.05881000	26.46407000
182.29998935	0.00000000	49.43405000	26.05807000
182.49998934	0.00000000	50.12918000	26.04577000
182.69998933	0.00000000	50.17839000	25.63976000
182.89998932	0.00000000	49.85236000	25.30758000
183.09998931	0.00000000	50.22145000	25.26452000
183.29998929	0.00000000	50.50443000	25.26452000
183.49998928	0.00000000	50.17839000	25.26452000
183.69998927	0.00000000	49.43405000	25.30758000
183.89998926	0.00000000	49.10802000	25.68282000
184.09998925	0.00000000	49.39099000	26.42101000
184.29998923	0.00000000	49.76009000	26.79626000
184.49998922	0.00000000	49.39099000	26.83932000
184.69998921	0.00000000	49.05881000	26.83932000
184.89998920	0.00000000	49.05881000	26.83932000
185.09998919	0.00000000	49.43405000	26.83932000
185.29998918	0.00000000	50.17839000	26.83932000
185.49998916	0.00000000	50.55364000	26.79626000
185.69998915	0.00000000	50.59670000	26.42101000
185.89998914	0.00000000	50.59670000	25.68282000
186.09998913	0.00000000	50.59670000	25.30758000
186.29998912	0.00000000	50.59670000	25.26452000
186.49998910	0.00000000	50.55364000	25.26452000
186.69998909	0.00000000	50.17839000	25.30758000
186.89998908	0.00000000	49.43405000	25.68282000
187.09998907	0.00000000	49.05881000	26.42101000
187.29998906	0.00000000	49.05881000	26.79626000
187.49998904	0.00000000	49.43405000	26.83932000
187.69998903	0.00000000	50.17839000	26.83932000
187.89998902	0.00000000	50.55364000	26.83932000
188.09998901	0.00000000	50.59670000	26.79626000
188.29998900	0.00000000	50.59670000	26.42101000
188.49998899	0.00000000	50.59670000	25.68282000
188.69998897	0.00000000	50.59670000	25.30758000
188.89998896	0.00000000	50.59670000	25.26452000
189.09998895	0.00000000	50.59670000	25.26452000
189.29998894	0.00000000	50.59670000	25.26452000
189.49998893	0.00000000	50.55364000	25.26452000
189.69998891	0.00000000	50.17839000	25.26452000
189.89998890	0.00000000	49.43405000	25.26452000
190.09998889	0.00000000	49.05881000	25.30758000
190.29998888	0.00000000	49.05881000	25.68282000
190.49998887	0.00000000	49.39099000	26.42101000
190.69998885	0.00000000	49.80315000	26.79626000
190.89998884	0.00000000	49.80930000	26.83932000
191.09998883	0.00000000	50.22145000	26.83932000
191.29998882	0.00000000	50.55364000	26.79626000
191.49998881	0.00000000	50.59670000	26.42101000
191.69998880	0.00000000	50.59670000	25.68282000
191.89998878	0.00000000	50.59670000	25.30758000
192.09998877	0.00000000	50.59670000	25.26452000
192.29998876	0.00000000	50.59670000	25.26452000
192.49998875	0.00000000	50.59670000	25.26452000
192.69998874	0.00000000	50.59670000	25.26452000
192.89998872	0.00000000	50.59670000	25.26452000
193.09998871	0.00000000	50.59670000	25.26452000
193.29998870	0.00000000	50.55364000	25.30758000
193.49998869	0.00000000	50.22145000	25.68282000
193.69998868	0.00000000	49.85236000	26.42101000
193.89998866	0.00000000	50.22145000	26.79626000
194.09998865	0.00000000	50.50443000	26.79626000
194.29998864	0.00000000	50.22145000	26.42101000
194.49998863	0.00000000	49.85236000	25.68282000
194.69998862	0.00000000	50.22145000	25.30758000
194.89998861	0.00000000	50.55364000	25.26452000
195.09998859	0.00000000	50.59670000	25.26452000
195.29998858	0.00000000	50.55364000	25.26452000
195.49998857	0.00000000	50.22145000	25.26452000
195.69998856	0.00000000	49.85236000	25.26452000
195.89998855	0.00000000	50.17839000	25.26452000
196.09998853	0.00000000	50.12918000	25.26452000
