Time	Channel A	Channel B	Channel C
(us)	(V)	(mV)	(mV)

-4.49999956	0.00000000	34.78716000	12.62918000
-4.29999957	0.00000000	34.78716000	12.62918000
-4.09999958	0.00000000	34.78716000	12.67224000
-3.89999959	0.00000000	34.78716000	13.04749000
-3.69999960	0.00000000	34.78716000	13.74262000
-3.49999962	0.00000000	34.78716000	13.74262000
-3.29999963	0.00000000	34.78716000	13.04749000
-3.09999964	0.00000000	34.78716000	12.67224000
-2.89999965	0.00000000	34.78716000	12.62918000
-2.69999966	0.00000000	34.78716000	12.62918000
-2.49999968	0.00000000	34.78716000	12.62918000
-2.29999969	0.00000000	34.78716000	12.62918000
-2.09999970	0.00000000	34.78716000	12.62918000
-1.89999971	0.00000000	34.78716000	12.62918000
-1.69999972	0.00000000	34.78716000	12.62918000
-1.49999973	0.00000000	34.78716000	12.62918000
-1.29999975	0.00000000	34.78716000	12.62918000
-1.09999976	0.00000000	34.78716000	12.62918000
-0.89999977	0.00000000	34.78716000	12.62918000
-0.69999978	0.00000000	34.78716000	12.62918000
-0.49999979	0.00000000	34.78716000	12.62918000
-0.29999981	0.31803640	34.78716000	12.62918000
-0.09999982	0.63668800	34.78716000	12.62918000
0.10000017	0.95533960	34.78716000	12.62918000
0.30000016	0.95533960	34.78716000	12.62918000
0.50000015	0.95533960	34.78716000	12.62918000
0.70000013	0.47736220	34.78716000	12.62918000
0.90000012	-0.31803640	34.78716000	12.62918000
1.10000011	-1.43331700	34.78716000	12.62918000
1.30000010	-2.22994600	34.78716000	12.62918000
1.50000009	-2.70792300	34.78716000	12.62918000
1.70000008	-2.54859700	34.78716000	12.62918000
1.90000006	-1.43331700	34.78716000	12.62918000
2.10000005	0.31803640	34.78716000	12.58612000
2.30000004	2.38927200	34.78716000	12.25394000
2.50000003	4.30056600	34.78716000	11.88484000
2.70000002	5.25652100	34.78716000	12.21087000
2.90000000	4.93786900	34.78716000	12.16166000
3.09999999	3.18590100	34.78716000	11.51575000
3.29999998	0.31803640	34.78716000	11.51575000
3.49999997	-3.02657500	34.78716000	12.21087000
3.69999996	-6.05315000	34.78716000	12.58612000
3.89999994	-7.80511800	34.78716000	12.62918000
4.09999993	-7.64579200	34.78716000	12.67224000
4.29999992	-5.41584600	34.78716000	13.00443000
4.49999991	-1.75196900	34.78716000	13.37352000
4.69999990	2.70792300	34.78716000	13.00443000
4.89999989	6.69045300	34.78716000	12.67224000
5.09999987	9.07972400	34.78716000	12.62918000
5.29999986	9.23905000	34.78716000	12.62918000
5.49999985	7.00848900	34.78716000	12.62918000
5.69999984	3.02657500	34.78716000	12.62918000
5.89999983	-1.75196900	34.78716000	12.62918000
6.09999981	-6.21247500	34.78716000	12.67224000
6.29999980	-8.92039900	34.78716000	13.04749000
6.49999979	-9.39837600	34.78716000	13.79183000
6.69999978	-7.64579200	34.78716000	14.16708000
6.89999977	-3.98191400	34.78716000	14.16708000
7.09999975	0.47736220	34.78716000	13.83489000
7.29999974	4.45989200	34.78716000	13.42274000
7.49999973	7.00848900	34.78716000	13.41658000
7.69999972	7.80511800	34.78716000	13.00443000
7.89999971	6.53112700	34.78716000	12.67224000
8.09999970	3.82258900	34.78716000	12.62918000
8.29999968	0.47736220	34.78716000	12.62918000
8.49999967	-2.54859700	34.78716000	12.62918000
8.69999966	-4.45989200	34.78716000	12.62918000
8.89999965	-5.25652100	34.78716000	12.62918000
9.09999964	-4.61921700	34.78716000	12.62918000
9.29999962	-2.86724900	34.78716000	12.62918000
9.49999961	-0.95533960	34.74409000	12.62918000
9.69999960	0.95533960	34.41191000	12.62918000
9.89999959	2.07062000	34.04282000	12.62918000
10.09999958	2.54859700	34.41191000	12.62918000
10.29999956	2.22994600	34.74409000	12.62918000
10.49999955	1.59264300	34.78716000	12.62918000
10.69999954	0.63668800	34.78716000	12.62918000
10.89999953	-0.15871060	34.78716000	12.62918000
11.09999952	-0.79601380	34.78716000	12.62918000
11.29999951	-0.95533960	34.78716000	12.62918000
11.49999949	-0.95533960	34.78716000	12.62918000
11.69999948	-0.79601380	34.78716000	12.62918000
11.89999947	-0.47736220	34.78716000	12.62918000
12.09999946	-0.15871060	34.78716000	12.62918000
12.29999945	-0.15871060	34.78716000	12.62918000
12.49999943	0.00000000	34.78716000	12.62918000
12.69999942	0.00000000	34.78716000	12.62918000
12.89999941	0.00000000	34.78716000	12.62918000
13.09999940	0.00000000	34.78716000	12.62918000
13.29999939	0.00000000	34.78716000	12.62918000
13.49999937	0.00000000	34.78716000	12.62918000
13.69999936	0.00000000	34.78716000	12.62918000
13.89999935	0.00000000	34.78716000	12.62918000
14.09999934	-0.15871060	34.78716000	12.62918000
14.29999933	-0.15871060	34.78716000	12.62918000
14.49999932	-0.15871060	34.78716000	12.62918000
14.69999930	0.00000000	34.78716000	12.62918000
14.89999929	0.00000000	34.78716000	12.62918000
15.09999928	0.00000000	34.78716000	12.62918000
15.29999927	0.00000000	34.78716000	12.62918000
15.49999926	0.00000000	34.78716000	12.62918000
15.69999924	0.00000000	34.78716000	12.62918000
15.89999923	0.00000000	34.78716000	12.62918000
16.09999922	0.00000000	34.78716000	12.62918000
16.29999921	0.00000000	34.78716000	12.62918000
16.49999920	-0.15871060	34.78716000	12.62918000
16.69999919	-0.15871060	34.78716000	12.58612000
16.89999917	-0.15871060	34.78716000	12.21087000
17.09999916	0.00000000	34.83022000	11.55881000
17.29999915	0.00000000	35.20546000	11.88484000
17.49999914	0.00000000	35.94980000	12.94906000
17.69999913	0.00000000	36.32505000	12.96137000
17.89999911	0.00000000	36.27584000	12.67224000
18.09999910	0.00000000	35.48228000	12.62918000
18.29999909	0.00000000	33.61835000	12.62918000
18.49999908	0.00000000	32.08661000	12.62918000
18.69999907	0.00000000	31.20078000	12.62918000
18.89999905	-0.15871060	30.08120000	12.62918000
19.09999904	0.00000000	29.38607000	12.62918000
19.29999903	0.00000000	30.17347000	12.62918000
19.49999902	0.00000000	32.12967000	12.62918000
19.69999901	0.00000000	35.24852000	12.62918000
19.89999900	0.00000000	39.11171000	12.62918000
20.09999898	0.00000000	42.55659000	12.62918000
20.29999897	0.00000000	44.88189000	12.62918000
20.49999896	0.00000000	45.20792000	12.62918000
20.69999895	0.00000000	43.20866000	12.62918000
20.89999894	0.00000000	38.50886000	12.62918000
21.09999892	0.00000000	31.53297000	12.62918000
21.29999891	0.00000000	23.84965000	12.62918000
21.49999890	0.00000000	17.29208000	12.62918000
21.69999889	0.00000000	13.89025000	12.62918000
21.89999888	0.00000000	14.73302000	12.62918000
22.09999886	0.00000000	20.63238000	12.62918000
22.29999885	0.00000000	31.05930000	12.58612000
22.49999884	0.00000000	43.80536000	12.25394000
22.69999883	0.00000000	55.76402000	11.88484000
22.89999882	0.00000000	64.19168000	12.25394000
23.09999881	0.00000000	66.42470000	12.62918000
23.29999879	0.00000000	60.98056000	13.04749000
23.49999878	0.00000000	48.92962000	13.79183000
23.69999877	0.00000000	32.27116000	14.16708000
23.89999876	0.00000000	14.17938000	14.21014000
24.09999875	0.00000000	-0.43676180	14.21014000
24.29999873	0.00000000	-7.73868000	14.16708000
24.49999872	0.00000000	-5.78248000	13.74262000
24.69999871	0.00000000	5.51796200	12.58612000
24.89999870	0.00000000	24.12647000	11.04823000
25.09999869	0.00000000	46.88115000	9.47342500
25.29999867	0.00000000	68.04872000	7.98474400
25.49999866	0.00000000	81.92052000	7.24040300
25.69999865	0.00000000	85.40846000	8.02780400
25.89999864	0.00000000	77.22071000	9.98400600
26.09999863	0.00000000	59.07357000	13.09670000
26.29999862	0.00000000	34.69488000	16.94759000
26.49999860	0.00000000	9.65797200	20.43553000
26.69999859	0.00000000	-10.06398000	23.12992000
26.89999858	0.00000000	-19.69734000	24.20029000
27.09999857	0.00000000	-17.36589000	22.61934000
27.29999856	0.00000000	-3.08809000	18.25787000
27.49999854	0.00000000	19.66043000	11.32505000
27.69999853	0.00000000	45.16486000	2.83587600
27.89999852	0.00000000	67.96260000	-4.37992100
28.09999851	0.00000000	82.66486000	-8.68602300
28.29999850	0.00000000	86.20201000	-8.55684000
28.49999848	0.00000000	78.47563000	-3.90625000
28.69999847	0.00000000	61.11589000	5.42568800
28.89999846	0.00000000	38.36737000	17.36589000
29.09999845	0.00000000	15.93873000	29.35531000
29.29999844	0.00000000	-1.55019700	38.97638000
29.49999843	0.00000000	-10.81447000	43.52854000
29.69999841	0.00000000	-10.10704000	41.53543000
29.89999840	0.00000000	0.30757870	32.60949000
30.09999839	0.00000000	17.24902000	18.30093000
30.29999838	0.00000000	37.02018000	1.71013800
30.49999837	0.00000000	55.16732000	-13.66265000
30.69999835	0.00000000	67.96260000	-23.69586000
30.89999834	0.00000000	72.66239000	-26.02731000
31.09999833	0.00000000	68.89149000	-20.58317000
31.29999832	0.00000000	58.42150000	-7.76943800
31.49999831	0.00000000	43.38705000	9.94094400
31.69999829	0.00000000	27.15305000	28.51870000
31.89999828	0.00000000	13.98253000	43.99606000
32.09999827	0.00000000	5.80093500	53.61097000
32.29999826	0.00000000	4.26304100	54.68135000
32.49999825	0.00000000	9.61491000	46.22293000
32.69999824	0.00000000	19.99262000	30.46875000
32.89999822	0.00000000	32.73868000	11.51575000
33.09999821	0.00000000	44.69734000	-6.69906400
33.29999820	0.00000000	53.25418000	-21.00148000
33.49999819	0.00000000	56.74828000	-28.29724000
33.69999818	0.00000000	54.88435000	-26.76550000
33.89999816	0.00000000	48.32677000	-16.77534000
34.09999815	0.00000000	39.11171000	-0.97810030
34.29999814	0.00000000	29.47835000	16.81225000
34.49999813	0.00000000	22.12721000	33.07701000
34.69999812	0.00000000	18.63312000	44.64198000
34.89999810	0.00000000	19.34055000	48.91732000
35.09999809	0.00000000	23.94193000	45.06028000
35.29999808	0.00000000	30.45644000	34.32578000
35.49999807	0.00000000	37.43848000	19.27288000
35.69999806	0.00000000	43.16560000	3.84473400
35.89999805	0.00000000	45.85999000	-8.92593500
36.09999803	0.00000000	44.74655000	-16.22170000
36.29999802	0.00000000	40.55733000	-16.26476000
36.49999801	0.00000000	34.78716000	-9.38730200
36.69999800	0.00000000	29.01082000	2.12844500
36.89999799	0.00000000	24.82160000	15.18824000
37.09999797	0.00000000	23.61589000	26.38410000
37.29999796	0.00000000	25.52288000	32.94168000
37.49999795	0.00000000	29.38607000	33.77214000
37.69999794	0.00000000	34.78716000	28.75861000
37.89999793	0.00000000	40.08981000	19.59892000
38.09999791	0.00000000	43.20866000	8.87057000
38.29999790	0.00000000	43.67618000	0.08612204
38.49999789	0.00000000	42.13828000	-4.18922200
38.69999788	0.00000000	39.06250000	-3.03272600
38.89999787	0.00000000	35.16240000	3.05733300
39.09999786	0.00000000	31.29306000	12.25394000
39.29999784	0.00000000	27.84818000	21.41363000
39.49999783	0.00000000	26.26722000	27.96506000
39.69999782	0.00000000	26.59326000	29.82899000
39.89999781	0.00000000	27.76206000	26.38410000
40.09999780	0.00000000	30.13041000	18.30093000
40.29999778	0.00000000	33.15699000	7.98474400
40.49999777	0.00000000	35.90059000	-1.58710600
40.69999776	0.00000000	37.90600000	-7.30191900
40.89999775	0.00000000	39.43774000	-7.34498000
41.09999774	0.00000000	40.22515000	-1.96235200
41.29999772	0.00000000	39.86220000	7.28961600
41.49999771	0.00000000	39.15477000	18.43627000
41.69999770	0.00000000	38.23203000	28.34030000
41.89999769	0.00000000	36.68799000	33.72293000
42.09999768	0.00000000	33.99360000	33.02780000
42.29999767	0.00000000	31.71137000	27.31299000
42.49999765	0.00000000	30.08120000	18.47933000
42.69999764	0.00000000	28.92470000	8.82135800
42.89999763	0.00000000	28.50024000	0.73203740
43.09999762	0.00000000	28.54946000	-4.32455700
43.29999761	0.00000000	29.34301000	-5.06889700
43.49999759	0.00000000	31.28691000	-1.67322800
43.69999758	0.00000000	33.57529000	4.82898600
43.89999757	0.00000000	35.90059000	12.11860000
44.09999756	0.00000000	37.48154000	18.39321000
44.29999755	0.00000000	38.32431000	22.99459000
44.49999753	0.00000000	39.11171000	24.93848000
44.69999752	0.00000000	39.48696000	23.41289000
44.89999751	0.00000000	39.48696000	19.64198000
45.09999750	0.00000000	39.01944000	14.62844000
45.29999749	0.00000000	37.48154000	10.02707000
45.49999748	0.00000000	35.16240000	6.86515700
45.69999746	0.00000000	32.73868000	5.29035400
45.89999745	0.00000000	29.61983000	5.29035400
46.09999744	0.00000000	26.18110000	6.82209600
46.29999743	0.00000000	23.84965000	9.51648500
46.49999742	0.00000000	22.73007000	12.58612000
46.69999740	0.00000000	23.61589000	15.32357000
46.89999739	0.00000000	27.47293000	17.27362000
47.09999738	0.00000000	33.24926000	18.39321000
47.29999737	0.00000000	39.48080000	18.01796000
47.49999736	0.00000000	45.30019000	16.11712000
47.69999734	0.00000000	49.48942000	13.79183000
47.89999733	0.00000000	50.60285000	11.04823000
48.09999732	0.00000000	47.90846000	8.35383800
48.29999731	0.00000000	42.09522000	6.44685000
48.49999730	0.00000000	34.27657000	5.66560000
48.69999729	0.00000000	25.38755000	6.44685000
48.89999727	0.00000000	17.38435000	8.35383800
49.09999726	0.00000000	13.19513000	11.14050000
49.29999725	0.00000000	14.30856000	14.58538000
49.49999724	0.00000000	20.07874000	18.01796000
49.69999723	0.00000000	28.96776000	19.88189000
49.89999721	0.00000000	39.01944000	19.55585000
50.09999720	0.00000000	47.90846000	17.23056000
50.29999719	0.00000000	53.62943000	13.79183000
50.49999718	0.00000000	54.41683000	9.89173200
50.69999717	0.00000000	49.81545000	6.44685000
50.89999715	0.00000000	41.76304000	4.12770700
51.09999714	0.00000000	32.03740000	3.80167300
51.29999713	0.00000000	22.86540000	5.66560000
51.49999712	0.00000000	16.73228000	9.14124000
51.69999711	0.00000000	15.93873000	13.00443000
51.89999710	0.00000000	20.07874000	16.90453000
52.09999708	0.00000000	27.38681000	19.92495000
52.29999707	0.00000000	35.90059000	21.08760000
52.49999706	0.00000000	43.54084000	19.92495000
52.69999705	0.00000000	48.18528000	16.90453000
52.89999704	0.00000000	48.19143000	13.04749000
53.09999702	0.00000000	44.41437000	9.55954600
53.29999701	0.00000000	37.85679000	6.86515700
53.49999700	0.00000000	30.59178000	5.75172200
53.69999699	0.00000000	24.82160000	6.86515700
53.89999698	0.00000000	22.12721000	9.51648500
54.09999696	0.00000000	23.24065000	12.58612000
54.29999695	0.00000000	27.47293000	15.27436000
54.49999694	0.00000000	33.61835000	16.76919000
54.69999693	0.00000000	40.08981000	16.43701000
54.89999692	0.00000000	44.32209000	14.58538000
55.09999691	0.00000000	45.12180000	12.62918000
55.29999689	0.00000000	42.79035000	10.72219000
55.49999688	0.00000000	37.43848000	9.23966500
55.69999687	0.00000000	30.96703000	9.65182000
55.89999686	0.00000000	25.94119000	11.51575000
56.09999685	0.00000000	23.19759000	14.21014000
56.29999683	0.00000000	23.24065000	16.85531000
56.49999682	0.00000000	26.31643000	18.35015000
56.69999681	0.00000000	31.66830000	17.92569000
56.89999680	0.00000000	37.43848000	15.27436000
57.09999679	0.00000000	42.09522000	11.42347000
57.29999677	0.00000000	44.78961000	7.56028500
57.49999676	0.00000000	44.74655000	4.08464600
57.69999675	0.00000000	41.71998000	2.26377900
57.89999674	0.00000000	36.74335000	3.05733300
58.09999673	0.00000000	31.71137000	6.90821800
58.29999672	0.00000000	27.42987000	12.62918000
58.49999670	0.00000000	24.77854000	18.43627000
58.69999669	0.00000000	24.73548000	23.03765000
58.89999668	0.00000000	27.01156000	25.31373000
59.09999667	0.00000000	30.50566000	24.10802000
59.29999666	0.00000000	34.73794000	19.50664000
59.49999664	0.00000000	38.55807000	12.58612000
59.69999663	0.00000000	40.51427000	5.29035400
59.89999662	0.00000000	40.55733000	-0.46751960
60.09999661	0.00000000	39.01944000	-3.16190900
60.29999660	0.00000000	36.31890000	-1.96235200
60.49999658	0.00000000	33.24926000	2.97121000
60.69999657	0.00000000	30.54872000	10.29774000
60.89999656	0.00000000	29.01082000	17.60581000
61.09999655	0.00000000	29.01082000	23.82505000
61.29999654	0.00000000	30.54872000	27.26993000
61.49999653	0.00000000	33.20005000	27.26993000
61.69999651	0.00000000	35.85752000	23.73892000
61.89999650	0.00000000	37.39542000	16.81225000
62.09999649	0.00000000	37.43848000	8.40305000
62.29999648	0.00000000	36.27584000	1.10728300
62.49999647	0.00000000	34.36884000	-3.16190900
62.69999645	0.00000000	32.03740000	-3.58021600
62.89999644	0.00000000	30.13041000	-0.51673230
63.09999643	0.00000000	28.96776000	5.29035400
63.29999642	0.00000000	29.01082000	12.58612000
63.49999641	0.00000000	30.54872000	19.50664000
63.69999639	0.00000000	33.20005000	24.15723000
63.89999638	0.00000000	35.90059000	25.78125000
64.09999637	0.00000000	37.81373000	24.61860000
64.29999636	0.00000000	38.60113000	21.13066000
64.49999635	0.00000000	37.81373000	15.74188000
64.69999634	0.00000000	35.90059000	9.93479300
64.89999632	0.00000000	33.24926000	4.95816900
65.09999631	0.00000000	30.92396000	1.85777500
65.29999630	0.00000000	29.75517000	1.80241100
65.49999629	0.00000000	29.34301000	3.61712600
65.69999628	0.00000000	30.17347000	6.40378900
65.89999626	0.00000000	32.03740000	9.84867000
66.09999625	0.00000000	34.31963000	13.32431000
66.29999624	0.00000000	35.85752000	15.69882000
66.49999623	0.00000000	36.27584000	17.36589000
66.69999622	0.00000000	35.85752000	18.85458000
66.89999620	0.00000000	34.31963000	19.64198000
67.09999619	0.00000000	32.08661000	19.22982000
67.29999618	0.00000000	30.54872000	18.11024000
67.49999617	0.00000000	30.13041000	16.11712000
67.69999616	0.00000000	30.54872000	13.74262000
67.89999615	0.00000000	32.12967000	10.58686000
68.09999613	0.00000000	34.83022000	6.77903500
68.29999612	0.00000000	37.85679000	3.66633800
68.49999611	0.00000000	40.13902000	1.75319900
68.69999610	0.00000000	40.46506000	1.39025600
68.89999609	0.00000000	38.55807000	3.37721400
69.09999607	0.00000000	34.69488000	7.24040300
69.29999606	0.00000000	30.08735000	12.67224000
69.49999605	0.00000000	25.84892000	18.39321000
69.69999604	0.00000000	23.15453000	22.66855000
69.89999603	0.00000000	22.82234000	24.61860000
70.09999601	0.00000000	25.15379000	24.20029000
70.29999600	0.00000000	30.17347000	21.08760000
70.49999599	0.00000000	36.31890000	15.69882000
70.69999598	0.00000000	42.13828000	9.55954600
70.89999597	0.00000000	46.32751000	4.12770700
71.09999596	0.00000000	47.48400000	0.64591530
71.29999594	0.00000000	45.16486000	-0.51673230
71.49999593	0.00000000	40.13287000	1.06422200
71.69999592	0.00000000	33.20005000	5.24729300
71.89999591	0.00000000	26.26722000	10.62992000
72.09999590	0.00000000	21.19833000	15.64960000
72.29999588	0.00000000	18.49778000	19.50664000
72.49999587	0.00000000	18.92224000	21.04454000
72.69999586	0.00000000	22.77928000	19.97416000
72.89999585	0.00000000	28.96776000	17.32283000
73.09999584	0.00000000	36.27584000	14.21014000
73.29999582	0.00000000	42.83341000	11.14050000
73.49999581	0.00000000	46.74582000	8.86441900
73.69999580	0.00000000	47.90846000	8.44611200
73.89999579	0.00000000	45.90305000	9.51648500
74.09999578	0.00000000	40.60039000	11.04823000
74.29999577	0.00000000	34.08588000	12.53691000
74.49999575	0.00000000	28.59252000	13.28125000
74.69999574	0.00000000	24.26796000	12.53691000
74.89999573	0.00000000	21.65969000	11.04823000
75.09999572	0.00000000	22.03494000	9.47342500
75.29999571	0.00000000	25.43061000	7.98474400
75.49999569	0.00000000	30.03814000	7.24040300
75.69999568	0.00000000	34.69488000	8.07086500
75.89999567	0.00000000	38.55807000	10.40231000
76.09999566	0.00000000	40.51427000	14.25320000
76.29999565	0.00000000	40.55733000	18.43627000
76.49999563	0.00000000	39.06250000	21.46284000
76.69999562	0.00000000	36.74335000	22.24409000
76.89999561	0.00000000	34.45497000	20.30020000
77.09999560	0.00000000	32.46186000	16.39395000
77.29999559	0.00000000	31.28691000	10.58686000
77.49999558	0.00000000	30.50566000	4.12770700
77.69999556	0.00000000	30.54872000	-0.46751960
77.89999555	0.00000000	31.61909000	-2.04847400
78.09999554	0.00000000	32.73252000	-0.46751960
78.29999553	0.00000000	33.10777000	4.12770700
78.49999552	0.00000000	32.78174000	10.67298000
78.69999550	0.00000000	32.03740000	17.23056000
78.89999549	0.00000000	31.71137000	22.66240000
79.09999548	0.00000000	32.08661000	25.73203000
79.29999547	0.00000000	33.24926000	25.73203000
79.49999546	0.00000000	34.78716000	22.66240000
79.69999544	0.00000000	36.32505000	17.27362000
79.89999543	0.00000000	37.48154000	11.14050000
80.09999542	0.00000000	37.81373000	5.70866100
80.29999541	0.00000000	37.06324000	2.22071800
80.49999540	-0.15871060	35.11319000	1.01501000
80.69999539	0.00000000	32.82480000	2.12844500
80.89999537	0.00000000	30.45644000	4.82283400
81.09999536	0.00000000	28.59252000	8.35998900
81.29999535	0.00000000	27.80512000	12.58612000
81.49999534	0.00000000	28.59252000	16.43701000
81.69999533	0.00000000	30.50566000	18.76845000
81.89999531	0.00000000	33.20005000	19.64198000
82.09999530	0.00000000	35.90059000	19.22982000
82.29999529	0.00000000	37.85679000	18.15330000
82.49999528	0.00000000	38.97638000	16.53543000
82.69999527	0.00000000	38.60113000	14.94833000
82.89999525	0.00000000	36.70029000	12.53691000
83.09999524	0.00000000	34.41191000	9.51648500
83.29999523	0.00000000	32.08661000	6.82209600
83.49999522	0.00000000	30.54872000	5.24729300
83.69999521	0.00000000	30.13041000	4.82898600
83.89999520	0.00000000	30.45644000	5.24729300
84.09999518	0.00000000	31.24384000	6.82209600
84.29999517	0.00000000	31.99434000	9.51648500
84.49999516	0.00000000	32.78174000	12.67224000
84.69999515	0.00000000	33.15699000	16.11712000
84.89999514	0.00000000	33.20005000	19.22367000
85.09999512	0.00000000	33.20005000	20.71850000
85.29999511	0.00000000	33.20005000	20.75541000
85.49999510	0.00000000	33.24311000	18.76845000
85.69999509	0.00000000	33.61835000	15.32357000
85.89999508	0.00000000	34.36884000	11.00517000
86.09999506	0.00000000	34.74409000	6.44685000
86.29999505	0.00000000	34.78716000	3.01427100
86.49999504	0.00000000	34.74409000	2.26377900
86.69999503	0.00000000	34.31963000	4.08464600
86.89999502	0.00000000	33.15699000	7.56028500
87.09999501	0.00000000	31.61909000	11.42347000
87.29999499	0.00000000	30.08120000	15.36663000
87.49999498	0.00000000	28.96776000	18.76845000
87.69999497	0.00000000	29.01082000	20.66929000
87.89999496	0.00000000	30.50566000	19.88189000
88.09999495	0.00000000	32.78174000	16.85531000
88.29999493	0.00000000	34.73794000	12.62918000
88.49999492	0.00000000	36.32505000	8.40305000
88.69999491	0.00000000	37.43848000	5.33341500
88.89999490	0.00000000	37.43848000	4.17691900
89.09999489	0.00000000	36.27584000	5.33341500
89.29999487	0.00000000	34.36884000	8.35998900
89.49999486	0.00000000	32.08661000	12.21087000
89.69999485	0.00000000	30.50566000	15.69882000
89.89999484	0.00000000	29.70595000	18.39321000
90.09999483	0.00000000	29.34301000	19.50664000
90.29999482	0.00000000	30.13041000	18.35015000
90.49999480	0.00000000	31.61909000	15.27436000
90.69999479	0.00000000	33.15699000	11.04823000
90.89999478	0.00000000	34.36884000	6.86515700
91.09999477	0.00000000	35.16240000	4.17076700
91.29999476	0.00000000	35.90059000	3.80167300
91.49999474	0.00000000	35.90059000	5.70866100
91.69999473	0.00000000	35.16240000	9.56569900
91.89999472	0.00000000	34.41191000	14.16708000
92.09999471	0.00000000	33.61835000	18.39321000
92.29999470	0.00000000	33.24311000	21.03838000
92.49999468	0.00000000	33.20005000	21.03838000
92.69999467	0.00000000	33.15699000	18.39321000
92.89999466	0.00000000	32.78174000	14.16708000
93.09999465	0.00000000	32.03740000	9.51648500
93.29999464	0.00000000	31.61909000	5.29035400
93.49999463	0.00000000	31.24384000	2.63902500
93.69999461	0.00000000	30.87475000	2.63902500
93.89999460	0.00000000	31.28691000	5.33341500
94.09999459	0.00000000	32.03740000	9.89173200
94.29999458	0.00000000	33.29232000	14.90526000
94.49999457	0.00000000	35.20546000	18.76845000
94.69999455	0.00000000	37.48154000	21.08760000
94.89999454	0.00000000	38.97638000	21.03838000
95.09999453	0.00000000	39.01944000	18.35015000
95.29999452	0.00000000	37.81373000	13.79183000
95.49999451	0.00000000	35.48228000	8.77829600
95.69999449	0.00000000	32.03740000	4.95816900
95.89999448	0.00000000	28.96776000	3.01427100
96.09999447	0.00000000	26.96850000	3.79552100
96.29999446	0.00000000	25.84892000	6.77903500
96.49999445	0.00000000	26.26722000	10.62992000
96.69999444	0.00000000	28.59252000	14.16092000
96.89999442	0.00000000	32.03740000	17.23056000
97.09999441	0.00000000	35.94980000	19.08834000
97.29999440	0.00000000	39.39468000	18.35015000
97.49999439	0.00000000	41.76304000	15.74188000
97.69999438	0.00000000	42.46432000	12.67224000
97.89999436	0.00000000	41.29552000	9.98400600
98.09999435	0.00000000	37.81373000	8.40305000
98.29999434	0.00000000	33.24926000	7.98474400
98.49999433	0.00000000	28.96776000	8.35998900
98.69999432	0.00000000	25.84892000	9.51648500
98.89999430	0.00000000	24.26796000	11.00517000
99.09999429	0.00000000	24.31102000	12.21087000
99.29999428	0.00000000	26.22416000	13.00443000
99.49999427	0.00000000	29.70595000	13.74262000
99.69999426	0.00000000	33.53223000	13.74262000
99.89999425	0.00000000	37.06324000	13.04749000
100.09999423	0.00000000	39.39468000	12.72146000
100.29999422	0.00000000	40.60039000	13.04749000
100.49999421	0.00000000	40.55733000	13.79183000
100.69999420	0.00000000	39.01944000	14.11786000
100.89999419	0.00000000	36.31890000	13.74262000
101.09999417	0.00000000	33.24926000	12.62918000
101.29999416	0.00000000	30.50566000	11.42347000
101.49999415	0.00000000	28.54946000	10.25467000
101.69999414	0.00000000	27.38681000	8.72908400
101.89999413	0.00000000	27.38681000	8.02780400
102.09999411	0.00000000	28.54946000	8.35998900
102.29999410	0.00000000	30.45644000	9.55954600
102.49999409	0.00000000	32.78174000	11.51575000
102.69999408	0.00000000	34.73794000	14.21014000
102.89999407	0.00000000	36.32505000	16.85531000
103.09999406	0.00000000	37.43848000	18.39321000
103.29999404	0.00000000	37.43848000	18.39321000
103.49999403	0.00000000	36.32505000	16.85531000
103.69999402	0.00000000	34.78716000	14.16092000
103.89999401	0.00000000	33.20005000	11.04823000
104.09999400	0.00000000	31.61909000	7.98474400
104.29999398	0.00000000	30.08120000	5.70866100
104.49999397	0.00000000	28.96776000	5.29035400
104.69999396	0.00000000	28.92470000	6.40378900
104.89999395	0.00000000	29.70595000	8.35383800
105.09999394	0.00000000	30.87475000	11.09744000
105.29999392	0.00000000	32.78174000	14.11786000
105.49999391	0.00000000	34.27657000	16.39395000
105.69999390	0.00000000	34.74409000	16.81225000
105.89999389	0.00000000	34.78716000	15.69882000
106.09999388	0.00000000	34.74409000	13.79183000
106.29999387	0.00000000	34.31963000	11.46653000
106.49999385	0.00000000	33.20005000	9.55954600
106.69999384	0.00000000	32.08661000	8.35998900
106.89999383	0.00000000	31.66215000	8.02780400
107.09999382	0.00000000	31.66215000	8.77214500
107.29999381	0.00000000	32.03740000	10.67298000
107.49999379	0.00000000	32.82480000	12.58612000
107.69999378	0.00000000	33.57529000	14.16092000
107.89999377	0.00000000	34.31963000	15.27436000
108.09999376	0.00000000	34.27657000	15.27436000
108.29999375	0.00000000	33.20005000	14.11786000
108.49999374	0.00000000	32.03740000	12.25394000
108.69999372	0.00000000	31.24384000	10.35310000
108.89999371	0.00000000	30.45644000	9.56569900
109.09999370	0.00000000	30.13041000	9.51648500
109.29999369	0.00000000	30.50566000	9.98400600
109.49999368	0.00000000	31.66215000	11.46653000
109.69999366	0.00000000	33.20005000	13.37352000
109.89999365	0.00000000	34.73794000	14.53617000
110.09999364	0.00000000	35.90059000	15.36663000
110.29999363	0.00000000	36.23277000	15.64960000
110.49999362	0.00000000	35.52534000	14.94833000
110.69999360	0.00000000	33.99360000	13.37967000
110.89999359	0.00000000	32.82480000	11.87869000
111.09999358	0.00000000	31.61909000	10.31004000
111.29999357	0.00000000	30.50566000	9.56569900
111.49999356	0.00000000	30.13041000	9.47342500
111.69999355	0.00000000	30.50566000	9.51648500
111.89999353	0.00000000	31.66215000	9.93479300
112.09999352	0.00000000	33.15699000	11.04823000
112.29999351	0.00000000	34.31963000	12.21087000
112.49999350	0.00000000	34.74409000	13.00443000
112.69999349	0.00000000	34.78716000	13.74262000
112.89999347	0.00000000	34.74409000	13.74262000
113.09999346	0.00000000	34.36884000	13.04749000
113.29999345	0.00000000	33.57529000	12.67224000
113.49999344	0.00000000	32.82480000	12.58612000
113.69999343	0.00000000	32.03740000	12.21087000
113.89999341	0.00000000	31.66215000	11.46653000
114.09999340	0.00000000	31.61909000	11.09129000
114.29999339	0.00000000	31.66215000	11.00517000
114.49999338	0.00000000	32.03740000	10.62992000
114.69999337	0.00000000	32.82480000	9.93479300
114.89999336	0.00000000	33.53223000	9.89173200
115.09999334	0.00000000	33.98745000	10.25467000
115.29999333	0.00000000	33.95054000	10.26698000
115.49999332	0.00000000	33.98745000	10.67298000
115.69999331	0.00000000	33.53223000	11.04823000
115.89999330	0.00000000	32.82480000	11.46653000
116.09999328	0.00000000	32.03740000	12.21087000
116.29999327	0.00000000	31.61909000	12.62918000
116.49999326	0.00000000	31.20078000	13.00443000
116.69999325	0.00000000	30.50566000	13.37352000
116.89999324	0.00000000	30.50566000	12.96137000
117.09999322	0.00000000	31.24384000	12.25394000
117.29999321	0.00000000	32.03740000	11.42347000
117.49999320	0.00000000	33.20005000	10.67298000
117.69999319	0.00000000	34.31963000	9.89173200
117.89999318	0.00000000	34.74409000	9.51648500
118.09999317	0.00000000	34.78716000	9.47342500
118.29999315	0.00000000	34.74409000	9.51648500
118.49999314	0.00000000	34.31963000	9.89173200
118.69999313	0.00000000	33.15699000	10.67298000
118.89999312	0.00000000	31.66215000	11.42347000
119.09999311	0.00000000	30.50566000	12.25394000
119.29999309	0.00000000	30.08120000	13.00443000
119.49999308	0.00000000	30.08120000	13.74262000
119.69999307	0.00000000	30.45644000	13.74262000
119.89999306	0.00000000	31.24384000	13.04749000
120.09999305	0.00000000	32.03740000	12.67224000
120.29999303	0.00000000	33.20005000	12.58612000
120.49999302	0.00000000	34.36884000	12.21087000
120.69999301	0.00000000	35.11934000	11.46653000
120.89999300	0.00000000	35.53149000	11.09129000
121.09999299	0.00000000	35.11934000	11.04823000
121.29999298	0.00000000	34.36884000	11.04823000
121.49999296	0.00000000	33.20005000	11.04823000
121.69999295	0.00000000	32.03740000	11.04823000
121.89999294	0.00000000	31.24384000	11.09129000
122.09999293	0.00000000	30.45644000	11.46653000
122.29999292	0.00000000	30.13041000	12.21087000
122.49999290	0.00000000	30.45644000	12.62918000
122.69999289	0.00000000	31.24384000	13.04749000
122.89999288	0.00000000	32.03740000	13.74262000
123.09999287	0.00000000	33.20005000	13.74262000
123.29999286	0.00000000	34.31963000	13.00443000
123.49999284	0.00000000	34.74409000	12.25394000
123.69999283	0.00000000	34.74409000	11.46653000
123.89999282	0.00000000	34.36884000	11.09129000
124.09999281	0.00000000	33.61835000	11.04823000
124.29999280	0.00000000	33.24311000	11.04823000
124.49999279	0.00000000	33.15699000	11.04823000
124.69999277	0.00000000	32.78174000	11.04823000
124.89999276	0.00000000	32.03740000	11.04823000
125.09999275	0.00000000	31.66215000	11.04823000
125.29999274	0.00000000	31.61909000	11.09129000
125.49999273	0.00000000	31.61909000	11.46653000
125.69999271	0.00000000	31.66215000	12.21087000
125.89999270	0.00000000	32.03740000	12.58612000
126.09999269	0.00000000	32.78174000	12.62918000
126.29999268	0.00000000	33.20005000	12.62918000
126.49999267	0.00000000	33.61835000	12.62918000
126.69999265	0.00000000	34.36884000	12.62918000
126.89999264	0.00000000	34.69488000	12.58612000
127.09999263	0.00000000	34.36884000	12.21087000
127.29999262	0.00000000	33.57529000	11.46653000
127.49999261	0.00000000	32.78174000	11.09129000
127.69999260	0.00000000	31.61909000	11.04823000
127.89999258	0.00000000	30.54872000	11.04823000
128.09999257	0.00000000	30.50566000	11.04823000
128.29999256	0.00000000	31.24384000	11.09129000
128.49999255	0.00000000	31.99434000	11.46653000
128.69999254	0.00000000	32.82480000	12.16166000
128.89999252	0.00000000	33.61835000	12.16166000
129.09999251	0.00000000	34.73794000	11.51575000
129.29999250	0.00000000	35.48228000	11.51575000
129.49999249	0.00000000	35.11934000	12.16166000
129.69999248	0.00000000	34.36884000	12.16166000
129.89999246	0.00000000	33.15699000	11.46653000
130.09999245	0.00000000	31.66215000	11.09129000
130.29999244	0.00000000	30.50566000	11.09129000
130.49999243	0.00000000	30.13041000	11.46653000
130.69999242	0.00000000	30.50566000	12.21087000
130.89999241	0.00000000	31.61909000	12.58612000
131.09999239	0.00000000	32.78174000	12.62918000
131.29999238	0.00000000	33.57529000	12.58612000
131.49999237	0.00000000	34.36884000	12.21087000
131.69999236	0.00000000	34.69488000	11.46653000
131.89999235	0.00000000	34.36884000	11.09129000
132.09999233	0.00000000	33.57529000	11.04823000
132.29999232	0.00000000	32.82480000	11.04823000
132.49999231	0.00000000	32.03740000	11.04823000
132.69999230	0.00000000	31.66215000	11.04823000
132.89999229	0.00000000	31.61909000	11.09129000
133.09999227	0.00000000	31.66215000	11.46653000
133.29999226	0.00000000	32.03740000	12.25394000
133.49999225	0.00000000	32.78174000	12.96137000
133.69999224	0.00000000	33.15699000	13.37352000
133.89999223	0.00000000	33.20005000	13.00443000
134.09999222	0.00000000	33.20005000	12.62918000
134.29999220	0.00000000	33.15699000	12.21087000
134.49999219	0.00000000	32.78174000	11.42347000
134.69999218	0.00000000	32.08661000	10.67298000
134.89999217	0.00000000	32.08661000	9.89173200
135.09999216	0.00000000	32.78174000	9.51648500
135.29999214	0.00000000	33.15699000	9.51648500
135.49999213	0.00000000	33.20005000	9.89173200
135.69999212	0.00000000	33.20005000	10.67298000
135.89999211	0.00000000	33.20005000	11.42347000
136.09999210	0.00000000	33.15699000	12.21087000
136.29999208	0.00000000	32.78174000	12.58612000
136.49999207	0.00000000	32.03740000	12.62918000
136.69999206	0.00000000	31.66215000	12.62918000
136.89999205	0.00000000	31.61909000	12.58612000
137.09999204	0.00000000	31.61909000	12.21087000
137.29999203	0.00000000	31.66215000	11.46653000
137.49999201	0.00000000	32.03740000	11.09129000
137.69999200	0.00000000	32.78174000	11.00517000
137.89999199	0.00000000	33.20005000	10.67298000
138.09999198	0.00000000	33.57529000	10.31004000
138.29999197	0.00000000	33.90133000	10.67298000
138.49999195	0.00000000	33.15699000	11.00517000
138.69999194	0.00000000	32.08661000	11.04823000
138.89999193	0.00000000	31.61909000	11.09129000
139.09999192	0.00000000	31.24384000	11.46653000
139.29999191	0.00000000	30.87475000	12.21087000
139.49999189	0.00000000	31.24384000	12.58612000
139.69999188	0.00000000	31.61909000	12.62918000
139.89999187	0.00000000	32.03740000	12.62918000
140.09999186	0.00000000	32.78174000	12.62918000
140.29999185	0.00000000	33.15699000	12.58612000
140.49999184	0.00000000	33.20005000	12.16166000
140.69999182	0.00000000	33.20005000	11.04823000
140.89999181	0.00000000	33.15699000	9.93479300
141.09999180	0.00000000	32.78174000	9.51648500
141.29999179	0.00000000	32.03740000	9.47342500
141.49999178	0.00000000	31.66215000	9.51648500
141.69999176	0.00000000	31.61909000	9.93479300
141.89999175	0.00000000	31.61909000	11.04823000
142.09999174	0.00000000	31.66215000	12.21087000
142.29999173	0.00000000	32.03740000	13.00443000
142.49999172	0.00000000	32.78174000	13.74262000
142.69999170	0.00000000	33.15699000	13.74262000
142.89999169	0.00000000	33.20005000	13.00443000
143.09999168	0.00000000	33.15699000	12.25394000
143.29999167	0.00000000	32.78174000	11.42347000
143.49999166	0.00000000	32.03740000	10.67298000
143.69999165	0.00000000	31.66215000	9.89173200
143.89999163	0.00000000	31.61909000	9.56569900
144.09999162	0.00000000	31.61909000	9.89173200
144.29999161	0.00000000	31.61909000	10.67298000
144.49999160	0.00000000	31.66215000	11.42347000
144.69999159	0.00000000	32.03740000	12.21087000
144.89999157	0.00000000	32.78174000	12.58612000
145.09999156	0.00000000	33.15699000	12.62918000
145.29999155	0.00000000	33.20005000	12.62918000
145.49999154	0.00000000	33.15699000	12.58612000
145.69999153	0.00000000	32.78174000	12.21087000
145.89999151	0.00000000	32.03740000	11.46653000
146.09999150	0.00000000	31.66215000	11.09129000
146.29999149	0.00000000	31.61909000	11.04823000
146.49999148	0.00000000	31.61909000	11.04823000
146.69999147	0.00000000	31.66215000	11.04823000
146.89999146	0.00000000	32.03740000	11.04823000
147.09999144	0.00000000	32.78174000	11.04823000
147.29999143	0.00000000	33.15699000	11.09129000
147.49999142	0.00000000	33.15699000	11.46653000
147.69999141	0.00000000	32.78174000	12.21087000
147.89999140	0.00000000	32.03740000	12.58612000
148.09999138	0.00000000	31.66215000	12.62918000
148.29999137	0.00000000	31.61909000	12.62918000
148.49999136	0.00000000	31.61909000	12.62918000
148.69999135	0.00000000	31.61909000	12.62918000
148.89999134	0.00000000	31.61909000	12.58612000
149.09999132	0.00000000	31.66215000	12.21087000
149.29999131	0.00000000	32.03740000	11.46653000
149.49999130	0.00000000	32.78174000	11.09129000
149.69999129	0.00000000	33.15699000	11.04823000
149.89999128	0.00000000	33.20005000	11.04823000
150.09999127	0.00000000	33.15699000	11.04823000
150.29999125	0.00000000	32.78174000	11.04823000
150.49999124	0.00000000	32.03740000	11.04823000
150.69999123	0.00000000	31.66215000	11.04823000
150.89999122	0.00000000	31.61909000	11.09129000
151.09999121	0.00000000	31.61909000	11.46653000
151.29999119	0.00000000	31.61909000	12.16166000
151.49999118	0.00000000	31.61909000	12.16166000
151.69999117	0.00000000	31.61909000	11.46653000
151.89999116	0.00000000	31.61909000	11.09129000
152.09999115	0.00000000	31.66215000	11.04823000
152.29999113	0.00000000	32.03740000	11.04823000
152.49999112	0.00000000	32.73252000	11.04823000
152.69999111	0.00000000	32.78174000	11.04823000
152.89999110	0.00000000	32.45571000	11.04823000
153.09999109	0.00000000	32.78174000	11.04823000
153.29999108	0.00000000	32.73252000	11.09129000
153.49999106	0.00000000	32.03740000	11.46653000
153.69999105	0.00000000	31.66215000	12.21087000
153.89999104	0.00000000	31.61909000	12.58612000
154.09999103	0.00000000	31.61909000	12.62918000
154.29999102	0.00000000	31.61909000	12.62918000
154.49999100	0.00000000	31.61909000	12.62918000
154.69999099	0.00000000	31.61909000	12.62918000
154.89999098	0.00000000	31.61909000	12.58612000
155.09999097	0.00000000	31.66215000	12.21087000
155.29999096	0.00000000	32.03740000	11.46653000
155.49999094	0.00000000	32.78174000	11.09129000
155.69999093	0.00000000	33.15699000	11.04823000
155.89999092	0.00000000	33.20005000	11.04823000
156.09999091	0.00000000	33.20005000	11.09129000
156.29999090	0.00000000	33.15699000	11.46653000
156.49999089	0.00000000	32.78174000	12.21087000
156.69999087	0.00000000	32.03740000	12.58612000
156.89999086	0.00000000	31.66215000	12.62918000
157.09999085	0.00000000	31.61909000	12.62918000
157.29999084	0.00000000	31.61909000	12.62918000
157.49999083	0.00000000	31.61909000	12.62918000
157.69999081	0.00000000	31.61909000	12.62918000
157.89999080	0.00000000	31.66215000	12.58612000
158.09999079	0.00000000	31.99434000	12.21087000
158.29999078	0.00000000	32.40649000	11.46653000
158.49999077	0.00000000	32.41265000	11.09129000
158.69999075	0.00000000	32.82480000	11.04823000
158.89999074	0.00000000	33.15699000	11.04823000
159.09999073	0.00000000	33.20005000	11.04823000
159.29999072	0.00000000	33.15699000	11.09129000
159.49999071	0.00000000	32.78174000	11.46653000
159.69999070	0.00000000	32.03740000	12.21087000
159.89999068	0.00000000	31.66215000	12.58612000
160.09999067	0.00000000	31.61909000	12.62918000
160.29999066	0.00000000	31.61909000	12.58612000
160.49999065	0.00000000	31.61909000	12.21087000
160.69999064	0.00000000	31.61909000	11.46653000
160.89999062	0.00000000	31.66215000	11.09129000
161.09999061	0.00000000	31.99434000	11.04823000
161.29999060	0.00000000	32.36343000	11.04823000
161.49999059	0.00000000	31.99434000	11.04823000
161.69999058	0.00000000	31.66215000	11.04823000
161.89999056	0.00000000	31.61909000	11.04823000
162.09999055	0.00000000	31.61909000	11.04823000
162.29999054	0.00000000	31.66215000	11.04823000
162.49999053	0.00000000	31.99434000	11.04823000
162.69999052	0.00000000	32.36343000	11.09129000
162.89999051	0.00000000	31.99434000	11.46653000
163.09999049	0.00000000	31.66215000	12.16166000
163.29999048	0.00000000	31.61909000	12.16166000
163.49999047	0.00000000	31.61909000	11.46653000
163.69999046	0.00000000	31.61909000	11.09129000
163.89999045	0.00000000	31.61909000	11.04823000
164.09999043	0.00000000	31.61909000	11.04823000
164.29999042	0.00000000	31.61909000	11.04823000
164.49999041	0.00000000	31.61909000	11.04823000
164.69999040	0.00000000	31.61909000	11.04823000
164.89999039	0.00000000	31.66215000	11.04823000
165.09999037	0.00000000	31.99434000	11.00517000
165.29999036	0.00000000	32.40649000	10.67298000
165.49999035	0.00000000	32.41265000	10.35310000
165.69999034	0.00000000	32.78174000	11.09744000
165.89999033	0.00000000	32.73252000	12.11860000
166.09999032	0.00000000	32.03740000	12.16166000
166.29999030	0.00000000	31.66215000	11.51575000
166.49999029	0.00000000	31.61909000	11.51575000
166.69999028	0.00000000	31.61909000	12.16166000
166.89999027	0.00000000	31.61909000	12.16166000
167.09999026	0.00000000	31.61909000	11.46653000
167.29999024	0.00000000	31.61909000	11.09129000
167.49999023	0.00000000	31.61909000	11.04823000
167.69999022	0.00000000	31.61909000	11.04823000
167.89999021	0.00000000	31.66215000	11.04823000
168.09999020	0.00000000	31.99434000	11.04823000
168.29999018	0.00000000	32.40649000	11.04823000
168.49999017	0.00000000	32.41265000	11.09129000
168.69999016	0.00000000	32.78174000	11.42347000
168.89999015	0.00000000	32.73252000	11.79257000
169.09999014	0.00000000	32.03740000	11.42347000
169.29999013	0.00000000	31.66215000	11.09129000
169.49999011	0.00000000	31.61909000	11.04823000
169.69999010	0.00000000	31.66215000	11.09129000
169.89999009	0.00000000	31.99434000	11.42347000
170.09999008	0.00000000	32.36343000	11.79257000
170.29999007	0.00000000	31.99434000	11.42347000
170.49999005	0.00000000	31.66215000	11.09129000
170.69999004	0.00000000	31.61909000	11.04823000
170.89999003	0.00000000	31.66215000	11.04823000
171.09999002	0.00000000	31.99434000	11.04823000
171.29999001	0.00000000	32.40649000	11.04823000
171.49998999	0.00000000	32.36959000	11.04823000
171.69998998	0.00000000	32.40649000	11.04823000
171.89998997	0.00000000	31.99434000	11.04823000
172.09998996	0.00000000	31.66215000	11.04823000
172.29998995	0.00000000	31.61909000	11.04823000
172.49998994	0.00000000	31.61909000	11.04823000
172.69998992	0.00000000	31.61909000	11.04823000
172.89998991	0.00000000	31.61909000	11.04823000
173.09998990	0.00000000	31.61909000	11.04823000
173.29998989	0.00000000	31.61909000	11.04823000
173.49998988	0.00000000	31.61909000	11.04823000
173.69998986	0.00000000	31.61909000	11.00517000
173.89998985	0.00000000	31.61909000	10.67298000
174.09998984	0.00000000	31.61909000	10.31004000
174.29998983	0.00000000	31.61909000	10.67298000
174.49998982	0.00000000	31.61909000	11.00517000
174.69998980	0.00000000	31.61909000	11.04823000
174.89998979	0.00000000	31.61909000	11.04823000
175.09998978	0.00000000	31.61909000	11.04823000
175.29998977	0.00000000	31.61909000	11.04823000
175.49998976	0.00000000	31.61909000	11.04823000
175.69998975	0.00000000	31.61909000	11.04823000
175.89998973	0.00000000	31.61909000	11.04823000
176.09998972	0.00000000	31.61909000	11.04823000
176.29998971	0.00000000	31.61909000	11.04823000
176.49998970	0.00000000	31.61909000	11.04823000
176.69998969	0.00000000	31.61909000	11.04823000
176.89998967	0.00000000	31.61909000	11.04823000
177.09998966	0.00000000	31.61909000	11.04823000
177.29998965	0.00000000	31.61909000	11.04823000
177.49998964	0.00000000	31.61909000	11.04823000
177.69998963	0.00000000	31.61909000	11.04823000
177.89998961	0.00000000	31.61909000	11.04823000
178.09998960	0.00000000	31.61909000	11.04823000
178.29998959	0.00000000	31.61909000	11.04823000
178.49998958	0.00000000	31.61909000	11.04823000
178.69998957	0.00000000	31.61909000	11.04823000
178.89998956	0.00000000	31.61909000	11.09129000
179.09998954	0.00000000	31.61909000	11.42347000
179.29998953	0.00000000	31.61909000	11.83563000
179.49998952	0.00000000	31.61909000	11.79872000
179.69998951	0.00000000	31.61909000	11.83563000
179.89998950	0.00000000	31.61909000	11.42347000
180.09998948	0.00000000	31.61909000	11.09129000
180.29998947	0.00000000	31.61909000	11.04823000
180.49998946	0.00000000	31.61909000	11.04823000
180.69998945	0.00000000	31.61909000	11.04823000
180.89998944	0.00000000	31.61909000	11.04823000
181.09998942	0.00000000	31.61909000	11.04823000
181.29998941	0.00000000	31.61909000	11.04823000
181.49998940	0.00000000	31.61909000	11.04823000
181.69998939	0.00000000	31.61909000	11.09129000
181.89998938	0.00000000	31.61909000	11.42347000
182.09998937	0.00000000	31.61909000	11.79257000
182.29998935	0.00000000	31.61909000	11.46653000
182.49998934	0.00000000	31.61909000	11.46653000
182.69998933	0.00000000	31.61909000	11.79257000
182.89998932	0.00000000	31.61909000	11.42347000
183.09998931	0.00000000	31.61909000	11.09129000
183.29998929	0.00000000	31.61909000	11.04823000
183.49998928	0.00000000	31.61909000	11.04823000
183.69998927	0.00000000	31.61909000	11.04823000
183.89998926	0.00000000	31.61909000	11.04823000
184.09998925	0.00000000	31.61909000	11.04823000
184.29998923	0.00000000	31.61909000	11.09129000
184.49998922	0.00000000	31.61909000	11.46653000
184.69998921	0.00000000	31.61909000	12.21087000
184.89998920	0.00000000	31.61909000	12.58612000
185.09998919	0.00000000	31.61909000	12.62918000
185.29998918	0.00000000	31.61909000	12.58612000
185.49998916	0.00000000	31.61909000	12.21087000
185.69998915	0.00000000	31.61909000	11.46653000
185.89998914	0.00000000	31.61909000	11.09129000
186.09998913	0.00000000	31.61909000	11.04823000
186.29998912	0.00000000	31.61909000	11.04823000
186.49998910	0.00000000	31.61909000	11.04823000
186.69998909	0.00000000	31.61909000	11.04823000
186.89998908	0.00000000	31.61909000	11.04823000
187.09998907	0.00000000	31.61909000	11.04823000
187.29998906	0.00000000	31.61909000	11.04823000
187.49998904	0.00000000	31.61909000	11.04823000
187.69998903	0.00000000	31.61909000	11.09129000
187.89998902	0.00000000	31.61909000	11.46653000
188.09998901	0.00000000	31.61909000	12.16166000
188.29998900	0.00000000	31.61909000	12.16166000
188.49998899	0.00000000	31.61909000	11.46653000
188.69998897	0.00000000	31.61909000	11.09129000
188.89998896	0.00000000	31.61909000	11.04823000
189.09998895	0.00000000	31.61909000	11.00517000
189.29998894	0.00000000	31.61909000	10.67298000
189.49998893	0.00000000	31.61909000	10.31004000
189.69998891	0.00000000	31.61909000	10.67298000
189.89998890	0.00000000	31.61909000	11.00517000
190.09998889	0.00000000	31.57603000	11.04823000
190.29998888	0.00000000	31.24384000	11.09129000
190.49998887	0.00000000	30.87475000	11.42347000
190.69998885	0.00000000	31.24384000	11.83563000
190.89998884	0.00000000	31.57603000	11.84178000
191.09998883	0.00000000	31.61909000	12.21087000
191.29998882	0.00000000	31.61909000	12.16166000
191.49998881	0.00000000	31.61909000	11.46653000
191.69998880	0.00000000	31.61909000	11.09129000
191.89998878	0.00000000	31.61909000	11.04823000
192.09998877	0.00000000	31.61909000	11.04823000
192.29998876	0.00000000	31.61909000	11.04823000
192.49998875	0.00000000	31.61909000	11.04823000
192.69998874	0.00000000	31.61909000	11.04823000
192.89998872	0.00000000	31.61909000	11.04823000
193.09998871	0.00000000	31.61909000	11.04823000
193.29998870	0.00000000	31.61909000	11.04823000
193.49998869	0.00000000	31.61909000	11.04823000
193.69998868	0.00000000	31.61909000	11.04823000
193.89998866	0.00000000	31.61909000	11.04823000
194.09998865	0.00000000	31.61909000	11.04823000
194.29998864	0.00000000	31.61909000	11.04823000
194.49998863	0.00000000	31.61909000	11.04823000
194.69998862	0.00000000	31.61909000	11.04823000
194.89998861	0.00000000	31.61909000	11.04823000
195.09998859	0.00000000	31.61909000	11.04823000
195.29998858	0.00000000	31.61909000	11.04823000
195.49998857	0.00000000	31.61909000	11.04823000
195.69998856	0.00000000	31.57603000	11.04823000
195.89998855	0.00000000	31.20078000	11.04823000
196.09998853	0.00000000	30.45644000	11.04823000
