Time	Channel A	Channel B	Channel C
(us)	(V)	(mV)	(mV)

-4.49999956	0.00000000	-47.43479000	-17.40895000
-4.29999957	0.00000000	-47.43479000	-17.36589000
-4.09999958	0.00000000	-47.43479000	-17.36589000
-3.89999959	0.00000000	-47.43479000	-17.36589000
-3.69999960	0.00000000	-47.43479000	-17.36589000
-3.49999962	0.00000000	-47.43479000	-17.36589000
-3.29999963	0.00000000	-47.43479000	-17.36589000
-3.09999964	0.00000000	-47.43479000	-17.36589000
-2.89999965	0.00000000	-47.43479000	-17.36589000
-2.69999966	0.00000000	-47.43479000	-17.36589000
-2.49999968	0.00000000	-47.43479000	-17.36589000
-2.29999969	0.00000000	-47.43479000	-17.36589000
-2.09999970	0.00000000	-47.43479000	-17.36589000
-1.89999971	0.00000000	-47.43479000	-17.36589000
-1.69999972	0.00000000	-47.43479000	-17.36589000
-1.49999973	0.00000000	-47.43479000	-17.36589000
-1.29999975	0.00000000	-47.43479000	-17.36589000
-1.09999976	0.00000000	-47.43479000	-17.36589000
-0.89999977	0.00000000	-47.43479000	-17.36589000
-0.69999978	0.00000000	-47.43479000	-17.36589000
-0.49999979	0.00000000	-47.43479000	-17.36589000
-0.29999981	0.31803640	-47.43479000	-17.36589000
-0.09999982	0.63668800	-47.43479000	-17.36589000
0.10000017	0.95533960	-47.43479000	-17.36589000
0.30000016	0.95533960	-47.43479000	-17.36589000
0.50000015	0.79601380	-47.43479000	-17.36589000
0.70000013	0.31803640	-47.43479000	-17.36589000
0.90000012	-0.63668800	-47.43479000	-17.36589000
1.10000011	-1.59264300	-47.43479000	-17.36589000
1.30000010	-2.38927200	-47.43479000	-17.36589000
1.50000009	-2.70792300	-47.43479000	-17.36589000
1.70000008	-2.38927200	-47.43479000	-17.36589000
1.90000006	-1.11466500	-47.43479000	-17.36589000
2.10000005	0.79601380	-47.43479000	-17.36589000
2.30000004	2.86724900	-47.43479000	-17.36589000
2.50000003	4.61921700	-47.43479000	-17.36589000
2.70000002	5.41584600	-47.43479000	-17.36589000
2.90000000	4.77854300	-47.43479000	-17.40895000
3.09999999	2.70792300	-47.43479000	-17.78420000
3.29999998	-0.31803640	-47.43479000	-18.47933000
3.49999997	-3.82258900	-47.43479000	-18.47933000
3.69999996	-6.69045300	-47.43479000	-17.78420000
3.89999994	-7.96444400	-47.43479000	-17.40895000
4.09999993	-7.32714100	-47.43479000	-17.36589000
4.29999992	-4.77854300	-47.43479000	-17.36589000
4.49999991	-0.79601380	-47.43479000	-17.36589000
4.69999990	3.66326300	-47.43479000	-17.36589000
4.89999989	7.48646600	-47.43479000	-17.36589000
5.09999987	9.23905000	-47.43479000	-17.40895000
5.29999986	8.92039900	-47.43479000	-17.78420000
5.49999985	6.37180100	-47.43479000	-18.52854000
5.69999984	1.91129400	-47.43479000	-18.90379000
5.89999983	-2.86724900	-47.43479000	-18.90379000
6.09999981	-6.84916400	-47.43479000	-18.52854000
6.29999980	-9.23905000	-47.43479000	-17.78420000
6.49999979	-9.23905000	-47.43479000	-17.40895000
6.69999978	-6.84916400	-47.43479000	-17.36589000
6.89999977	-3.02657500	-47.43479000	-17.36589000
7.09999975	1.43331700	-47.43479000	-17.36589000
7.29999974	5.09719500	-47.43479000	-17.36589000
7.49999973	7.32714100	-47.43479000	-17.40895000
7.69999972	7.64579200	-47.43479000	-17.74114000
7.89999971	6.05315000	-47.43479000	-18.15330000
8.09999970	3.18590100	-47.43479000	-18.11639000
8.29999968	-0.15871060	-47.43479000	-18.15330000
8.49999967	-3.02657500	-47.43479000	-17.74114000
8.69999966	-4.77854300	-47.43479000	-17.40895000
8.89999965	-5.09719500	-47.43479000	-17.36589000
9.09999964	-4.30056600	-47.43479000	-17.36589000
9.29999962	-2.54859700	-47.43479000	-17.36589000
9.49999961	-0.47736220	-47.43479000	-17.36589000
9.69999960	1.27399100	-47.43479000	-17.36589000
9.89999959	2.22994600	-47.43479000	-17.36589000
10.09999958	2.54859700	-47.43479000	-17.36589000
10.29999956	2.22994600	-47.43479000	-17.36589000
10.49999955	1.43331700	-47.39173000	-17.36589000
10.69999954	0.47736220	-47.05954000	-17.40895000
10.89999953	-0.31803640	-46.69045000	-17.74114000
11.09999952	-0.79601380	-47.05954000	-18.11024000
11.29999951	-0.95533960	-47.39173000	-17.74114000
11.49999949	-0.95533960	-47.43479000	-17.40895000
11.69999948	-0.63668800	-47.43479000	-17.36589000
11.89999947	-0.31803640	-47.43479000	-17.36589000
12.09999946	-0.15871060	-47.43479000	-17.36589000
12.29999945	-0.15871060	-47.43479000	-17.36589000
12.49999943	0.00000000	-47.43479000	-17.36589000
12.69999942	0.00000000	-47.43479000	-17.36589000
12.89999941	0.00000000	-47.43479000	-17.36589000
13.09999940	0.00000000	-47.43479000	-17.36589000
13.29999939	0.00000000	-47.43479000	-17.36589000
13.49999937	0.00000000	-47.39173000	-17.36589000
13.69999936	0.00000000	-47.05954000	-17.36589000
13.89999935	0.00000000	-46.69045000	-17.36589000
14.09999934	-0.15871060	-47.05954000	-17.36589000
14.29999933	-0.15871060	-47.39173000	-17.36589000
14.49999932	-0.15871060	-47.43479000	-17.36589000
14.69999930	-0.15871060	-47.43479000	-17.36589000
14.89999929	0.00000000	-47.43479000	-17.36589000
15.09999928	0.00000000	-47.43479000	-17.36589000
15.29999927	0.00000000	-47.43479000	-17.36589000
15.49999926	0.00000000	-47.43479000	-17.36589000
15.69999924	0.00000000	-47.43479000	-17.36589000
15.89999923	0.00000000	-47.43479000	-17.36589000
16.09999922	0.00000000	-47.43479000	-17.36589000
16.29999921	-0.15871060	-47.43479000	-17.36589000
16.49999920	-0.15871060	-47.39173000	-17.36589000
16.69999919	-0.15871060	-47.01648000	-17.36589000
16.89999917	-0.15871060	-46.27214000	-17.36589000
17.09999916	0.00000000	-45.89690000	-17.36589000
17.29999915	0.00000000	-45.81078000	-17.36589000
17.49999914	0.00000000	-45.47859000	-17.36589000
17.69999913	0.00000000	-45.15871000	-17.36589000
17.89999911	0.00000000	-45.89690000	-17.36589000
18.09999910	0.00000000	-47.05954000	-17.36589000
18.29999909	0.00000000	-48.27140000	-17.36589000
18.49999908	0.00000000	-50.17839000	-17.36589000
18.69999907	-0.15871060	-51.66707000	-17.36589000
18.89999905	0.00000000	-52.08538000	-17.36589000
19.09999904	0.00000000	-51.66707000	-17.36589000
19.29999903	0.00000000	-50.08612000	-17.36589000
19.49999902	0.00000000	-47.34252000	-17.36589000
19.69999901	0.00000000	-43.85457000	-17.36589000
19.89999900	0.00000000	-39.99754000	-17.36589000
20.09999898	0.00000000	-36.92175000	-17.36589000
20.29999897	0.00000000	-35.43307000	-17.36589000
20.49999896	0.00000000	-36.26968000	-17.36589000
20.69999895	0.00000000	-40.21899000	-17.36589000
20.89999894	0.00000000	-46.78272000	-17.36589000
21.09999892	0.00000000	-54.87204000	-17.36589000
21.29999891	0.00000000	-62.18011000	-17.36589000
21.49999890	0.00000000	-66.79379000	-17.36589000
21.69999889	0.00000000	-67.48892000	-17.40895000
21.89999888	0.00000000	-63.16436000	-17.74114000
22.09999886	0.00000000	-54.27534000	-18.11024000
22.29999885	0.00000000	-42.64272000	-17.74114000
22.49999884	0.00000000	-30.64099000	-17.40895000
22.69999883	0.00000000	-20.63238000	-17.36589000
22.89999882	0.00000000	-15.37278000	-17.36589000
23.09999881	0.00000000	-17.37820000	-17.32283000
23.29999879	0.00000000	-27.04847000	-16.94759000
23.49999878	0.00000000	-42.17519000	-16.20325000
23.69999877	0.00000000	-59.94709000	-15.82800000
23.89999876	0.00000000	-76.51328000	-15.78494000
24.09999875	0.00000000	-87.26623000	-15.82800000
24.29999873	0.00000000	-89.49926000	-16.25246000
24.49999872	0.00000000	-81.68060000	-17.40895000
24.69999871	0.00000000	-64.69611000	-18.94685000
24.89999870	0.00000000	-42.69193000	-20.52780000
25.09999869	0.00000000	-20.68159000	-22.05955000
25.29999867	0.00000000	-3.74630900	-23.17298000
25.49999866	0.00000000	3.55561000	-23.12992000
25.69999865	0.00000000	-0.67667320	-21.54897000
25.89999864	0.00000000	-15.37894000	-18.43627000
26.09999863	0.00000000	-37.47539000	-14.21014000
26.29999862	0.00000000	-62.55536000	-9.98400600
26.49999860	0.00000000	-84.84251000	-6.91437000
26.69999859	0.00000000	-97.96997000	-5.75172200
26.89999858	0.00000000	-98.84965000	-7.00049200
27.09999857	0.00000000	-88.42888000	-10.90674000
27.29999856	0.00000000	-69.06988000	-17.45817000
27.49999854	0.00000000	-44.74040000	-24.79700000
27.69999853	0.00000000	-21.19217000	-31.39763000
27.89999852	0.00000000	-3.78937000	-36.36811000
28.09999851	0.00000000	3.55561000	-37.81373000
28.29999850	0.00000000	-0.62746060	-34.65182000
28.49999848	0.00000000	-14.86836000	-26.93774000
28.69999847	0.00000000	-35.34079000	-16.11712000
28.89999846	0.00000000	-57.35113000	-4.91510800
29.09999845	0.00000000	-75.95348000	4.74286400
29.29999844	0.00000000	-87.21702000	10.45768000
29.49999843	0.00000000	-89.58538000	10.41462000
29.69999841	0.00000000	-82.65871000	4.18922200
29.89999840	0.00000000	-68.41782000	-7.42495000
30.09999839	0.00000000	-50.63976000	-22.10261000
30.29999838	0.00000000	-33.23696000	-36.78642000
30.49999837	0.00000000	-20.02953000	-48.31446000
30.69999835	0.00000000	-13.37352000	-53.65403000
30.89999834	0.00000000	-13.70571000	-50.95964000
31.09999833	0.00000000	-20.68159000	-40.92643000
31.29999832	0.00000000	-32.59719000	-25.82431000
31.49999831	0.00000000	-46.50590000	-8.44611200
31.69999829	0.00000000	-58.93208000	7.39419200
31.89999828	0.00000000	-67.90723000	18.17790000
32.09999827	0.00000000	-72.18872000	21.65354000
32.29999826	0.00000000	-71.02608000	16.64001000
32.49999825	0.00000000	-64.88066000	4.69980300
32.69999824	0.00000000	-55.24729000	-11.55881000
32.89999822	0.00000000	-44.78346000	-28.98007000
33.09999821	0.00000000	-35.47613000	-44.03912000
33.29999820	0.00000000	-28.91855000	-53.70325000
33.49999819	0.00000000	-27.00541000	-55.61023000
33.69999818	0.00000000	-29.98893000	-49.47096000
33.89999816	0.00000000	-36.50344000	-36.74335000
34.09999815	0.00000000	-44.22982000	-20.52780000
34.29999814	0.00000000	-51.62401000	-4.26304100
34.49999813	0.00000000	-57.39419000	8.88287400
34.69999812	0.00000000	-60.08858000	16.17864000
34.89999810	0.00000000	-58.97515000	15.84646000
35.09999809	0.00000000	-54.78592000	8.18774500
35.29999808	0.00000000	-49.01575000	-4.17691900
35.49999807	0.00000000	-43.24557000	-18.90379000
35.69999806	0.00000000	-38.97022000	-33.12008000
35.89999805	0.00000000	-37.05708000	-43.11023000
36.09999803	0.00000000	-37.80758000	-46.22293000
36.29999802	0.00000000	-41.24631000	-42.08292000
36.49999801	0.00000000	-45.85384000	-32.46801000
36.69999800	0.00000000	-50.50443000	-20.15256000
36.89999799	0.00000000	-54.31840000	-7.84325700
37.09999797	0.00000000	-55.85630000	0.98425190
37.29999796	0.00000000	-54.69365000	4.14000900
37.49999795	0.00000000	-51.24877000	1.45177200
37.69999794	0.00000000	-46.27214000	-6.21924200
37.89999793	0.00000000	-41.66461000	-16.90453000
38.09999791	0.00000000	-38.54576000	-26.84547000
38.29999790	0.00000000	-37.34006000	-33.02780000
38.49999789	0.00000000	-38.12746000	-34.19045000
38.69999788	0.00000000	-40.45890000	-30.00738000
38.89999787	0.00000000	-44.36515000	-21.96727000
39.09999786	0.00000000	-48.92347000	-12.76452000
39.29999784	0.00000000	-52.82972000	-4.73056000
39.49999783	0.00000000	-55.16117000	-0.54749010
39.69999782	0.00000000	-55.94857000	-1.66092500
39.89999781	0.00000000	-54.78592000	-7.41879900
40.09999780	0.00000000	-52.08538000	-16.25246000
40.29999778	0.00000000	-48.54823000	-25.82431000
40.49999777	0.00000000	-44.27288000	-33.12008000
40.69999776	0.00000000	-40.12672000	-36.18971000
40.89999775	0.00000000	-37.76451000	-34.23351000
41.09999774	0.00000000	-37.66609000	-27.35605000
41.29999772	0.00000000	-38.45964000	-17.78420000
41.49999771	0.00000000	-40.45890000	-8.53838500
41.69999770	0.00000000	-43.94069000	-1.61786400
41.89999769	0.00000000	-47.81004000	1.07652500
42.09999768	0.00000000	-51.66707000	-1.19955700
42.29999767	0.00000000	-54.36761000	-7.28346400
42.49999765	0.00000000	-55.16117000	-15.40969000
42.69999764	0.00000000	-54.41068000	-23.45595000
42.89999763	0.00000000	-52.08538000	-29.67520000
43.09999762	0.00000000	-49.01575000	-32.37574000
43.29999761	0.00000000	-45.94611000	-31.63140000
43.49999759	0.00000000	-43.57775000	-27.40526000
43.69999758	0.00000000	-42.40895000	-20.94611000
43.89999757	0.00000000	-41.94759000	-14.76378000
44.09999756	0.00000000	-42.35974000	-10.07013000
44.29999755	0.00000000	-43.06717000	-7.37573800
44.49999753	0.00000000	-43.85457000	-7.33267600
44.69999752	0.00000000	-44.22982000	-9.60875900
44.89999751	0.00000000	-44.27288000	-13.04749000
45.09999750	0.00000000	-44.31594000	-16.94759000
45.29999749	0.00000000	-44.74040000	-20.39247000
45.49999748	0.00000000	-45.94611000	-22.75467000
45.69999746	0.00000000	-47.90231000	-23.50517000
45.89999745	0.00000000	-50.59670000	-22.75467000
46.09999744	0.00000000	-53.29109000	-20.43553000
46.29999743	0.00000000	-55.20423000	-17.41511000
46.49999742	0.00000000	-55.89936000	-14.72072000
46.69999740	0.00000000	-54.27534000	-13.13976000
46.89999739	0.00000000	-50.04306000	-12.67224000
47.09999738	0.00000000	-44.22982000	-12.72146000
47.29999737	0.00000000	-38.08440000	-13.55807000
47.49999736	0.00000000	-33.05856000	-15.87721000
47.69999734	0.00000000	-30.81939000	-18.89764000
47.89999733	0.00000000	-31.98819000	-21.59203000
48.09999732	0.00000000	-37.05708000	-23.12992000
48.29999731	0.00000000	-44.74040000	-23.17298000
48.49999730	0.00000000	-53.24803000	-22.01649000
48.69999729	0.00000000	-60.55610000	-20.06029000
48.89999727	0.00000000	-64.78838000	-17.32283000
49.09999726	0.00000000	-64.74532000	-14.25320000
49.29999725	0.00000000	-60.08858000	-11.60187000
49.49999724	0.00000000	-51.62401000	-10.44537000
49.69999723	0.00000000	-41.62155000	-11.18356000
49.89999721	0.00000000	-32.77559000	-13.09055000
50.09999720	0.00000000	-27.38066000	-15.87721000
50.29999719	0.00000000	-26.95620000	-19.32210000
50.49999718	0.00000000	-31.19464000	-22.79773000
50.69999717	0.00000000	-38.92101000	-25.08612000
50.89999715	0.00000000	-48.50517000	-25.86737000
51.09999714	0.00000000	-56.96973000	-24.66166000
51.29999713	0.00000000	-62.04478000	-21.59203000
51.49999712	0.00000000	-63.16436000	-17.36589000
51.69999711	0.00000000	-59.71333000	-13.13976000
51.89999710	0.00000000	-52.41756000	-10.02707000
52.09999708	0.00000000	-43.98991000	-8.48917200
52.29999707	0.00000000	-36.26968000	-8.86441900
52.49999706	0.00000000	-31.70521000	-11.18356000
52.69999705	0.00000000	-31.61294000	-14.67150000
52.89999704	0.00000000	-35.47613000	-18.90379000
53.09999702	0.00000000	-41.99680000	-22.71161000
53.29999701	0.00000000	-49.66781000	-24.61860000
53.49999700	0.00000000	-55.81324000	-24.29257000
53.69999699	0.00000000	-58.92593000	-22.01649000
53.89999698	0.00000000	-58.55069000	-18.94685000
54.09999696	0.00000000	-54.69365000	-15.87721000
54.29999695	0.00000000	-48.59744000	-13.55807000
54.49999694	0.00000000	-42.03986000	-12.76452000
54.69999693	0.00000000	-37.05708000	-13.09670000
54.89999692	0.00000000	-34.73179000	-14.29626000
55.09999691	0.00000000	-35.89444000	-16.20325000
55.29999689	0.00000000	-40.08366000	-18.43627000
55.49999688	0.00000000	-45.81078000	-19.55585000
55.69999687	0.00000000	-51.24877000	-18.85458000
55.89999686	0.00000000	-55.11196000	-17.36589000
56.09999685	0.00000000	-57.01894000	-15.78494000
56.29999683	0.00000000	-55.81324000	-14.29626000
56.49999682	0.00000000	-51.66707000	-13.60113000
56.69999681	0.00000000	-46.32135000	-14.76378000
56.89999680	0.00000000	-41.66461000	-17.41511000
57.09999679	0.00000000	-38.54576000	-20.47859000
57.29999677	0.00000000	-37.38927000	-23.17298000
57.49999676	0.00000000	-38.54576000	-24.71087000
57.69999675	0.00000000	-41.57849000	-24.66781000
57.89999674	0.00000000	-45.43553000	-22.66855000
58.09999673	0.00000000	-48.88041000	-18.43627000
58.29999672	0.00000000	-51.24877000	-13.13976000
58.49999670	0.00000000	-51.99926000	-8.90747900
58.69999669	0.00000000	-51.29183000	-6.95743000
58.89999668	0.00000000	-49.34793000	-7.37573800
59.09999667	0.00000000	-47.05954000	-10.48843000
59.29999666	0.00000000	-44.74040000	-15.87721000
59.49999664	0.00000000	-43.20251000	-22.01033000
59.69999663	0.00000000	-42.78420000	-27.39911000
59.89999662	0.00000000	-43.15945000	-30.46875000
60.09999661	0.00000000	-44.27288000	-30.46875000
60.29999660	0.00000000	-45.43553000	-27.35605000
60.49999658	0.00000000	-46.22908000	-21.54897000
60.69999657	0.00000000	-47.01648000	-14.25320000
60.89999656	0.00000000	-47.34252000	-7.33267600
61.09999655	0.00000000	-47.01648000	-2.73129900
61.29999654	0.00000000	-46.22908000	-1.61786400
61.49999653	0.00000000	-45.52165000	-4.68134800
61.69999651	0.00000000	-45.10950000	-11.18356000
61.89999650	0.00000000	-45.47859000	-18.89764000
62.09999649	0.00000000	-45.85384000	-26.24262000
62.29999648	0.00000000	-46.27214000	-31.58218000
62.49999647	0.00000000	-47.01648000	-33.16314000
62.69999645	0.00000000	-47.39173000	-30.88705000
62.89999644	0.00000000	-47.39173000	-25.86737000
63.09999643	0.00000000	-47.01648000	-18.89764000
63.29999642	0.00000000	-46.22908000	-11.55881000
63.49999641	0.00000000	-45.43553000	-5.37647600
63.69999639	0.00000000	-44.27288000	-1.56865100
63.89999638	0.00000000	-43.20251000	-1.56865100
64.09999637	0.00000000	-43.20251000	-5.37647600
64.29999636	0.00000000	-44.31594000	-11.51575000
64.49999635	0.00000000	-45.81078000	-18.43627000
64.69999634	0.00000000	-46.96727000	-24.29257000
64.89999632	0.00000000	-47.39173000	-28.19882000
65.09999631	0.00000000	-47.43479000	-30.14272000
65.29999630	0.00000000	-47.39173000	-29.31225000
65.49999629	0.00000000	-46.96727000	-25.91043000
65.69999628	0.00000000	-45.85384000	-20.89690000
65.89999626	0.00000000	-44.74040000	-15.87721000
66.09999625	0.00000000	-44.36515000	-11.55881000
66.29999624	0.00000000	-44.74040000	-8.48917200
66.49999623	0.00000000	-45.89690000	-7.28346400
66.69999622	0.00000000	-47.39173000	-7.98474400
66.89999620	0.00000000	-48.54823000	-9.51648500
67.09999619	0.00000000	-48.92347000	-11.55881000
67.29999618	0.00000000	-48.50517000	-14.67150000
67.49999617	0.00000000	-46.96727000	-18.47933000
67.69999616	0.00000000	-44.69119000	-21.59203000
67.89999615	0.00000000	-42.73499000	-23.64050000
68.09999613	0.00000000	-41.20325000	-25.17224000
68.29999612	0.00000000	-40.45890000	-25.91043000
68.49999611	0.00000000	-41.28937000	-25.12918000
68.69999610	0.00000000	-43.57775000	-23.17298000
68.89999609	0.00000000	-47.10260000	-20.01722000
69.09999607	0.00000000	-50.92888000	-15.78494000
69.29999606	0.00000000	-54.36761000	-11.51575000
69.49999605	0.00000000	-55.85630000	-8.07086500
69.69999604	0.00000000	-54.74286000	-6.12696800
69.89999603	0.00000000	-51.66707000	-6.53912400
70.09999601	0.00000000	-47.39173000	-8.86441900
70.29999600	0.00000000	-42.69193000	-13.13976000
70.49999599	0.00000000	-38.08440000	-18.52854000
70.69999598	0.00000000	-34.68873000	-23.54823000
70.89999597	0.00000000	-34.31348000	-27.44832000
71.09999596	0.00000000	-36.96481000	-29.26919000
71.29999594	0.00000000	-41.57849000	-28.18651000
71.49999593	0.00000000	-47.01648000	-24.34178000
71.69999592	0.00000000	-52.08538000	-19.73425000
71.89999591	0.00000000	-56.32381000	-14.67766000
72.09999590	0.00000000	-58.59990000	-10.48843000
72.29999588	0.00000000	-57.81250000	-8.48917200
72.49999587	0.00000000	-54.36761000	-8.48917200
72.69999586	0.00000000	-48.97269000	-10.40231000
72.89999585	0.00000000	-43.20251000	-13.79183000
73.09999584	0.00000000	-38.50270000	-16.90453000
73.29999582	0.00000000	-35.43307000	-19.27288000
73.49999581	0.00000000	-34.63951000	-21.22293000
73.69999580	0.00000000	-36.58957000	-21.92421000
73.89999579	0.00000000	-40.41584000	-21.22293000
74.09999578	0.00000000	-45.43553000	-19.32210000
74.29999577	0.00000000	-50.04306000	-17.45817000
74.49999575	0.00000000	-53.20496000	-16.29552000
74.69999574	0.00000000	-54.74286000	-16.25246000
74.89999573	0.00000000	-54.36761000	-16.99065000
75.09999572	0.00000000	-52.04232000	-17.74114000
75.29999571	0.00000000	-48.59744000	-18.47933000
75.49999569	0.00000000	-44.74040000	-18.43627000
75.69999568	0.00000000	-41.70767000	-17.27362000
75.89999567	0.00000000	-40.45890000	-15.36663000
76.09999566	0.00000000	-40.77879000	-13.04749000
76.29999565	0.00000000	-41.57849000	-11.18356000
76.49999563	0.00000000	-43.11023000	-10.44537000
76.69999562	0.00000000	-44.96801000	-11.60187000
76.89999561	0.00000000	-45.81078000	-14.29626000
77.09999560	0.00000000	-46.22908000	-17.78420000
77.29999559	0.00000000	-46.59818000	-21.68430000
77.49999558	0.00000000	-46.22908000	-25.08612000
77.69999556	0.00000000	-45.89690000	-26.98080000
77.89999555	0.00000000	-45.89690000	-26.19955000
78.09999554	0.00000000	-46.27214000	-23.17298000
78.29999553	0.00000000	-47.05954000	-18.90379000
78.49999552	0.00000000	-47.76698000	-14.25320000
78.69999550	0.00000000	-48.12992000	-9.98400600
78.89999549	0.00000000	-47.34252000	-6.91437000
79.09999548	0.00000000	-45.85384000	-5.79478300
79.29999547	0.00000000	-44.27288000	-7.33267600
79.49999546	0.00000000	-42.73499000	-11.18356000
79.69999544	0.00000000	-41.62155000	-16.16018000
79.89999543	0.00000000	-41.62155000	-21.17372000
80.09999542	0.00000000	-42.73499000	-24.66166000
80.29999541	0.00000000	-44.31594000	-26.28568000
80.49999540	0.00000000	-46.32135000	-26.28568000
80.69999539	0.00000000	-48.97269000	-24.71087000
80.89999537	0.00000000	-51.20571000	-21.64124000
81.09999536	0.00000000	-51.62401000	-17.78420000
81.29999535	0.00000000	-50.50443000	-14.29626000
81.49999534	0.00000000	-48.54823000	-11.55881000
81.69999533	0.00000000	-45.85384000	-9.98400600
81.89999531	0.00000000	-43.15945000	-9.56569900
82.09999530	0.00000000	-41.24631000	-9.98400600
82.29999529	0.00000000	-40.45890000	-11.55881000
82.49999528	0.00000000	-41.20325000	-14.21014000
82.69999527	0.00000000	-42.73499000	-16.94759000
82.89999525	0.00000000	-44.69119000	-19.32210000
83.09999524	0.00000000	-46.96727000	-21.68430000
83.29999523	0.00000000	-48.50517000	-23.59129000
83.49999522	0.00000000	-48.92347000	-24.71087000
83.69999521	0.00000000	-48.59744000	-24.29257000
83.89999520	0.00000000	-47.81004000	-22.01649000
84.09999518	0.00000000	-47.01648000	-18.89764000
84.29999517	0.00000000	-45.85384000	-15.40969000
84.49999516	0.00000000	-44.74040000	-11.93405000
84.69999515	0.00000000	-44.31594000	-9.60875900
84.89999514	0.00000000	-44.27288000	-8.44611200
85.09999512	0.00000000	-44.27288000	-8.86441900
85.29999511	0.00000000	-44.27288000	-11.18356000
85.49999510	0.00000000	-44.27288000	-14.67150000
85.69999509	0.00000000	-44.27288000	-18.94685000
85.89999508	0.00000000	-44.27288000	-23.12992000
86.09999506	0.00000000	-44.27288000	-25.82431000
86.29999505	0.00000000	-44.36515000	-26.24262000
86.49999504	0.00000000	-45.10950000	-24.71087000
86.69999503	0.00000000	-46.59818000	-21.59203000
86.89999502	0.00000000	-47.39173000	-17.32283000
87.09999501	0.00000000	-47.81004000	-12.72146000
87.29999499	0.00000000	-48.17913000	-8.90747900
87.49999498	0.00000000	-47.76698000	-7.37573800
87.69999497	0.00000000	-46.96727000	-8.48917200
87.89999496	0.00000000	-45.43553000	-11.55881000
88.09999495	0.00000000	-43.57775000	-15.83415000
88.29999493	0.00000000	-42.78420000	-20.43553000
88.49999492	0.00000000	-42.73499000	-24.29257000
88.69999491	0.00000000	-43.15945000	-26.19955000
88.89999490	0.00000000	-44.31594000	-25.82431000
89.09999489	0.00000000	-45.81078000	-23.08686000
89.29999487	0.00000000	-47.01648000	-18.47933000
89.49999486	0.00000000	-47.76698000	-13.13976000
89.69999485	0.00000000	-48.17913000	-8.90747900
89.89999484	0.00000000	-47.76698000	-6.95743000
90.09999483	0.00000000	-47.01648000	-7.37573800
90.29999482	0.00000000	-45.85384000	-10.44537000
90.49999480	0.00000000	-44.74040000	-15.41585000
90.69999479	0.00000000	-44.31594000	-20.43553000
90.89999478	0.00000000	-44.27288000	-24.66781000
91.09999477	0.00000000	-44.27288000	-26.93774000
91.29999476	0.00000000	-44.31594000	-26.15034000
91.49999474	0.00000000	-44.64813000	-22.75467000
91.69999473	0.00000000	-45.01722000	-17.74114000
91.89999472	0.00000000	-44.64813000	-12.76452000
92.09999471	0.00000000	-44.31594000	-8.90747900
92.29999470	0.00000000	-44.27288000	-7.37573800
92.49999468	0.00000000	-44.31594000	-8.48917200
92.69999467	0.00000000	-44.74040000	-11.60187000
92.89999466	0.00000000	-45.85384000	-16.20325000
93.09999465	0.00000000	-47.01648000	-21.17372000
93.29999464	0.00000000	-47.81004000	-24.61860000
93.49999463	0.00000000	-48.54823000	-25.82431000
93.69999461	0.00000000	-48.50517000	-24.66166000
93.89999460	0.00000000	-47.39173000	-21.59203000
94.09999459	0.00000000	-45.81078000	-17.32283000
94.29999458	0.00000000	-43.85457000	-12.76452000
94.49999457	0.00000000	-41.57849000	-9.33193800
94.69999455	0.00000000	-40.04060000	-8.53838500
94.89999454	0.00000000	-39.66535000	-10.02707000
95.09999453	0.00000000	-40.45890000	-13.13976000
95.29999452	0.00000000	-42.78420000	-17.32283000
95.49999451	0.00000000	-45.85384000	-21.13066000
95.69999449	0.00000000	-48.97269000	-23.08686000
95.89999448	0.00000000	-51.66707000	-23.12992000
96.09999447	0.00000000	-53.16190000	-21.59203000
96.29999446	0.00000000	-52.78666000	-18.89764000
96.49999445	0.00000000	-50.46136000	-15.83415000
96.69999444	0.00000000	-47.01648000	-13.13976000
96.89999442	0.00000000	-43.11023000	-11.60187000
97.09999441	0.00000000	-39.66535000	-11.55881000
97.29999440	0.00000000	-37.34006000	-12.72146000
97.49999439	0.00000000	-36.92175000	-14.62844000
97.69999438	0.00000000	-38.08440000	-16.94759000
97.89999436	0.00000000	-40.45890000	-18.85458000
98.09999435	0.00000000	-44.31594000	-20.06029000
98.29999434	0.00000000	-48.54823000	-20.43553000
98.49999433	0.00000000	-52.04232000	-20.06029000
98.69999432	0.00000000	-54.31840000	-18.90379000
98.89999430	0.00000000	-54.31840000	-17.40895000
99.09999429	0.00000000	-52.08538000	-16.25246000
99.29999428	0.00000000	-48.97269000	-15.82800000
99.49999427	0.00000000	-45.43553000	-15.78494000
99.69999426	0.00000000	-41.57849000	-15.78494000
99.89999425	0.00000000	-38.50270000	-15.74188000
100.09999423	0.00000000	-36.96481000	-15.36663000
100.29999422	0.00000000	-37.29700000	-14.62844000
100.49999421	0.00000000	-39.24704000	-14.30241000
100.69999420	0.00000000	-41.94759000	-14.67150000
100.89999419	0.00000000	-45.43553000	-15.83415000
101.09999417	0.00000000	-48.50517000	-17.32283000
101.29999416	0.00000000	-50.46136000	-18.57160000
101.49999415	0.00000000	-51.29183000	-19.74040000
101.69999414	0.00000000	-50.87967000	-21.22293000
101.89999413	0.00000000	-49.76009000	-21.50590000
102.09999411	0.00000000	-47.76698000	-20.01722000
102.29999410	0.00000000	-45.47859000	-17.36589000
102.49999409	0.00000000	-43.11023000	-14.67150000
102.69999408	0.00000000	-41.20325000	-12.67224000
102.89999407	0.00000000	-40.04060000	-11.14050000
103.09999406	0.00000000	-40.04060000	-10.44537000
103.29999404	0.00000000	-41.20325000	-11.60187000
103.49999403	0.00000000	-43.11023000	-14.25320000
103.69999402	0.00000000	-45.43553000	-17.36589000
103.89999401	0.00000000	-47.39173000	-20.43553000
104.09999400	0.00000000	-48.92347000	-22.75467000
104.29999398	0.00000000	-49.66781000	-23.50517000
104.49999397	0.00000000	-48.97269000	-22.75467000
104.69999396	0.00000000	-47.81004000	-20.43553000
104.89999395	0.00000000	-46.59818000	-17.36589000
105.09999394	0.00000000	-44.69119000	-14.29626000
105.29999392	0.00000000	-43.20251000	-11.97711000
105.49999391	0.00000000	-42.73499000	-11.22662000
105.69999390	0.00000000	-42.73499000	-11.93405000
105.89999389	0.00000000	-43.15945000	-13.87795000
106.09999388	0.00000000	-44.31594000	-16.16018000
106.29999387	0.00000000	-45.81078000	-18.52854000
106.49999385	0.00000000	-46.96727000	-20.39247000
106.69999384	0.00000000	-47.34252000	-21.17372000
106.89999383	0.00000000	-47.01648000	-20.39247000
107.09999382	0.00000000	-46.22908000	-18.52854000
107.29999381	0.00000000	-45.43553000	-16.20325000
107.49999379	0.00000000	-44.27288000	-14.29626000
107.69999378	0.00000000	-43.15945000	-13.13976000
107.89999377	0.00000000	-42.78420000	-13.13976000
108.09999376	0.00000000	-43.15945000	-14.25320000
108.29999375	0.00000000	-44.31594000	-15.78494000
108.49999374	0.00000000	-45.81078000	-17.36589000
108.69999372	0.00000000	-46.96727000	-18.90379000
108.89999371	0.00000000	-47.39173000	-20.01722000
109.09999370	0.00000000	-47.39173000	-20.01722000
109.29999369	0.00000000	-46.96727000	-18.90379000
109.49999368	0.00000000	-45.81078000	-17.36589000
109.69999366	0.00000000	-44.31594000	-15.78494000
109.89999365	0.00000000	-43.15945000	-14.25320000
110.09999364	0.00000000	-42.73499000	-13.13976000
110.29999363	0.00000000	-42.73499000	-13.13976000
110.49999362	0.00000000	-43.15945000	-14.25320000
110.69999360	0.00000000	-44.27288000	-15.78494000
110.89999359	0.00000000	-45.43553000	-17.36589000
111.09999358	0.00000000	-46.22908000	-18.90379000
111.29999357	0.00000000	-47.01648000	-20.06029000
111.49999356	0.00000000	-47.39173000	-20.43553000
111.69999355	0.00000000	-47.39173000	-20.06029000
111.89999353	0.00000000	-46.96727000	-18.90379000
112.09999352	0.00000000	-45.85384000	-17.40895000
112.29999351	0.00000000	-44.74040000	-16.20325000
112.49999350	0.00000000	-44.31594000	-15.40969000
112.69999349	0.00000000	-44.27288000	-14.62844000
112.89999347	0.00000000	-44.27288000	-14.30241000
113.09999346	0.00000000	-44.27288000	-14.62844000
113.29999345	0.00000000	-44.31594000	-15.36663000
113.49999344	0.00000000	-44.69119000	-15.78494000
113.69999343	0.00000000	-45.43553000	-16.20325000
113.89999341	0.00000000	-45.81078000	-16.94759000
114.09999340	0.00000000	-45.85384000	-17.32283000
114.29999339	0.00000000	-45.85384000	-17.40895000
114.49999338	0.00000000	-45.85384000	-17.78420000
114.69999337	0.00000000	-45.81078000	-18.52854000
114.89999336	0.00000000	-45.43553000	-18.90379000
115.09999334	0.00000000	-44.69119000	-18.90379000
115.29999333	0.00000000	-44.31594000	-18.52854000
115.49999332	0.00000000	-44.27288000	-17.74114000
115.69999331	0.00000000	-44.27288000	-16.99065000
115.89999330	0.00000000	-44.27288000	-16.16018000
116.09999328	0.00000000	-44.31594000	-15.40969000
116.29999327	0.00000000	-44.64813000	-14.58538000
116.49999326	0.00000000	-45.06028000	-13.92717000
116.69999325	0.00000000	-45.06644000	-13.88410000
116.89999324	0.00000000	-45.47859000	-15.03445000
117.09999322	0.00000000	-45.76156000	-16.11712000
117.29999321	0.00000000	-45.43553000	-16.99065000
117.49999320	0.00000000	-44.69119000	-17.78420000
117.69999319	0.00000000	-44.27288000	-18.94685000
117.89999318	0.00000000	-43.89763000	-20.01722000
118.09999317	0.00000000	-43.52854000	-20.01722000
118.29999315	0.00000000	-43.94069000	-18.94685000
118.49999314	0.00000000	-44.64813000	-17.78420000
118.69999313	0.00000000	-45.47859000	-16.94759000
118.89999312	0.00000000	-46.22908000	-15.78494000
119.09999311	0.00000000	-47.01648000	-14.67150000
119.29999309	0.00000000	-47.39173000	-14.30241000
119.49999308	0.00000000	-47.39173000	-14.62844000
119.69999307	0.00000000	-46.96727000	-15.36663000
119.89999306	0.00000000	-45.85384000	-15.78494000
120.09999305	0.00000000	-44.69119000	-16.20325000
120.29999303	0.00000000	-43.85457000	-16.94759000
120.49999302	0.00000000	-42.69193000	-17.32283000
120.69999301	0.00000000	-41.62155000	-17.36589000
120.89999300	0.00000000	-41.62155000	-17.36589000
121.09999299	0.00000000	-42.73499000	-17.36589000
121.29999298	0.00000000	-44.22982000	-17.36589000
121.49999296	0.00000000	-45.43553000	-17.36589000
121.69999295	0.00000000	-46.22908000	-17.32283000
121.89999294	0.00000000	-47.01648000	-16.94759000
122.09999293	0.00000000	-47.39173000	-16.20325000
122.29999292	0.00000000	-47.39173000	-15.78494000
122.49999290	0.00000000	-46.96727000	-15.36663000
122.69999289	0.00000000	-45.81078000	-14.67150000
122.89999288	0.00000000	-44.31594000	-14.67150000
123.09999287	0.00000000	-43.15945000	-15.36663000
123.29999286	0.00000000	-42.73499000	-15.74188000
123.49999284	0.00000000	-42.69193000	-15.78494000
123.69999283	0.00000000	-42.69193000	-15.82800000
123.89999282	0.00000000	-42.73499000	-16.20325000
124.09999281	0.00000000	-43.11023000	-16.94759000
124.29999280	0.00000000	-43.89763000	-17.32283000
124.49999279	0.00000000	-44.64813000	-17.36589000
124.69999277	0.00000000	-45.47859000	-17.36589000
124.89999276	0.00000000	-46.22908000	-17.32283000
125.09999275	0.00000000	-46.96727000	-16.94759000
125.29999274	0.00000000	-46.96727000	-16.20325000
125.49999273	0.00000000	-46.22908000	-15.82800000
125.69999271	0.00000000	-45.43553000	-15.78494000
125.89999270	0.00000000	-44.27288000	-15.78494000
126.09999269	0.00000000	-43.11023000	-15.78494000
126.29999268	0.00000000	-42.35974000	-15.78494000
126.49999267	0.00000000	-41.94759000	-15.82800000
126.69999265	0.00000000	-42.35974000	-16.20325000
126.89999264	0.00000000	-43.06717000	-16.94759000
127.09999263	0.00000000	-43.89763000	-17.32283000
127.29999262	0.00000000	-44.69119000	-17.40895000
127.49999261	0.00000000	-45.85384000	-17.74114000
127.69999260	0.00000000	-46.96727000	-18.11024000
127.89999258	0.00000000	-47.39173000	-17.69808000
128.09999257	0.00000000	-47.34252000	-16.99065000
128.29999256	0.00000000	-46.59818000	-16.20325000
128.49999255	0.00000000	-45.06644000	-15.82800000
128.69999254	0.00000000	-43.94069000	-15.78494000
128.89999252	0.00000000	-43.11023000	-15.82800000
129.09999251	0.00000000	-42.78420000	-16.20325000
129.29999250	0.00000000	-43.11023000	-16.94759000
129.49999249	0.00000000	-43.89763000	-17.32283000
129.69999248	0.00000000	-44.64813000	-17.36589000
129.89999246	0.00000000	-45.47859000	-17.36589000
130.09999245	0.00000000	-46.22908000	-17.36589000
130.29999244	0.00000000	-46.96727000	-17.36589000
130.49999243	0.00000000	-46.96727000	-17.32283000
130.69999242	0.00000000	-46.22908000	-16.94759000
130.89999241	0.00000000	-45.47859000	-16.20325000
131.09999239	0.00000000	-44.69119000	-15.82800000
131.29999238	0.00000000	-44.27288000	-15.78494000
131.49999237	0.00000000	-43.85457000	-15.82800000
131.69999236	0.00000000	-43.15945000	-16.20325000
131.89999235	0.00000000	-43.15945000	-16.94759000
132.09999233	0.00000000	-43.89763000	-17.32283000
132.29999232	0.00000000	-44.64813000	-17.40895000
132.49999231	0.00000000	-45.43553000	-17.74114000
132.69999230	0.00000000	-45.81078000	-18.06102000
132.89999229	0.00000000	-45.85384000	-17.32283000
133.09999227	0.00000000	-45.81078000	-16.25246000
133.29999226	0.00000000	-45.43553000	-15.78494000
133.49999225	0.00000000	-44.69119000	-15.36663000
133.69999224	0.00000000	-44.31594000	-14.67150000
133.89999223	0.00000000	-44.27288000	-14.67150000
134.09999222	0.00000000	-44.27288000	-15.40969000
134.29999220	0.00000000	-44.27288000	-16.16018000
134.49999219	0.00000000	-44.27288000	-16.94759000
134.69999218	0.00000000	-44.27288000	-17.32283000
134.89999217	0.00000000	-44.27288000	-17.36589000
135.09999216	0.00000000	-44.27288000	-17.36589000
135.29999214	0.00000000	-44.27288000	-17.36589000
135.49999213	0.00000000	-44.27288000	-17.32283000
135.69999212	0.00000000	-44.31594000	-16.94759000
135.89999211	0.00000000	-44.69119000	-16.20325000
136.09999210	0.00000000	-45.43553000	-15.82800000
136.29999208	0.00000000	-45.81078000	-15.74188000
136.49999207	0.00000000	-45.85384000	-15.40969000
136.69999206	0.00000000	-45.85384000	-15.04675000
136.89999205	0.00000000	-45.81078000	-15.45891000
137.09999204	0.00000000	-45.38631000	-16.16018000
137.29999203	0.00000000	-44.27288000	-16.94759000
137.49999201	0.00000000	-43.15945000	-17.32283000
137.69999200	0.00000000	-42.73499000	-17.40895000
137.89999199	0.00000000	-42.73499000	-17.74114000
138.09999198	0.00000000	-43.11023000	-18.11024000
138.29999197	0.00000000	-43.89763000	-17.74114000
138.49999195	0.00000000	-44.64813000	-17.40895000
138.69999194	0.00000000	-45.43553000	-17.32283000
138.89999193	0.00000000	-45.81078000	-16.94759000
139.09999192	0.00000000	-45.85384000	-16.20325000
139.29999191	0.00000000	-45.81078000	-15.82800000
139.49999189	0.00000000	-45.43553000	-15.78494000
139.69999188	0.00000000	-44.69119000	-15.78494000
139.89999187	0.00000000	-44.31594000	-15.82800000
140.09999186	0.00000000	-44.27288000	-16.20325000
140.29999185	0.00000000	-44.27288000	-16.94759000
140.49999184	0.00000000	-44.27288000	-17.32283000
140.69999182	0.00000000	-44.27288000	-17.40895000
140.89999181	0.00000000	-44.27288000	-17.74114000
141.09999180	0.00000000	-44.31594000	-18.11024000
141.29999179	0.00000000	-44.69119000	-17.69808000
141.49999178	0.00000000	-45.38631000	-16.99065000
141.69999176	0.00000000	-45.38631000	-16.20325000
141.89999175	0.00000000	-44.64813000	-15.78494000
142.09999174	0.00000000	-43.94069000	-15.36663000
142.29999173	0.00000000	-43.52854000	-14.67150000
142.49999172	0.00000000	-43.89763000	-14.67150000
142.69999170	0.00000000	-44.22982000	-15.36663000
142.89999169	0.00000000	-44.27288000	-15.78494000
143.09999168	0.00000000	-44.27288000	-16.20325000
143.29999167	0.00000000	-44.27288000	-16.94759000
143.49999166	0.00000000	-44.27288000	-17.32283000
143.69999165	0.00000000	-44.27288000	-17.36589000
143.89999163	0.00000000	-44.27288000	-17.36589000
144.09999162	0.00000000	-44.27288000	-17.32283000
144.29999161	0.00000000	-44.27288000	-16.94759000
144.49999160	0.00000000	-44.27288000	-16.20325000
144.69999159	0.00000000	-44.27288000	-15.78494000
144.89999157	0.00000000	-44.27288000	-15.36663000
145.09999156	0.00000000	-44.27288000	-14.67150000
145.29999155	0.00000000	-44.27288000	-14.67150000
145.49999154	0.00000000	-44.31594000	-15.40969000
145.69999153	0.00000000	-44.64813000	-16.16018000
145.89999151	0.00000000	-45.06028000	-16.94759000
146.09999150	0.00000000	-45.02337000	-17.32283000
146.29999149	0.00000000	-45.06028000	-17.36589000
146.49999148	0.00000000	-44.60506000	-17.32283000
146.69999147	0.00000000	-43.94069000	-16.99065000
146.89999146	0.00000000	-43.52854000	-16.57849000
147.09999144	0.00000000	-43.89763000	-16.57234000
147.29999143	0.00000000	-44.18061000	-16.16018000
147.49999142	0.00000000	-43.89763000	-15.82800000
147.69999141	0.00000000	-43.57775000	-15.78494000
147.89999140	0.00000000	-44.27288000	-15.78494000
148.09999138	0.00000000	-44.96801000	-15.78494000
148.29999137	0.00000000	-44.64813000	-15.82800000
148.49999136	0.00000000	-44.36515000	-16.20325000
148.69999135	0.00000000	-44.64813000	-16.94759000
148.89999134	0.00000000	-45.01722000	-17.32283000
149.09999132	0.00000000	-44.64813000	-17.36589000
149.29999131	0.00000000	-44.31594000	-17.36589000
149.49999130	0.00000000	-44.22982000	-17.36589000
149.69999129	0.00000000	-43.85457000	-17.32283000
149.89999128	0.00000000	-43.15945000	-16.94759000
150.09999127	0.00000000	-43.15945000	-16.20325000
150.29999125	0.00000000	-43.85457000	-15.82800000
150.49999124	0.00000000	-44.27288000	-15.78494000
150.69999123	0.00000000	-44.64813000	-15.78494000
150.89999122	0.00000000	-45.01722000	-15.78494000
151.09999121	0.00000000	-44.69119000	-15.78494000
151.29999119	0.00000000	-44.69119000	-15.82800000
151.49999118	0.00000000	-45.01722000	-16.20325000
151.69999117	0.00000000	-44.64813000	-16.94759000
151.89999116	0.00000000	-44.31594000	-17.32283000
152.09999115	0.00000000	-44.22982000	-17.36589000
152.29999113	0.00000000	-43.89763000	-17.32283000
152.49999112	0.00000000	-43.52854000	-16.94759000
152.69999111	0.00000000	-43.85457000	-16.20325000
152.89999110	0.00000000	-43.85457000	-15.82800000
153.09999109	0.00000000	-43.52854000	-15.78494000
153.29999108	0.00000000	-43.89763000	-15.78494000
153.49999106	0.00000000	-44.27288000	-15.78494000
153.69999105	0.00000000	-44.69119000	-15.78494000
153.89999104	0.00000000	-45.43553000	-15.78494000
154.09999103	0.00000000	-45.81078000	-15.78494000
154.29999102	0.00000000	-45.85384000	-15.78494000
154.49999100	0.00000000	-45.81078000	-15.82800000
154.69999099	0.00000000	-45.43553000	-16.16018000
154.89999098	0.00000000	-44.69119000	-16.57234000
155.09999097	0.00000000	-44.27288000	-16.57849000
155.29999096	0.00000000	-43.85457000	-16.99065000
155.49999094	0.00000000	-43.15945000	-17.32283000
155.69999093	0.00000000	-43.15945000	-17.32283000
155.89999092	0.00000000	-43.85457000	-16.94759000
156.09999091	0.00000000	-44.22982000	-16.20325000
156.29999090	0.00000000	-44.27288000	-15.82800000
156.49999089	0.00000000	-44.27288000	-15.78494000
156.69999087	0.00000000	-44.31594000	-15.78494000
156.89999086	0.00000000	-44.69119000	-15.78494000
157.09999085	0.00000000	-45.43553000	-15.78494000
157.29999084	0.00000000	-45.76156000	-15.78494000
157.49999083	0.00000000	-45.43553000	-15.82800000
157.69999081	0.00000000	-44.69119000	-16.20325000
157.89999080	0.00000000	-44.31594000	-16.94759000
158.09999079	0.00000000	-44.22982000	-17.32283000
158.29999078	0.00000000	-43.85457000	-17.36589000
158.49999077	0.00000000	-43.15945000	-17.36589000
158.69999075	0.00000000	-43.15945000	-17.32283000
158.89999074	0.00000000	-43.85457000	-16.94759000
159.09999073	0.00000000	-44.22982000	-16.20325000
159.29999072	0.00000000	-44.27288000	-15.82800000
159.49999071	0.00000000	-44.27288000	-15.78494000
159.69999070	0.00000000	-44.27288000	-15.78494000
159.89999068	0.00000000	-44.27288000	-15.78494000
160.09999067	0.00000000	-44.27288000	-15.78494000
160.29999066	0.00000000	-44.27288000	-15.78494000
160.49999065	0.00000000	-44.27288000	-15.82800000
160.69999064	0.00000000	-44.27288000	-16.20325000
160.89999062	0.00000000	-44.27288000	-16.94759000
161.09999061	0.00000000	-44.27288000	-17.32283000
161.29999060	0.00000000	-44.27288000	-17.32283000
161.49999059	0.00000000	-44.27288000	-16.99065000
161.69999058	0.00000000	-44.18061000	-16.57849000
161.89999056	0.00000000	-43.52239000	-16.61540000
162.09999055	0.00000000	-42.79035000	-16.53543000
162.29999054	0.00000000	-43.52239000	-16.57234000
162.49999053	0.00000000	-44.18061000	-16.16018000
162.69999052	0.00000000	-44.27288000	-15.82800000
162.89999051	0.00000000	-44.27288000	-15.78494000
163.09999049	0.00000000	-44.31594000	-15.78494000
163.29999048	0.00000000	-44.69119000	-15.82800000
163.49999047	0.00000000	-45.38631000	-16.16018000
163.69999046	0.00000000	-45.38631000	-16.52928000
163.89999045	0.00000000	-44.69119000	-16.20325000
164.09999043	0.00000000	-44.31594000	-16.25246000
164.29999042	0.00000000	-44.27288000	-16.89837000
164.49999041	0.00000000	-44.22982000	-16.94759000
164.69999040	0.00000000	-43.85457000	-16.62155000
164.89999039	0.00000000	-43.15945000	-16.94759000
165.09999037	0.00000000	-43.11023000	-16.89837000
165.29999036	0.00000000	-43.47933000	-16.20325000
165.49999035	0.00000000	-43.48548000	-15.82800000
165.69999034	0.00000000	-43.89763000	-15.78494000
165.89999033	0.00000000	-44.22982000	-15.78494000
166.09999032	0.00000000	-44.27288000	-15.78494000
166.29999030	0.00000000	-44.27288000	-15.78494000
166.49999029	0.00000000	-44.31594000	-15.78494000
166.69999028	0.00000000	-44.64813000	-15.78494000
166.89999027	0.00000000	-45.01722000	-15.78494000
167.09999026	0.00000000	-44.64813000	-15.82800000
167.29999024	0.00000000	-44.31594000	-16.20325000
167.49999023	0.00000000	-44.27288000	-16.89837000
167.69999022	0.00000000	-44.27288000	-16.89837000
167.89999021	0.00000000	-44.27288000	-16.20325000
168.09999020	0.00000000	-44.27288000	-15.82800000
168.29999018	0.00000000	-44.27288000	-15.78494000
168.49999017	0.00000000	-44.27288000	-15.78494000
168.69999016	0.00000000	-44.27288000	-15.78494000
168.89999015	0.00000000	-44.27288000	-15.78494000
169.09999014	0.00000000	-44.27288000	-15.78494000
169.29999013	0.00000000	-44.27288000	-15.78494000
169.49999011	0.00000000	-44.27288000	-15.78494000
169.69999010	0.00000000	-44.27288000	-15.78494000
169.89999009	0.00000000	-44.27288000	-15.78494000
170.09999008	0.00000000	-44.27288000	-15.78494000
170.29999007	0.00000000	-44.27288000	-15.78494000
170.49999005	0.00000000	-44.27288000	-15.82800000
170.69999004	0.00000000	-44.27288000	-16.16018000
170.89999003	0.00000000	-44.27288000	-16.52928000
171.09999002	0.00000000	-44.27288000	-16.16018000
171.29999001	0.00000000	-44.27288000	-15.87721000
171.49998999	0.00000000	-44.27288000	-16.20325000
171.69998998	0.00000000	-44.27288000	-16.94759000
171.89998997	0.00000000	-44.27288000	-17.27362000
172.09998996	0.00000000	-44.27288000	-16.94759000
172.29998995	0.00000000	-44.27288000	-16.20325000
172.49998994	0.00000000	-44.27288000	-15.82800000
172.69998992	0.00000000	-44.27288000	-15.78494000
172.89998991	0.00000000	-44.27288000	-15.78494000
173.09998990	0.00000000	-44.27288000	-15.78494000
173.29998989	0.00000000	-44.27288000	-15.78494000
173.49998988	0.00000000	-44.27288000	-15.82800000
173.69998986	0.00000000	-44.27288000	-16.16018000
173.89998985	0.00000000	-44.27288000	-16.52928000
174.09998984	0.00000000	-44.27288000	-16.16018000
174.29998983	0.00000000	-44.27288000	-15.82800000
174.49998982	0.00000000	-44.27288000	-15.78494000
174.69998980	0.00000000	-44.27288000	-15.78494000
174.89998979	0.00000000	-44.27288000	-15.78494000
175.09998978	0.00000000	-44.27288000	-15.78494000
175.29998977	0.00000000	-44.27288000	-15.78494000
175.49998976	0.00000000	-44.27288000	-15.78494000
175.69998975	0.00000000	-44.27288000	-15.78494000
175.89998973	0.00000000	-44.27288000	-15.78494000
176.09998972	0.00000000	-44.27288000	-15.78494000
176.29998971	0.00000000	-44.27288000	-15.78494000
176.49998970	0.00000000	-44.27288000	-15.78494000
176.69998969	0.00000000	-44.27288000	-15.78494000
176.89998967	0.00000000	-44.27288000	-15.78494000
177.09998966	0.00000000	-44.27288000	-15.78494000
177.29998965	0.00000000	-44.27288000	-15.82800000
177.49998964	0.00000000	-44.27288000	-16.20325000
177.69998963	0.00000000	-44.27288000	-16.89837000
177.89998961	0.00000000	-44.27288000	-16.89837000
178.09998960	0.00000000	-44.27288000	-16.20325000
178.29998959	0.00000000	-44.27288000	-15.82800000
178.49998958	0.00000000	-44.27288000	-15.78494000
178.69998957	0.00000000	-44.27288000	-15.78494000
178.89998956	0.00000000	-44.27288000	-15.78494000
179.09998954	0.00000000	-44.27288000	-15.78494000
179.29998953	0.00000000	-44.27288000	-15.78494000
179.49998952	0.00000000	-44.22982000	-15.78494000
179.69998951	0.00000000	-43.85457000	-15.78494000
179.89998950	0.00000000	-43.15945000	-15.82800000
180.09998948	0.00000000	-43.15945000	-16.16018000
180.29998947	0.00000000	-43.85457000	-16.52928000
180.49998946	0.00000000	-44.22982000	-16.16018000
180.69998945	0.00000000	-44.27288000	-15.82800000
180.89998944	0.00000000	-44.27288000	-15.78494000
181.09998942	0.00000000	-44.27288000	-15.78494000
181.29998941	0.00000000	-44.27288000	-15.78494000
181.49998940	0.00000000	-44.27288000	-15.78494000
181.69998939	0.00000000	-44.27288000	-15.78494000
181.89998938	0.00000000	-44.22982000	-15.78494000
182.09998937	0.00000000	-43.85457000	-15.78494000
182.29998935	0.00000000	-43.11023000	-15.78494000
182.49998934	0.00000000	-42.78420000	-15.82800000
182.69998933	0.00000000	-43.06717000	-16.16018000
182.89998932	0.00000000	-43.47933000	-16.52928000
183.09998931	0.00000000	-43.48548000	-16.20325000
183.29998929	0.00000000	-43.85457000	-16.20325000
183.49998928	0.00000000	-43.85457000	-16.52928000
183.69998927	0.00000000	-43.52854000	-16.16018000
183.89998926	0.00000000	-43.85457000	-15.82800000
184.09998925	0.00000000	-43.85457000	-15.78494000
184.29998923	0.00000000	-43.52854000	-15.78494000
184.49998922	0.00000000	-43.89763000	-15.78494000
184.69998921	0.00000000	-44.22982000	-15.78494000
184.89998920	0.00000000	-44.27288000	-15.78494000
185.09998919	0.00000000	-44.27288000	-15.78494000
185.29998918	0.00000000	-44.22982000	-15.78494000
185.49998916	0.00000000	-43.85457000	-15.82800000
185.69998915	0.00000000	-43.11023000	-16.20325000
185.89998914	0.00000000	-42.73499000	-16.94759000
186.09998913	0.00000000	-42.69193000	-17.32283000
186.29998912	0.00000000	-42.73499000	-17.36589000
186.49998910	0.00000000	-43.11023000	-17.32283000
186.69998909	0.00000000	-43.85457000	-16.94759000
186.89998908	0.00000000	-44.22982000	-16.20325000
187.09998907	0.00000000	-44.27288000	-15.82800000
187.29998906	0.00000000	-44.27288000	-15.78494000
187.49998904	0.00000000	-44.27288000	-15.78494000
187.69998903	0.00000000	-44.27288000	-15.78494000
187.89998902	0.00000000	-44.22982000	-15.78494000
188.09998901	0.00000000	-43.85457000	-15.78494000
188.29998900	0.00000000	-43.11023000	-15.78494000
188.49998899	0.00000000	-42.73499000	-15.82800000
188.69998897	0.00000000	-42.69193000	-16.20325000
188.89998896	0.00000000	-42.69193000	-16.89837000
189.09998895	0.00000000	-42.69193000	-16.89837000
189.29998894	0.00000000	-42.69193000	-16.20325000
189.49998893	0.00000000	-42.73499000	-15.82800000
189.69998891	0.00000000	-43.11023000	-15.78494000
189.89998890	0.00000000	-43.85457000	-15.78494000
190.09998889	0.00000000	-44.22982000	-15.78494000
190.29998888	0.00000000	-44.27288000	-15.78494000
190.49998887	0.00000000	-44.27288000	-15.78494000
190.69998885	0.00000000	-44.27288000	-15.78494000
190.89998884	0.00000000	-44.27288000	-15.78494000
191.09998883	0.00000000	-44.22982000	-15.78494000
191.29998882	0.00000000	-43.85457000	-15.78494000
191.49998881	0.00000000	-43.11023000	-15.78494000
191.69998880	0.00000000	-42.78420000	-15.82800000
191.89998878	0.00000000	-43.06717000	-16.20325000
192.09998877	0.00000000	-43.47933000	-16.94759000
192.29998876	0.00000000	-43.48548000	-17.32283000
192.49998875	0.00000000	-43.85457000	-17.32283000
192.69998874	0.00000000	-43.85457000	-16.94759000
192.89998872	0.00000000	-43.52854000	-16.20325000
193.09998871	0.00000000	-43.89763000	-15.82800000
193.29998870	0.00000000	-44.22982000	-15.78494000
193.49998869	0.00000000	-44.27288000	-15.78494000
193.69998868	0.00000000	-44.27288000	-15.78494000
193.89998866	0.00000000	-44.22982000	-15.78494000
194.09998865	0.00000000	-43.85457000	-15.78494000
194.29998864	0.00000000	-43.11023000	-15.78494000
194.49998863	0.00000000	-42.73499000	-15.78494000
194.69998862	0.00000000	-42.69193000	-15.78494000
194.89998861	0.00000000	-42.69193000	-15.78494000
195.09998859	0.00000000	-42.73499000	-15.78494000
195.29998858	0.00000000	-43.11023000	-15.78494000
195.49998857	0.00000000	-43.85457000	-15.78494000
195.69998856	0.00000000	-44.22982000	-15.78494000
195.89998855	0.00000000	-44.27288000	-15.78494000
196.09998853	0.00000000	-44.27288000	-15.78494000
