Time	Channel A	Channel B	Channel C
(us)	(V)	(mV)	(mV)

-4.49999956	0.00000000	-61.66338000	-23.68356000
-4.29999957	0.00000000	-61.66338000	-23.68356000
-4.09999958	0.00000000	-61.66338000	-23.68356000
-3.89999959	0.00000000	-61.66338000	-23.68356000
-3.69999960	0.00000000	-61.66338000	-23.68356000
-3.49999962	0.00000000	-61.66338000	-23.68356000
-3.29999963	0.00000000	-61.66338000	-23.68356000
-3.09999964	0.00000000	-61.66338000	-23.68356000
-2.89999965	0.00000000	-61.66338000	-23.68356000
-2.69999966	0.00000000	-61.66338000	-23.68356000
-2.49999968	0.00000000	-61.66338000	-23.68356000
-2.29999969	0.00000000	-61.66338000	-23.68356000
-2.09999970	0.00000000	-61.66338000	-23.68356000
-1.89999971	0.00000000	-61.66338000	-23.68356000
-1.69999972	0.00000000	-61.66338000	-23.68356000
-1.49999973	0.00000000	-61.70644000	-23.72662000
-1.29999975	0.00000000	-62.03863000	-24.05881000
-1.09999976	0.00000000	-62.40772000	-24.42790000
-0.89999977	0.00000000	-62.03863000	-24.05881000
-0.69999978	0.00000000	-61.70644000	-23.72662000
-0.49999979	0.00000000	-61.66338000	-23.68356000
-0.29999981	0.31803640	-61.66338000	-23.68356000
-0.09999982	0.63668800	-61.66338000	-23.72662000
0.10000017	0.95533960	-61.66338000	-24.05881000
0.30000016	0.95533960	-61.66338000	-24.47096000
0.50000015	0.79601380	-61.66338000	-24.47712000
0.70000013	0.31803640	-61.66338000	-24.88927000
0.90000012	-0.47736220	-61.66338000	-25.22145000
1.10000011	-1.59264300	-61.66338000	-25.22145000
1.30000010	-2.38927200	-61.66338000	-24.84621000
1.50000009	-2.86724900	-61.70644000	-24.10187000
1.70000008	-2.38927200	-62.03863000	-23.72662000
1.90000006	-1.27399100	-62.40772000	-23.68356000
2.10000005	0.63668800	-62.03863000	-23.68356000
2.30000004	2.70792300	-61.70644000	-23.68356000
2.50000003	4.45989200	-61.66338000	-23.72662000
2.70000002	5.25652100	-61.66338000	-24.10187000
2.90000000	4.77854300	-61.66338000	-24.84621000
3.09999999	2.86724900	-61.66338000	-25.22145000
3.29999998	-0.15871060	-61.66338000	-25.22145000
3.49999997	-3.66326300	-61.66338000	-24.84621000
3.69999996	-6.53112700	-61.66338000	-24.10187000
3.89999994	-7.96444400	-61.66338000	-23.72662000
4.09999993	-7.48646600	-61.66338000	-23.68356000
4.29999992	-4.93786900	-61.66338000	-23.68356000
4.49999991	-0.95533960	-61.66338000	-23.68356000
4.69999990	3.50393700	-61.66338000	-23.68356000
4.89999989	7.32714100	-61.66338000	-23.72662000
5.09999987	9.23905000	-61.66338000	-24.10187000
5.29999986	9.07972400	-61.66338000	-24.84621000
5.49999985	6.53112700	-61.66338000	-25.22145000
5.69999984	2.22994600	-61.66338000	-25.22145000
5.89999983	-2.54859700	-61.66338000	-24.84621000
6.09999981	-6.69045300	-61.66338000	-24.10187000
6.29999980	-9.07972400	-61.66338000	-23.72662000
6.49999979	-9.23905000	-61.66338000	-23.68356000
6.69999978	-7.00848900	-61.66338000	-23.68356000
6.89999977	-3.18590100	-61.66338000	-23.68356000
7.09999975	1.11466500	-61.66338000	-23.68356000
7.29999974	4.93786900	-61.66338000	-23.68356000
7.49999973	7.32714100	-61.66338000	-23.72662000
7.69999972	7.64579200	-61.66338000	-24.05881000
7.89999971	6.21247500	-61.66338000	-24.47096000
8.09999970	3.34522600	-61.66338000	-24.43405000
8.29999968	0.00000000	-61.66338000	-24.47096000
8.49999967	-2.86724900	-61.66338000	-24.05881000
8.69999966	-4.77854300	-61.66338000	-23.72662000
8.89999965	-5.09719500	-61.66338000	-23.68356000
9.09999964	-4.30056600	-61.66338000	-23.68356000
9.29999962	-2.70792300	-61.66338000	-23.68356000
9.49999961	-0.63668800	-61.66338000	-23.68356000
9.69999960	1.11466500	-61.66338000	-23.68356000
9.89999959	2.22994600	-61.66338000	-23.68356000
10.09999958	2.54859700	-61.66338000	-23.68356000
10.29999956	2.22994600	-61.66338000	-23.68356000
10.49999955	1.43331700	-61.66338000	-23.68356000
10.69999954	0.47736220	-61.66338000	-23.68356000
10.89999953	-0.31803640	-61.66338000	-23.68356000
11.09999952	-0.79601380	-61.66338000	-23.68356000
11.29999951	-0.95533960	-61.66338000	-23.68356000
11.49999949	-0.95533960	-61.66338000	-23.72662000
11.69999948	-0.63668800	-61.66338000	-24.05881000
11.89999947	-0.47736220	-61.66338000	-24.42790000
12.09999946	-0.15871060	-61.66338000	-24.05881000
12.29999945	-0.15871060	-61.66338000	-23.72662000
12.49999943	0.00000000	-61.66338000	-23.68356000
12.69999942	0.00000000	-61.66338000	-23.68356000
12.89999941	0.00000000	-61.66338000	-23.72662000
13.09999940	0.00000000	-61.66338000	-24.05881000
13.29999939	0.00000000	-61.66338000	-24.42790000
13.49999937	0.00000000	-61.66338000	-24.05881000
13.69999936	0.00000000	-61.66338000	-23.72662000
13.89999935	0.00000000	-61.66338000	-23.68356000
14.09999934	-0.15871060	-61.66338000	-23.68356000
14.29999933	-0.15871060	-61.66338000	-23.68356000
14.49999932	-0.15871060	-61.66338000	-23.68356000
14.69999930	0.00000000	-61.66338000	-23.68356000
14.89999929	0.00000000	-61.66338000	-23.68356000
15.09999928	0.00000000	-61.66338000	-23.68356000
15.29999927	0.00000000	-61.66338000	-23.68356000
15.49999926	0.00000000	-61.66338000	-23.68356000
15.69999924	0.00000000	-61.66338000	-23.68356000
15.89999923	0.00000000	-61.66338000	-23.68356000
16.09999922	0.00000000	-61.66338000	-23.68356000
16.29999921	0.00000000	-61.66338000	-23.68356000
16.49999920	-0.15871060	-61.62032000	-23.68356000
16.69999919	0.00000000	-61.24508000	-23.68356000
16.89999917	0.00000000	-60.50073000	-23.68356000
17.09999916	0.00000000	-60.12549000	-23.68356000
17.29999915	0.00000000	-60.08243000	-23.68356000
17.49999914	0.00000000	-60.08243000	-23.68356000
17.69999913	0.00000000	-60.12549000	-23.68356000
17.89999911	0.00000000	-60.50073000	-23.68356000
18.09999910	0.00000000	-61.33120000	-23.68356000
18.29999909	0.00000000	-62.50000000	-23.68356000
18.49999908	0.00000000	-64.40699000	-23.68356000
18.69999907	0.00000000	-65.89567000	-23.68356000
18.89999905	0.00000000	-66.31397000	-23.68356000
19.09999904	0.00000000	-65.93873000	-23.72662000
19.29999903	0.00000000	-64.68996000	-24.05881000
19.49999902	0.00000000	-62.31545000	-24.42790000
19.69999901	0.00000000	-58.45841000	-24.05881000
19.89999900	0.00000000	-54.26919000	-23.72662000
20.09999898	0.00000000	-51.15034000	-23.68356000
20.29999897	0.00000000	-49.66166000	-23.68356000
20.49999896	0.00000000	-50.49828000	-23.68356000
20.69999895	0.00000000	-54.44759000	-23.68356000
20.89999894	0.00000000	-61.01131000	-23.68356000
21.09999892	0.00000000	-69.10678000	-23.68356000
21.29999891	0.00000000	-76.41486000	-23.72662000
21.49999890	0.00000000	-81.06544000	-24.05881000
21.69999889	0.00000000	-82.14198000	-24.42790000
21.89999888	0.00000000	-78.55560000	-24.05881000
22.09999886	0.00000000	-69.99876000	-23.77584000
22.29999885	0.00000000	-58.04010000	-24.10187000
22.49999884	0.00000000	-45.28789000	-24.79700000
22.69999883	0.00000000	-34.91019000	-24.79700000
22.89999882	0.00000000	-29.55832000	-24.10187000
23.09999881	0.00000000	-31.18848000	-23.68356000
23.29999879	0.00000000	-40.16363000	-23.26525000
23.49999878	0.00000000	-55.24114000	-22.52091000
23.69999877	0.00000000	-73.38828000	-22.14567000
23.89999876	0.00000000	-89.95448000	-22.10261000
24.09999875	0.00000000	-101.11960000	-22.14567000
24.29999873	0.00000000	-103.72790000	-22.57013000
24.49999872	0.00000000	-96.33366000	-23.72662000
24.69999871	0.00000000	-80.09350000	-25.26452000
24.89999870	0.00000000	-58.45841000	-26.83932000
25.09999869	0.00000000	-36.44808000	-28.37721000
25.29999867	0.00000000	-19.13755000	-29.49065000
25.49999866	0.00000000	-11.04208000	-29.44759000
25.69999865	0.00000000	-14.57308000	-27.90969000
25.89999864	0.00000000	-28.82013000	-25.17224000
26.09999863	0.00000000	-50.91043000	-21.64124000
26.29999862	0.00000000	-75.58439000	-17.40895000
26.49999860	0.00000000	-97.63164000	-13.64419000
26.69999859	0.00000000	-111.45420000	-12.11245000
26.89999858	0.00000000	-113.82260000	-13.26895000
27.09999857	0.00000000	-104.15230000	-16.80610000
27.29999856	0.00000000	-84.87943000	-22.65625000
27.49999854	0.00000000	-60.54995000	-30.00123000
27.69999853	0.00000000	-36.95866000	-37.29700000
27.89999852	0.00000000	-19.18061000	-42.63656000
28.09999851	0.00000000	-11.04208000	-44.13140000
28.29999850	0.00000000	-14.48696000	-41.01255000
28.49999848	0.00000000	-27.93430000	-33.63066000
28.69999847	0.00000000	-48.03149000	-23.17298000
28.89999846	0.00000000	-70.04182000	-11.60187000
29.09999845	0.00000000	-88.98252000	-1.57480300
29.29999844	0.00000000	-100.65820000	4.56446800
29.49999843	0.00000000	-103.07580000	5.25959600
29.69999841	0.00000000	-96.93036000	-0.63976370
29.89999840	0.00000000	-83.76598000	-12.57997000
30.09999839	0.00000000	-66.40624000	-28.00197000
30.29999838	0.00000000	-49.00959000	-43.06102000
30.49999837	0.00000000	-35.46383000	-54.63213000
30.69999835	0.00000000	-28.35261000	-60.01476000
30.89999834	0.00000000	-28.34645000	-57.65256000
31.09999833	0.00000000	-34.49803000	-47.98228000
31.29999832	0.00000000	-46.12450000	-32.51722000
31.49999831	0.00000000	-59.94709000	-14.80684000
31.69999829	0.00000000	-72.78542000	1.07652500
31.89999828	0.00000000	-82.09276000	11.90330000
32.09999827	0.00000000	-86.41732000	15.76033000
32.29999826	0.00000000	-85.25467000	11.44193000
32.49999825	0.00000000	-79.10925000	-0.46136810
32.69999824	0.00000000	-69.48203000	-17.08292000
32.89999822	0.00000000	-59.05511000	-34.46727000
33.09999821	0.00000000	-50.07997000	-49.60630000
33.29999820	0.00000000	-43.89148000	-59.23351000
33.49999819	0.00000000	-41.56618000	-61.59571000
33.69999818	0.00000000	-43.89148000	-56.11466000
33.89999816	0.00000000	-49.98769000	-43.84227000
34.09999815	0.00000000	-58.08316000	-27.58981000
34.29999814	0.00000000	-65.80955000	-11.36196000
34.49999813	0.00000000	-71.62278000	2.18996000
34.69999812	0.00000000	-74.36639000	9.86097400
34.89999810	0.00000000	-73.62820000	9.90403500
35.09999809	0.00000000	-70.17716000	2.60826800
35.29999808	0.00000000	-64.73917000	-10.11934000
35.49999807	0.00000000	-58.63681000	-25.17224000
35.69999806	0.00000000	-53.61712000	-39.43774000
35.89999805	0.00000000	-51.28568000	-49.42790000
36.09999803	0.00000000	-51.66092000	-52.58366000
36.29999802	0.00000000	-54.73056000	-48.77583000
36.49999801	0.00000000	-59.70718000	-39.57308000
36.69999800	0.00000000	-64.68996000	-27.25763000
36.89999799	0.00000000	-68.55315000	-15.31742000
37.09999797	0.00000000	-70.09104000	-6.44069800
37.29999796	0.00000000	-68.97145000	-2.58981300
37.49999795	0.00000000	-65.89567000	-4.85974400
37.69999794	0.00000000	-61.62032000	-12.15551000
37.89999793	0.00000000	-57.01279000	-22.47785000
38.09999791	0.00000000	-53.19881000	-32.79404000
38.29999790	0.00000000	-51.61786000	-39.34547000
38.49999789	0.00000000	-52.35605000	-40.92643000
38.69999788	0.00000000	-54.68750000	-37.43848000
38.89999787	0.00000000	-58.54454000	-29.40452000
39.09999786	0.00000000	-62.77681000	-19.50049000
39.29999784	0.00000000	-66.27091000	-11.04823000
39.49999783	0.00000000	-68.68848000	-6.48991100
39.69999782	0.00000000	-69.77116000	-7.23425100
39.89999781	0.00000000	-69.38361000	-13.36122000
40.09999780	0.00000000	-66.64616000	-22.52091000
40.29999778	0.00000000	-62.82603000	-32.14198000
40.49999777	0.00000000	-58.50147000	-39.43774000
40.69999776	0.00000000	-54.31225000	-42.50738000
40.89999775	0.00000000	-51.56865000	-40.59424000
41.09999774	0.00000000	-50.77510000	-34.04897000
41.29999772	0.00000000	-51.56865000	-24.84621000
41.49999771	0.00000000	-54.26919000	-15.22515000
41.69999770	0.00000000	-58.12622000	-7.92937900
41.89999769	0.00000000	-61.99557000	-4.85974400
42.09999768	0.00000000	-65.52657000	-6.72367100
42.29999767	0.00000000	-67.81496000	-12.85679000
42.49999765	0.00000000	-68.64542000	-20.90305000
42.69999764	0.00000000	-67.85802000	-29.07234000
42.89999763	0.00000000	-65.94488000	-35.58071000
43.09999762	0.00000000	-63.24434000	-39.06250000
43.29999761	0.00000000	-60.54995000	-38.27509000
43.49999759	0.00000000	-58.54454000	-33.76599000
43.69999758	0.00000000	-57.01279000	-27.25763000
43.89999757	0.00000000	-56.22539000	-21.08145000
44.09999756	0.00000000	-56.58833000	-16.38779000
44.29999755	0.00000000	-57.29576000	-13.69340000
44.49999753	0.00000000	-58.08316000	-13.64419000
44.69999752	0.00000000	-58.45841000	-15.92027000
44.89999751	0.00000000	-58.50147000	-19.36516000
45.09999750	0.00000000	-58.54454000	-23.26525000
45.29999749	0.00000000	-58.96899000	-26.70398000
45.49999748	0.00000000	-60.17470000	-29.07234000
45.69999746	0.00000000	-62.08169000	-29.82283000
45.89999745	0.00000000	-64.49311000	-29.11540000
46.09999744	0.00000000	-67.15674000	-27.17150000
46.29999743	0.00000000	-69.80192000	-24.84621000
46.49999742	0.00000000	-70.46629000	-22.15182000
46.69999740	0.00000000	-68.55315000	-19.87574000
46.89999739	0.00000000	-64.27164000	-19.08218000
47.09999738	0.00000000	-58.45841000	-19.41437000
47.29999737	0.00000000	-52.31299000	-20.61393000
47.49999736	0.00000000	-47.29330000	-22.52091000
47.69999734	0.00000000	-45.05413000	-24.84621000
47.89999733	0.00000000	-46.22293000	-26.75320000
48.09999732	0.00000000	-51.28568000	-27.95275000
48.29999731	0.00000000	-58.96899000	-28.32800000
48.49999730	0.00000000	-67.48277000	-27.90969000
48.69999729	0.00000000	-74.79084000	-26.32874000
48.89999727	0.00000000	-79.02312000	-23.64050000
49.09999726	0.00000000	-79.02312000	-20.57087000
49.29999725	0.00000000	-74.74163000	-17.87647000
49.49999724	0.00000000	-67.01525000	-16.38164000
49.69999723	0.00000000	-57.38804000	-16.75689000
49.89999721	0.00000000	-48.54207000	-19.03297000
50.09999720	0.00000000	-42.72884000	-22.15182000
50.29999719	0.00000000	-41.24015000	-25.63976000
50.49999718	0.00000000	-44.68504000	-29.11540000
50.69999717	0.00000000	-52.40526000	-31.39763000
50.89999715	0.00000000	-61.99557000	-32.18504000
51.09999714	0.00000000	-71.20448000	-30.97933000
51.29999713	0.00000000	-76.97465000	-27.90969000
51.49999712	0.00000000	-77.81741000	-23.68356000
51.69999711	0.00000000	-74.36639000	-19.45743000
51.89999710	0.00000000	-67.39050000	-16.33858000
52.09999708	0.00000000	-58.59375000	-14.80684000
52.29999707	0.00000000	-50.54749000	-15.22515000
52.49999706	0.00000000	-45.89075000	-17.87647000
52.69999705	0.00000000	-45.47243000	-21.72736000
52.89999704	0.00000000	-48.91732000	-25.59055000
53.09999702	0.00000000	-55.47490000	-29.07234000
53.29999701	0.00000000	-63.10900000	-30.97933000
53.49999700	0.00000000	-69.67273000	-31.02239000
53.69999699	0.00000000	-73.16068000	-29.49065000
53.89999698	0.00000000	-73.16068000	-26.79626000
54.09999696	0.00000000	-69.67273000	-23.72662000
54.29999695	0.00000000	-63.15822000	-21.03838000
54.49999694	0.00000000	-55.93627000	-19.50049000
54.69999693	0.00000000	-50.54749000	-19.50049000
54.89999692	0.00000000	-48.54207000	-20.98917000
55.09999691	0.00000000	-49.70472000	-23.22219000
55.29999689	0.00000000	-53.52485000	-24.79700000
55.49999688	0.00000000	-59.28888000	-25.54749000
55.69999687	0.00000000	-64.68996000	-25.54134000
55.89999686	0.00000000	-68.97145000	-24.00960000
56.09999685	0.00000000	-71.20448000	-22.15182000
56.29999683	0.00000000	-70.09104000	-20.61393000
56.49999682	0.00000000	-66.27091000	-19.91880000
56.69999681	0.00000000	-61.28814000	-21.08145000
56.89999680	0.00000000	-56.26845000	-23.68356000
57.09999679	0.00000000	-52.82357000	-26.37795000
57.29999677	0.00000000	-51.61786000	-28.37721000
57.49999676	0.00000000	-52.73130000	-29.86589000
57.69999675	0.00000000	-55.43184000	-30.14272000
57.89999674	0.00000000	-58.87672000	-27.82357000
58.09999673	0.00000000	-62.35851000	-23.64050000
58.29999672	0.00000000	-64.68996000	-18.98991000
58.49999670	0.00000000	-65.85260000	-14.76378000
58.69999669	0.00000000	-65.47736000	-12.15551000
58.89999668	0.00000000	-63.57652000	-12.53076000
59.09999667	0.00000000	-61.28814000	-15.96334000
59.29999666	0.00000000	-58.91978000	-20.98917000
59.49999664	0.00000000	-57.05585000	-26.83932000
59.69999663	0.00000000	-56.26845000	-32.56028000
59.89999662	0.00000000	-57.01279000	-36.36811000
60.09999661	0.00000000	-58.45841000	-36.74335000
60.29999660	0.00000000	-59.66412000	-33.67372000
60.49999658	0.00000000	-60.45767000	-27.86663000
60.69999657	0.00000000	-61.19586000	-20.57087000
60.89999656	0.00000000	-61.19586000	-13.65034000
61.09999655	0.00000000	-60.45767000	-9.04281500
61.29999654	0.00000000	-59.70718000	-7.88631800
61.49999653	0.00000000	-58.91978000	-10.58071000
61.69999651	0.00000000	-58.59375000	-16.33858000
61.89999650	0.00000000	-58.91978000	-23.68356000
62.09999649	0.00000000	-59.70718000	-31.02239000
62.29999648	0.00000000	-60.45767000	-36.78642000
62.49999647	0.00000000	-61.28814000	-39.43774000
62.69999645	0.00000000	-61.94635000	-37.89985000
62.89999644	0.00000000	-61.98326000	-32.56028000
63.09999643	0.00000000	-60.87598000	-25.26452000
63.29999642	0.00000000	-60.12549000	-17.87647000
63.49999641	0.00000000	-59.61491000	-11.69414000
63.69999639	0.00000000	-58.54454000	-7.88631800
63.89999638	0.00000000	-57.80634000	-7.88631800
64.09999637	0.00000000	-58.16929000	-11.69414000
64.29999636	0.00000000	-58.91978000	-17.83341000
64.49999635	0.00000000	-60.12549000	-24.79700000
64.69999634	0.00000000	-61.62032000	-30.97933000
64.89999632	0.00000000	-62.73376000	-35.24852000
65.09999631	0.00000000	-62.77681000	-36.82948000
65.29999630	0.00000000	-62.08169000	-35.71604000
65.49999629	0.00000000	-61.62032000	-32.60334000
65.69999628	0.00000000	-60.82677000	-27.95275000
65.89999626	0.00000000	-59.33809000	-22.61319000
66.09999625	0.00000000	-58.63681000	-18.33784000
66.29999624	0.00000000	-58.96899000	-15.92027000
66.49999623	0.00000000	-60.08243000	-14.72072000
66.69999622	0.00000000	-61.24508000	-14.72072000
66.89999620	0.00000000	-62.03863000	-15.87721000
67.09999619	0.00000000	-62.77681000	-17.83341000
67.29999618	0.00000000	-62.73376000	-20.61393000
67.49999617	0.00000000	-61.57111000	-24.05881000
67.69999616	0.00000000	-59.61491000	-27.54060000
67.89999615	0.00000000	-56.96358000	-29.86589000
68.09999613	0.00000000	-54.68750000	-31.11466000
68.29999612	0.00000000	-53.93700000	-31.48376000
68.49999611	0.00000000	-54.68750000	-31.06545000
68.69999610	0.00000000	-57.05585000	-29.44759000
68.89999609	0.00000000	-60.50073000	-26.32874000
69.09999607	0.00000000	-64.36392000	-22.10261000
69.29999606	0.00000000	-67.43970000	-17.83341000
69.49999605	0.00000000	-68.97145000	-14.34547000
69.69999604	0.00000000	-68.55315000	-12.06939000
69.89999603	0.00000000	-65.85260000	-12.11245000
70.09999601	0.00000000	-61.57111000	-14.76378000
70.29999600	0.00000000	-56.54527000	-19.03912000
70.49999599	0.00000000	-51.56865000	-24.05881000
70.69999598	0.00000000	-48.49901000	-29.11540000
70.89999597	0.00000000	-48.12377000	-32.93553000
71.09999596	0.00000000	-50.41215000	-34.87943000
71.29999594	0.00000000	-55.05659000	-34.09203000
71.49999593	0.00000000	-60.50073000	-31.02239000
71.69999592	0.00000000	-66.27091000	-26.37795000
71.89999591	0.00000000	-70.87844000	-21.03223000
72.09999590	0.00000000	-72.46555000	-16.76304000
72.29999588	0.00000000	-71.71505000	-14.43159000
72.49999587	0.00000000	-68.55315000	-14.01944000
72.69999586	0.00000000	-63.20127000	-15.92027000
72.89999585	0.00000000	-57.43110000	-18.98991000
73.09999584	0.00000000	-52.73130000	-22.47785000
73.29999582	0.00000000	-49.61245000	-25.91043000
73.49999581	0.00000000	-48.49901000	-27.86663000
73.69999580	0.00000000	-50.03691000	-28.28494000
73.89999579	0.00000000	-53.85088000	-27.54060000
74.09999578	0.00000000	-58.50147000	-25.63976000
74.29999577	0.00000000	-63.15822000	-23.77584000
74.49999575	0.00000000	-66.97219000	-22.61319000
74.69999574	0.00000000	-68.55315000	-22.61319000
74.89999573	0.00000000	-67.85802000	-23.68356000
75.09999572	0.00000000	-65.89567000	-24.79700000
75.29999571	0.00000000	-62.82603000	-25.22145000
75.49999569	0.00000000	-59.38730000	-25.17224000
75.69999568	0.00000000	-57.01279000	-24.33563000
75.89999567	0.00000000	-55.43184000	-22.05955000
76.09999566	0.00000000	-54.68750000	-19.40822000
76.29999565	0.00000000	-55.47490000	-17.50123000
76.49999563	0.00000000	-57.29576000	-16.71383000
76.69999562	0.00000000	-59.24582000	-17.54429000
76.89999561	0.00000000	-60.36540000	-19.87574000
77.09999560	0.00000000	-60.82677000	-23.72662000
77.29999559	0.00000000	-60.45767000	-27.95275000
77.49999558	0.00000000	-60.12549000	-31.39763000
77.69999556	0.00000000	-60.08243000	-33.34153000
77.89999555	0.00000000	-60.12549000	-32.88632000
78.09999554	0.00000000	-60.50073000	-30.22884000
78.29999553	0.00000000	-61.24508000	-25.59055000
78.49999552	0.00000000	-61.62032000	-20.61393000
78.69999550	0.00000000	-61.62032000	-16.29552000
78.89999549	0.00000000	-61.19586000	-13.22589000
79.09999548	0.00000000	-60.03937000	-12.11245000
79.29999547	0.00000000	-58.45841000	-13.64419000
79.49999546	0.00000000	-56.54527000	-17.45817000
79.69999544	0.00000000	-54.68750000	-22.10261000
79.89999543	0.00000000	-54.31225000	-26.74705000
80.09999542	0.00000000	-55.43184000	-30.60408000
80.29999541	0.00000000	-57.38804000	-32.56028000
80.49999540	0.00000000	-60.08243000	-32.60334000
80.69999539	0.00000000	-62.77681000	-31.02239000
80.89999537	0.00000000	-64.68996000	-27.95275000
81.09999536	0.00000000	-65.47736000	-24.10187000
81.29999535	0.00000000	-64.68996000	-20.61393000
81.49999534	0.00000000	-62.77681000	-17.87647000
81.69999533	0.00000000	-60.08243000	-16.29552000
81.89999531	0.00000000	-57.38804000	-15.87721000
82.09999530	0.00000000	-55.47490000	-16.29552000
82.29999529	0.00000000	-54.68750000	-17.87647000
82.49999528	0.00000000	-55.43184000	-20.57087000
82.69999527	0.00000000	-56.92052000	-23.64050000
82.89999525	0.00000000	-58.54454000	-26.37795000
83.09999524	0.00000000	-60.45767000	-28.37721000
83.29999523	0.00000000	-62.35851000	-29.90895000
83.49999522	0.00000000	-63.10900000	-30.64714000
83.69999521	0.00000000	-62.82603000	-29.86589000
83.89999520	0.00000000	-62.03863000	-27.95891000
84.09999518	0.00000000	-61.24508000	-25.21530000
84.29999517	0.00000000	-60.08243000	-22.10261000
84.49999516	0.00000000	-58.96899000	-18.98991000
84.69999515	0.00000000	-58.54454000	-16.29552000
84.89999514	0.00000000	-58.50147000	-14.80684000
85.09999512	0.00000000	-58.50147000	-15.18209000
85.29999511	0.00000000	-58.50147000	-17.50123000
85.49999510	0.00000000	-58.50147000	-20.98917000
85.69999509	0.00000000	-58.50147000	-25.26452000
85.89999508	0.00000000	-58.50147000	-29.44759000
86.09999506	0.00000000	-58.54454000	-32.18504000
86.29999505	0.00000000	-58.91978000	-32.93553000
86.49999504	0.00000000	-59.70718000	-31.76673000
86.69999503	0.00000000	-60.50073000	-28.28494000
86.89999502	0.00000000	-61.62032000	-23.68356000
87.09999501	0.00000000	-62.35851000	-19.03912000
87.29999499	0.00000000	-62.03863000	-15.22515000
87.49999498	0.00000000	-61.62032000	-13.65034000
87.69999497	0.00000000	-60.77756000	-14.43159000
87.89999496	0.00000000	-58.91978000	-17.13213000
88.09999495	0.00000000	-57.43110000	-21.77042000
88.29999493	0.00000000	-56.96358000	-26.74705000
88.49999492	0.00000000	-56.96358000	-30.97933000
88.69999491	0.00000000	-57.38804000	-33.25541000
88.89999490	0.00000000	-58.54454000	-32.51722000
89.09999489	0.00000000	-60.03937000	-29.44759000
89.29999487	0.00000000	-61.24508000	-24.79700000
89.49999486	0.00000000	-61.99557000	-19.45743000
89.69999485	0.00000000	-62.40772000	-15.22515000
89.89999484	0.00000000	-61.99557000	-13.27510000
90.09999483	0.00000000	-61.24508000	-13.64419000
90.29999482	0.00000000	-60.08243000	-16.38779000
90.49999480	0.00000000	-58.96899000	-20.98917000
90.69999479	0.00000000	-58.54454000	-26.37795000
90.89999478	0.00000000	-58.50147000	-30.93627000
91.09999477	0.00000000	-58.50147000	-33.25541000
91.29999476	0.00000000	-58.54454000	-32.51722000
91.49999474	0.00000000	-58.87672000	-29.44759000
91.69999473	0.00000000	-59.24582000	-24.79700000
91.89999472	0.00000000	-58.87672000	-19.45743000
92.09999471	0.00000000	-58.54454000	-15.22515000
92.29999470	0.00000000	-58.50147000	-13.27510000
92.49999468	0.00000000	-58.50147000	-13.69340000
92.69999467	0.00000000	-58.54454000	-16.80610000
92.89999466	0.00000000	-58.96899000	-22.10261000
93.09999465	0.00000000	-60.12549000	-27.44832000
93.29999464	0.00000000	-61.62032000	-30.93627000
93.49999463	0.00000000	-62.73376000	-32.13582000
93.69999461	0.00000000	-62.73376000	-30.97933000
93.89999460	0.00000000	-61.62032000	-27.90969000
94.09999459	0.00000000	-60.03937000	-23.68356000
94.29999458	0.00000000	-58.08316000	-19.45743000
94.49999457	0.00000000	-55.80708000	-16.38779000
94.69999455	0.00000000	-54.26919000	-15.22515000
94.89999454	0.00000000	-53.89394000	-16.38779000
95.09999453	0.00000000	-54.68750000	-19.45743000
95.29999452	0.00000000	-56.96358000	-23.64050000
95.49999451	0.00000000	-59.70718000	-27.49138000
95.69999449	0.00000000	-62.45694000	-29.77362000
95.89999448	0.00000000	-65.47736000	-30.22884000
96.09999447	0.00000000	-66.97219000	-28.66018000
96.29999446	0.00000000	-66.27091000	-26.00270000
96.49999445	0.00000000	-64.31471000	-22.52091000
96.69999444	0.00000000	-61.19586000	-19.50049000
96.89999442	0.00000000	-57.33883000	-17.91953000
97.09999441	0.00000000	-53.89394000	-17.91953000
97.29999440	0.00000000	-51.52559000	-19.40822000
97.49999439	0.00000000	-50.77510000	-21.68430000
97.69999438	0.00000000	-51.56865000	-23.64050000
97.89999436	0.00000000	-54.31225000	-25.21530000
98.09999435	0.00000000	-58.50147000	-26.37795000
98.29999434	0.00000000	-62.73376000	-26.74705000
98.49999433	0.00000000	-65.85260000	-26.37795000
98.69999432	0.00000000	-67.43970000	-25.26452000
98.89999430	0.00000000	-67.43970000	-24.10187000
99.09999429	0.00000000	-65.89567000	-23.30832000
99.29999428	0.00000000	-63.15207000	-22.52091000
99.49999427	0.00000000	-59.66412000	-22.14567000
99.69999426	0.00000000	-55.80708000	-22.05955000
99.89999425	0.00000000	-52.77436000	-21.68430000
100.09999423	0.00000000	-51.56865000	-20.94611000
100.29999422	0.00000000	-52.26993000	-20.57087000
100.49999421	0.00000000	-53.80167000	-20.57087000
100.69999420	0.00000000	-55.80708000	-20.98917000
100.89999419	0.00000000	-58.54454000	-22.15182000
101.09999417	0.00000000	-61.62032000	-23.68356000
101.29999416	0.00000000	-64.27164000	-25.26452000
101.49999415	0.00000000	-65.47736000	-26.79626000
101.69999414	0.00000000	-65.10827000	-27.90969000
101.89999413	0.00000000	-63.98867000	-27.86663000
102.09999411	0.00000000	-61.99557000	-26.32874000
102.29999410	0.00000000	-59.66412000	-23.68356000
102.49999409	0.00000000	-56.96358000	-20.94611000
102.69999408	0.00000000	-54.73056000	-18.61466000
102.89999407	0.00000000	-54.22613000	-16.71383000
103.09999406	0.00000000	-54.58907000	-16.38164000
103.29999404	0.00000000	-55.01968000	-17.87647000
103.49999403	0.00000000	-56.63754000	-20.61393000
103.69999402	0.00000000	-58.87672000	-24.05881000
103.89999401	0.00000000	-61.19586000	-27.49138000
104.09999400	0.00000000	-62.73376000	-29.40452000
104.29999398	0.00000000	-63.15207000	-29.49065000
104.49999397	0.00000000	-62.77681000	-28.32800000
104.69999396	0.00000000	-61.62032000	-26.37795000
104.89999395	0.00000000	-60.08243000	-23.64050000
105.09999394	0.00000000	-58.50147000	-20.57087000
105.29999392	0.00000000	-56.96358000	-17.91953000
105.49999391	0.00000000	-55.85014000	-16.75689000
105.69999390	0.00000000	-55.85014000	-17.50123000
105.89999389	0.00000000	-56.96358000	-19.40822000
106.09999388	0.00000000	-58.50147000	-22.10261000
106.29999387	0.00000000	-60.03937000	-24.75394000
106.49999385	0.00000000	-61.19586000	-26.32874000
106.69999384	0.00000000	-61.57111000	-26.74705000
106.89999383	0.00000000	-61.24508000	-26.37795000
107.09999382	0.00000000	-60.45767000	-25.17224000
107.29999381	0.00000000	-59.66412000	-23.26525000
107.49999379	0.00000000	-58.50147000	-20.98917000
107.69999378	0.00000000	-57.38804000	-19.50049000
107.89999377	0.00000000	-57.01279000	-19.45743000
108.09999376	0.00000000	-57.38804000	-20.57087000
108.29999375	0.00000000	-58.50147000	-22.10261000
108.49999374	0.00000000	-59.66412000	-23.68356000
108.69999372	0.00000000	-60.45767000	-25.21530000
108.89999371	0.00000000	-61.24508000	-26.32874000
109.09999370	0.00000000	-61.57111000	-26.32874000
109.29999369	0.00000000	-61.19586000	-25.21530000
109.49999368	0.00000000	-60.03937000	-23.68356000
109.69999366	0.00000000	-58.54454000	-22.10261000
109.89999365	0.00000000	-57.33883000	-20.57087000
110.09999364	0.00000000	-56.58833000	-19.41437000
110.29999363	0.00000000	-56.22539000	-19.08218000
110.49999362	0.00000000	-56.96358000	-19.82652000
110.69999360	0.00000000	-58.08316000	-21.72736000
110.89999359	0.00000000	-58.91978000	-23.59129000
111.09999358	0.00000000	-60.08243000	-24.84621000
111.29999357	0.00000000	-61.19586000	-25.63976000
111.49999356	0.00000000	-61.57111000	-26.37795000
111.69999355	0.00000000	-61.24508000	-26.32874000
111.89999353	0.00000000	-60.45767000	-25.26452000
112.09999352	0.00000000	-59.70718000	-24.10187000
112.29999351	0.00000000	-58.91978000	-23.30832000
112.49999350	0.00000000	-58.54454000	-22.52091000
112.69999349	0.00000000	-58.50147000	-22.14567000
112.89999347	0.00000000	-58.50147000	-22.10261000
113.09999346	0.00000000	-58.50147000	-22.10261000
113.29999345	0.00000000	-58.54454000	-22.14567000
113.49999344	0.00000000	-58.87672000	-22.52091000
113.69999343	0.00000000	-59.24582000	-23.26525000
113.89999341	0.00000000	-58.91978000	-23.64050000
114.09999340	0.00000000	-58.96899000	-23.68356000
114.29999339	0.00000000	-59.66412000	-23.72662000
114.49999338	0.00000000	-60.03937000	-24.10187000
114.69999337	0.00000000	-60.03937000	-24.84621000
114.89999336	0.00000000	-59.66412000	-25.17224000
115.09999334	0.00000000	-58.91978000	-24.84621000
115.29999333	0.00000000	-58.54454000	-24.10187000
115.49999332	0.00000000	-58.50147000	-23.68356000
115.69999331	0.00000000	-58.50147000	-23.26525000
115.89999330	0.00000000	-58.50147000	-22.47785000
116.09999328	0.00000000	-58.50147000	-21.72736000
116.29999327	0.00000000	-58.54454000	-20.94611000
116.49999326	0.00000000	-58.91978000	-20.57087000
116.69999325	0.00000000	-59.66412000	-20.57087000
116.89999324	0.00000000	-59.99015000	-20.94611000
117.09999322	0.00000000	-59.66412000	-21.72736000
117.29999321	0.00000000	-58.91978000	-22.52091000
117.49999320	0.00000000	-58.50147000	-23.68356000
117.69999319	0.00000000	-58.08316000	-24.79700000
117.89999318	0.00000000	-57.33883000	-25.17224000
118.09999317	0.00000000	-56.96358000	-24.84621000
118.29999315	0.00000000	-56.96358000	-24.05881000
118.49999314	0.00000000	-57.38804000	-23.30832000
118.69999313	0.00000000	-58.50147000	-22.52091000
118.89999312	0.00000000	-59.66412000	-22.10261000
119.09999311	0.00000000	-60.45767000	-21.68430000
119.29999309	0.00000000	-61.19586000	-20.94611000
119.49999308	0.00000000	-61.19586000	-20.62008000
119.69999307	0.00000000	-60.45767000	-20.94611000
119.89999306	0.00000000	-59.66412000	-21.68430000
120.09999305	0.00000000	-58.50147000	-22.10261000
120.29999303	0.00000000	-57.33883000	-22.52091000
120.49999302	0.00000000	-56.54527000	-23.26525000
120.69999301	0.00000000	-55.75787000	-23.64050000
120.89999300	0.00000000	-55.43184000	-23.68356000
121.09999299	0.00000000	-55.80708000	-23.68356000
121.29999298	0.00000000	-56.96358000	-23.68356000
121.49999296	0.00000000	-58.50147000	-23.64050000
121.69999295	0.00000000	-60.03937000	-23.30832000
121.89999294	0.00000000	-61.19586000	-22.89616000
122.09999293	0.00000000	-61.62032000	-22.89001000
122.29999292	0.00000000	-61.62032000	-22.47785000
122.49999290	0.00000000	-61.19586000	-22.14567000
122.69999289	0.00000000	-60.03937000	-22.10261000
122.89999288	0.00000000	-58.54454000	-22.10261000
123.09999287	0.00000000	-57.38804000	-22.10261000
123.29999286	0.00000000	-56.96358000	-22.10261000
123.49999284	0.00000000	-56.92052000	-22.14567000
123.69999283	0.00000000	-56.92052000	-22.52091000
123.89999282	0.00000000	-56.96358000	-23.26525000
124.09999281	0.00000000	-57.33883000	-23.64050000
124.29999280	0.00000000	-58.12622000	-23.68356000
124.49999279	0.00000000	-58.87672000	-23.68356000
124.69999277	0.00000000	-59.70718000	-23.64050000
124.89999276	0.00000000	-60.45767000	-23.26525000
125.09999275	0.00000000	-61.19586000	-22.52091000
125.29999274	0.00000000	-61.19586000	-22.14567000
125.49999273	0.00000000	-60.45767000	-22.10261000
125.69999271	0.00000000	-59.70718000	-22.10261000
125.89999270	0.00000000	-58.87672000	-22.10261000
126.09999269	0.00000000	-58.08316000	-22.10261000
126.29999268	0.00000000	-56.92052000	-22.10261000
126.49999267	0.00000000	-55.85014000	-22.10261000
126.69999265	0.00000000	-55.80708000	-22.10261000
126.89999264	0.00000000	-56.54527000	-22.14567000
127.09999263	0.00000000	-57.33883000	-22.52091000
127.29999262	0.00000000	-58.54454000	-23.26525000
127.49999261	0.00000000	-60.03937000	-23.64050000
127.69999260	0.00000000	-61.19586000	-23.68356000
127.89999258	0.00000000	-61.57111000	-23.64050000
128.09999257	0.00000000	-61.19586000	-23.26525000
128.29999256	0.00000000	-60.03937000	-22.52091000
128.49999255	0.00000000	-58.54454000	-22.14567000
128.69999254	0.00000000	-57.33883000	-22.10261000
128.89999252	0.00000000	-56.58833000	-22.10261000
129.09999251	0.00000000	-56.17618000	-22.14567000
129.29999250	0.00000000	-56.58833000	-22.52091000
129.49999249	0.00000000	-57.29576000	-23.26525000
129.69999248	0.00000000	-58.12622000	-23.64050000
129.89999246	0.00000000	-58.87672000	-23.68356000
130.09999245	0.00000000	-59.66412000	-23.68356000
130.29999244	0.00000000	-60.03937000	-23.64050000
130.49999243	0.00000000	-60.08243000	-23.26525000
130.69999242	0.00000000	-60.03937000	-22.52091000
130.89999241	0.00000000	-59.61491000	-22.14567000
131.09999239	0.00000000	-58.50147000	-22.10261000
131.29999238	0.00000000	-57.38804000	-22.10261000
131.49999237	0.00000000	-56.96358000	-22.14567000
131.69999236	0.00000000	-56.96358000	-22.52091000
131.89999235	0.00000000	-57.33883000	-23.26525000
132.09999233	0.00000000	-58.08316000	-23.64050000
132.29999232	0.00000000	-58.45841000	-23.68356000
132.49999231	0.00000000	-58.50147000	-23.68356000
132.69999230	0.00000000	-58.50147000	-23.64050000
132.89999229	0.00000000	-58.50147000	-23.26525000
133.09999227	0.00000000	-58.50147000	-22.47785000
133.29999226	0.00000000	-58.50147000	-21.72736000
133.49999225	0.00000000	-58.50147000	-20.94611000
133.69999224	0.00000000	-58.50147000	-20.62008000
133.89999223	0.00000000	-58.50147000	-20.94611000
134.09999222	0.00000000	-58.45841000	-21.72736000
134.29999220	0.00000000	-58.12622000	-22.47785000
134.49999219	0.00000000	-57.75713000	-23.30832000
134.69999218	0.00000000	-58.08316000	-24.05881000
134.89999217	0.00000000	-58.08316000	-24.79700000
135.09999216	0.00000000	-57.71407000	-24.79700000
135.29999214	0.00000000	-57.75098000	-24.10187000
135.49999213	0.00000000	-57.71407000	-23.72662000
135.69999212	0.00000000	-58.12622000	-23.64050000
135.89999211	0.00000000	-58.45841000	-23.21604000
136.09999210	0.00000000	-58.54454000	-22.10261000
136.29999208	0.00000000	-58.91978000	-20.98917000
136.49999207	0.00000000	-59.66412000	-20.62008000
136.69999206	0.00000000	-59.99015000	-20.94611000
136.89999205	0.00000000	-59.66412000	-21.68430000
137.09999204	0.00000000	-58.87672000	-22.10261000
137.29999203	0.00000000	-58.12622000	-22.52091000
137.49999201	0.00000000	-57.33883000	-23.26525000
137.69999200	0.00000000	-56.96358000	-23.64050000
137.89999199	0.00000000	-56.92052000	-23.68356000
138.09999198	0.00000000	-56.96358000	-23.68356000
138.29999197	0.00000000	-57.33883000	-23.68356000
138.49999195	0.00000000	-58.08316000	-23.64050000
138.69999194	0.00000000	-58.50147000	-23.26525000
138.89999193	0.00000000	-58.91978000	-22.52091000
139.09999192	0.00000000	-59.61491000	-22.10261000
139.29999191	0.00000000	-59.61491000	-21.68430000
139.49999189	0.00000000	-58.91978000	-20.94611000
139.69999188	0.00000000	-58.50147000	-20.62008000
139.89999187	0.00000000	-58.08316000	-20.94611000
140.09999186	0.00000000	-57.33883000	-21.72736000
140.29999185	0.00000000	-57.01279000	-22.47785000
140.49999184	0.00000000	-57.33883000	-23.26525000
140.69999182	0.00000000	-58.08316000	-23.68356000
140.89999181	0.00000000	-58.45841000	-24.05881000
141.09999180	0.00000000	-58.50147000	-24.42790000
141.29999179	0.00000000	-58.50147000	-24.01575000
141.49999178	0.00000000	-58.50147000	-23.30832000
141.69999176	0.00000000	-58.50147000	-22.52091000
141.89999175	0.00000000	-58.50147000	-22.10261000
142.09999174	0.00000000	-58.45841000	-21.68430000
142.29999173	0.00000000	-58.08316000	-20.94611000
142.49999172	0.00000000	-57.33883000	-20.62008000
142.69999170	0.00000000	-57.01279000	-20.98917000
142.89999169	0.00000000	-57.33883000	-22.10261000
143.09999168	0.00000000	-58.08316000	-23.21604000
143.29999167	0.00000000	-58.45841000	-23.68356000
143.49999166	0.00000000	-58.50147000	-24.10187000
143.69999165	0.00000000	-58.50147000	-24.79700000
143.89999163	0.00000000	-58.50147000	-24.79700000
144.09999162	0.00000000	-58.45841000	-24.05881000
144.29999161	0.00000000	-58.08316000	-23.30832000
144.49999160	0.00000000	-57.33883000	-22.47785000
144.69999159	0.00000000	-56.96358000	-21.72736000
144.89999157	0.00000000	-56.92052000	-20.98917000
145.09999156	0.00000000	-56.96358000	-20.98917000
145.29999155	0.00000000	-57.33883000	-21.68430000
145.49999154	0.00000000	-58.08316000	-22.10261000
145.69999153	0.00000000	-58.45841000	-22.52091000
145.89999151	0.00000000	-58.50147000	-23.26525000
146.09999150	0.00000000	-58.50147000	-23.64050000
146.29999149	0.00000000	-58.50147000	-23.68356000
146.49999148	0.00000000	-58.45841000	-23.68356000
146.69999147	0.00000000	-58.08316000	-23.64050000
146.89999146	0.00000000	-57.33883000	-23.26525000
147.09999144	0.00000000	-56.96358000	-22.52091000
147.29999143	0.00000000	-56.96358000	-22.14567000
147.49999142	0.00000000	-57.33883000	-22.10261000
147.69999141	0.00000000	-58.08316000	-22.10261000
147.89999140	0.00000000	-58.45841000	-22.10261000
148.09999138	0.00000000	-58.50147000	-22.10261000
148.29999137	0.00000000	-58.50147000	-22.14567000
148.49999136	0.00000000	-58.50147000	-22.52091000
148.69999135	0.00000000	-58.50147000	-23.26525000
148.89999134	0.00000000	-58.50147000	-23.64050000
149.09999132	0.00000000	-58.50147000	-23.68356000
149.29999131	0.00000000	-58.45841000	-23.68356000
149.49999130	0.00000000	-58.08316000	-23.64050000
149.69999129	0.00000000	-57.33883000	-23.26525000
149.89999128	0.00000000	-56.96358000	-22.47785000
150.09999127	0.00000000	-56.92052000	-21.77658000
150.29999125	0.00000000	-56.92052000	-21.36442000
150.49999124	0.00000000	-56.96358000	-21.68430000
150.69999123	0.00000000	-57.33883000	-21.68430000
150.89999122	0.00000000	-58.08316000	-21.36442000
151.09999121	0.00000000	-58.45841000	-21.72736000
151.29999119	0.00000000	-58.50147000	-22.05955000
151.49999118	0.00000000	-58.50147000	-22.14567000
151.69999117	0.00000000	-58.50147000	-22.52091000
151.89999116	0.00000000	-58.50147000	-23.26525000
152.09999115	0.00000000	-58.50147000	-23.64050000
152.29999113	0.00000000	-58.45841000	-23.64050000
152.49999112	0.00000000	-58.08316000	-23.26525000
152.69999111	0.00000000	-57.33883000	-22.52091000
152.89999110	0.00000000	-56.96358000	-22.14567000
153.09999109	0.00000000	-56.92052000	-22.10261000
153.29999108	0.00000000	-56.96358000	-22.10261000
153.49999106	0.00000000	-57.33883000	-22.10261000
153.69999105	0.00000000	-58.08316000	-22.10261000
153.89999104	0.00000000	-58.45841000	-22.10261000
154.09999103	0.00000000	-58.50147000	-22.10261000
154.29999102	0.00000000	-58.50147000	-22.10261000
154.49999100	0.00000000	-58.50147000	-22.10261000
154.69999099	0.00000000	-58.45841000	-22.14567000
154.89999098	0.00000000	-58.08316000	-22.52091000
155.09999097	0.00000000	-57.33883000	-23.21604000
155.29999096	0.00000000	-56.96358000	-23.26525000
155.49999094	0.00000000	-56.92052000	-22.89616000
155.69999093	0.00000000	-56.92052000	-22.89001000
155.89999092	0.00000000	-56.92052000	-22.47785000
156.09999091	0.00000000	-56.96358000	-22.14567000
156.29999090	0.00000000	-57.33883000	-22.10261000
156.49999089	0.00000000	-58.08316000	-22.10261000
156.69999087	0.00000000	-58.45841000	-22.10261000
156.89999086	0.00000000	-58.50147000	-22.10261000
157.09999085	0.00000000	-58.50147000	-22.10261000
157.29999084	0.00000000	-58.50147000	-22.10261000
157.49999083	0.00000000	-58.50147000	-22.10261000
157.69999081	0.00000000	-58.50147000	-22.14567000
157.89999080	0.00000000	-58.45841000	-22.52091000
158.09999079	0.00000000	-58.08316000	-23.26525000
158.29999078	0.00000000	-57.33883000	-23.64050000
158.49999077	0.00000000	-56.96358000	-23.64050000
158.69999075	0.00000000	-56.92052000	-23.26525000
158.89999074	0.00000000	-56.92052000	-22.52091000
159.09999073	0.00000000	-56.96358000	-22.14567000
159.29999072	0.00000000	-57.29576000	-22.05955000
159.49999071	0.00000000	-57.70792000	-21.72736000
159.69999070	0.00000000	-57.71407000	-21.36442000
159.89999068	0.00000000	-58.12622000	-21.72736000
160.09999067	0.00000000	-58.45841000	-22.05955000
160.29999066	0.00000000	-58.50147000	-22.10261000
160.49999065	0.00000000	-58.50147000	-22.10261000
160.69999064	0.00000000	-58.50147000	-22.14567000
160.89999062	0.00000000	-58.45841000	-22.52091000
161.09999061	0.00000000	-58.08316000	-23.26525000
161.29999060	0.00000000	-57.33883000	-23.64050000
161.49999059	0.00000000	-56.96358000	-23.64050000
161.69999058	0.00000000	-56.92052000	-23.26525000
161.89999056	0.00000000	-56.92052000	-22.52091000
162.09999055	0.00000000	-56.92052000	-22.14567000
162.29999054	0.00000000	-56.92052000	-22.10261000
162.49999053	0.00000000	-56.96358000	-22.10261000
162.69999052	0.00000000	-57.33883000	-22.10261000
162.89999051	0.00000000	-58.08316000	-22.10261000
163.09999049	0.00000000	-58.45841000	-22.10261000
163.29999048	0.00000000	-58.50147000	-22.10261000
163.49999047	0.00000000	-58.50147000	-22.10261000
163.69999046	0.00000000	-58.45841000	-22.10261000
163.89999045	0.00000000	-58.12622000	-22.10261000
164.09999043	0.00000000	-57.71407000	-22.10261000
164.29999042	0.00000000	-57.70792000	-22.10261000
164.49999041	0.00000000	-57.29576000	-22.10261000
164.69999040	0.00000000	-56.96358000	-22.10261000
164.89999039	0.00000000	-56.92052000	-22.10261000
165.09999037	0.00000000	-56.92052000	-22.10261000
165.29999036	0.00000000	-56.92052000	-22.10261000
165.49999035	0.00000000	-56.92052000	-22.10261000
165.69999034	0.00000000	-56.96358000	-22.10261000
165.89999033	0.00000000	-57.33883000	-22.10261000
166.09999032	0.00000000	-58.08316000	-22.10261000
166.29999030	0.00000000	-58.45841000	-22.10261000
166.49999029	0.00000000	-58.45841000	-22.10261000
166.69999028	0.00000000	-58.08316000	-22.10261000
166.89999027	0.00000000	-57.33883000	-22.10261000
167.09999026	0.00000000	-56.96358000	-22.10261000
167.29999024	0.00000000	-56.92052000	-22.10261000
167.49999023	0.00000000	-56.92052000	-22.10261000
167.69999022	0.00000000	-56.87746000	-22.10261000
167.89999021	0.00000000	-56.54527000	-22.10261000
168.09999020	0.00000000	-56.22539000	-22.10261000
168.29999018	0.00000000	-56.92052000	-22.10261000
168.49999017	0.00000000	-57.61565000	-22.10261000
168.69999016	0.00000000	-57.29576000	-22.10261000
168.89999015	0.00000000	-56.96358000	-22.10261000
169.09999014	0.00000000	-56.96358000	-22.10261000
169.29999013	0.00000000	-57.29576000	-22.10261000
169.49999011	0.00000000	-57.66486000	-22.10261000
169.69999010	0.00000000	-57.29576000	-22.10261000
169.89999009	0.00000000	-56.96358000	-22.10261000
170.09999008	0.00000000	-56.92052000	-22.10261000
170.29999007	0.00000000	-56.92052000	-22.10261000
170.49999005	0.00000000	-56.92052000	-22.10261000
170.69999004	0.00000000	-56.92052000	-22.10261000
170.89999003	0.00000000	-56.92052000	-22.10261000
171.09999002	0.00000000	-56.92052000	-22.10261000
171.29999001	0.00000000	-56.92052000	-22.10261000
171.49998999	0.00000000	-56.92052000	-22.10261000
171.69998998	0.00000000	-56.92052000	-22.10261000
171.89998997	0.00000000	-56.92052000	-22.10261000
172.09998996	0.00000000	-56.92052000	-22.10261000
172.29998995	0.00000000	-56.92052000	-22.10261000
172.49998994	0.00000000	-56.92052000	-22.10261000
172.69998992	0.00000000	-56.96358000	-22.10261000
172.89998991	0.00000000	-57.29576000	-22.10261000
173.09998990	0.00000000	-57.66486000	-22.10261000
173.29998989	0.00000000	-57.29576000	-22.10261000
173.49998988	0.00000000	-56.96358000	-22.10261000
173.69998986	0.00000000	-56.92052000	-22.10261000
173.89998985	0.00000000	-56.92052000	-22.10261000
174.09998984	0.00000000	-56.92052000	-22.10261000
174.29998983	0.00000000	-56.92052000	-22.10261000
174.49998982	0.00000000	-56.92052000	-22.10261000
174.69998980	0.00000000	-56.92052000	-22.10261000
174.89998979	0.00000000	-56.92052000	-22.10261000
175.09998978	0.00000000	-56.92052000	-22.10261000
175.29998977	0.00000000	-56.92052000	-22.10261000
175.49998976	0.00000000	-56.92052000	-22.10261000
175.69998975	0.00000000	-56.92052000	-22.10261000
175.89998973	0.00000000	-56.96358000	-22.10261000
176.09998972	0.00000000	-57.29576000	-22.10261000
176.29998971	0.00000000	-57.66486000	-22.10261000
176.49998970	0.00000000	-57.29576000	-22.10261000
176.69998969	0.00000000	-56.96358000	-22.10261000
176.89998967	0.00000000	-56.92052000	-22.10261000
177.09998966	0.00000000	-56.92052000	-22.10261000
177.29998965	0.00000000	-56.92052000	-22.10261000
177.49998964	0.00000000	-56.92052000	-22.10261000
177.69998963	0.00000000	-56.92052000	-22.10261000
177.89998961	0.00000000	-56.92052000	-22.10261000
178.09998960	0.00000000	-56.92052000	-22.10261000
178.29998959	0.00000000	-56.92052000	-22.10261000
178.49998958	0.00000000	-56.92052000	-22.10261000
178.69998957	0.00000000	-56.92052000	-22.10261000
178.89998956	0.00000000	-56.92052000	-22.10261000
179.09998954	0.00000000	-56.92052000	-22.10261000
179.29998953	0.00000000	-56.92052000	-22.10261000
179.49998952	0.00000000	-56.92052000	-22.10261000
179.69998951	0.00000000	-56.92052000	-22.10261000
179.89998950	0.00000000	-56.92052000	-22.10261000
180.09998948	0.00000000	-56.92052000	-22.10261000
180.29998947	0.00000000	-56.92052000	-22.10261000
180.49998946	0.00000000	-56.92052000	-22.10261000
180.69998945	0.00000000	-56.92052000	-22.10261000
180.89998944	0.00000000	-56.92052000	-22.10261000
181.09998942	0.00000000	-56.96358000	-22.10261000
181.29998941	0.00000000	-57.29576000	-22.05955000
181.49998940	0.00000000	-57.66486000	-21.68430000
181.69998939	0.00000000	-57.29576000	-20.98917000
181.89998938	0.00000000	-56.96358000	-20.98917000
182.09998937	0.00000000	-56.92052000	-21.68430000
182.29998935	0.00000000	-56.92052000	-22.05955000
182.49998934	0.00000000	-56.92052000	-22.10261000
182.69998933	0.00000000	-56.92052000	-22.10261000
182.89998932	0.00000000	-56.92052000	-22.10261000
183.09998931	0.00000000	-56.92052000	-22.10261000
183.29998929	0.00000000	-56.92052000	-22.10261000
183.49998928	0.00000000	-56.92052000	-22.10261000
183.69998927	0.00000000	-56.92052000	-22.10261000
183.89998926	0.00000000	-56.92052000	-22.10261000
184.09998925	0.00000000	-56.92052000	-22.10261000
184.29998923	0.00000000	-56.92052000	-22.10261000
184.49998922	0.00000000	-56.92052000	-22.10261000
184.69998921	0.00000000	-56.92052000	-22.05955000
184.89998920	0.00000000	-56.92052000	-21.72736000
185.09998919	0.00000000	-56.92052000	-21.36442000
185.29998918	0.00000000	-56.92052000	-21.72736000
185.49998916	0.00000000	-56.92052000	-22.05955000
185.69998915	0.00000000	-56.92052000	-22.14567000
185.89998914	0.00000000	-56.92052000	-22.47785000
186.09998913	0.00000000	-56.92052000	-22.89001000
186.29998912	0.00000000	-56.92052000	-22.89616000
186.49998910	0.00000000	-56.92052000	-23.26525000
186.69998909	0.00000000	-56.92052000	-23.21604000
186.89998908	0.00000000	-56.92052000	-22.47785000
187.09998907	0.00000000	-56.92052000	-21.77658000
187.29998906	0.00000000	-56.92052000	-21.36442000
187.49998904	0.00000000	-56.92052000	-21.72736000
187.69998903	0.00000000	-56.92052000	-22.05955000
187.89998902	0.00000000	-56.92052000	-22.10261000
188.09998901	0.00000000	-56.92052000	-22.10261000
188.29998900	0.00000000	-56.92052000	-22.10261000
188.49998899	0.00000000	-56.92052000	-22.14567000
188.69998897	0.00000000	-56.92052000	-22.47785000
188.89998896	0.00000000	-56.92052000	-22.84695000
189.09998895	0.00000000	-56.92052000	-22.47785000
189.29998894	0.00000000	-56.92052000	-22.14567000
189.49998893	0.00000000	-56.92052000	-22.14567000
189.69998891	0.00000000	-56.92052000	-22.47785000
189.89998890	0.00000000	-56.92052000	-22.84695000
190.09998889	0.00000000	-56.92052000	-22.47785000
190.29998888	0.00000000	-56.92052000	-22.14567000
190.49998887	0.00000000	-56.92052000	-22.10261000
190.69998885	0.00000000	-56.92052000	-22.10261000
190.89998884	0.00000000	-56.96358000	-22.10261000
191.09998883	0.00000000	-57.25270000	-22.10261000
191.29998882	0.00000000	-57.28961000	-22.10261000
191.49998881	0.00000000	-56.55142000	-22.10261000
191.69998880	0.00000000	-56.58833000	-22.14567000
191.89998878	0.00000000	-56.87746000	-22.52091000
192.09998877	0.00000000	-56.92052000	-23.21604000
192.29998876	0.00000000	-56.92052000	-23.21604000
192.49998875	0.00000000	-56.92052000	-22.57013000
192.69998874	0.00000000	-56.92052000	-22.52091000
192.89998872	0.00000000	-56.92052000	-22.84695000
193.09998871	0.00000000	-56.92052000	-22.47785000
193.29998870	0.00000000	-56.92052000	-22.14567000
193.49998869	0.00000000	-56.92052000	-22.10261000
193.69998868	0.00000000	-56.92052000	-22.10261000
193.89998866	0.00000000	-56.92052000	-22.10261000
194.09998865	0.00000000	-56.92052000	-22.10261000
194.29998864	0.00000000	-56.92052000	-22.10261000
194.49998863	0.00000000	-56.92052000	-22.10261000
194.69998862	0.00000000	-56.92052000	-22.10261000
194.89998861	0.00000000	-56.92052000	-22.10261000
195.09998859	0.00000000	-56.92052000	-22.10261000
195.29998858	0.00000000	-56.92052000	-22.10261000
195.49998857	0.00000000	-56.96358000	-22.10261000
195.69998856	0.00000000	-57.29576000	-22.10261000
195.89998855	0.00000000	-57.66486000	-22.10261000
196.09998853	0.00000000	-57.29576000	-22.10261000
