Time	Channel A	Channel B	Channel C
(us)	(V)	(mV)	(mV)

-4.49999956	0.00000000	6.69906400	6.31151500
-4.29999957	0.00000000	6.36687900	6.31151500
-4.09999958	0.00000000	6.32381900	6.31151500
-3.89999959	0.00000000	6.36687900	6.31151500
-3.69999960	0.00000000	6.74212600	6.31151500
-3.49999962	0.00000000	7.43725300	6.31151500
-3.29999963	0.00000000	7.43725300	6.31151500
-3.09999964	0.00000000	6.74212600	6.31151500
-2.89999965	0.00000000	6.36687900	6.31151500
-2.69999966	0.00000000	6.32381900	6.31151500
-2.49999968	0.00000000	6.36687900	6.31151500
-2.29999969	0.00000000	6.74212600	6.31151500
-2.09999970	0.00000000	7.43725300	6.31151500
-1.89999971	0.00000000	7.43725300	6.31151500
-1.69999972	0.00000000	6.74212600	6.31151500
-1.49999973	0.00000000	6.41609200	6.31151500
-1.29999975	0.00000000	6.69906400	6.31151500
-1.09999976	0.00000000	7.06815900	6.31151500
-0.89999977	0.00000000	6.69906400	6.31151500
-0.69999978	0.00000000	6.36687900	6.31151500
-0.49999979	0.00000000	6.32381900	6.31151500
-0.29999981	0.31803640	6.32381900	6.31151500
-0.09999982	0.63668800	6.32381900	6.31151500
0.10000017	0.95533960	6.32381900	6.31151500
0.30000016	0.95533960	6.32381900	6.31151500
0.50000015	0.79601380	6.32381900	6.31151500
0.70000013	0.15871060	6.32381900	6.31151500
0.90000012	-0.63668800	6.32381900	6.31151500
1.10000011	-1.59264300	6.32381900	6.31151500
1.30000010	-2.38927200	6.32381900	6.31151500
1.50000009	-2.86724900	6.36687900	6.31151500
1.70000008	-2.38927200	6.74212600	6.31151500
1.90000006	-1.11466500	7.43725300	6.31151500
2.10000005	0.79601380	7.48646600	6.31151500
2.30000004	2.86724900	7.11737200	6.31151500
2.50000003	4.61921700	7.11122000	6.31151500
2.70000002	5.41584600	6.74212600	6.26845500
2.90000000	4.61921700	6.74212600	5.89320800
3.09999999	2.70792300	7.06815900	5.19808000
3.29999998	-0.47736220	6.69906400	5.19808000
3.49999997	-3.82258900	6.36687900	5.89320800
3.69999996	-6.69045300	6.36687900	6.26845500
3.89999994	-7.96444400	6.74212600	6.35457700
4.09999993	-7.32714100	7.48646600	6.68676100
4.29999992	-4.61921700	7.86171200	7.05585600
4.49999991	-0.47736220	7.86171200	6.68676100
4.69999990	3.82258900	7.48646600	6.35457700
4.89999989	7.48646600	6.74212600	6.31151500
5.09999987	9.39837600	6.36687900	6.26845500
5.29999986	8.92039900	6.32381900	5.89320800
5.49999985	6.21247500	6.32381900	5.15501900
5.69999984	1.75196900	6.36687900	4.82898600
5.89999983	-2.86724900	6.69906400	5.15501900
6.09999981	-7.00848900	7.06815900	5.89320800
6.29999980	-9.23905000	6.74212600	6.26845500
6.49999979	-9.07972400	6.79133800	6.31151500
6.69999978	-6.84916400	7.48646600	6.31151500
6.89999977	-2.86724900	7.86171200	6.31151500
7.09999975	1.43331700	7.86171200	6.31151500
7.29999974	5.25652100	7.48646600	6.31151500
7.49999973	7.32714100	6.79133800	6.31151500
7.69999972	7.64579200	6.74212600	6.31151500
7.89999971	6.05315000	7.06815900	6.26845500
8.09999970	3.02657500	6.74212600	5.93626900
8.29999968	-0.31803640	6.79133800	5.57332700
8.49999967	-3.18590100	7.43725300	5.93626900
8.69999966	-4.77854300	7.48646600	6.26845500
8.89999965	-5.09719500	7.11737200	6.31151500
9.09999964	-4.30056600	7.15428100	6.31151500
9.29999962	-2.54859700	7.07431000	6.31151500
9.49999961	-0.47736220	7.11122000	6.31151500
9.69999960	1.27399100	6.69906400	6.31151500
9.89999959	2.22994600	6.41609200	6.31151500
10.09999958	2.54859700	6.69906400	6.31151500
10.29999956	2.07062000	7.06815900	6.31151500
10.49999955	1.27399100	6.69906400	6.31151500
10.69999954	0.47736220	6.41609200	6.31151500
10.89999953	-0.31803640	6.74212600	6.31151500
11.09999952	-0.79601380	7.43725300	6.31151500
11.29999951	-0.95533960	7.48646600	6.31151500
11.49999949	-0.95533960	7.16043300	6.31151500
11.69999948	-0.63668800	7.48646600	6.31151500
11.89999947	-0.31803640	7.43725300	6.31151500
12.09999946	-0.15871060	6.74212600	6.31151500
12.29999945	-0.15871060	6.36687900	6.31151500
12.49999943	-0.15871060	6.36687900	6.31151500
12.69999942	0.00000000	6.69906400	6.31151500
12.89999941	0.00000000	7.06815900	6.31151500
13.09999940	0.00000000	6.69906400	6.31151500
13.29999939	0.00000000	6.41609200	6.31151500
13.49999937	0.00000000	6.74212600	6.31151500
13.69999936	0.00000000	7.48646600	6.31151500
13.89999935	-0.15871060	7.81250000	6.31151500
14.09999934	-0.15871060	7.48646600	6.31151500
14.29999933	-0.15871060	6.79133800	6.31151500
14.49999932	-0.15871060	6.74212600	6.31151500
14.69999930	0.00000000	7.06815900	6.31151500
14.89999929	0.00000000	6.69906400	6.31151500
15.09999928	0.00000000	6.36687900	6.31151500
15.29999927	0.00000000	6.32381900	6.31151500
15.49999926	0.00000000	6.32381900	6.31151500
15.69999924	0.00000000	6.32381900	6.31151500
15.89999923	0.00000000	6.32381900	6.31151500
16.09999922	0.00000000	6.32381900	6.31151500
16.29999921	0.00000000	6.36687900	6.31151500
16.49999920	0.00000000	6.74212600	6.35457700
16.69999919	0.00000000	7.52952700	6.68676100
16.89999917	-0.15871060	8.23695900	7.05585600
17.09999916	0.00000000	8.69217500	6.68676100
17.29999915	0.00000000	8.69832600	6.35457700
17.49999914	0.00000000	9.06742000	6.31151500
17.69999913	0.00000000	9.01820900	6.31151500
17.89999911	0.00000000	8.28001900	6.31151500
18.09999910	0.00000000	7.48646600	6.31151500
18.29999909	0.00000000	6.28075700	6.31151500
18.49999908	0.00000000	4.74286400	6.31151500
18.69999907	0.00000000	3.20497000	6.31151500
18.89999905	0.00000000	2.09153500	6.31151500
19.09999904	0.00000000	2.13459600	6.31151500
19.29999903	0.00000000	3.67249000	6.31151500
19.49999902	0.00000000	6.41609200	6.31151500
19.69999901	0.00000000	9.90403500	6.31151500
19.89999900	0.00000000	13.76107000	6.31151500
20.09999898	0.00000000	16.83686000	6.31151500
20.29999897	0.00000000	18.32554000	6.31151500
20.49999896	0.00000000	17.48893000	6.31151500
20.69999895	0.00000000	13.58268000	6.31151500
20.89999894	0.00000000	7.39419200	6.31151500
21.09999892	0.00000000	0.00000000	6.31151500
21.29999891	0.00000000	-7.30807100	6.31151500
21.49999890	0.00000000	-12.61073000	6.31151500
21.69999889	0.00000000	-13.68110000	6.31151500
21.89999888	0.00000000	-9.35654400	6.31151500
22.09999886	0.00000000	-0.09842519	6.31151500
22.29999885	0.00000000	12.27239000	6.26845500
22.49999884	0.00000000	24.65551000	5.93626900
22.69999883	0.00000000	34.65797000	5.57332700
22.89999882	0.00000000	39.54232000	5.93626900
23.09999881	0.00000000	36.79872000	6.31151500
23.29999879	0.00000000	26.70398000	6.72982200
23.49999878	0.00000000	11.20817000	7.47416300
23.69999877	0.00000000	-6.93282500	7.84940900
23.89999876	0.00000000	-23.12377000	7.89247000
24.09999875	0.00000000	-33.50147000	7.84940900
24.29999873	0.00000000	-35.31619000	7.42495000
24.49999872	0.00000000	-26.80241000	6.26845500
24.69999871	0.00000000	-9.77485200	4.73671200
24.89999870	0.00000000	11.86024000	3.15575800
25.09999869	0.00000000	33.86442000	1.62401600
25.29999867	0.00000000	50.38755000	0.51058070
25.49999866	0.00000000	57.36343000	0.55364170
25.69999865	0.00000000	53.03887000	2.12844500
25.89999864	0.00000000	37.96136000	5.24729300
26.09999863	0.00000000	15.21284000	9.47342500
26.29999862	0.00000000	-9.49187900	13.69956000
26.49999860	0.00000000	-30.38263000	16.76919000
26.69999859	0.00000000	-43.12869000	17.92569000
26.89999858	0.00000000	-44.62352000	16.67692000
27.09999857	0.00000000	-34.24581000	12.77067000
27.29999856	0.00000000	-14.52387000	6.22539300
27.49999854	0.00000000	9.77485200	-1.11343500
27.69999853	0.00000000	33.31078000	-7.71407400
27.89999852	0.00000000	49.96924000	-12.63533000
28.09999851	0.00000000	56.57603000	-13.70571000
28.29999850	0.00000000	52.38066000	-9.84867000
28.49999848	0.00000000	38.10285000	-2.09153500
28.69999847	0.00000000	18.04257000	8.40305000
28.89999846	0.00000000	-3.63558100	19.97416000
29.09999845	0.00000000	-22.15182000	29.91511000
29.29999844	0.00000000	-33.04010000	35.30389000
29.49999843	0.00000000	-34.70718000	34.51648000
29.69999841	0.00000000	-27.77436000	27.91584000
29.89999840	0.00000000	-14.23474000	16.21555000
30.09999839	0.00000000	3.16190900	1.20570900
30.29999838	0.00000000	20.51550000	-13.84104000
30.49999837	0.00000000	33.72908000	-25.00000000
30.69999835	0.00000000	40.38509000	-30.01353000
30.89999834	0.00000000	40.00984000	-27.23302000
31.09999833	0.00000000	32.70177000	-16.81841000
31.29999832	0.00000000	20.41708000	-1.02116100
31.49999831	0.00000000	6.87746000	16.35089000
31.69999829	0.00000000	-5.21653500	31.49606000
31.89999828	0.00000000	-14.14862000	41.90453000
32.09999827	0.00000000	-18.42397000	45.33710000
32.29999826	0.00000000	-17.26132000	40.32357000
32.49999825	0.00000000	-11.07283000	28.38337000
32.69999824	0.00000000	-1.07037400	12.12475000
32.89999822	0.00000000	10.09473000	-5.25344500
33.09999821	0.00000000	19.39591000	-19.97416000
33.29999820	0.00000000	25.25836000	-29.22613000
33.49999819	0.00000000	26.83932000	-31.17618000
33.69999818	0.00000000	24.13878000	-25.00000000
33.89999816	0.00000000	17.99951000	-12.68455000
34.09999815	0.00000000	9.90403500	3.20497000
34.29999814	0.00000000	2.17765700	19.42052000
34.49999813	-0.15871060	-3.63558100	32.52337000
34.69999812	0.00000000	-6.32997000	39.48696000
34.89999810	0.00000000	-5.21653500	38.74877000
35.09999809	0.00000000	-1.02731300	31.07775000
35.29999808	0.00000000	4.74286400	18.30093000
35.49999807	0.00000000	10.55610000	3.29109200
35.69999806	0.00000000	15.16363000	-10.59301000
35.89999805	0.00000000	17.43971000	-19.84498000
36.09999803	0.00000000	16.32628000	-22.58243000
36.29999802	0.00000000	12.55536000	-18.39936000
36.49999801	0.00000000	7.90477300	-8.78444900
36.69999800	0.00000000	3.25418300	3.53100400
36.89999799	0.00000000	-0.55979330	15.84030000
37.09999797	0.00000000	-2.09768700	24.66781000
37.29999796	0.00000000	-0.93503930	27.78666000
37.49999795	0.00000000	2.50984200	24.76009000
37.69999794	0.00000000	7.48646600	16.71998000
37.89999793	0.00000000	12.09400000	6.40378900
38.09999791	0.00000000	15.21284000	-3.21112200
38.29999790	0.00000000	16.36934000	-9.34424200
38.49999789	0.00000000	15.25591000	-10.50074000
38.69999788	0.00000000	12.55536000	-6.27460600
38.89999787	0.00000000	9.01820900	2.08538400
39.09999786	0.00000000	4.74286400	11.65723000
39.29999784	0.00000000	0.55364170	19.32825000
39.49999783	0.00000000	-2.18996000	23.18528000
39.69999782	0.00000000	-2.98351400	22.02264000
39.89999781	0.00000000	-2.18996000	16.25861000
40.09999780	0.00000000	0.55364170	7.43110200
40.29999778	0.00000000	4.78592500	-2.14074800
40.49999777	0.00000000	9.44266700	-9.38730200
40.69999776	0.00000000	13.67495000	-12.12475000
40.89999775	0.00000000	16.41855000	-9.80561000
41.09999774	0.00000000	17.21210000	-3.25418300
41.29999772	0.00000000	16.41855000	6.31151500
41.49999771	0.00000000	13.71801000	15.88336000
41.69999770	0.00000000	9.86097400	22.44094000
41.89999769	0.00000000	5.94857300	24.80315000
42.09999768	0.00000000	2.09153500	22.48400000
42.29999767	0.00000000	-0.60900590	16.39395000
42.49999765	0.00000000	-1.40255900	8.26771600
42.69999764	0.00000000	-0.65206690	0.17839570
42.89999763	0.00000000	1.67322800	-6.32381900
43.09999762	0.00000000	4.69980300	-9.01205700
43.29999761	0.00000000	7.43725300	-7.24655500
43.49999759	0.00000000	9.39345400	-3.02042300
43.69999758	0.00000000	10.59916000	2.41756900
43.89999757	0.00000000	11.02362000	8.58759800
44.09999756	0.00000000	11.02362000	13.56422000
44.29999755	0.00000000	10.64838000	16.30167000
44.49999753	0.00000000	9.90403500	16.35089000
44.69999752	0.00000000	9.52879000	14.07480000
44.89999751	0.00000000	9.48572700	10.62992000
45.09999750	0.00000000	9.44266700	6.72982200
45.29999749	0.00000000	9.01820900	3.29109200
45.49999748	0.00000000	7.81250000	0.92888770
45.69999746	0.00000000	5.85629900	0.17839570
45.89999745	0.00000000	3.11884800	0.87967510
46.09999744	0.00000000	0.09227362	2.82972400
46.29999743	0.00000000	-2.18996000	5.15501900
46.49999742	0.00000000	-2.51599400	7.84940900
46.69999740	0.00000000	-0.55979330	10.11934000
46.89999739	0.00000000	3.71555100	10.95595000
47.09999738	0.00000000	9.52879000	10.95595000
47.29999737	0.00000000	15.67421000	10.11934000
47.49999736	0.00000000	20.65084000	7.84940900
47.69999734	0.00000000	22.55782000	5.15501900
47.89999733	0.00000000	20.97687000	2.82972400
48.09999732	0.00000000	15.90797000	0.92888770
48.29999731	0.00000000	7.86171200	0.55364170
48.49999730	0.00000000	-0.65206690	1.66707700
48.69999729	0.00000000	-7.59104300	3.61712600
48.89999727	0.00000000	-11.81717000	6.36072800
49.09999726	0.00000000	-11.35581000	9.42421200
49.29999725	0.00000000	-6.37303100	12.11860000
49.49999724	0.00000000	2.13459600	13.61343000
49.69999723	0.00000000	12.13706000	13.23819000
49.89999721	0.00000000	20.97687000	10.91289000
50.09999720	0.00000000	26.37180000	7.47416300
50.29999719	0.00000000	26.74705000	3.57406500
50.49999718	0.00000000	22.18258000	0.13533460
50.69999717	0.00000000	14.09326000	-2.18380900
50.89999715	0.00000000	4.83513700	-2.55905500
51.09999714	0.00000000	-3.67864200	-1.02116100
51.29999713	0.00000000	-9.40575800	2.08538400
51.49999712	0.00000000	-10.56225000	6.31151500
51.69999711	0.00000000	-6.70521600	10.53765000
51.89999710	0.00000000	0.92888770	13.65650000
52.09999708	0.00000000	10.13779000	15.18824000
52.29999707	0.00000000	17.81496000	14.76993000
52.49999706	0.00000000	22.09646000	12.07554000
52.69999705	0.00000000	22.09646000	7.89247000
52.89999704	0.00000000	17.90723000	3.66633800
53.09999702	0.00000000	10.97441000	0.55364170
53.29999701	0.00000000	3.29724400	-1.02116100
53.49999700	0.00000000	-3.21112200	-1.02116100
53.69999699	0.00000000	-6.28690900	0.55364170
53.89999698	0.00000000	-5.16732200	3.57406500
54.09999696	0.00000000	-0.60900590	7.01279500
54.29999695	0.00000000	5.94857300	9.33809000
54.49999694	0.00000000	12.46924000	10.49459000
54.69999693	0.00000000	17.48893000	10.11934000
54.89999692	0.00000000	19.39591000	8.26771600
55.09999691	0.00000000	17.90723000	6.36072800
55.29999689	0.00000000	13.67495000	4.82283400
55.49999688	0.00000000	7.90477300	4.08464600
55.69999687	0.00000000	2.13459600	4.82283400
55.89999686	0.00000000	-2.09768700	6.31151500
56.09999685	0.00000000	-3.63558100	7.84940900
56.29999683	0.00000000	-2.14074800	9.00590400
56.49999682	0.00000000	1.71628900	9.33809000
56.69999681	0.00000000	6.69906400	8.54453700
56.89999680	0.00000000	11.71875000	6.22539300
57.09999679	0.00000000	15.16363000	3.24803100
57.29999677	0.00000000	16.36934000	0.87967510
57.49999676	0.00000000	15.21284000	-0.23991140
57.69999675	0.00000000	12.18012000	-0.18454720
57.89999674	0.00000000	8.32308000	2.17765700
58.09999673	0.00000000	4.83513700	6.35457700
58.29999672	0.00000000	2.13459600	10.95595000
58.49999670	0.00000000	0.97194880	14.81299000
58.69999669	0.00000000	1.71628900	16.71998000
58.89999668	0.00000000	3.58021600	16.35089000
59.09999667	0.00000000	5.94857300	13.56422000
59.29999666	0.00000000	8.23695900	8.54453700
59.49999664	0.00000000	10.13779000	2.04232300
59.69999663	0.00000000	10.55610000	-3.67249000
59.89999662	0.00000000	9.86097400	-6.78518600
60.09999661	0.00000000	9.06742000	-6.78518600
60.29999660	0.00000000	7.90477300	-3.67249000
60.49999658	0.00000000	6.79133800	2.12844500
60.69999657	0.00000000	6.36687900	9.42421200
60.89999656	0.00000000	6.36687900	16.35089000
61.09999655	0.00000000	6.74212600	20.90305000
61.29999654	0.00000000	7.48646600	21.69045000
61.49999653	0.00000000	7.86171200	18.25787000
61.69999651	0.00000000	7.90477300	12.11860000
61.89999650	0.00000000	7.86171200	4.73671200
62.09999649	0.00000000	7.48646600	-2.55905500
62.29999648	0.00000000	6.69906400	-7.94783400
62.49999647	0.00000000	5.94857300	-9.85482200
62.69999645	0.00000000	5.21038300	-7.94783400
62.89999644	0.00000000	5.25344500	-2.55905500
63.09999643	0.00000000	6.32381900	4.73671200
63.29999642	0.00000000	7.48646600	12.07554000
63.49999641	0.00000000	8.28001900	17.88263000
63.69999639	0.00000000	9.06742000	20.99532000
63.89999638	0.00000000	9.44266700	20.99532000
64.09999637	0.00000000	9.44266700	17.88263000
64.29999636	0.00000000	9.01820900	12.11860000
64.49999635	0.00000000	7.86171200	5.20423200
64.69999634	0.00000000	6.36687900	-0.97810030
64.89999632	0.00000000	5.21038300	-5.24729300
65.09999631	0.00000000	4.83513700	-6.82824800
65.29999630	0.00000000	5.21038300	-5.71481200
65.49999629	0.00000000	6.32381900	-2.60211600
65.69999628	0.00000000	7.43725300	2.04232300
65.89999626	0.00000000	7.90477300	7.42495000
66.09999625	0.00000000	8.28001900	12.03248000
66.29999624	0.00000000	8.59990100	14.81299000
66.49999623	0.00000000	7.81250000	15.64960000
66.69999622	0.00000000	6.36687900	15.32357000
66.89999620	0.00000000	5.21038300	14.07480000
67.09999619	0.00000000	4.83513700	11.74951000
67.29999618	0.00000000	5.21038300	8.26771600
67.49999617	0.00000000	6.41609200	4.82283400
67.69999616	0.00000000	8.32308000	2.04232300
67.89999615	0.00000000	10.64838000	0.04306102
68.09999613	0.00000000	12.51230000	-1.53174200
68.29999612	0.00000000	13.25664000	-2.60211600
68.49999611	0.00000000	12.09400000	-2.18380900
68.69999610	0.00000000	9.44266700	0.13533460
68.89999609	0.00000000	6.28075700	3.62327700
69.09999607	0.00000000	2.78666300	7.89247000
69.29999606	0.00000000	-0.65206690	12.11860000
69.49999605	0.00000000	-2.47293300	15.23130000
69.69999604	0.00000000	-1.72244100	16.81225000
69.89999603	0.00000000	1.71628900	16.71998000
70.09999601	0.00000000	6.32381900	14.39468000
70.29999600	0.00000000	11.02362000	9.79945900
70.49999599	0.00000000	15.25591000	4.77977300
70.69999598	0.00000000	17.95029000	0.09227362
70.89999597	0.00000000	18.32554000	-3.71555100
71.09999596	0.00000000	16.36934000	-5.25344500
71.29999594	0.00000000	12.09400000	-4.13385800
71.49999593	0.00000000	6.32381900	-1.02116100
71.69999592	0.00000000	0.55364170	3.62327700
71.89999591	0.00000000	-3.67864200	8.96284400
72.09999590	0.00000000	-5.25959600	13.18898000
72.29999588	0.00000000	-4.09694900	15.18824000
72.49999587	0.00000000	-0.65206690	15.23130000
72.69999586	0.00000000	4.41067900	13.65650000
72.89999585	0.00000000	9.81791200	10.58686000
73.09999584	0.00000000	14.83760000	6.77903500
73.29999582	0.00000000	17.90723000	3.70939900
73.49999581	0.00000000	18.32554000	2.08538400
73.69999580	0.00000000	16.41855000	1.71013800
73.89999579	0.00000000	12.55536000	2.46063000
74.09999578	0.00000000	7.94783400	4.31840500
74.29999577	0.00000000	3.67249000	5.80093500
74.49999575	0.00000000	0.55364170	6.26845500
74.69999574	0.00000000	-0.98425190	6.26845500
74.89999573	0.00000000	-0.60900590	5.85014700
75.09999572	0.00000000	1.67322800	4.77977300
75.29999571	0.00000000	4.74286400	4.04158400
75.49999569	0.00000000	7.86171200	4.45374000
75.69999568	0.00000000	10.55610000	5.57332700
75.89999567	0.00000000	12.09400000	7.56643700
76.09999566	0.00000000	12.13706000	9.84867000
76.29999565	0.00000000	11.02362000	12.11860000
76.49999563	0.00000000	9.48572700	13.18898000
76.69999562	0.00000000	7.94783400	12.03248000
76.89999561	0.00000000	6.79133800	9.00590400
77.09999560	0.00000000	6.36687900	5.11195900
77.29999559	0.00000000	6.36687900	1.24877000
77.49999558	0.00000000	6.69906400	-2.18380900
77.69999556	0.00000000	7.06815900	-3.71555100
77.89999555	0.00000000	6.65600300	-2.93430100
78.09999554	0.00000000	5.94857300	-0.22760820
78.29999553	0.00000000	5.16117100	4.41067900
78.49999552	0.00000000	4.78592500	9.38115100
78.69999550	0.00000000	4.78592500	13.65650000
78.89999549	0.00000000	5.21038300	16.35089000
79.09999548	0.00000000	6.41609200	16.71998000
79.29999547	0.00000000	8.32308000	14.81299000
79.49999546	0.00000000	10.59916000	10.95595000
79.69999544	0.00000000	12.13706000	6.35457700
79.89999543	0.00000000	12.51230000	2.04232300
80.09999542	0.00000000	11.71875000	-1.39640700
80.29999541	0.00000000	9.39345400	-3.34030500
80.49999540	0.00000000	6.41609200	-2.97736200
80.69999539	0.00000000	3.99852300	-1.07037400
80.89999537	0.00000000	2.45447800	2.04232300
81.09999536	0.00000000	1.34719500	5.89320800
81.29999535	0.00000000	2.17765700	9.38115100
81.49999534	0.00000000	4.74286400	12.11860000
81.69999533	0.00000000	7.48646600	13.69956000
81.89999531	0.00000000	9.81791200	14.07480000
82.09999530	0.00000000	11.71875000	13.32431000
82.29999529	0.00000000	12.13706000	11.38041000
82.49999528	0.00000000	11.39887000	9.05511800
82.69999527	0.00000000	10.23007000	6.26845500
82.89999525	0.00000000	8.28001900	3.19881900
83.09999524	0.00000000	6.36687900	0.51058070
83.29999523	0.00000000	4.78592500	-1.06422200
83.49999522	0.00000000	3.67249000	-1.43946800
83.69999521	0.00000000	3.67249000	-0.64591530
83.89999520	0.00000000	4.78592500	1.66707700
84.09999518	0.00000000	6.28075700	4.73671200
84.29999517	0.00000000	7.43725300	7.89247000
84.49999516	0.00000000	7.86171200	11.00517000
84.69999515	0.00000000	7.90477300	13.69956000
84.89999514	0.00000000	7.90477300	15.18824000
85.09999512	0.00000000	7.90477300	14.76993000
85.29999511	0.00000000	7.90477300	12.07554000
85.49999510	0.00000000	7.94783400	7.89247000
85.69999509	0.00000000	8.32308000	3.62327700
85.89999508	0.00000000	9.01820900	0.09227362
86.09999506	0.00000000	9.01820900	-2.60211600
86.29999505	0.00000000	8.28001900	-3.67249000
86.49999504	0.00000000	7.48646600	-2.14074800
86.69999503	0.00000000	6.32381900	1.66707700
86.89999502	0.00000000	5.21038300	6.31151500
87.09999501	0.00000000	4.78592500	10.95595000
87.29999499	0.00000000	4.78592500	14.76993000
87.49999498	0.00000000	5.21038300	16.30167000
87.69999497	0.00000000	6.36687900	15.18824000
87.89999496	0.00000000	7.86171200	12.07554000
88.09999495	0.00000000	9.06742000	7.47416300
88.29999493	0.00000000	9.81791200	2.46063000
88.49999492	0.00000000	10.23007000	-1.35334600
88.69999491	0.00000000	9.76870100	-3.29724400
88.89999490	0.00000000	8.69217500	-2.51599400
89.09999489	0.00000000	7.11737200	0.51058070
89.29999487	0.00000000	5.99163300	4.77977300
89.49999486	0.00000000	5.16117100	9.43036400
89.69999485	0.00000000	4.83513700	13.61343000
89.89999484	0.00000000	5.21038300	15.92642000
90.09999483	0.00000000	6.32381900	15.51427000
90.29999482	0.00000000	7.43725300	12.81373000
90.49999480	0.00000000	7.86171200	7.84940900
90.69999479	0.00000000	7.90477300	2.50369100
90.89999478	0.00000000	7.90477300	-1.35334600
91.09999477	0.00000000	7.90477300	-3.29724400
91.29999476	0.00000000	7.90477300	-2.51599400
91.49999474	0.00000000	7.90477300	0.55364170
91.69999473	0.00000000	7.90477300	5.19808000
91.89999472	0.00000000	7.94783400	10.53765000
92.09999471	0.00000000	8.28001900	14.72072000
92.29999470	0.00000000	8.64911400	16.30167000
92.49999468	0.00000000	8.23695900	15.14518000
92.69999467	0.00000000	7.52952700	11.70029000
92.89999466	0.00000000	6.69906400	6.68676100
93.09999465	0.00000000	5.94857300	1.75319900
93.29999464	0.00000000	5.16117100	-1.76550200
93.49999463	0.00000000	4.78592500	-2.88508800
93.69999461	0.00000000	4.78592500	-1.76550200
93.89999460	0.00000000	5.25344500	1.71013800
94.09999459	0.00000000	6.79133800	6.26845500
94.29999458	0.00000000	9.06742000	10.53765000
94.49999457	0.00000000	11.02362000	13.60728000
94.69999455	0.00000000	12.55536000	14.72687000
94.89999454	0.00000000	13.25664000	13.18898000
95.09999453	0.00000000	12.09400000	9.43036400
95.29999452	0.00000000	9.44266700	5.19808000
95.49999451	0.00000000	6.36687900	1.71013800
95.69999449	0.00000000	3.62942900	-0.60285430
95.89999448	0.00000000	1.67322800	-0.93503930
96.09999447	0.00000000	0.51058070	0.88582670
96.29999446	0.00000000	0.55364170	3.98622000
96.49999445	0.00000000	2.13459600	7.06200700
96.69999444	0.00000000	5.25344500	10.16855000
96.89999442	0.00000000	9.44266700	12.03248000
97.09999441	0.00000000	13.29970000	12.07554000
97.29999440	0.00000000	15.63115000	10.53765000
97.49999439	0.00000000	16.41855000	7.89247000
97.69999438	0.00000000	15.25591000	5.24729300
97.89999436	0.00000000	12.51230000	3.66633800
98.09999435	0.00000000	8.64911400	3.19881900
98.29999434	0.00000000	4.04773600	3.19881900
98.49999433	0.00000000	0.59670270	3.62327700
98.69999432	0.00000000	-1.02731300	4.73671200
98.89999430	0.00000000	-1.02731300	5.89320800
99.09999429	0.00000000	0.55364170	6.68676100
99.29999428	0.00000000	3.62942900	7.47416300
99.49999427	0.00000000	7.48646600	7.84940900
99.69999426	0.00000000	10.97441000	7.89247000
99.89999425	0.00000000	13.71801000	7.93553100
100.09999423	0.00000000	15.21284000	8.26771600
100.29999422	0.00000000	14.88066000	8.67987200
100.49999421	0.00000000	12.93061000	8.64296200
100.69999420	0.00000000	10.27313000	8.63681000
100.89999419	0.00000000	7.11737200	7.80019600
101.09999417	0.00000000	4.41067900	6.31151500
101.29999416	0.00000000	2.09153500	4.73671200
101.49999415	0.00000000	0.97194880	3.19881900
101.69999414	0.00000000	1.67322800	2.08538400
101.89999413	0.00000000	3.20497000	2.12844500
102.09999411	0.00000000	5.16117100	3.61712600
102.29999410	0.00000000	7.48646600	5.93626900
102.49999409	0.00000000	9.44266700	8.31077700
102.69999408	0.00000000	11.02362000	11.00517000
102.89999407	0.00000000	12.13706000	13.18898000
103.09999406	0.00000000	12.18012000	13.23819000
103.29999404	0.00000000	11.39887000	11.38041000
103.49999403	0.00000000	10.18086000	9.05511800
103.69999402	0.00000000	7.86171200	6.26845500
103.89999401	0.00000000	5.25344500	3.19881900
104.09999400	0.00000000	3.67249000	0.55364170
104.29999398	0.00000000	3.25418300	-0.55979330
104.49999397	0.00000000	3.62942900	0.55364170
104.69999396	0.00000000	4.78592500	3.19881900
104.89999395	0.00000000	6.32381900	6.26845500
105.09999394	0.00000000	7.90477300	9.00590400
105.29999392	0.00000000	9.39345400	10.91289000
105.49999391	0.00000000	10.13779000	11.70029000
105.69999390	0.00000000	9.48572700	10.91289000
105.89999389	0.00000000	8.69832600	9.00590400
106.09999388	0.00000000	8.22465500	6.36072800
106.29999387	0.00000000	6.74212600	4.03543200
106.49999385	0.00000000	5.62869100	2.87278500
106.69999384	0.00000000	5.57332700	2.46063000
106.89999383	0.00000000	5.57947800	3.24803100
107.09999382	0.00000000	6.36687900	4.77977300
107.29999381	0.00000000	7.48646600	6.68676100
107.49999379	0.00000000	8.28001900	8.58759800
107.69999378	0.00000000	9.06742000	9.38115100
107.89999377	0.00000000	9.39345400	9.43036400
108.09999376	0.00000000	9.01820900	8.96284400
108.29999375	0.00000000	7.86171200	7.43110200
108.49999374	0.00000000	6.36687900	5.19808000
108.69999372	0.00000000	5.21038300	3.66633800
108.89999371	0.00000000	4.78592500	3.24803100
109.09999370	0.00000000	4.78592500	3.62327700
109.29999369	0.00000000	5.21038300	4.77977300
109.49999368	0.00000000	6.36687900	6.31151500
109.69999366	0.00000000	7.86171200	7.84940900
109.89999365	0.00000000	9.01820900	9.00590400
110.09999364	0.00000000	9.44266700	9.43036400
110.29999363	0.00000000	9.44266700	9.43036400
110.49999362	0.00000000	9.06742000	9.00590400
110.69999360	0.00000000	8.28001900	7.80019600
110.89999359	0.00000000	7.52952700	5.93626900
111.09999358	0.00000000	6.69906400	4.03543200
111.29999357	0.00000000	5.99163300	3.24803100
111.49999356	0.00000000	5.57947800	3.19881900
111.69999355	0.00000000	5.94857300	3.62327700
111.89999353	0.00000000	6.32381900	4.73671200
112.09999352	0.00000000	6.74212600	5.89320800
112.29999351	0.00000000	7.48646600	6.68676100
112.49999350	0.00000000	7.90477300	7.51722400
112.69999349	0.00000000	8.28001900	8.22465500
112.89999347	0.00000000	8.64911400	8.63681000
113.09999346	0.00000000	8.28001900	8.22465500
113.29999345	0.00000000	7.94783400	7.51722400
113.49999344	0.00000000	7.90477300	6.72982200
113.69999343	0.00000000	7.86171200	6.31151500
113.89999341	0.00000000	7.48646600	5.93626900
114.09999340	0.00000000	6.74212600	5.53026500
114.29999339	0.00000000	6.36687900	5.51796200
114.49999338	0.00000000	6.32381900	5.11195900
114.69999337	0.00000000	6.32381900	4.77977300
114.89999336	0.00000000	6.36687900	4.73671200
115.09999334	0.00000000	6.74212600	4.73671200
115.29999333	0.00000000	7.48646600	4.77977300
115.49999332	0.00000000	7.86171200	5.15501900
115.69999331	0.00000000	7.90477300	5.93626900
115.89999330	0.00000000	7.90477300	6.68676100
116.09999328	0.00000000	7.90477300	7.47416300
116.29999327	0.00000000	7.86171200	7.84940900
116.49999326	0.00000000	7.48646600	7.89247000
116.69999325	0.00000000	6.74212600	7.89247000
116.89999324	0.00000000	6.41609200	7.84940900
117.09999322	0.00000000	6.74212600	7.42495000
117.29999321	0.00000000	7.52952700	6.31151500
117.49999320	0.00000000	8.28001900	5.15501900
117.69999319	0.00000000	9.06742000	4.40452700
117.89999318	0.00000000	9.44266700	3.99237200
118.09999317	0.00000000	9.48572700	4.36146600
118.29999315	0.00000000	9.44266700	4.73671200
118.49999314	0.00000000	9.01820900	5.19808000
118.69999313	0.00000000	7.86171200	6.31151500
118.89999312	0.00000000	6.36687900	7.42495000
119.09999311	0.00000000	5.21038300	7.84940900
119.29999309	0.00000000	4.78592500	7.89247000
119.49999308	0.00000000	4.78592500	7.89247000
119.69999307	0.00000000	5.21038300	7.84940900
119.89999306	0.00000000	6.36687900	7.47416300
120.09999305	0.00000000	7.86171200	6.68676100
120.29999303	0.00000000	9.06742000	5.93626900
120.49999302	0.00000000	9.86097400	5.15501900
120.69999301	0.00000000	10.59916000	4.77977300
120.89999300	0.00000000	10.55610000	4.73671200
121.09999299	0.00000000	9.44266700	4.77977300
121.29999298	0.00000000	7.94783400	5.15501900
121.49999296	0.00000000	6.74212600	5.89320800
121.69999295	0.00000000	5.94857300	6.26845500
121.89999294	0.00000000	5.11811000	6.31151500
122.09999293	0.00000000	4.41067900	6.35457700
122.29999292	0.00000000	4.04773600	6.72982200
122.49999290	0.00000000	4.83513700	7.47416300
122.69999289	0.00000000	6.32381900	7.84940900
122.89999288	0.00000000	7.86171200	7.89247000
123.09999287	0.00000000	9.01820900	7.84940900
123.29999286	0.00000000	9.44266700	7.47416300
123.49999284	0.00000000	9.48572700	6.72982200
123.69999283	0.00000000	9.48572700	6.31151500
123.89999282	0.00000000	9.44266700	5.89320800
124.09999281	0.00000000	9.06742000	5.15501900
124.29999280	0.00000000	8.28001900	4.77977300
124.49999279	0.00000000	7.48646600	4.77977300
124.69999277	0.00000000	6.32381900	5.15501900
124.89999276	0.00000000	5.21038300	5.89320800
125.09999275	0.00000000	4.78592500	6.31151500
125.29999274	0.00000000	4.78592500	6.72982200
125.49999273	0.00000000	5.21038300	7.47416300
125.69999271	0.00000000	6.32381900	7.84940900
125.89999270	0.00000000	7.48646600	7.89247000
126.09999269	0.00000000	8.28001900	7.89247000
126.29999268	0.00000000	9.06742000	7.84940900
126.49999267	0.00000000	9.44266700	7.47416300
126.69999265	0.00000000	9.48572700	6.72982200
126.89999264	0.00000000	9.44266700	6.31151500
127.09999263	0.00000000	9.01820900	5.93626900
127.29999262	0.00000000	7.86171200	5.53026500
127.49999261	0.00000000	6.36687900	5.56717500
127.69999260	0.00000000	5.21038300	5.53026500
127.89999258	0.00000000	4.78592500	5.93626900
128.09999257	0.00000000	4.83513700	6.26845500
128.29999256	0.00000000	5.57947800	6.35457700
128.49999255	0.00000000	7.11122000	6.72982200
128.69999254	0.00000000	8.23695900	7.42495000
128.89999252	0.00000000	9.06742000	7.42495000
129.09999251	0.00000000	9.44266700	6.72982200
129.29999250	0.00000000	9.44266700	6.35457700
129.49999249	0.00000000	9.01820900	6.31151500
129.69999248	0.00000000	7.90477300	6.26845500
129.89999246	0.00000000	6.74212600	5.93626900
130.09999245	0.00000000	5.94857300	5.57332700
130.29999244	0.00000000	5.21038300	5.93626900
130.49999243	0.00000000	5.21038300	6.31151500
130.69999242	0.00000000	5.94857300	6.68676100
130.89999241	0.00000000	6.69906400	7.05585600
131.09999239	0.00000000	7.52952700	6.68676100
131.29999238	0.00000000	8.28001900	6.35457700
131.49999237	0.00000000	9.01820900	6.31151500
131.69999236	0.00000000	9.01820900	6.26845500
131.89999235	0.00000000	8.32308000	5.89320800
132.09999233	0.00000000	7.90477300	5.15501900
132.29999232	0.00000000	7.48646600	4.77977300
132.49999231	0.00000000	6.74212600	4.77977300
132.69999230	0.00000000	6.36687900	5.15501900
132.89999229	0.00000000	6.32381900	5.93626900
133.09999227	0.00000000	6.36687900	6.68676100
133.29999226	0.00000000	6.74212600	7.47416300
133.49999225	0.00000000	7.48646600	7.84940900
133.69999224	0.00000000	7.81250000	7.89247000
133.89999223	0.00000000	7.52952700	7.84940900
134.09999222	0.00000000	7.16043300	7.47416300
134.29999220	0.00000000	7.52952700	6.68676100
134.49999219	0.00000000	7.86171200	5.93626900
134.69999218	0.00000000	7.90477300	5.15501900
134.89999217	0.00000000	7.90477300	4.77977300
135.09999216	0.00000000	7.90477300	4.73671200
135.29999214	0.00000000	7.90477300	4.77977300
135.49999213	0.00000000	7.90477300	5.15501900
135.69999212	0.00000000	7.90477300	5.93626900
135.89999211	0.00000000	7.86171200	6.68676100
136.09999210	0.00000000	7.48646600	7.47416300
136.29999208	0.00000000	6.74212600	7.84940900
136.49999207	0.00000000	6.36687900	7.89247000
136.69999206	0.00000000	6.32381900	7.84940900
136.89999205	0.00000000	6.36687900	7.47416300
137.09999204	0.00000000	6.74212600	6.68676100
137.29999203	0.00000000	7.52952700	5.93626900
137.49999201	0.00000000	8.28001900	5.15501900
137.69999200	0.00000000	9.06742000	4.77977300
137.89999199	0.00000000	9.39345400	4.73671200
138.09999198	0.00000000	9.01820900	4.73671200
138.29999197	0.00000000	7.90477300	4.77977300
138.49999195	0.00000000	6.79133800	5.15501900
138.69999194	0.00000000	6.36687900	5.93626900
138.89999193	0.00000000	6.32381900	6.68676100
139.09999192	0.00000000	6.32381900	7.47416300
139.29999191	0.00000000	6.32381900	7.84940900
139.49999189	0.00000000	6.36687900	7.89247000
139.69999188	0.00000000	6.74212600	7.84940900
139.89999187	0.00000000	7.48646600	7.47416300
140.09999186	0.00000000	7.86171200	6.72982200
140.29999185	0.00000000	7.90477300	6.31151500
140.49999184	0.00000000	7.90477300	5.89320800
140.69999182	0.00000000	7.86171200	5.15501900
140.89999181	0.00000000	7.52952700	4.77977300
141.09999180	0.00000000	7.11737200	4.77977300
141.29999179	0.00000000	7.11122000	5.15501900
141.49999178	0.00000000	6.74212600	5.89320800
141.69999176	0.00000000	6.79133800	6.31151500
141.89999175	0.00000000	7.48646600	6.72982200
142.09999174	0.00000000	7.86171200	7.47416300
142.29999173	0.00000000	7.90477300	7.84940900
142.49999172	0.00000000	7.90477300	7.89247000
142.69999170	0.00000000	7.90477300	7.84940900
142.89999169	0.00000000	7.90477300	7.42495000
143.09999168	0.00000000	7.90477300	6.31151500
143.29999167	0.00000000	7.86171200	5.19808000
143.49999166	0.00000000	7.48646600	4.77977300
143.69999165	0.00000000	6.79133800	4.73671200
143.89999163	0.00000000	6.79133800	4.77977300
144.09999162	0.00000000	7.48646600	5.15501900
144.29999161	0.00000000	7.86171200	5.93626900
144.49999160	0.00000000	7.90477300	6.68676100
144.69999159	0.00000000	7.94783400	7.47416300
144.89999157	0.00000000	8.28001900	7.84940900
145.09999156	0.00000000	8.64911400	7.84940900
145.29999155	0.00000000	8.28001900	7.47416300
145.49999154	0.00000000	7.90477300	6.72982200
145.69999153	0.00000000	7.48646600	6.35457700
145.89999151	0.00000000	6.79133800	6.26845500
146.09999150	0.00000000	6.79133800	5.89320800
146.29999149	0.00000000	7.48646600	5.15501900
146.49999148	0.00000000	7.86171200	4.82898600
146.69999147	0.00000000	7.90477300	5.15501900
146.89999146	0.00000000	7.90477300	5.89320800
147.09999144	0.00000000	7.90477300	6.31151500
147.29999143	0.00000000	7.90477300	6.72982200
147.49999142	0.00000000	7.90477300	7.47416300
147.69999141	0.00000000	7.90477300	7.84940900
147.89999140	0.00000000	7.86171200	7.84940900
148.09999138	0.00000000	7.48646600	7.47416300
148.29999137	0.00000000	6.74212600	6.72982200
148.49999136	0.00000000	6.36687900	6.35457700
148.69999135	0.00000000	6.36687900	6.26845500
148.89999134	0.00000000	6.74212600	5.89320800
149.09999132	0.00000000	7.48646600	5.15501900
149.29999131	0.00000000	7.86171200	4.82898600
149.49999130	0.00000000	7.90477300	5.15501900
149.69999129	0.00000000	7.94783400	5.89320800
149.89999128	0.00000000	8.28001900	6.26845500
150.09999127	0.00000000	8.64911400	6.35457700
150.29999125	0.00000000	8.28001900	6.72982200
150.49999124	0.00000000	7.94783400	7.47416300
150.69999123	0.00000000	7.86171200	7.80019600
150.89999122	0.00000000	7.48646600	7.47416300
151.09999121	0.00000000	6.79133800	6.72982200
151.29999119	0.00000000	6.74212600	6.35457700
151.49999118	0.00000000	7.11122000	6.31151500
151.69999117	0.00000000	7.11737200	6.26845500
151.89999116	0.00000000	7.52952700	5.93626900
152.09999115	0.00000000	7.86171200	5.57332700
152.29999113	0.00000000	7.90477300	5.93626900
152.49999112	0.00000000	7.90477300	6.26845500
152.69999111	0.00000000	7.90477300	6.31151500
152.89999110	0.00000000	7.90477300	6.31151500
153.09999109	0.00000000	7.90477300	6.31151500
153.29999108	0.00000000	7.90477300	6.35457700
153.49999106	0.00000000	7.86171200	6.68676100
153.69999105	0.00000000	7.52952700	7.09891700
153.89999104	0.00000000	7.11737200	7.06200700
154.09999103	0.00000000	7.11122000	7.09891700
154.29999102	0.00000000	6.69906400	6.68676100
154.49999100	0.00000000	6.41609200	6.35457700
154.69999099	0.00000000	6.74212600	6.31151500
154.89999098	0.00000000	7.48646600	6.31151500
155.09999097	0.00000000	7.86171200	6.31151500
155.29999096	0.00000000	7.94783400	6.31151500
155.49999094	0.00000000	8.32308000	6.31151500
155.69999093	0.00000000	9.01820900	6.31151500
155.89999092	0.00000000	9.01820900	6.31151500
156.09999091	0.00000000	8.32308000	6.35457700
156.29999090	0.00000000	7.94783400	6.72982200
156.49999089	0.00000000	7.86171200	7.47416300
156.69999087	0.00000000	7.48646600	7.84940900
156.89999086	0.00000000	6.79133800	7.89247000
157.09999085	0.00000000	6.74212600	7.89247000
157.29999084	0.00000000	7.06815900	7.84940900
157.49999083	0.00000000	6.74212600	7.47416300
157.69999081	0.00000000	6.79133800	6.72982200
157.89999080	0.00000000	7.48646600	6.35457700
158.09999079	0.00000000	7.86171200	6.31151500
158.29999078	0.00000000	7.90477300	6.31151500
158.49999077	0.00000000	7.90477300	6.31151500
158.69999075	0.00000000	7.90477300	6.31151500
158.89999074	0.00000000	7.90477300	6.31151500
159.09999073	0.00000000	7.90477300	6.35457700
159.29999072	0.00000000	7.90477300	6.72982200
159.49999071	0.00000000	7.86171200	7.47416300
159.69999070	0.00000000	7.52952700	7.84940900
159.89999068	0.00000000	7.11737200	7.84940900
160.09999067	0.00000000	7.15428100	7.47416300
160.29999066	0.00000000	7.11737200	6.72982200
160.49999065	0.00000000	7.52952700	6.35457700
160.69999064	0.00000000	7.86171200	6.31151500
160.89999062	0.00000000	7.90477300	6.31151500
161.09999061	0.00000000	7.90477300	6.31151500
161.29999060	0.00000000	7.90477300	6.31151500
161.49999059	0.00000000	7.90477300	6.31151500
161.69999058	0.00000000	7.90477300	6.31151500
161.89999056	0.00000000	7.90477300	6.31151500
162.09999055	0.00000000	7.90477300	6.31151500
162.29999054	0.00000000	7.90477300	6.31151500
162.49999053	0.00000000	7.90477300	6.31151500
162.69999052	0.00000000	7.90477300	6.31151500
162.89999051	0.00000000	7.86171200	6.31151500
163.09999049	0.00000000	7.48646600	6.31151500
163.29999048	0.00000000	6.74212600	6.31151500
163.49999047	0.00000000	6.41609200	6.31151500
163.69999046	0.00000000	6.74212600	6.31151500
163.89999045	0.00000000	7.48646600	6.31151500
164.09999043	0.00000000	7.86171200	6.31151500
164.29999042	0.00000000	7.90477300	6.31151500
164.49999041	0.00000000	7.94783400	6.31151500
164.69999040	0.00000000	8.32308000	6.31151500
164.89999039	0.00000000	9.01820900	6.31151500
165.09999037	0.00000000	9.01820900	6.31151500
165.29999036	0.00000000	8.32308000	6.31151500
165.49999035	0.00000000	7.94783400	6.31151500
165.69999034	0.00000000	7.86171200	6.31151500
165.89999033	0.00000000	7.52952700	6.31151500
166.09999032	0.00000000	7.11737200	6.31151500
166.29999030	0.00000000	7.11122000	6.31151500
166.49999029	0.00000000	6.74212600	6.31151500
166.69999028	0.00000000	6.79133800	6.31151500
166.89999027	0.00000000	7.48646600	6.35457700
167.09999026	0.00000000	7.86171200	6.68676100
167.29999024	0.00000000	7.90477300	7.05585600
167.49999023	0.00000000	7.90477300	6.68676100
167.69999022	0.00000000	7.94783400	6.35457700
167.89999021	0.00000000	8.28001900	6.31151500
168.09999020	0.00000000	8.64911400	6.31151500
168.29999018	0.00000000	8.28001900	6.31151500
168.49999017	0.00000000	7.94783400	6.31151500
168.69999016	0.00000000	7.90477300	6.31151500
168.89999015	0.00000000	7.90477300	6.31151500
169.09999014	0.00000000	7.90477300	6.31151500
169.29999013	0.00000000	7.90477300	6.31151500
169.49999011	0.00000000	7.90477300	6.31151500
169.69999010	0.00000000	7.90477300	6.31151500
169.89999009	0.00000000	7.86171200	6.31151500
170.09999008	0.00000000	7.52952700	6.31151500
170.29999007	0.00000000	7.16043300	6.31151500
170.49999005	0.00000000	7.52952700	6.31151500
170.69999004	0.00000000	7.86171200	6.31151500
170.89999003	0.00000000	7.90477300	6.31151500
171.09999002	0.00000000	7.90477300	6.31151500
171.29999001	0.00000000	7.90477300	6.31151500
171.49998999	0.00000000	7.90477300	6.31151500
171.69998998	0.00000000	7.90477300	6.31151500
171.89998997	0.00000000	7.90477300	6.31151500
172.09998996	0.00000000	7.90477300	6.31151500
172.29998995	0.00000000	7.90477300	6.31151500
172.49998994	0.00000000	7.90477300	6.31151500
172.69998992	0.00000000	7.90477300	6.31151500
172.89998991	0.00000000	7.90477300	6.31151500
173.09998990	0.00000000	7.90477300	6.31151500
173.29998989	0.00000000	7.90477300	6.31151500
173.49998988	0.00000000	7.90477300	6.31151500
173.69998986	0.00000000	7.90477300	6.31151500
173.89998985	0.00000000	7.90477300	6.31151500
174.09998984	0.00000000	7.90477300	6.31151500
174.29998983	0.00000000	7.90477300	6.31151500
174.49998982	0.00000000	7.90477300	6.31151500
174.69998980	0.00000000	7.90477300	6.31151500
174.89998979	0.00000000	7.90477300	6.31151500
175.09998978	0.00000000	7.90477300	6.31151500
175.29998977	0.00000000	7.90477300	6.31151500
175.49998976	0.00000000	7.90477300	6.31151500
175.69998975	0.00000000	7.90477300	6.31151500
175.89998973	0.00000000	7.90477300	6.31151500
176.09998972	0.00000000	7.90477300	6.31151500
176.29998971	0.00000000	7.90477300	6.31151500
176.49998970	0.00000000	7.90477300	6.31151500
176.69998969	0.00000000	7.86171200	6.31151500
176.89998967	0.00000000	7.57258800	6.31151500
177.09998966	0.00000000	7.53567900	6.31151500
177.29998965	0.00000000	8.27386800	6.31151500
177.49998964	0.00000000	8.23695900	6.31151500
177.69998963	0.00000000	7.94783400	6.31151500
177.89998961	0.00000000	7.90477300	6.31151500
178.09998960	0.00000000	7.90477300	6.31151500
178.29998959	0.00000000	7.90477300	6.31151500
178.49998958	0.00000000	7.90477300	6.31151500
178.69998957	0.00000000	7.90477300	6.31151500
178.89998956	0.00000000	7.90477300	6.31151500
179.09998954	0.00000000	7.90477300	6.31151500
179.29998953	0.00000000	7.90477300	6.31151500
179.49998952	0.00000000	7.90477300	6.31151500
179.69998951	0.00000000	7.90477300	6.31151500
179.89998950	0.00000000	7.90477300	6.31151500
180.09998948	0.00000000	7.90477300	6.31151500
180.29998947	0.00000000	7.90477300	6.31151500
180.49998946	0.00000000	7.90477300	6.31151500
180.69998945	0.00000000	7.90477300	6.31151500
180.89998944	0.00000000	7.90477300	6.31151500
181.09998942	0.00000000	7.90477300	6.31151500
181.29998941	0.00000000	7.90477300	6.35457700
181.49998940	0.00000000	7.90477300	6.68676100
181.69998939	0.00000000	7.90477300	7.05585600
181.89998938	0.00000000	7.90477300	6.68676100
182.09998937	0.00000000	7.90477300	6.35457700
182.29998935	0.00000000	7.90477300	6.31151500
182.49998934	0.00000000	7.90477300	6.31151500
182.69998933	0.00000000	7.90477300	6.31151500
182.89998932	0.00000000	7.90477300	6.31151500
183.09998931	0.00000000	7.90477300	6.31151500
183.29998929	0.00000000	7.90477300	6.31151500
183.49998928	0.00000000	7.90477300	6.31151500
183.69998927	0.00000000	7.90477300	6.31151500
183.89998926	0.00000000	7.90477300	6.31151500
184.09998925	0.00000000	7.90477300	6.31151500
184.29998923	0.00000000	7.90477300	6.35457700
184.49998922	0.00000000	7.90477300	6.72982200
184.69998921	0.00000000	7.90477300	7.47416300
184.89998920	0.00000000	7.90477300	7.80019600
185.09998919	0.00000000	7.90477300	7.47416300
185.29998918	0.00000000	7.90477300	6.72982200
185.49998916	0.00000000	7.90477300	6.35457700
185.69998915	0.00000000	7.90477300	6.31151500
185.89998914	0.00000000	7.90477300	6.26845500
186.09998913	0.00000000	7.90477300	5.93626900
186.29998912	0.00000000	7.90477300	5.57332700
186.49998910	0.00000000	7.90477300	5.93626900
186.69998909	0.00000000	7.90477300	6.26845500
186.89998908	0.00000000	7.90477300	6.31151500
187.09998907	0.00000000	7.90477300	6.35457700
187.29998906	0.00000000	7.86171200	6.68676100
187.49998904	0.00000000	7.52952700	7.09891700
187.69998903	0.00000000	7.16043300	7.10506800
187.89998902	0.00000000	7.52952700	7.47416300
188.09998901	0.00000000	7.86171200	7.42495000
188.29998900	0.00000000	7.90477300	6.72982200
188.49998899	0.00000000	7.90477300	6.35457700
188.69998897	0.00000000	7.90477300	6.31151500
188.89998896	0.00000000	7.90477300	6.31151500
189.09998895	0.00000000	7.90477300	6.31151500
189.29998894	0.00000000	7.90477300	6.31151500
189.49998893	0.00000000	7.90477300	6.31151500
189.69998891	0.00000000	7.90477300	6.31151500
189.89998890	0.00000000	7.90477300	6.31151500
190.09998889	0.00000000	7.90477300	6.31151500
190.29998888	0.00000000	7.90477300	6.31151500
190.49998887	0.00000000	7.90477300	6.31151500
190.69998885	0.00000000	7.90477300	6.31151500
190.89998884	0.00000000	7.90477300	6.31151500
191.09998883	0.00000000	7.90477300	6.31151500
191.29998882	0.00000000	7.90477300	6.31151500
191.49998881	0.00000000	7.90477300	6.31151500
191.69998880	0.00000000	7.90477300	6.31151500
191.89998878	0.00000000	7.90477300	6.31151500
192.09998877	0.00000000	7.90477300	6.31151500
192.29998876	0.00000000	7.90477300	6.31151500
192.49998875	0.00000000	7.90477300	6.31151500
192.69998874	0.00000000	7.90477300	6.31151500
192.89998872	0.00000000	7.86171200	6.31151500
193.09998871	0.00000000	7.52952700	6.31151500
193.29998870	0.00000000	7.16043300	6.31151500
193.49998869	0.00000000	7.52952700	6.31151500
193.69998868	0.00000000	7.86171200	6.31151500
193.89998866	0.00000000	7.90477300	6.31151500
194.09998865	0.00000000	7.90477300	6.31151500
194.29998864	0.00000000	7.90477300	6.31151500
194.49998863	0.00000000	7.90477300	6.31151500
194.69998862	0.00000000	7.90477300	6.31151500
194.89998861	0.00000000	7.90477300	6.31151500
195.09998859	0.00000000	7.90477300	6.31151500
195.29998858	0.00000000	7.90477300	6.31151500
195.49998857	0.00000000	7.90477300	6.31151500
195.69998856	0.00000000	7.90477300	6.31151500
195.89998855	0.00000000	7.90477300	6.31151500
196.09998853	0.00000000	7.90477300	6.31151500
