Time	Channel A	Channel B	Channel C
(us)	(V)	(mV)	(mV)

-4.49999956	0.00000000	-31.24384000	-7.89247000
-4.29999957	0.00000000	-30.87475000	-7.89247000
-4.09999958	0.00000000	-31.24384000	-7.89247000
-3.89999959	0.00000000	-31.57603000	-7.89247000
-3.69999960	0.00000000	-31.61909000	-7.89247000
-3.49999962	0.00000000	-31.61909000	-7.89247000
-3.29999963	0.00000000	-31.61909000	-7.89247000
-3.09999964	0.00000000	-31.61909000	-7.89247000
-2.89999965	0.00000000	-31.61909000	-7.89247000
-2.69999966	0.00000000	-31.61909000	-7.89247000
-2.49999968	0.00000000	-31.61909000	-7.89247000
-2.29999969	0.00000000	-31.61909000	-7.89247000
-2.09999970	0.00000000	-31.66215000	-7.89247000
-1.89999971	0.00000000	-31.99434000	-7.89247000
-1.69999972	0.00000000	-32.36343000	-7.89247000
-1.49999973	0.00000000	-31.99434000	-7.89247000
-1.29999975	0.00000000	-31.66215000	-7.89247000
-1.09999976	0.00000000	-31.61909000	-7.89247000
-0.89999977	0.00000000	-31.61909000	-7.89247000
-0.69999978	0.00000000	-31.61909000	-7.89247000
-0.49999979	0.00000000	-31.61909000	-7.89247000
-0.29999981	0.31803640	-31.61909000	-7.89247000
-0.09999982	0.63668800	-31.61909000	-7.89247000
0.10000017	0.95533960	-31.61909000	-7.89247000
0.30000016	0.95533960	-31.61909000	-7.89247000
0.50000015	0.79601380	-31.61909000	-7.89247000
0.70000013	0.15871060	-31.57603000	-7.89247000
0.90000012	-0.63668800	-31.20078000	-7.89247000
1.10000011	-1.75196900	-30.50566000	-7.89247000
1.30000010	-2.54859700	-30.45644000	-7.89247000
1.50000009	-2.86724900	-30.82554000	-7.89247000
1.70000008	-2.22994600	-30.78863000	-7.89247000
1.90000006	-0.95533960	-30.82554000	-7.89247000
2.10000005	0.95533960	-30.45644000	-7.89247000
2.30000004	3.02657500	-30.50566000	-7.89247000
2.50000003	4.77854300	-31.20078000	-7.89247000
2.70000002	5.41584600	-31.57603000	-7.93553100
2.90000000	4.61921700	-31.61909000	-8.31077700
3.09999999	2.38927200	-31.61909000	-9.05511800
3.29999998	-0.79601380	-31.61909000	-9.38115100
3.49999997	-4.14124000	-31.61909000	-9.05511800
3.69999996	-6.84916400	-31.57603000	-8.31077700
3.89999994	-7.96444400	-31.20078000	-7.93553100
4.09999993	-7.16781500	-30.50566000	-7.89247000
4.29999992	-4.30056600	-30.45644000	-7.89247000
4.49999991	-0.15871060	-30.82554000	-7.89247000
4.69999990	4.14124000	-30.83169000	-7.89247000
4.89999989	7.64579200	-31.24384000	-7.89247000
5.09999987	9.39837600	-31.57603000	-7.93553100
5.29999986	8.76107300	-31.61909000	-8.26771600
5.49999985	5.89382400	-31.61909000	-8.67987200
5.69999984	1.43331700	-31.61909000	-8.64296200
5.89999983	-3.18590100	-31.61909000	-8.67987200
6.09999981	-7.16781500	-31.61909000	-8.26771600
6.29999980	-9.39837600	-31.57603000	-7.93553100
6.49999979	-9.07972400	-31.20078000	-7.89247000
6.69999978	-6.53112700	-30.45644000	-7.89247000
6.89999977	-2.70792300	-30.08120000	-7.89247000
7.09999975	1.75196900	-30.08120000	-7.89247000
7.29999974	5.41584600	-30.45644000	-7.89247000
7.49999973	7.48646600	-31.20078000	-7.89247000
7.69999972	7.48646600	-31.57603000	-7.93553100
7.89999971	5.73449800	-31.61909000	-8.31077700
8.09999970	2.86724900	-31.57603000	-9.00590400
8.29999968	-0.47736220	-31.24384000	-9.05511800
8.49999967	-3.34522600	-30.87475000	-8.68602300
8.69999966	-4.93786900	-31.24384000	-8.67987200
8.89999965	-5.09719500	-31.52682000	-8.26771600
9.09999964	-4.14124000	-31.20078000	-7.93553100
9.29999962	-2.22994600	-30.50566000	-7.89247000
9.49999961	-0.31803640	-30.45644000	-7.89247000
9.69999960	1.27399100	-30.78248000	-7.89247000
9.89999959	2.22994600	-30.41338000	-7.89247000
10.09999958	2.54859700	-30.13041000	-7.89247000
10.29999956	2.07062000	-30.41338000	-7.89247000
10.49999955	1.27399100	-30.78248000	-7.89247000
10.69999954	0.31803640	-30.41338000	-7.89247000
10.89999953	-0.31803640	-30.08120000	-7.89247000
11.09999952	-0.79601380	-30.03814000	-7.89247000
11.29999951	-0.95533960	-30.03814000	-7.89247000
11.49999949	-0.95533960	-30.08120000	-7.89247000
11.69999948	-0.79601380	-30.41338000	-7.89247000
11.89999947	-0.31803640	-30.82554000	-7.89247000
12.09999946	-0.15871060	-30.83169000	-7.89247000
12.29999945	-0.15871060	-31.24384000	-7.89247000
12.49999943	-0.15871060	-31.52682000	-7.89247000
12.69999942	0.00000000	-31.24384000	-7.89247000
12.89999941	0.00000000	-30.87475000	-7.89247000
13.09999940	0.00000000	-31.20078000	-7.89247000
13.29999939	0.00000000	-31.15157000	-7.89247000
13.49999937	0.00000000	-30.45644000	-7.89247000
13.69999936	0.00000000	-30.13041000	-7.89247000
13.89999935	0.00000000	-30.41338000	-7.89247000
14.09999934	-0.15871060	-30.78248000	-7.89247000
14.29999933	-0.15871060	-30.41338000	-7.89247000
14.49999932	-0.15871060	-30.13041000	-7.89247000
14.69999930	0.00000000	-30.41338000	-7.89247000
14.89999929	0.00000000	-30.78248000	-7.89247000
15.09999928	0.00000000	-30.45644000	-7.89247000
15.29999927	0.00000000	-30.45644000	-7.89247000
15.49999926	0.00000000	-30.78248000	-7.89247000
15.69999924	0.00000000	-30.45644000	-7.89247000
15.89999923	0.00000000	-30.50566000	-7.89247000
16.09999922	0.00000000	-31.15157000	-7.89247000
16.29999921	0.00000000	-31.15157000	-7.89247000
16.49999920	-0.15871060	-30.45644000	-7.89247000
16.69999919	0.00000000	-30.08120000	-7.89247000
16.89999917	-0.15871060	-29.99508000	-7.89247000
17.09999916	0.00000000	-29.61983000	-7.89247000
17.29999915	0.00000000	-28.87549000	-7.89247000
17.49999914	0.00000000	-28.54946000	-7.89247000
17.69999913	0.00000000	-28.87549000	-7.89247000
17.89999911	0.00000000	-29.66289000	-7.89247000
18.09999910	0.00000000	-30.45644000	-7.89247000
18.29999909	0.00000000	-31.66215000	-7.89247000
18.49999908	0.00000000	-33.20005000	-7.89247000
18.69999907	0.00000000	-34.73794000	-7.89247000
18.89999905	0.00000000	-35.85752000	-7.89247000
19.09999904	0.00000000	-35.81446000	-7.89247000
19.29999903	0.00000000	-34.23351000	-7.89247000
19.49999902	0.00000000	-31.15772000	-7.89247000
19.69999901	0.00000000	-27.25147000	-7.89247000
19.89999900	0.00000000	-23.38214000	-7.89247000
20.09999898	0.00000000	-19.94340000	-7.89247000
20.29999897	0.00000000	-18.49778000	-7.89247000
20.49999896	0.00000000	-20.07874000	-7.89247000
20.69999895	0.00000000	-24.73548000	-7.89247000
20.89999894	-0.15871060	-31.71137000	-7.89247000
21.09999892	0.00000000	-39.43774000	-7.89247000
21.29999891	-0.15871060	-46.37057000	-7.89247000
21.49999890	0.00000000	-50.55979000	-7.89247000
21.69999889	0.00000000	-50.51673000	-7.93553100
21.89999888	0.00000000	-45.77386000	-8.26771600
22.09999886	0.00000000	-36.46653000	-8.63681000
22.29999885	0.00000000	-24.08957000	-8.26771600
22.49999884	0.00000000	-11.75566000	-7.93553100
22.69999883	0.00000000	-2.12844500	-7.89247000
22.89999882	0.00000000	2.01771600	-7.84940900
23.09999881	0.00000000	-1.14419300	-7.47416300
23.29999879	-0.15871060	-11.65723000	-6.72982200
23.49999878	0.00000000	-27.89739000	-6.35457700
23.69999877	0.00000000	-46.41363000	-6.31151500
23.89999876	0.00000000	-62.56151000	-6.31151500
24.09999875	0.00000000	-72.19488000	-6.35457700
24.29999873	0.00000000	-72.52706000	-6.77903500
24.49999872	0.00000000	-63.21358000	-7.93553100
24.69999871	0.00000000	-45.72466000	-9.47342500
24.89999870	0.00000000	-23.33907000	-11.04823000
25.09999869	0.00000000	-1.01501000	-12.58612000
25.29999867	0.00000000	15.13287000	-13.65650000
25.49999866	0.00000000	20.94611000	-13.23819000
25.69999865	-0.15871060	15.13287000	-10.96211000
25.89999864	0.00000000	-1.14419300	-7.84940900
26.09999863	0.00000000	-24.69242000	-4.31840500
26.29999862	0.00000000	-50.14148000	-0.46751960
26.49999860	0.00000000	-70.98917000	2.55905500
26.69999859	0.00000000	-82.61565000	3.67249000
26.89999858	0.00000000	-82.57258000	2.09768700
27.09999857	0.00000000	-70.61392000	-2.17765700
27.29999856	0.00000000	-49.39714000	-8.40305000
27.49999854	0.00000000	-24.31717000	-15.74188000
27.69999853	0.00000000	-1.14419300	-22.66240000
27.89999852	0.00000000	14.75763000	-27.22072000
28.09999851	0.00000000	20.20792000	-27.96506000
28.29999850	0.00000000	14.80684000	-24.02190000
28.49999848	0.00000000	-0.63976370	-15.88336000
28.69999847	0.00000000	-22.18258000	-4.69365100
28.89999846	0.00000000	-44.23597000	6.87746000
29.09999845	0.00000000	-62.05708000	16.12328000
29.29999844	0.00000000	-72.19488000	21.09375000
29.49999843	0.00000000	-72.98843000	19.84498000
29.69999841	0.00000000	-64.93602000	12.13091000
29.89999840	0.00000000	-49.86466000	-0.63976370
30.09999839	0.00000000	-31.71137000	-15.69882000
30.29999838	0.00000000	-14.26550000	-30.00738000
30.49999837	0.00000000	-1.10113200	-40.36663000
30.69999835	0.00000000	5.08735200	-44.22367000
30.89999834	0.00000000	3.26648600	-40.32357000
31.09999833	0.00000000	-5.56717500	-29.49680000
31.29999832	0.00000000	-18.31939000	-13.61343000
31.49999831	0.00000000	-32.68946000	4.14000900
31.69999829	0.00000000	-45.81693000	19.93110000
31.89999828	0.00000000	-54.74901000	29.92126000
32.09999827	0.00000000	-57.86171000	31.54527000
32.29999826	0.00000000	-54.83513000	25.00000000
32.49999825	0.00000000	-46.74582000	12.21703000
32.69999824	0.00000000	-35.94980000	-4.77977300
32.89999822	0.00000000	-24.69242000	-22.15797000
33.09999821	0.00000000	-15.47121000	-36.14050000
33.29999820	0.00000000	-10.36540000	-44.59892000
33.49999819	0.00000000	-10.31004000	-45.33710000
33.69999818	0.00000000	-14.13017000	-37.67839000
33.89999816	0.00000000	-21.14911000	-24.20029000
34.09999815	0.00000000	-29.95201000	-7.89247000
34.29999814	0.00000000	-38.04749000	8.27386800
34.49999813	0.00000000	-43.07332000	20.63238000
34.69999812	0.00000000	-44.32209000	26.07037000
34.89999810	0.00000000	-42.00295000	24.20645000
35.09999809	0.00000000	-37.02018000	15.70497000
35.29999808	0.00000000	-30.50566000	2.55905500
35.49999807	0.00000000	-24.73548000	-12.45079000
35.69999806	0.00000000	-21.24139000	-25.91658000
35.89999805	0.00000000	-20.41092000	-34.05511000
36.09999803	0.00000000	-22.36097000	-35.67913000
36.29999802	0.00000000	-26.18110000	-31.02854000
36.49999801	0.00000000	-31.20078000	-21.03838000
36.69999800	0.00000000	-35.76525000	-8.40305000
36.89999799	0.00000000	-38.50886000	3.16190900
37.09999797	0.00000000	-38.88410000	10.87598000
37.29999796	0.00000000	-36.97096000	13.19513000
37.49999795	0.00000000	-33.11393000	9.38730200
37.69999794	0.00000000	-28.50024000	1.02116100
37.89999793	0.00000000	-24.22490000	-8.96284400
38.09999791	0.00000000	-21.14911000	-17.79650000
38.29999790	0.00000000	-20.03568000	-23.18528000
38.49999789	0.00000000	-21.57357000	-23.51132000
38.69999788	0.00000000	-25.38755000	-18.58391000
38.89999787	0.00000000	-29.99508000	-9.80561000
39.09999786	0.00000000	-34.27657000	-0.64591530
39.29999784	0.00000000	-37.39542000	6.27460600
39.49999783	0.00000000	-38.97638000	8.92593500
39.69999782	0.00000000	-38.97638000	6.27460600
39.89999781	0.00000000	-37.39542000	-0.64591530
40.09999780	0.00000000	-34.31963000	-9.84867000
40.29999778	0.00000000	-30.45644000	-19.04527000
40.49999777	0.00000000	-26.91929000	-25.13533000
40.69999776	0.00000000	-23.80659000	-26.34104000
40.89999775	0.00000000	-21.48130000	-22.48400000
41.09999774	0.00000000	-20.73080000	-14.81299000
41.29999772	0.00000000	-21.52436000	-5.19808000
41.49999771	0.00000000	-24.22490000	3.62942900
41.69999770	0.00000000	-28.08194000	9.43036400
41.89999769	0.00000000	-31.95128000	10.92520000
42.09999768	0.00000000	-35.43922000	7.52952700
42.29999767	0.00000000	-37.39542000	0.23991140
42.49999765	0.00000000	-37.81373000	-8.22465500
42.69999764	0.00000000	-37.02018000	-16.30167000
42.89999763	0.00000000	-34.73794000	-21.69045000
43.09999762	0.00000000	-32.03740000	-22.95152000
43.29999761	0.00000000	-29.66289000	-21.03838000
43.49999759	0.00000000	-27.34375000	-16.35089000
43.69999758	0.00000000	-25.80585000	-9.51648500
43.89999757	0.00000000	-25.38755000	-3.01427100
44.09999756	0.00000000	-25.71358000	0.93503930
44.29999755	0.00000000	-26.45792000	2.55905500
44.49999753	0.00000000	-26.83317000	2.14074800
44.69999752	0.00000000	-26.87623000	-0.55364170
44.89999751	0.00000000	-26.91929000	-4.73671200
45.09999750	0.00000000	-27.34375000	-8.96284400
45.29999749	0.00000000	-28.50024000	-12.07554000
45.49999748	0.00000000	-30.08120000	-13.65650000
45.69999746	0.00000000	-32.12967000	-13.69956000
45.89999745	0.00000000	-35.16240000	-12.53691000
46.09999744	0.00000000	-38.18282000	-10.58686000
46.29999743	0.00000000	-39.35162000	-7.89247000
46.49999742	0.00000000	-38.97638000	-5.24729300
46.69999740	0.00000000	-36.88484000	-3.66633800
46.89999739	0.00000000	-32.22810000	-3.19881900
47.09999738	0.00000000	-25.71358000	-3.24803100
47.29999737	0.00000000	-19.56816000	-4.08464600
47.49999736	0.00000000	-15.29281000	-6.36072800
47.69999734	0.00000000	-13.80413000	-9.00590400
47.89999733	0.00000000	-15.80339000	-11.00517000
48.09999732	0.00000000	-21.61663000	-12.53691000
48.29999731	0.00000000	-30.08735000	-13.23819000
48.49999730	0.00000000	-38.92716000	-12.07554000
48.69999729	0.00000000	-45.85999000	-9.42421200
48.89999727	0.00000000	-48.97884000	-6.36072800
49.09999726	0.00000000	-47.77313000	-3.61712600
49.29999725	0.00000000	-42.36589000	-1.66707700
49.49999724	0.00000000	-33.43996000	-0.55364170
49.69999723	0.00000000	-23.47441000	-0.97194880
49.89999721	0.00000000	-14.59769000	-3.29109200
50.09999720	0.00000000	-9.65797200	-6.72982200
50.29999719	0.00000000	-9.99015700	-10.62992000
50.49999718	0.00000000	-15.38509000	-14.07480000
50.69999717	0.00000000	-24.18184000	-16.35089000
50.89999715	0.00000000	-33.85827000	-16.35089000
51.09999714	0.00000000	-41.95989000	-14.07480000
51.29999713	0.00000000	-46.97957000	-10.58686000
51.49999712	0.00000000	-47.35482000	-6.35457700
51.69999711	0.00000000	-43.11638000	-2.50369100
51.89999710	0.00000000	-35.43922000	-0.17839570
52.09999708	0.00000000	-26.27337000	0.60285430
52.29999707	0.00000000	-18.96531000	-0.55364170
52.49999706	0.00000000	-15.42815000	-3.24803100
52.69999705	0.00000000	-15.80339000	-6.72982200
52.89999704	0.00000000	-20.03568000	-10.58686000
53.09999702	0.00000000	-26.92544000	-13.60728000
53.29999701	-0.15871060	-34.23351000	-14.81299000
53.49999700	0.00000000	-40.00369000	-14.07480000
53.69999699	0.00000000	-42.69808000	-12.16781000
53.89999698	0.00000000	-41.53543000	-9.42421200
54.09999696	0.00000000	-36.97096000	-6.40378900
54.29999695	0.00000000	-30.41338000	-4.08464600
54.49999694	0.00000000	-23.94193000	-3.33415300
54.69999693	0.00000000	-19.29134000	-4.03543200
54.89999692	0.00000000	-18.12254000	-5.93626900
55.09999691	0.00000000	-19.99262000	-7.80019600
55.29999689	0.00000000	-24.26796000	-9.00590400
55.49999688	0.00000000	-30.03814000	-9.33809000
55.69999687	0.00000000	-35.76525000	-8.58759800
55.89999686	0.00000000	-39.57923000	-6.68676100
56.09999685	-0.15871060	-40.00369000	-4.82283400
56.29999683	0.00000000	-37.39542000	-3.66633800
56.49999682	0.00000000	-33.15699000	-3.70939900
56.69999681	0.00000000	-28.50024000	-5.24729300
56.89999680	0.00000000	-24.26796000	-7.93553100
57.09999679	0.00000000	-21.57357000	-11.00517000
57.29999677	0.00000000	-21.14911000	-13.69956000
57.49999676	0.00000000	-22.68701000	-15.14518000
57.69999675	0.00000000	-25.80585000	-14.34547000
57.89999674	0.00000000	-29.99508000	-10.91289000
58.09999673	0.00000000	-33.80905000	-6.31151500
58.29999672	0.00000000	-35.77140000	-1.66707700
58.49999670	0.00000000	-35.81446000	2.18380900
58.69999669	0.00000000	-34.27657000	4.04773600
58.89999668	0.00000000	-31.57603000	3.25418300
59.09999667	0.00000000	-28.54946000	-0.63976370
59.29999666	0.00000000	-26.22416000	-6.72982200
59.49999664	0.00000000	-25.38755000	-13.28125000
59.69999663	0.00000000	-25.38755000	-18.30093000
59.89999662	0.00000000	-26.18110000	-20.99532000
60.09999661	0.00000000	-28.08194000	-20.53395000
60.29999660	0.00000000	-29.94586000	-16.30167000
60.49999658	0.00000000	-31.15157000	-9.38115100
60.69999657	0.00000000	-31.52682000	-1.71013800
60.89999656	0.00000000	-31.15157000	4.83513700
61.09999655	0.00000000	-30.03814000	8.27386800
61.29999654	0.00000000	-28.87549000	7.94783400
61.49999653	0.00000000	-28.08194000	4.04773600
61.69999651	0.00000000	-27.34375000	-2.50369100
61.89999650	0.00000000	-27.38681000	-10.62992000
62.09999649	0.00000000	-28.50024000	-18.25787000
62.29999648	0.00000000	-30.03814000	-23.27141000
62.49999647	0.00000000	-31.57603000	-24.06496000
62.69999645	0.00000000	-32.68946000	-21.03838000
62.89999644	0.00000000	-32.73252000	-15.27436000
63.09999643	0.00000000	-31.95128000	-8.21850300
63.29999642	0.00000000	-30.78248000	-0.96579720
63.49999641	0.00000000	-28.83243000	5.19808000
63.69999639	0.00000000	-26.96850000	7.48646600
63.89999638	0.00000000	-25.80585000	6.45300100
64.09999637	0.00000000	-25.80585000	2.51599400
64.29999636	0.00000000	-26.91929000	-3.62327700
64.49999635	0.00000000	-28.45718000	-10.53765000
64.69999634	0.00000000	-30.03814000	-16.30167000
64.89999632	0.00000000	-31.57603000	-19.46358000
65.09999631	0.00000000	-32.64640000	-19.88189000
65.29999630	0.00000000	-32.31422000	-17.97490000
65.49999629	0.00000000	-30.83169000	-14.11786000
65.69999628	0.00000000	-29.66289000	-9.51648500
65.89999626	0.00000000	-28.45718000	-5.19808000
66.09999625	0.00000000	-27.38681000	-1.66707700
66.29999624	0.00000000	-27.38681000	1.02116100
66.49999623	0.00000000	-28.50024000	2.18380900
66.69999622	0.00000000	-30.03814000	1.43946800
66.89999620	0.00000000	-31.52682000	-0.46751960
67.09999619	0.00000000	-32.27116000	-3.19881900
67.29999618	0.00000000	-31.52682000	-6.31151500
67.49999617	0.00000000	-29.99508000	-9.42421200
67.69999616	0.00000000	-28.03888000	-12.21087000
67.89999615	0.00000000	-25.76279000	-14.53617000
68.09999613	0.00000000	-24.22490000	-16.43701000
68.29999612	0.00000000	-23.84965000	-16.76919000
68.49999611	0.00000000	-24.64321000	-15.27436000
68.69999610	0.00000000	-27.01156000	-12.49385000
68.89999609	0.00000000	-30.45644000	-8.63681000
69.09999607	0.00000000	-34.31963000	-3.99237200
69.29999606	0.00000000	-37.35236000	-0.13533460
69.49999605	0.00000000	-38.50886000	2.60211600
69.69999604	0.00000000	-37.35236000	3.71555100
69.89999603	0.00000000	-34.23351000	2.55905500
70.09999601	0.00000000	-29.61983000	-0.55364170
70.29999600	0.00000000	-24.60015000	-5.19808000
70.49999599	0.00000000	-20.68774000	-10.62992000
70.69999598	0.00000000	-18.03642000	-15.60654000
70.89999597	0.00000000	-17.71038000	-19.04527000
71.09999596	0.00000000	-20.78002000	-19.46358000
71.29999594	0.00000000	-25.76279000	-17.18750000
71.49999593	0.00000000	-31.61909000	-13.32431000
71.69999592	0.00000000	-37.34621000	-8.26771600
71.89999591	0.00000000	-41.20940000	-3.29109200
72.09999590	0.00000000	-42.04601000	0.55979330
72.29999588	0.00000000	-40.51427000	2.09153500
72.49999587	0.00000000	-36.97096000	1.02116100
72.69999586	0.00000000	-31.57603000	-1.66707700
72.89999585	0.00000000	-25.80585000	-5.11195900
73.09999584	0.00000000	-21.14911000	-8.58759800
73.29999582	0.00000000	-18.45472000	-10.86983000
73.49999581	0.00000000	-18.41166000	-11.70029000
73.69999580	-0.15871060	-20.73080000	-10.96211000
73.89999579	0.00000000	-24.60015000	-9.47342500
74.09999578	0.00000000	-29.61983000	-7.93553100
74.29999577	0.00000000	-34.23351000	-6.82209600
74.49999575	0.00000000	-37.35236000	-6.82209600
74.69999574	0.00000000	-38.50886000	-7.89247000
74.89999573	0.00000000	-37.35236000	-9.05511800
75.09999572	0.00000000	-34.31963000	-9.79945900
75.29999571	0.00000000	-30.45644000	-10.16855000
75.49999569	0.00000000	-27.01156000	-9.33809000
75.69999568	0.00000000	-24.64321000	-7.43110200
75.89999567	0.00000000	-23.84965000	-4.73671200
76.09999566	0.00000000	-24.18184000	-2.08538400
76.29999565	0.00000000	-25.38755000	-0.55364170
76.49999563	0.00000000	-27.25147000	-0.55364170
76.69999562	0.00000000	-29.15231000	-2.12844500
76.89999561	0.00000000	-29.94586000	-5.24729300
77.09999560	0.00000000	-29.99508000	-9.47342500
77.29999559	0.00000000	-29.61983000	-13.69956000
77.49999558	0.00000000	-28.87549000	-16.76919000
77.69999556	0.00000000	-28.54946000	-17.88263000
77.89999555	0.00000000	-28.92470000	-16.35089000
78.09999554	0.00000000	-30.03814000	-12.49385000
78.29999553	0.00000000	-31.15157000	-7.51722400
78.49999552	0.00000000	-31.57603000	-2.46063000
78.69999550	0.00000000	-31.57603000	1.35334600
78.89999549	0.00000000	-31.10851000	3.34030500
79.09999548	0.00000000	-29.57062000	2.93430100
79.29999547	0.00000000	-27.29453000	0.60285430
79.49999546	0.00000000	-25.38755000	-3.62327700
79.69999544	0.00000000	-24.22490000	-8.58759800
79.89999543	0.00000000	-24.22490000	-12.49385000
80.09999542	0.00000000	-25.38755000	-15.23130000
80.29999541	0.00000000	-27.34375000	-16.39395000
80.49999540	0.00000000	-30.03814000	-15.64960000
80.69999539	0.00000000	-32.73868000	-13.69956000
80.89999537	0.00000000	-34.65182000	-10.58686000
81.09999536	0.00000000	-35.39616000	-6.77903500
81.29999535	0.00000000	-34.23351000	-3.66633800
81.49999534	0.00000000	-31.57603000	-1.66707700
81.69999533	0.00000000	-28.50024000	-0.46136810
81.89999531	0.00000000	-25.76279000	-0.13533460
82.09999530	0.00000000	-23.84965000	-0.87967510
82.29999529	0.00000000	-23.10531000	-2.82972400
82.49999528	0.00000000	-24.22490000	-5.15501900
82.69999527	0.00000000	-26.50098000	-7.89247000
82.89999525	0.00000000	-28.83243000	-10.58686000
83.09999524	0.00000000	-31.15157000	-12.58612000
83.29999523	0.00000000	-32.68946000	-14.11786000
83.49999522	0.00000000	-33.06471000	-14.85605000
83.69999521	0.00000000	-32.36343000	-14.07480000
83.89999520	0.00000000	-30.83169000	-12.11860000
84.09999518	0.00000000	-29.70595000	-9.00590400
84.29999517	0.00000000	-28.83243000	-5.15501900
84.49999516	0.00000000	-28.08194000	-1.66707700
84.69999515	0.00000000	-27.34375000	1.02116100
84.89999514	0.00000000	-27.34375000	2.13459600
85.09999512	0.00000000	-28.03888000	0.97810030
85.29999511	0.00000000	-28.41412000	-2.08538400
85.49999510	0.00000000	-28.45718000	-6.35457700
85.69999509	0.00000000	-28.45718000	-10.95595000
85.89999508	0.00000000	-28.45718000	-14.81299000
86.09999506	0.00000000	-28.45718000	-16.76919000
86.29999505	0.00000000	-28.50024000	-16.76919000
86.49999504	0.00000000	-28.92470000	-14.81299000
86.69999503	0.00000000	-30.03814000	-10.95595000
86.89999502	0.00000000	-31.15157000	-6.35457700
87.09999501	0.00000000	-31.52682000	-2.08538400
87.29999499	0.00000000	-31.20078000	0.97810030
87.49999498	0.00000000	-30.41338000	2.09153500
87.69999497	0.00000000	-29.61983000	0.55979330
87.89999496	0.00000000	-28.41412000	-3.24803100
88.09999495	0.00000000	-26.91929000	-7.84940900
88.29999493	0.00000000	-25.80585000	-12.11860000
88.49999492	0.00000000	-25.76279000	-15.18824000
88.69999491	0.00000000	-26.54404000	-16.34473000
88.89999490	0.00000000	-27.71284000	-15.14518000
89.09999489	0.00000000	-29.61983000	-11.70029000
89.29999487	0.00000000	-31.10851000	-6.72982200
89.49999486	0.00000000	-31.52682000	-2.12844500
89.69999485	0.00000000	-31.20078000	0.97810030
89.89999484	0.00000000	-30.41338000	2.09153500
90.09999483	0.00000000	-29.66289000	0.55979330
90.29999482	0.00000000	-28.83243000	-3.24803100
90.49999480	0.00000000	-28.08194000	-7.84940900
90.69999479	0.00000000	-27.34375000	-12.11860000
90.89999478	0.00000000	-27.34375000	-15.18824000
91.09999477	0.00000000	-28.03888000	-16.30167000
91.29999476	0.00000000	-28.41412000	-14.76993000
91.49999474	0.00000000	-28.45718000	-10.95595000
91.69999473	0.00000000	-28.45718000	-6.35457700
91.89999472	0.00000000	-28.41412000	-2.08538400
92.09999471	0.00000000	-28.08194000	0.93503930
92.29999470	0.00000000	-27.71284000	1.67322800
92.49999468	0.00000000	-28.12500000	-0.59670270
92.69999467	0.00000000	-28.83243000	-4.77977300
92.89999466	0.00000000	-29.66289000	-9.43036400
93.09999465	0.00000000	-30.41338000	-13.61343000
93.29999464	0.00000000	-31.20078000	-15.92642000
93.49999463	0.00000000	-31.52682000	-15.56348000
93.69999461	0.00000000	-31.15157000	-13.28125000
93.89999460	0.00000000	-29.99508000	-9.38115100
94.09999459	0.00000000	-28.41412000	-4.82898600
94.29999458	0.00000000	-26.45792000	-1.02116100
94.49999457	0.00000000	-24.18184000	0.55979330
94.69999455	0.00000000	-22.68701000	-0.17839570
94.89999454	-0.15871060	-22.68701000	-2.50369100
95.09999453	0.00000000	-24.22490000	-6.35457700
95.29999452	0.00000000	-26.91929000	-10.53765000
95.49999451	0.00000000	-30.03814000	-13.60728000
95.69999449	0.00000000	-33.11393000	-14.76993000
95.89999448	0.00000000	-35.43922000	-13.65650000
96.09999447	0.00000000	-36.18971000	-11.00517000
96.29999446	0.00000000	-35.39001000	-7.89247000
96.49999445	0.00000000	-32.68946000	-4.77977300
96.69999444	0.00000000	-28.83243000	-2.12844500
96.89999442	0.00000000	-24.96309000	-1.01501000
97.09999441	0.00000000	-21.48130000	-2.08538400
97.29999440	0.00000000	-19.56816000	-4.36146600
97.49999439	0.00000000	-19.56816000	-6.68676100
97.69999438	0.00000000	-21.52436000	-9.00590400
97.89999436	0.00000000	-25.33834000	-10.53765000
98.09999435	0.00000000	-29.57062000	-10.95595000
98.29999434	0.00000000	-33.11393000	-10.58686000
98.49999433	0.00000000	-35.85752000	-9.42421200
98.69999432	0.00000000	-37.35236000	-7.93553100
98.89999430	0.00000000	-36.97712000	-6.77903500
99.09999429	0.00000000	-34.65182000	-6.35457700
99.29999428	0.00000000	-31.20078000	-6.31151500
99.49999427	0.00000000	-27.29453000	-6.31151500
99.69999426	0.00000000	-23.84965000	-6.26845500
99.89999425	0.00000000	-21.48130000	-5.89320800
100.09999423	0.00000000	-20.73080000	-5.15501900
100.29999422	0.00000000	-21.48130000	-4.77977300
100.49999421	0.00000000	-23.80659000	-4.77977300
100.69999420	0.00000000	-26.87623000	-5.19808000
100.89999419	0.00000000	-29.99508000	-6.36072800
101.09999417	0.00000000	-32.68946000	-7.89247000
101.29999416	0.00000000	-34.27657000	-9.42421200
101.49999415	0.00000000	-34.69488000	-10.58686000
101.69999414	0.00000000	-34.27657000	-10.95595000
101.89999413	0.00000000	-32.73868000	-10.53765000
102.09999411	0.00000000	-30.41338000	-9.00590400
102.29999410	0.00000000	-28.08194000	-6.68676100
102.49999409	0.00000000	-25.76279000	-4.36146600
102.69999408	0.00000000	-24.22490000	-2.04232300
102.89999407	0.00000000	-23.80659000	-0.59670270
103.09999406	0.00000000	-24.18184000	-0.92888770
103.29999404	0.00000000	-25.33834000	-2.87278500
103.49999403	0.00000000	-26.91929000	-5.57332700
103.69999402	0.00000000	-28.87549000	-9.05511800
103.89999401	0.00000000	-31.15157000	-12.07554000
104.09999400	0.00000000	-32.68946000	-13.65650000
104.29999398	0.00000000	-33.06471000	-13.65650000
104.49999397	0.00000000	-32.36343000	-12.11860000
104.69999396	0.00000000	-30.78863000	-9.42421200
104.89999395	0.00000000	-29.28765000	-6.36072800
105.09999394	0.00000000	-27.66978000	-3.66633800
105.29999392	0.00000000	-26.54404000	-2.08538400
105.49999391	0.00000000	-25.76279000	-1.71013800
105.69999390	0.00000000	-25.80585000	-2.50369100
105.89999389	0.00000000	-26.91929000	-4.77977300
106.09999388	0.00000000	-28.41412000	-7.43110200
106.29999387	0.00000000	-29.57062000	-9.38115100
106.49999385	0.00000000	-29.99508000	-10.53765000
106.69999384	0.00000000	-29.99508000	-10.53765000
106.89999383	0.00000000	-29.61983000	-9.42421200
107.09999382	0.00000000	-28.83243000	-7.89247000
107.29999381	0.00000000	-28.08194000	-6.31151500
107.49999379	0.00000000	-27.29453000	-4.82283400
107.69999378	0.00000000	-26.91929000	-4.04158400
107.89999377	0.00000000	-26.91929000	-4.40452700
108.09999376	0.00000000	-27.34375000	-5.19808000
108.29999375	0.00000000	-28.45718000	-6.72982200
108.49999374	0.00000000	-29.61983000	-8.58759800
108.69999372	0.00000000	-30.37032000	-9.38115100
108.89999371	0.00000000	-30.78248000	-9.43036400
109.09999370	0.00000000	-30.37032000	-9.00590400
109.29999369	0.00000000	-29.61983000	-7.84940900
109.49999368	0.00000000	-28.45718000	-6.36072800
109.69999366	0.00000000	-27.29453000	-5.15501900
109.89999365	0.00000000	-26.54404000	-4.40452700
110.09999364	0.00000000	-26.13189000	-3.99237200
110.29999363	0.00000000	-26.54404000	-4.40452700
110.49999362	0.00000000	-27.29453000	-5.15501900
110.69999360	0.00000000	-28.45718000	-6.36072800
110.89999359	0.00000000	-29.57062000	-7.84940900
111.09999358	0.00000000	-29.99508000	-9.00590400
111.29999357	0.00000000	-30.03814000	-9.43036400
111.49999356	0.00000000	-29.99508000	-9.43036400
111.69999355	0.00000000	-29.61983000	-9.00590400
111.89999353	0.00000000	-28.83243000	-7.89247000
112.09999352	0.00000000	-28.08194000	-6.72982200
112.29999351	0.00000000	-27.29453000	-5.93626900
112.49999350	0.00000000	-26.91929000	-5.15501900
112.69999349	0.00000000	-26.87623000	-4.77977300
112.89999347	0.00000000	-26.91929000	-4.77977300
113.09999346	0.00000000	-27.29453000	-5.15501900
113.29999345	0.00000000	-28.03888000	-5.89320800
113.49999344	0.00000000	-28.41412000	-6.31151500
113.69999343	0.00000000	-28.45718000	-6.72982200
113.89999341	0.00000000	-28.45718000	-7.47416300
114.09999340	0.00000000	-28.45718000	-7.84940900
114.29999339	0.00000000	-28.45718000	-7.89247000
114.49999338	0.00000000	-28.45718000	-7.89247000
114.69999337	0.00000000	-28.45718000	-7.89247000
114.89999336	0.00000000	-28.45718000	-7.89247000
115.09999334	0.00000000	-28.41412000	-7.89247000
115.29999333	0.00000000	-28.08194000	-7.89247000
115.49999332	0.00000000	-27.71284000	-7.84940900
115.69999331	0.00000000	-28.08194000	-7.42495000
115.89999330	0.00000000	-28.41412000	-6.31151500
116.09999328	0.00000000	-28.45718000	-5.19808000
116.29999327	0.00000000	-28.45718000	-4.77977300
116.49999326	0.00000000	-28.45718000	-4.77977300
116.69999325	0.00000000	-28.45718000	-5.15501900
116.89999324	0.00000000	-28.45718000	-5.93626900
117.09999322	0.00000000	-28.45718000	-6.68676100
117.29999321	0.00000000	-28.41412000	-7.51722400
117.49999320	0.00000000	-28.03888000	-8.26771600
117.69999319	0.00000000	-27.29453000	-9.00590400
117.89999318	0.00000000	-26.91929000	-9.00590400
118.09999317	0.00000000	-26.87623000	-8.31077700
118.29999315	0.00000000	-26.91929000	-7.89247000
118.49999314	0.00000000	-27.34375000	-7.47416300
118.69999313	0.00000000	-28.45718000	-6.68676100
118.89999312	0.00000000	-29.57062000	-5.93626900
119.09999311	0.00000000	-29.99508000	-5.15501900
119.29999309	0.00000000	-30.03814000	-4.77977300
119.49999308	0.00000000	-29.99508000	-4.77977300
119.69999307	0.00000000	-29.57062000	-5.15501900
119.89999306	0.00000000	-28.41412000	-5.93626900
120.09999305	0.00000000	-26.91929000	-6.68676100
120.29999303	0.00000000	-25.71358000	-7.47416300
120.49999302	0.00000000	-24.96309000	-7.84940900
120.69999301	0.00000000	-24.60015000	-7.89247000
120.89999300	0.00000000	-25.33834000	-7.89247000
121.09999299	0.00000000	-26.45792000	-7.89247000
121.29999298	0.00000000	-27.29453000	-7.84940900
121.49999296	0.00000000	-28.50024000	-7.47416300
121.69999295	0.00000000	-29.99508000	-6.72982200
121.89999294	0.00000000	-31.10851000	-6.35457700
122.09999293	0.00000000	-31.15157000	-6.31151500
122.29999292	0.00000000	-30.41338000	-6.31151500
122.49999290	0.00000000	-29.66289000	-6.31151500
122.69999289	0.00000000	-28.83243000	-6.31151500
122.89999288	0.00000000	-28.03888000	-6.31151500
123.09999287	0.00000000	-26.87623000	-6.31151500
123.29999286	0.00000000	-25.76279000	-6.31151500
123.49999284	0.00000000	-25.33834000	-6.31151500
123.69999283	0.00000000	-25.33834000	-6.35457700
123.89999282	0.00000000	-25.76279000	-6.72982200
124.09999281	0.00000000	-26.87623000	-7.47416300
124.29999280	0.00000000	-28.03888000	-7.84940900
124.49999279	0.00000000	-28.83243000	-7.89247000
124.69999277	0.00000000	-29.61983000	-7.89247000
124.89999276	0.00000000	-29.99508000	-7.84940900
125.09999275	0.00000000	-30.03814000	-7.47416300
125.29999274	0.00000000	-29.99508000	-6.72982200
125.49999273	0.00000000	-29.57062000	-6.35457700
125.69999271	0.00000000	-28.45718000	-6.26845500
125.89999270	0.00000000	-27.29453000	-5.93626900
126.09999269	0.00000000	-26.50098000	-5.57332700
126.29999268	0.00000000	-25.71358000	-5.93626900
126.49999267	0.00000000	-25.33834000	-6.26845500
126.69999265	0.00000000	-25.33834000	-6.35457700
126.89999264	0.00000000	-25.76279000	-6.72982200
127.09999263	0.00000000	-26.91929000	-7.47416300
127.29999262	0.00000000	-28.41412000	-7.84940900
127.49999261	0.00000000	-29.57062000	-7.89247000
127.69999260	0.00000000	-29.99508000	-7.84940900
127.89999258	0.00000000	-30.03814000	-7.42495000
128.09999257	0.00000000	-29.99508000	-6.36072800
128.29999256	0.00000000	-29.52756000	-5.57332700
128.49999255	0.00000000	-28.03888000	-5.56717500
128.69999254	0.00000000	-26.18110000	-5.53026500
128.89999252	0.00000000	-25.38755000	-5.93626900
129.09999251	0.00000000	-25.29527000	-6.26845500
129.29999250	0.00000000	-25.38755000	-6.35457700
129.49999249	0.00000000	-26.13189000	-6.72982200
129.69999248	0.00000000	-27.66363000	-7.47416300
129.89999246	0.00000000	-28.78937000	-7.84940900
130.09999245	0.00000000	-29.61983000	-7.84940900
130.29999244	0.00000000	-29.94586000	-7.47416300
130.49999243	0.00000000	-29.61983000	-6.72982200
130.69999242	0.00000000	-28.83243000	-6.35457700
130.89999241	-0.15871060	-28.08194000	-6.31151500
131.09999239	0.00000000	-27.29453000	-6.35457700
131.29999238	0.00000000	-26.91929000	-6.68676100
131.49999237	0.00000000	-26.87623000	-7.09891700
131.69999236	0.00000000	-26.87623000	-7.10506800
131.89999235	0.00000000	-26.91929000	-7.51722400
132.09999233	0.00000000	-27.29453000	-7.84940900
132.29999232	0.00000000	-28.03888000	-7.89247000
132.49999231	0.00000000	-28.41412000	-7.84940900
132.69999230	0.00000000	-28.45718000	-7.47416300
132.89999229	0.00000000	-28.45718000	-6.72982200
133.09999227	0.00000000	-28.45718000	-6.31151500
133.29999226	0.00000000	-28.45718000	-5.89320800
133.49999225	0.00000000	-28.45718000	-5.19808000
133.69999224	0.00000000	-28.41412000	-5.19808000
133.89999223	0.00000000	-28.08194000	-5.93626900
134.09999222	0.00000000	-27.66978000	-6.68676100
134.29999220	0.00000000	-27.66363000	-7.47416300
134.49999219	0.00000000	-27.25147000	-7.84940900
134.69999218	0.00000000	-26.91929000	-7.89247000
134.89999217	0.00000000	-26.87623000	-7.89247000
135.09999216	0.00000000	-26.87623000	-7.89247000
135.29999214	0.00000000	-26.87623000	-7.84940900
135.49999213	0.00000000	-26.91929000	-7.47416300
135.69999212	0.00000000	-27.29453000	-6.68676100
135.89999211	0.00000000	-28.03888000	-5.93626900
136.09999210	0.00000000	-28.41412000	-5.15501900
136.29999208	0.00000000	-28.45718000	-4.82898600
136.49999207	0.00000000	-28.45718000	-5.15501900
136.69999206	0.00000000	-28.45718000	-5.89320800
136.89999205	0.00000000	-28.41412000	-6.31151500
137.09999204	0.00000000	-28.03888000	-6.72982200
137.29999203	0.00000000	-27.25147000	-7.47416300
137.49999201	0.00000000	-26.54404000	-7.84940900
137.69999200	0.00000000	-26.13189000	-7.89247000
137.89999199	0.00000000	-26.50098000	-7.89247000
138.09999198	0.00000000	-26.87623000	-7.89247000
138.29999197	0.00000000	-27.29453000	-7.89247000
138.49999195	0.00000000	-28.03888000	-7.84940900
138.69999194	0.00000000	-28.41412000	-7.47416300
138.89999193	0.00000000	-28.45718000	-6.68676100
139.09999192	0.00000000	-28.45718000	-5.93626900
139.29999191	0.00000000	-28.45718000	-5.15501900
139.49999189	0.00000000	-28.41412000	-4.82898600
139.69999188	0.00000000	-28.03888000	-5.11195900
139.89999187	0.00000000	-27.29453000	-5.51796200
140.09999186	0.00000000	-26.91929000	-5.57332700
140.29999185	0.00000000	-26.87623000	-6.36072800
140.49999184	0.00000000	-26.91929000	-7.42495000
140.69999182	0.00000000	-27.29453000	-7.84940900
140.89999181	0.00000000	-28.03888000	-7.89247000
141.09999180	0.00000000	-28.41412000	-7.89247000
141.29999179	0.00000000	-28.45718000	-7.84940900
141.49999178	0.00000000	-28.45718000	-7.47416300
141.69999176	0.00000000	-28.41412000	-6.68676100
141.89999175	0.00000000	-28.03888000	-5.93626900
142.09999174	0.00000000	-27.29453000	-5.15501900
142.29999173	0.00000000	-26.91929000	-4.82898600
142.49999172	0.00000000	-26.87623000	-5.15501900
142.69999170	0.00000000	-26.87623000	-5.89320800
142.89999169	0.00000000	-26.91929000	-6.31151500
143.09999168	0.00000000	-27.29453000	-6.72982200
143.29999167	0.00000000	-28.03888000	-7.51722400
143.49999166	0.00000000	-28.41412000	-8.22465500
143.69999165	0.00000000	-28.41412000	-8.63681000
143.89999163	0.00000000	-28.03888000	-8.22465500
144.09999162	0.00000000	-27.29453000	-7.51722400
144.29999161	0.00000000	-26.91929000	-6.68676100
144.49999160	0.00000000	-26.87623000	-5.93626900
144.69999159	0.00000000	-26.87623000	-5.19808000
144.89999157	0.00000000	-26.87623000	-5.15501900
145.09999156	0.00000000	-26.91929000	-5.51796200
145.29999155	0.00000000	-27.29453000	-5.53026500
145.49999154	0.00000000	-28.03888000	-5.98548200
145.69999153	0.00000000	-28.41412000	-6.68676100
145.89999151	0.00000000	-28.45718000	-7.47416300
146.09999150	0.00000000	-28.41412000	-7.84940900
146.29999149	0.00000000	-28.03888000	-7.89247000
146.49999148	0.00000000	-27.29453000	-7.84940900
146.69999147	0.00000000	-26.91929000	-7.47416300
146.89999146	0.00000000	-26.87623000	-6.72982200
147.09999144	0.00000000	-26.87623000	-6.35457700
147.29999143	0.00000000	-26.87623000	-6.26845500
147.49999142	0.00000000	-26.91929000	-5.93626900
147.69999141	0.00000000	-27.29453000	-5.57332700
147.89999140	0.00000000	-28.03888000	-5.93626900
148.09999138	0.00000000	-28.41412000	-6.26845500
148.29999137	0.00000000	-28.45718000	-6.35457700
148.49999136	0.00000000	-28.41412000	-6.72982200
148.69999135	0.00000000	-28.03888000	-7.47416300
148.89999134	0.00000000	-27.29453000	-7.84940900
149.09999132	0.00000000	-26.91929000	-7.89247000
149.29999131	0.00000000	-26.87623000	-7.89247000
149.49999130	0.00000000	-26.87623000	-7.84940900
149.69999129	0.00000000	-26.87623000	-7.47416300
149.89999128	0.00000000	-26.87623000	-6.72982200
150.09999127	0.00000000	-26.87623000	-6.35457700
150.29999125	0.00000000	-26.87623000	-6.31151500
150.49999124	0.00000000	-26.91929000	-6.31151500
150.69999123	0.00000000	-27.29453000	-6.31151500
150.89999122	-0.15871060	-28.03888000	-6.31151500
151.09999121	0.00000000	-28.41412000	-6.31151500
151.29999119	0.00000000	-28.45718000	-6.31151500
151.49999118	0.00000000	-28.41412000	-6.31151500
151.69999117	0.00000000	-28.03888000	-6.31151500
151.89999116	0.00000000	-27.29453000	-6.31151500
152.09999115	0.00000000	-26.91929000	-6.31151500
152.29999113	0.00000000	-26.87623000	-6.35457700
152.49999112	0.00000000	-26.87623000	-6.68676100
152.69999111	0.00000000	-26.87623000	-7.05585600
152.89999110	0.00000000	-26.87623000	-6.68676100
153.09999109	0.00000000	-26.87623000	-6.35457700
153.29999108	0.00000000	-26.91929000	-6.31151500
153.49999106	0.00000000	-27.29453000	-6.31151500
153.69999105	0.00000000	-28.03888000	-6.31151500
153.89999104	0.00000000	-28.41412000	-6.31151500
154.09999103	0.00000000	-28.45718000	-6.31151500
154.29999102	0.00000000	-28.45718000	-6.31151500
154.49999100	0.00000000	-28.41412000	-6.31151500
154.69999099	0.00000000	-28.03888000	-6.35457700
154.89999098	0.00000000	-27.29453000	-6.68676100
155.09999097	0.00000000	-26.91929000	-7.09891700
155.29999096	0.00000000	-26.83317000	-7.06200700
155.49999094	0.00000000	-26.50098000	-7.09891700
155.69999093	0.00000000	-26.13189000	-6.68676100
155.89999092	0.00000000	-26.50098000	-6.35457700
156.09999091	0.00000000	-26.83317000	-6.31151500
156.29999090	0.00000000	-26.91929000	-6.31151500
156.49999089	0.00000000	-27.29453000	-6.26845500
156.69999087	0.00000000	-28.03888000	-5.89320800
156.89999086	0.00000000	-28.41412000	-5.19808000
157.09999085	0.00000000	-28.45718000	-5.19808000
157.29999084	0.00000000	-28.45718000	-5.89320800
157.49999083	0.00000000	-28.41412000	-6.26845500
157.69999081	0.00000000	-28.03888000	-6.35457700
157.89999080	0.00000000	-27.29453000	-6.72982200
158.09999079	0.00000000	-26.91929000	-7.47416300
158.29999078	0.00000000	-26.87623000	-7.80019600
158.49999077	0.00000000	-26.87623000	-7.47416300
158.69999075	0.00000000	-26.87623000	-6.72982200
158.89999074	0.00000000	-26.87623000	-6.35457700
159.09999073	0.00000000	-26.87623000	-6.26845500
159.29999072	0.00000000	-26.91929000	-5.93626900
159.49999071	0.00000000	-27.29453000	-5.57332700
159.69999070	0.00000000	-28.03888000	-5.89320800
159.89999068	0.00000000	-28.41412000	-5.89320800
160.09999067	0.00000000	-28.41412000	-5.57332700
160.29999066	0.00000000	-28.08194000	-5.93626900
160.49999065	0.00000000	-27.66978000	-6.26845500
160.69999064	0.00000000	-27.66363000	-6.35457700
160.89999062	0.00000000	-27.25147000	-6.68676100
161.09999061	0.00000000	-26.91929000	-7.09891700
161.29999060	0.00000000	-26.87623000	-7.06200700
161.49999059	0.00000000	-26.83317000	-7.09891700
161.69999058	0.00000000	-26.50098000	-6.68676100
161.89999056	0.00000000	-26.13189000	-6.35457700
162.09999055	0.00000000	-26.50098000	-6.31151500
162.29999054	0.00000000	-26.83317000	-6.31151500
162.49999053	0.00000000	-26.87623000	-6.31151500
162.69999052	0.00000000	-26.91929000	-6.31151500
162.89999051	0.00000000	-27.29453000	-6.31151500
163.09999049	0.00000000	-28.03888000	-6.31151500
163.29999048	-0.15871060	-28.41412000	-6.31151500
163.49999047	0.00000000	-28.41412000	-6.31151500
163.69999046	0.00000000	-28.03888000	-6.31151500
163.89999045	0.00000000	-27.29453000	-6.31151500
164.09999043	0.00000000	-26.91929000	-6.31151500
164.29999042	0.00000000	-26.83317000	-6.35457700
164.49999041	0.00000000	-26.50098000	-6.68676100
164.69999040	0.00000000	-26.13189000	-7.05585600
164.89999039	0.00000000	-26.50098000	-6.68676100
165.09999037	0.00000000	-26.83317000	-6.35457700
165.29999036	0.00000000	-26.87623000	-6.31151500
165.49999035	0.00000000	-26.87623000	-6.31151500
165.69999034	0.00000000	-26.87623000	-6.31151500
165.89999033	0.00000000	-26.91929000	-6.31151500
166.09999032	0.00000000	-27.25147000	-6.31151500
166.29999030	0.00000000	-27.66363000	-6.31151500
166.49999029	0.00000000	-27.62672000	-6.31151500
166.69999028	0.00000000	-27.66363000	-6.31151500
166.89999027	0.00000000	-27.25147000	-6.31151500
167.09999026	0.00000000	-26.91929000	-6.31151500
167.29999024	0.00000000	-26.87623000	-6.31151500
167.49999023	0.00000000	-26.87623000	-6.31151500
167.69999022	0.00000000	-26.87623000	-6.31151500
167.89999021	0.00000000	-26.87623000	-6.31151500
168.09999020	0.00000000	-26.87623000	-6.31151500
168.29999018	0.00000000	-26.87623000	-6.31151500
168.49999017	0.00000000	-26.87623000	-6.31151500
168.69999016	0.00000000	-26.87623000	-6.31151500
168.89999015	0.00000000	-26.87623000	-6.31151500
169.09999014	0.00000000	-26.87623000	-6.31151500
169.29999013	0.00000000	-26.87623000	-6.31151500
169.49999011	0.00000000	-26.87623000	-6.31151500
169.69999010	0.00000000	-26.87623000	-6.31151500
169.89999009	0.00000000	-26.87623000	-6.31151500
170.09999008	-0.15871060	-26.87623000	-6.31151500
170.29999007	0.00000000	-26.87623000	-6.31151500
170.49999005	0.00000000	-26.87623000	-6.31151500
170.69999004	0.00000000	-26.87623000	-6.31151500
170.89999003	0.00000000	-26.87623000	-6.31151500
171.09999002	0.00000000	-26.87623000	-6.31151500
171.29999001	0.00000000	-26.87623000	-6.31151500
171.49998999	0.00000000	-26.87623000	-6.31151500
171.69998998	0.00000000	-26.87623000	-6.31151500
171.89998997	0.00000000	-26.87623000	-6.31151500
172.09998996	0.00000000	-26.87623000	-6.31151500
172.29998995	0.00000000	-26.87623000	-6.31151500
172.49998994	0.00000000	-26.87623000	-6.31151500
172.69998992	0.00000000	-26.87623000	-6.31151500
172.89998991	0.00000000	-26.87623000	-6.31151500
173.09998990	0.00000000	-26.87623000	-6.31151500
173.29998989	0.00000000	-26.87623000	-6.31151500
173.49998988	0.00000000	-26.87623000	-6.31151500
173.69998986	-0.15871060	-26.87623000	-6.31151500
173.89998985	0.00000000	-26.87623000	-6.31151500
174.09998984	0.00000000	-26.87623000	-6.31151500
174.29998983	0.00000000	-26.87623000	-6.31151500
174.49998982	0.00000000	-26.87623000	-6.31151500
174.69998980	0.00000000	-26.87623000	-6.31151500
174.89998979	0.00000000	-26.87623000	-6.31151500
175.09998978	0.00000000	-26.87623000	-6.31151500
175.29998977	0.00000000	-26.87623000	-6.31151500
175.49998976	0.00000000	-26.87623000	-6.31151500
175.69998975	0.00000000	-26.87623000	-6.31151500
175.89998973	0.00000000	-26.87623000	-6.31151500
176.09998972	0.00000000	-26.87623000	-6.31151500
176.29998971	0.00000000	-26.87623000	-6.31151500
176.49998970	0.00000000	-26.87623000	-6.31151500
176.69998969	-0.15871060	-26.87623000	-6.31151500
176.89998967	0.00000000	-26.87623000	-6.31151500
177.09998966	0.00000000	-26.87623000	-6.31151500
177.29998965	0.00000000	-26.87623000	-6.31151500
177.49998964	0.00000000	-26.87623000	-6.31151500
177.69998963	0.00000000	-26.87623000	-6.31151500
177.89998961	0.00000000	-26.87623000	-6.31151500
178.09998960	0.00000000	-26.87623000	-6.31151500
178.29998959	0.00000000	-26.87623000	-6.31151500
178.49998958	0.00000000	-26.87623000	-6.31151500
178.69998957	0.00000000	-26.87623000	-6.31151500
178.89998956	0.00000000	-26.87623000	-6.31151500
179.09998954	0.00000000	-26.87623000	-6.31151500
179.29998953	0.00000000	-26.87623000	-6.31151500
179.49998952	0.00000000	-26.87623000	-6.31151500
179.69998951	0.00000000	-26.87623000	-6.31151500
179.89998950	0.00000000	-26.87623000	-6.31151500
180.09998948	0.00000000	-26.87623000	-6.31151500
180.29998947	0.00000000	-26.87623000	-6.31151500
180.49998946	0.00000000	-26.87623000	-6.31151500
180.69998945	0.00000000	-26.87623000	-6.31151500
180.89998944	0.00000000	-26.87623000	-6.31151500
181.09998942	0.00000000	-26.87623000	-6.26845500
181.29998941	0.00000000	-26.87623000	-5.93626900
181.49998940	0.00000000	-26.87623000	-5.53026500
181.69998939	0.00000000	-26.87623000	-5.56717500
181.89998938	0.00000000	-26.87623000	-5.53026500
182.09998937	0.00000000	-26.87623000	-5.93626900
182.29998935	0.00000000	-26.87623000	-6.26845500
182.49998934	0.00000000	-26.87623000	-6.31151500
182.69998933	0.00000000	-26.87623000	-6.31151500
182.89998932	0.00000000	-26.87623000	-6.31151500
183.09998931	0.00000000	-26.87623000	-6.31151500
183.29998929	0.00000000	-26.87623000	-6.31151500
183.49998928	0.00000000	-26.87623000	-6.31151500
183.69998927	0.00000000	-26.87623000	-6.31151500
183.89998926	0.00000000	-26.87623000	-6.31151500
184.09998925	0.00000000	-26.87623000	-6.31151500
184.29998923	0.00000000	-26.83317000	-6.26845500
184.49998922	0.00000000	-26.50098000	-5.93626900
184.69998921	0.00000000	-26.13189000	-5.57332700
184.89998920	0.00000000	-26.50098000	-5.93626900
185.09998919	0.00000000	-26.83317000	-6.26845500
185.29998918	0.00000000	-26.87623000	-6.31151500
185.49998916	0.00000000	-26.87623000	-6.31151500
185.69998915	0.00000000	-26.87623000	-6.31151500
185.89998914	0.00000000	-26.87623000	-6.35457700
186.09998913	0.00000000	-26.83317000	-6.68676100
186.29998912	0.00000000	-26.50098000	-7.05585600
186.49998910	0.00000000	-26.13189000	-6.68676100
186.69998909	0.00000000	-26.50098000	-6.35457700
186.89998908	0.00000000	-26.83317000	-6.31151500
187.09998907	0.00000000	-26.87623000	-6.26845500
187.29998906	0.00000000	-26.87623000	-5.89320800
187.49998904	0.00000000	-26.87623000	-5.15501900
187.69998903	0.00000000	-26.83317000	-4.77977300
187.89998902	0.00000000	-26.50098000	-4.77977300
188.09998901	0.00000000	-26.08883000	-5.15501900
188.29998900	0.00000000	-26.08268000	-5.89320800
188.49998899	0.00000000	-25.67052000	-6.26845500
188.69998897	0.00000000	-25.33834000	-6.31151500
188.89998896	0.00000000	-25.33834000	-6.31151500
189.09998895	0.00000000	-25.71358000	-6.35457700
189.29998894	0.00000000	-26.45792000	-6.68676100
189.49998893	0.00000000	-26.83317000	-7.05585600
189.69998891	-0.15871060	-26.87623000	-6.68676100
189.89998890	0.00000000	-26.87623000	-6.35457700
190.09998889	0.00000000	-26.87623000	-6.31151500
190.29998888	0.00000000	-26.87623000	-6.31151500
190.49998887	0.00000000	-26.87623000	-6.31151500
190.69998885	0.00000000	-26.87623000	-6.31151500
190.89998884	0.00000000	-26.87623000	-6.31151500
191.09998883	0.00000000	-26.87623000	-6.31151500
191.29998882	0.00000000	-26.87623000	-6.31151500
191.49998881	0.00000000	-26.83317000	-6.31151500
191.69998880	0.00000000	-26.50098000	-6.31151500
191.89998878	0.00000000	-26.13189000	-6.31151500
192.09998877	0.00000000	-26.50098000	-6.31151500
192.29998876	0.00000000	-26.83317000	-6.31151500
192.49998875	0.00000000	-26.87623000	-6.31151500
192.69998874	0.00000000	-26.87623000	-6.31151500
192.89998872	0.00000000	-26.83317000	-6.31151500
193.09998871	0.00000000	-26.50098000	-6.31151500
193.29998870	0.00000000	-26.13189000	-6.26845500
193.49998869	0.00000000	-26.50098000	-5.93626900
193.69998868	0.00000000	-26.83317000	-5.57332700
193.89998866	0.00000000	-26.87623000	-5.93626900
194.09998865	0.00000000	-26.87623000	-6.26845500
194.29998864	0.00000000	-26.83317000	-6.31151500
194.49998863	0.00000000	-26.45792000	-6.31151500
194.69998862	0.00000000	-25.76279000	-6.31151500
194.89998861	0.00000000	-25.76279000	-6.31151500
195.09998859	0.00000000	-26.45792000	-6.31151500
195.29998858	0.00000000	-26.83317000	-6.31151500
195.49998857	0.00000000	-26.87623000	-6.31151500
195.69998856	0.00000000	-26.87623000	-6.31151500
195.89998855	0.00000000	-26.87623000	-6.31151500
196.09998853	0.00000000	-26.87623000	-6.31151500
