Time	Channel A	Channel B	Channel C
(us)	(V)	(mV)	(mV)

-4.49999956	0.00000000	-1.62401600	3.99237200
-4.29999957	0.00000000	-1.95620100	4.36146600
-4.09999958	0.00000000	-2.32529500	4.69365100
-3.89999959	0.00000000	-1.95620100	4.69365100
-3.69999960	0.00000000	-1.62401600	4.36146600
-3.49999962	0.00000000	-1.58095500	3.99237200
-3.29999963	0.00000000	-1.58095500	4.31840500
-3.09999964	0.00000000	-1.58095500	4.31840500
-2.89999965	0.00000000	-1.58095500	3.99237200
-2.69999966	0.00000000	-1.58095500	4.36146600
-2.49999968	0.00000000	-1.58095500	4.64443900
-2.29999969	0.00000000	-1.58095500	4.36146600
-2.09999970	0.00000000	-1.58095500	3.99237200
-1.89999971	0.00000000	-1.58095500	4.36146600
-1.69999972	0.00000000	-1.58095500	4.69365100
-1.49999973	0.00000000	-1.58095500	4.73671200
-1.29999975	0.00000000	-1.58095500	4.73671200
-1.09999976	0.00000000	-1.62401600	4.73671200
-0.89999977	0.00000000	-1.95620100	4.73671200
-0.69999978	0.00000000	-2.32529500	4.73671200
-0.49999979	0.00000000	-1.95620100	4.73671200
-0.29999981	0.15871060	-1.62401600	4.73671200
-0.09999982	0.63668800	-1.58095500	4.73671200
0.10000017	0.95533960	-1.58095500	4.69365100
0.30000016	0.95533960	-1.58095500	4.31840500
0.50000015	0.79601380	-1.58095500	3.57406500
0.70000013	0.47736220	-1.58095500	3.19881900
0.90000012	-0.31803640	-1.58095500	3.19881900
1.10000011	-1.43331700	-1.58095500	3.57406500
1.30000010	-2.38927200	-1.58095500	4.31840500
1.50000009	-2.70792300	-1.58095500	4.69365100
1.70000008	-2.54859700	-1.58095500	4.73671200
1.90000006	-1.59264300	-1.58095500	4.73671200
2.10000005	0.15871060	-1.58095500	4.73671200
2.30000004	2.38927200	-1.58095500	4.73671200
2.50000003	4.30056600	-1.58095500	4.69365100
2.70000002	5.25652100	-1.58095500	4.31840500
2.90000000	4.93786900	-1.58095500	3.57406500
3.09999999	3.34522600	-1.58095500	3.19881900
3.29999998	0.31803640	-1.58095500	3.15575800
3.49999997	-3.02657500	-1.58095500	3.19881900
3.69999996	-6.05315000	-1.58095500	3.57406500
3.89999994	-7.80511800	-1.58095500	4.31840500
4.09999993	-7.80511800	-1.58095500	4.69365100
4.29999992	-5.57517200	-1.58095500	4.73671200
4.49999991	-1.75196900	-1.58095500	4.73671200
4.69999990	2.70792300	-1.58095500	4.73671200
4.89999989	6.69045300	-1.58095500	4.69365100
5.09999987	9.07972400	-1.58095500	4.31840500
5.29999986	9.23905000	-1.58095500	3.57406500
5.49999985	7.00848900	-1.62401600	3.19881900
5.69999984	3.02657500	-1.99926200	3.15575800
5.89999983	-1.75196900	-2.69439000	3.15575800
6.09999981	-6.05315000	-2.69439000	3.19881900
6.29999980	-8.92039900	-1.99926200	3.57406500
6.49999979	-9.39837600	-1.62401600	4.31840500
6.69999978	-7.64579200	-1.58095500	4.69365100
6.89999977	-3.98191400	-1.58095500	4.73671200
7.09999975	0.31803640	-1.62401600	4.73671200
7.29999974	4.30056600	-1.95620100	4.73671200
7.49999973	7.00848900	-2.32529500	4.69365100
7.69999972	7.64579200	-1.99926200	4.31840500
7.89999971	6.53112700	-1.99926200	3.57406500
8.09999970	3.98191400	-2.32529500	3.24803100
8.29999968	0.63668800	-1.95620100	3.53100400
8.49999967	-2.54859700	-1.62401600	3.90009800
8.69999966	-4.45989200	-1.58095500	3.57406500
8.89999965	-5.25652100	-1.58095500	3.62327700
9.09999964	-4.61921700	-1.58095500	4.31840500
9.29999962	-3.02657500	-1.58095500	4.69365100
9.49999961	-0.95533960	-1.58095500	4.73671200
9.69999960	0.79601380	-1.58095500	4.73671200
9.89999959	2.07062000	-1.58095500	4.73671200
10.09999958	2.54859700	-1.58095500	4.69365100
10.29999956	2.22994600	-1.58095500	4.36146600
10.49999955	1.59264300	-1.58095500	3.94931100
10.69999954	0.63668800	-1.58095500	3.94315900
10.89999953	-0.15871060	-1.58095500	3.53100400
11.09999952	-0.63668800	-1.58095500	3.24803100
11.29999951	-0.95533960	-1.58095500	3.57406500
11.49999949	-0.95533960	-1.58095500	4.26919300
11.69999948	-0.79601380	-1.58095500	4.31840500
11.89999947	-0.47736220	-1.58095500	3.99237200
12.09999946	-0.15871060	-1.58095500	4.36146600
12.29999945	-0.15871060	-1.58095500	4.69365100
12.49999943	-0.15871060	-1.58095500	4.73671200
12.69999942	0.00000000	-1.58095500	4.69365100
12.89999941	0.00000000	-1.58095500	4.36146600
13.09999940	0.00000000	-1.58095500	3.94931100
13.29999939	0.00000000	-1.58095500	3.98622000
13.49999937	0.00000000	-1.58095500	3.90625000
13.69999936	0.00000000	-1.62401600	3.98622000
13.89999935	0.00000000	-1.95620100	3.90625000
14.09999934	-0.15871060	-2.32529500	3.98622000
14.29999933	-0.15871060	-1.95620100	3.90625000
14.49999932	-0.15871060	-1.62401600	3.98622000
14.69999930	-0.15871060	-1.58095500	3.94931100
14.89999929	0.00000000	-1.62401600	4.36146600
15.09999928	0.00000000	-1.95620100	4.69365100
15.29999927	0.00000000	-2.32529500	4.73671200
15.49999926	0.00000000	-1.99926200	4.73671200
15.69999924	0.00000000	-1.99926200	4.73671200
15.89999923	0.00000000	-2.32529500	4.73671200
16.09999922	0.00000000	-1.95620100	4.73671200
16.29999921	-0.15871060	-1.62401600	4.73671200
16.49999920	-0.15871060	-1.58095500	4.73671200
16.69999919	-0.15871060	-1.58095500	4.73671200
16.89999917	-0.15871060	-1.53789400	4.73671200
17.09999916	0.00000000	-1.16264800	4.73671200
17.29999915	0.00000000	-0.41830710	4.69365100
17.49999914	0.00000000	-0.04306102	4.36146600
17.69999913	0.00000000	-0.04306102	3.99237200
17.89999911	0.00000000	-0.46751960	4.36146600
18.09999910	0.00000000	-1.62401600	4.69365100
18.29999909	0.00000000	-3.16190900	4.73671200
18.49999908	0.00000000	-4.69980300	4.73671200
18.69999907	-0.15871060	-5.85629900	4.73671200
18.89999905	0.00000000	-6.28075700	4.73671200
19.09999904	0.00000000	-6.23154500	4.73671200
19.29999903	0.00000000	-5.39493100	4.73671200
19.49999902	0.00000000	-3.02657500	4.73671200
19.69999901	0.00000000	0.41830710	4.73671200
19.89999900	0.00000000	4.27534400	4.73671200
20.09999898	0.00000000	7.35113100	4.73671200
20.29999897	0.00000000	8.88902600	4.73671200
20.49999896	0.00000000	8.42150500	4.73671200
20.69999895	0.00000000	5.25959600	4.73671200
20.89999894	0.00000000	-0.55364170	4.73671200
21.09999892	0.00000000	-7.90477300	4.73671200
21.29999891	0.00000000	-15.25591000	4.69365100
21.49999890	0.00000000	-20.97687000	4.36146600
21.69999889	0.00000000	-23.16683000	3.94931100
21.89999888	0.00000000	-20.00492000	3.94315900
22.09999886	0.00000000	-11.54035000	3.53100400
22.29999885	0.00000000	0.09227362	3.19881900
22.49999884	0.00000000	12.46924000	3.19881900
22.69999883	0.00000000	23.25910000	3.57406500
22.89999882	0.00000000	29.35531000	4.31840500
23.09999881	0.00000000	28.89395000	4.69365100
23.29999879	0.00000000	21.03223000	4.77977300
23.49999878	0.00000000	6.32997000	5.15501900
23.69999877	0.00000000	-12.18012000	5.89320800
23.89999876	0.00000000	-29.82283000	6.26845500
24.09999875	0.00000000	-41.81841000	6.26845500
24.29999873	0.00000000	-44.85728000	5.85014700
24.49999872	0.00000000	-38.61343000	4.68750000
24.69999871	0.00000000	-23.08071000	3.15575800
24.89999870	0.00000000	-1.48868100	1.57480300
25.09999869	0.00000000	20.89075000	0.04306102
25.29999867	0.00000000	39.03174000	-1.06422200
25.49999866	0.00000000	48.25295000	-1.06422200
25.69999865	0.00000000	46.33981000	0.13533460
25.89999864	0.00000000	33.50147000	2.50369100
26.09999863	0.00000000	12.23548000	6.35457700
26.29999862	0.00000000	-13.21358000	10.58686000
26.49999860	0.00000000	-36.33735000	14.03174000
26.69999859	0.00000000	-51.41486000	15.92642000
26.89999858	0.00000000	-55.27190000	15.09596000
27.09999857	0.00000000	-46.80118000	11.60802000
27.29999856	0.00000000	-28.28494000	5.75787400
27.49999854	0.00000000	-4.32455700	-1.58095500
27.69999853	0.00000000	20.00492000	-8.87057000
27.89999852	0.00000000	38.94562000	-14.25935000
28.09999851	0.00000000	48.25295000	-16.12328000
28.29999850	0.00000000	46.33981000	-13.74877000
28.49999848	0.00000000	33.63681000	-6.74212600
28.69999847	0.00000000	13.63189000	3.66633800
28.89999846	0.00000000	-8.42150500	15.27436000
29.09999845	0.00000000	-27.82357000	25.68897000
29.29999844	0.00000000	-40.98794000	32.56643000
29.49999843	0.00000000	-45.26944000	33.63681000
29.69999841	0.00000000	-39.91757000	27.82972000
29.89999840	0.00000000	-26.83932000	16.25861000
30.09999839	0.00000000	-9.44266700	1.57480300
30.29999838	0.00000000	8.37844500	-13.14591000
30.49999837	0.00000000	23.08071000	-25.09227000
30.69999835	0.00000000	31.63755000	-31.59449000
30.89999834	0.00000000	32.48031000	-30.38878000
31.09999833	0.00000000	26.32874000	-21.51206000
31.29999832	0.00000000	14.74532000	-6.83439900
31.49999831	0.00000000	0.46751960	10.54380000
31.69999829	0.00000000	-13.07210000	26.80241000
31.89999828	0.00000000	-23.20989000	38.74877000
32.09999827	0.00000000	-28.24188000	43.76230000
32.29999826	0.00000000	-27.53445000	40.23745000
32.49999825	0.00000000	-21.35212000	29.12155000
32.69999824	0.00000000	-11.71875000	12.86909000
32.89999822	-0.15871060	-0.46751960	-4.51525500
33.09999821	0.00000000	9.91018600	-20.02337000
33.29999820	0.00000000	16.88607000	-30.43184000
33.49999819	0.00000000	18.89148000	-33.54453000
33.69999818	0.00000000	16.23400000	-28.90010000
33.89999816	0.00000000	10.04552000	-17.32899000
34.09999815	0.00000000	1.58095500	-1.48868100
34.29999814	0.00000000	-6.88361200	15.10212000
34.49999813	-0.15871060	-13.07210000	29.02928000
34.69999812	0.00000000	-15.81570000	37.12475000
34.89999810	0.00000000	-14.70226000	37.95522000
35.09999809	0.00000000	-10.51304000	31.36073000
35.29999808	0.00000000	-4.74286400	19.08834000
35.49999807	0.00000000	1.07037400	4.04158400
35.69999806	0.00000000	5.67790300	-9.85482200
35.89999805	0.00000000	8.00319800	-19.93110000
36.09999803	0.00000000	7.21579700	-24.16338000
36.29999802	0.00000000	3.81397600	-21.46899000
36.49999801	0.00000000	-1.20570900	-12.68455000
36.69999800	0.00000000	-6.14542300	-0.37524600
36.89999799	0.00000000	-9.67027500	11.89715000
37.09999797	0.00000000	-10.79601000	21.17987000
37.29999796	0.00000000	-9.67027500	25.04306000
37.49999795	0.00000000	-6.18848400	23.17913000
37.69999794	0.00000000	-1.62401600	16.25861000
37.89999793	0.00000000	2.65132900	6.31151500
38.09999791	0.00000000	5.77017700	-3.62942900
38.29999790	0.00000000	7.30807100	-10.54995000
38.49999789	0.00000000	6.88361200	-12.45694000
38.69999788	0.00000000	4.18922200	-9.01205700
38.89999787	0.00000000	0.00000000	-1.02116100
39.09999786	0.00000000	-4.27534400	8.50147600
39.29999784	0.00000000	-7.76943800	16.21555000
39.49999783	0.00000000	-10.13779000	20.44168000
39.69999782	0.00000000	-10.88829000	20.02337000
39.89999781	0.00000000	-10.09473000	14.63459000
40.09999780	0.00000000	-7.39419200	5.85014700
40.29999778	0.00000000	-3.53715500	-3.72170300
40.49999777	0.00000000	0.37524600	-11.01132000
40.69999776	0.00000000	4.23228400	-14.08095000
40.89999775	0.00000000	6.93282500	-12.17397000
41.09999774	0.00000000	7.72637700	-5.62253900
41.29999772	0.00000000	6.97588500	3.57406500
41.49999771	0.00000000	4.60752900	13.18898000
41.69999770	0.00000000	1.16264800	20.44168000
41.89999769	0.00000000	-2.74360200	23.17913000
42.09999768	0.00000000	-6.23154500	20.90305000
42.29999767	0.00000000	-8.93208600	14.76993000
42.49999765	0.00000000	-10.09473000	6.31151500
42.69999764	0.00000000	-9.35039300	-2.14074800
42.89999763	0.00000000	-7.43725300	-8.31692900
43.09999762	0.00000000	-4.74286400	-11.05438000
43.29999761	0.00000000	-1.99926200	-9.94094400
43.49999759	0.00000000	0.33218500	-5.71481200
43.69999758	0.00000000	2.27608300	0.41830710
43.89999757	0.00000000	3.02657500	6.96358300
44.09999756	0.00000000	2.74360200	11.98327000
44.29999755	0.00000000	1.95620100	14.72072000
44.49999753	0.00000000	1.20570900	14.72072000
44.69999752	0.00000000	0.46751960	12.07554000
44.89999751	0.00000000	0.41830710	7.89247000
45.09999750	0.00000000	0.74434050	3.66633800
45.29999749	0.00000000	0.28297240	0.51058070
45.49999748	0.00000000	-0.88582670	-1.43946800
45.69999746	0.00000000	-3.25418300	-2.22687000
45.89999745	0.00000000	-6.28075700	-1.43946800
46.09999744	0.00000000	-9.01820900	0.46751960
46.29999743	0.00000000	-10.93135000	3.15575800
46.49999742	0.00000000	-11.62648000	5.85014700
46.69999740	0.00000000	-9.95939900	7.75713500
46.89999739	0.00000000	-5.39493100	8.58759800
47.09999738	0.00000000	0.78740150	8.22465500
47.29999737	0.00000000	6.60679100	7.42495000
47.49999736	0.00000000	11.62648000	5.85014700
47.69999734	0.00000000	14.23474000	3.57406500
47.89999733	0.00000000	13.07210000	1.62401600
48.09999732	0.00000000	8.42150500	0.04306102
48.29999731	0.00000000	1.02731300	-1.02116100
48.49999730	0.00000000	-7.81250000	-0.64591530
48.69999729	0.00000000	-15.85876000	1.29183100
48.89999727	0.00000000	-20.47244000	3.94931100
49.09999726	0.00000000	-20.51550000	7.05585600
49.29999725	0.00000000	-16.23400000	9.33809000
49.49999724	0.00000000	-8.51377900	10.53765000
49.69999723	0.00000000	1.16264800	10.49459000
49.89999721	0.00000000	10.37771000	8.96284400
50.09999720	0.00000000	16.88607000	6.22539300
50.29999719	0.00000000	18.42397000	2.73745100
50.49999718	0.00000000	14.65305000	-1.07037400
50.69999717	0.00000000	7.30807100	-3.71555100
50.89999715	0.00000000	-1.95620100	-4.14000900
51.09999714	0.00000000	-11.16511000	-2.64517700
51.29999713	0.00000000	-17.31053000	0.09227362
51.49999712	0.00000000	-18.89148000	3.62327700
51.69999711	0.00000000	-15.81570000	7.84940900
51.89999710	0.00000000	-8.93208600	11.61417000
52.09999708	0.00000000	-0.46751960	13.18898000
52.29999707	0.00000000	7.25885800	12.49385000
52.49999706	0.00000000	12.61073000	10.53765000
52.69999705	0.00000000	13.77338000	7.42495000
52.89999704	0.00000000	10.33464000	3.57406500
53.09999702	0.00000000	3.85703700	0.13533460
53.29999701	0.00000000	-3.85703700	-2.18380900
53.49999700	0.00000000	-10.37771000	-2.55905500
53.69999699	0.00000000	-14.23474000	-1.07037400
53.89999698	0.00000000	-14.23474000	1.58095500
54.09999696	0.00000000	-10.42077000	4.26919300
54.29999695	0.00000000	-4.32455700	6.22539300
54.49999694	0.00000000	2.23302100	7.38188900
54.69999693	0.00000000	7.25885800	7.38188900
54.89999692	0.00000000	9.95939900	6.22539300
55.09999691	0.00000000	9.53494100	4.36146600
55.29999689	0.00000000	5.72711600	2.46063000
55.49999688	0.00000000	-0.04306102	1.71013800
55.69999687	0.00000000	-6.14542300	2.08538400
55.89999686	0.00000000	-10.74680000	3.61712600
56.09999685	0.00000000	-11.95866000	5.89320800
56.29999683	0.00000000	-10.46998000	7.75713500
56.49999682	0.00000000	-6.97588500	8.50147600
56.69999681	0.00000000	-1.99926200	7.33882900
56.89999680	0.00000000	2.60826800	4.68750000
57.09999679	0.00000000	5.77017700	1.62401600
57.29999677	0.00000000	7.25885800	-1.11343500
57.49999676	0.00000000	6.46530500	-2.97736200
57.69999675	0.00000000	3.06963600	-3.29724400
57.89999674	0.00000000	-1.11343500	-0.97810030
58.09999673	0.00000000	-4.65059000	3.24803100
58.29999672	0.00000000	-7.35113100	8.26771600
58.49999670	0.00000000	-8.46456700	13.18898000
58.69999669	0.00000000	-7.39419200	15.84030000
58.89999668	0.00000000	-5.11811000	15.14518000
59.09999667	0.00000000	-2.74360200	12.03248000
59.29999666	0.00000000	-0.04306102	6.96358300
59.49999664	0.00000000	2.18996000	0.41830710
59.69999663	0.00000000	2.60826800	-5.67175200
59.89999662	0.00000000	1.53789400	-9.52263600
60.09999661	0.00000000	0.00000000	-9.84867000
60.29999660	0.00000000	-1.58095500	-6.40994000
60.49999658	0.00000000	-3.11884800	0.13533460
60.69999657	0.00000000	-4.23228400	7.80019600
60.89999656	0.00000000	-4.23228400	14.72687000
61.09999655	0.00000000	-3.11884800	19.00221000
61.29999654	0.00000000	-1.62401600	19.74655000
61.49999653	0.00000000	-0.46751960	17.04601000
61.69999651	0.00000000	-0.04306102	10.86983000
61.89999650	0.00000000	-0.04306102	3.19881900
62.09999649	0.00000000	-0.46751960	-4.14000900
62.29999648	0.00000000	-1.62401600	-9.52263600
62.49999647	0.00000000	-3.11884800	-11.42962000
62.69999645	0.00000000	-4.27534400	-9.56569900
62.89999644	0.00000000	-4.65059000	-4.51525500
63.09999643	0.00000000	-4.27534400	2.41141700
63.29999642	-0.15871060	-3.11884800	10.07628000
63.49999641	0.00000000	-1.58095500	15.88336000
63.69999639	0.00000000	-0.04306102	18.63312000
63.89999638	0.00000000	1.11343500	18.62697000
64.09999637	0.00000000	1.48868100	15.14518000
64.29999636	0.00000000	1.11343500	9.42421200
64.49999635	0.00000000	-0.04306102	3.20497000
64.69999634	0.00000000	-1.58095500	-2.60211600
64.89999632	0.00000000	-3.11884800	-6.82824800
65.09999631	0.00000000	-4.23228400	-8.40920300
65.29999630	0.00000000	-4.23228400	-7.29576700
65.49999629	0.00000000	-3.11884800	-4.22613100
65.69999628	0.00000000	-1.62401600	0.04306102
65.89999626	0.00000000	-0.46751960	4.69365100
66.09999625	0.00000000	-0.04306102	8.96284400
66.29999624	0.00000000	-0.04306102	12.07554000
66.49999623	0.00000000	-0.46751960	13.65650000
66.69999622	0.00000000	-1.62401600	13.69956000
66.89999620	0.00000000	-3.11884800	12.53691000
67.09999619	0.00000000	-4.23228400	10.53765000
67.29999618	0.00000000	-4.23228400	7.47416300
67.49999617	0.00000000	-3.11884800	3.94931100
67.69999616	0.00000000	-1.53789400	0.83046260
67.89999615	0.00000000	0.41830710	-2.31914400
68.09999613	0.00000000	2.69439000	-4.55831700
68.29999612	0.00000000	4.14616100	-5.38262700
68.49999611	0.00000000	3.77091500	-4.55831700
68.69999610	0.00000000	1.48868100	-2.22687000
68.89999609	0.00000000	-1.62401600	1.66707700
69.09999607	0.00000000	-5.11811000	6.31151500
69.29999606	0.00000000	-8.55684000	10.95595000
69.49999605	0.00000000	-10.42077000	14.81299000
69.69999604	0.00000000	-10.09473000	16.71998000
69.89999603	0.00000000	-7.72637700	16.30167000
70.09999601	0.00000000	-3.85703700	13.18898000
70.29999600	0.00000000	1.20570900	7.84940900
70.49999599	0.00000000	6.14542300	2.08538400
70.69999598	0.00000000	9.62721400	-2.64517700
70.89999597	0.00000000	10.37771000	-6.09005900
71.09999596	0.00000000	8.46456700	-7.61564900
71.29999594	0.00000000	4.18922200	-6.09005900
71.49999593	0.00000000	-1.58095500	-2.64517700
71.69999592	0.00000000	-7.39419200	2.04232300
71.89999591	0.00000000	-12.00172000	7.38188900
72.09999590	0.00000000	-14.32702000	11.61417000
72.29999588	0.00000000	-13.53962000	13.61343000
72.49999587	0.00000000	-10.09473000	13.61343000
72.69999586	0.00000000	-4.69980300	11.65723000
72.89999585	0.00000000	1.11343500	7.84940900
73.09999584	0.00000000	6.14542300	3.66633800
73.29999582	0.00000000	9.58415200	0.59670270
73.49999581	0.00000000	10.00246000	-0.60285430
73.69999580	0.00000000	7.76943800	0.09227362
73.89999579	0.00000000	4.23228400	1.57480300
74.09999578	0.00000000	-0.41830710	3.11269700
74.29999577	0.00000000	-5.39493100	4.26919300
74.49999575	0.00000000	-8.83981200	4.64443900
74.69999574	0.00000000	-10.09473000	4.26919300
74.89999573	0.00000000	-9.35039300	3.15575800
75.09999572	0.00000000	-7.39419200	2.04232300
75.29999571	0.00000000	-4.27534400	1.66707700
75.49999569	0.00000000	-0.46751960	2.08538400
75.69999568	0.00000000	2.56520700	3.66633800
75.89999567	0.00000000	3.81397600	6.31151500
76.09999566	0.00000000	3.44488200	9.00590400
76.29999565	0.00000000	2.36835600	10.91289000
76.49999563	0.00000000	0.79355310	11.65723000
76.69999562	0.00000000	-0.37524600	10.45152000
76.89999561	0.00000000	-1.58095500	7.38188900
77.09999560	0.00000000	-2.65132900	3.15575800
77.29999559	0.00000000	-2.69439000	-1.07037400
77.49999558	0.00000000	-1.99926200	-4.18307100
77.69999556	0.00000000	-1.62401600	-5.71481200
77.89999555	0.00000000	-1.62401600	-5.29650500
78.09999554	0.00000000	-2.04847400	-2.55905500
78.29999553	0.00000000	-3.16190900	2.04232300
78.49999552	0.00000000	-4.23228400	7.42495000
78.69999550	0.00000000	-4.27534400	12.03248000
78.89999549	0.00000000	-3.53715500	14.76993000
79.09999548	0.00000000	-2.65132900	15.14518000
79.29999547	0.00000000	-0.74434050	13.23819000
79.49999546	0.00000000	1.90083600	9.38115100
79.69999544	0.00000000	3.44488200	4.73671200
79.89999543	0.00000000	4.23228400	0.13533460
80.09999542	0.00000000	3.77091500	-3.34645700
80.29999541	0.00000000	1.48868100	-4.55831700
80.49999540	0.00000000	-1.58095500	-4.22613100
80.69999539	0.00000000	-4.65059000	-2.64517700
80.89999537	0.00000000	-6.97588500	0.09227362
81.09999536	0.00000000	-7.72637700	3.53100400
81.29999535	0.00000000	-6.97588500	7.01279500
81.49999534	0.00000000	-4.65059000	9.38115100
81.69999533	0.00000000	-1.62401600	10.96211000
81.89999531	0.00000000	1.11343500	11.70029000
82.09999530	0.00000000	3.06963600	10.96211000
82.29999529	0.00000000	4.23228400	9.42421200
82.49999528	0.00000000	4.18922200	7.43110200
82.69999527	0.00000000	2.65132900	4.73671200
82.89999525	0.00000000	0.00000000	1.99311000
83.09999524	0.00000000	-2.69439000	-0.33218500
83.29999523	0.00000000	-4.60752900	-2.27608300
83.49999522	0.00000000	-5.39493100	-3.02042300
83.69999521	0.00000000	-4.69980300	-2.64517700
83.89999520	0.00000000	-3.58021600	-1.07037400
84.09999518	0.00000000	-2.74360200	1.66707700
84.29999517	0.00000000	-1.58095500	5.15501900
84.49999516	0.00000000	-0.46751960	9.00590400
84.69999515	0.00000000	-0.04306102	12.07554000
84.89999514	0.00000000	0.00000000	13.61343000
85.09999512	0.00000000	0.00000000	13.23819000
85.29999511	0.00000000	0.00000000	10.86983000
85.49999510	0.00000000	0.00000000	7.05585600
85.69999509	0.00000000	0.00000000	2.41756900
85.89999508	0.00000000	0.00000000	-1.44562000
86.09999506	0.00000000	-0.04306102	-4.18307100
86.29999505	0.00000000	-0.41830710	-5.29650500
86.49999504	0.00000000	-1.20570900	-4.09079700
86.69999503	0.00000000	-1.95620100	-0.64591530
86.89999502	0.00000000	-2.78666300	4.31840500
87.09999501	0.00000000	-3.49409400	8.91978400
87.29999499	0.00000000	-3.90625000	12.07554000
87.49999498	0.00000000	-3.44488200	13.61343000
87.69999497	0.00000000	-2.32529500	13.18898000
87.89999496	0.00000000	-0.46751960	10.45152000
88.09999495	0.00000000	0.69512790	5.89320800
88.29999493	0.00000000	0.79355310	0.92888770
88.49999492	0.00000000	1.16264800	-2.55905500
88.69999491	0.00000000	1.07037400	-4.14000900
88.89999490	0.00000000	-0.04306102	-3.71555100
89.09999489	0.00000000	-1.53789400	-1.02116100
89.29999487	0.00000000	-2.74360200	3.20497000
89.49999486	0.00000000	-3.49409400	7.80019600
89.69999485	0.00000000	-3.85703700	11.65723000
89.89999484	0.00000000	-3.11884800	13.52116000
90.09999483	0.00000000	-1.99926200	12.77067000
90.29999482	0.00000000	-1.20570900	9.33809000
90.49999480	0.00000000	-0.41830710	4.77977300
90.69999479	0.00000000	-0.04306102	0.46751960
90.89999478	0.00000000	0.00000000	-2.97736200
91.09999477	0.00000000	-0.04306102	-4.82898600
91.29999476	0.00000000	-0.41830710	-3.67249000
91.49999474	0.00000000	-1.11343500	0.09227362
91.69999473	0.00000000	-1.11343500	4.69365100
91.89999472	0.00000000	-0.41830710	8.96284400
92.09999471	0.00000000	-0.04306102	12.03248000
92.29999470	0.00000000	0.00000000	13.18898000
92.49999468	0.00000000	-0.04306102	12.03248000
92.69999467	0.00000000	-0.46751960	8.91978400
92.89999466	0.00000000	-1.58095500	4.31840500
93.09999465	0.00000000	-2.74360200	-0.60285430
93.29999464	0.00000000	-3.53715500	-3.67249000
93.49999463	0.00000000	-4.27534400	-4.14000900
93.69999461	0.00000000	-4.23228400	-2.60211600
93.89999460	0.00000000	-3.06963600	0.51058070
94.09999459	0.00000000	-1.16264800	4.73671200
94.29999458	0.00000000	1.16264800	8.91978400
94.49999457	0.00000000	3.06963600	11.61417000
94.69999455	0.00000000	4.23228400	11.98327000
94.89999454	0.00000000	4.23228400	10.11934000
95.09999453	0.00000000	3.06963600	6.64370100
95.29999452	0.00000000	1.11343500	2.82972400
95.49999451	0.00000000	-1.62401600	-0.64591530
95.69999449	0.00000000	-4.69980300	-2.50984200
95.89999448	0.00000000	-7.39419200	-2.22687000
96.09999447	0.00000000	-8.88902600	-0.28297240
96.29999446	0.00000000	-8.55684000	2.41141700
96.49999445	0.00000000	-6.56373000	5.85014700
96.69999444	0.00000000	-3.48179100	8.50147600
96.89999442	0.00000000	0.78740150	9.33809000
97.09999441	0.00000000	4.56446800	9.00590400
97.29999440	0.00000000	6.93282500	7.80019600
97.49999439	0.00000000	7.30807100	5.89320800
97.69999438	0.00000000	5.81323800	3.57406500
97.89999436	0.00000000	3.06963600	1.71013800
98.09999435	0.00000000	-0.41830710	0.87967510
98.29999434	0.00000000	-4.27534400	1.24877000
98.49999433	0.00000000	-7.35113100	1.99311000
98.69999432	0.00000000	-8.93208600	3.19881900
98.89999430	0.00000000	-8.93208600	4.68750000
99.09999429	0.00000000	-7.39419200	5.80093500
99.29999428	0.00000000	-4.65059000	5.89320800
99.49999427	0.00000000	-1.16264800	5.57332700
99.69999426	0.00000000	2.69439000	5.93626900
99.89999425	0.00000000	5.72711600	6.26845500
100.09999423	0.00000000	6.93282500	6.31151500
100.29999422	0.00000000	6.18848400	6.31151500
100.49999421	0.00000000	4.27534400	6.31151500
100.69999420	0.00000000	1.53789400	6.26845500
100.89999419	0.00000000	-1.53789400	5.85014700
101.09999417	0.00000000	-4.27534400	4.68750000
101.29999416	0.00000000	-6.23154500	3.15575800
101.49999415	0.00000000	-7.39419200	1.62401600
101.69999414	0.00000000	-7.39419200	0.51058070
101.89999413	0.00000000	-6.23154500	0.51058070
102.09999411	0.00000000	-4.27534400	1.66707700
102.29999410	0.00000000	-1.58095500	3.61712600
102.49999409	0.00000000	1.11343500	6.31151500
102.69999408	0.00000000	3.06963600	8.96284400
102.89999407	0.00000000	4.23228400	10.49459000
103.09999406	0.00000000	4.23228400	10.53765000
103.29999404	0.00000000	3.06963600	9.38115100
103.49999403	0.00000000	1.16264800	7.38188900
103.69999402	0.00000000	-1.16264800	4.31840500
103.89999401	0.00000000	-3.11884800	0.88582670
104.09999400	0.00000000	-4.69980300	-1.39640700
104.29999398	0.00000000	-5.81323800	-2.22687000
104.49999397	0.00000000	-5.81323800	-1.43946800
104.69999396	0.00000000	-4.69980300	0.46751960
104.89999395	0.00000000	-3.11884800	3.19881900
105.09999394	0.00000000	-1.20570900	6.22539300
105.29999392	0.00000000	0.69512790	8.54453700
105.49999391	0.00000000	1.48868100	9.33809000
105.69999390	0.00000000	1.53789400	8.96284400
105.89999389	0.00000000	1.11343500	7.38188900
106.09999388	0.00000000	-0.04306102	4.73671200
106.29999387	0.00000000	-1.53789400	2.08538400
106.49999385	0.00000000	-2.69439000	0.51058070
106.69999384	0.00000000	-3.06963600	0.09227362
106.89999383	0.00000000	-2.74360200	0.51058070
107.09999382	0.00000000	-1.95620100	2.04232300
107.29999381	0.00000000	-1.16264800	4.31840500
107.49999379	0.00000000	-0.04306102	6.22539300
107.69999378	0.00000000	0.69512790	7.38188900
107.89999377	0.00000000	0.37524600	7.38188900
108.09999376	0.00000000	-0.04306102	6.26845500
108.29999375	0.00000000	-0.83661410	4.73671200
108.49999374	0.00000000	-2.32529500	3.19881900
108.69999372	0.00000000	-3.06963600	2.04232300
108.89999371	0.00000000	-3.16190900	1.66707700
109.09999370	0.00000000	-3.11884800	2.04232300
109.29999369	0.00000000	-2.69439000	3.19881900
109.49999368	0.00000000	-1.53789400	4.73671200
109.69999366	0.00000000	-0.04306102	6.26845500
109.89999365	0.00000000	1.11343500	7.42495000
110.09999364	0.00000000	1.48868100	7.80019600
110.29999363	0.00000000	1.16264800	7.42495000
110.49999362	0.00000000	0.37524600	6.26845500
110.69999360	0.00000000	-0.41830710	4.73671200
110.89999359	0.00000000	-1.58095500	3.19881900
111.09999358	0.00000000	-2.69439000	2.04232300
111.29999357	0.00000000	-3.11884800	1.61786400
111.49999356	0.00000000	-3.11884800	1.61786400
111.69999355	0.00000000	-2.74360200	2.04232300
111.89999353	0.00000000	-1.95620100	3.15575800
112.09999352	0.00000000	-1.20570900	4.31840500
112.29999351	0.00000000	-0.41830710	5.11195900
112.49999350	0.00000000	-0.04306102	5.89320800
112.69999349	0.00000000	0.00000000	6.26845500
112.89999347	-0.15871060	0.00000000	6.26845500
113.09999346	0.00000000	-0.04306102	5.89320800
113.29999345	0.00000000	-0.41830710	5.15501900
113.49999344	0.00000000	-1.16264800	4.77977300
113.69999343	0.00000000	-1.53789400	4.69365100
113.89999341	0.00000000	-1.58095500	4.31840500
114.09999340	0.00000000	-1.58095500	3.57406500
114.29999339	0.00000000	-1.58095500	3.19881900
114.49999338	0.00000000	-1.58095500	3.15575800
114.69999337	0.00000000	-1.53789400	3.15575800
114.89999336	0.00000000	-1.16264800	3.15575800
115.09999334	0.00000000	-0.41830710	3.15575800
115.29999333	0.00000000	-0.04306102	3.19881900
115.49999332	0.00000000	0.00000000	3.57406500
115.69999331	0.00000000	-0.04306102	4.36146600
115.89999330	0.00000000	-0.41830710	5.11195900
116.09999328	0.00000000	-1.16264800	5.89320800
116.29999327	0.00000000	-1.53789400	6.26845500
116.49999326	0.00000000	-1.58095500	6.31151500
116.69999325	0.00000000	-1.58095500	6.26845500
116.89999324	0.00000000	-1.58095500	5.89320800
117.09999322	0.00000000	-1.58095500	5.11195900
117.29999321	0.00000000	-1.53789400	4.31840500
117.49999320	0.00000000	-1.16264800	3.15575800
117.69999319	0.00000000	-0.37524600	2.04232300
117.89999318	0.00000000	0.33218500	1.66707700
118.09999317	0.00000000	0.74434050	1.99311000
118.29999315	0.00000000	0.33218500	2.78051200
118.49999314	0.00000000	-0.37524600	3.57406500
118.69999313	0.00000000	-1.20570900	4.73671200
118.89999312	0.00000000	-1.95620100	5.85014700
119.09999311	0.00000000	-2.74360200	6.26845500
119.29999309	0.00000000	-3.11884800	6.31151500
119.49999308	0.00000000	-3.11884800	6.26845500
119.69999307	0.00000000	-2.69439000	5.89320800
119.89999306	0.00000000	-1.58095500	5.15501900
120.09999305	0.00000000	-0.37524600	4.73671200
120.29999303	0.00000000	0.75049200	4.31840500
120.49999302	0.00000000	1.90083600	3.57406500
120.69999301	0.00000000	1.91314000	3.19881900
120.89999300	0.00000000	1.58095500	3.15575800
121.09999299	0.00000000	1.11343500	3.15575800
121.29999298	-0.15871060	-0.04306102	3.19881900
121.49999296	0.00000000	-1.58095500	3.57406500
121.69999295	0.00000000	-3.11884800	4.31840500
121.89999294	0.00000000	-4.23228400	4.69365100
122.09999293	0.00000000	-4.27534400	4.73671200
122.29999292	0.00000000	-3.53715500	4.73671200
122.49999290	0.00000000	-2.74360200	4.77977300
122.69999289	0.00000000	-1.58095500	5.15501900
122.89999288	0.00000000	-0.46751960	5.85014700
123.09999287	0.00000000	0.00000000	5.85014700
123.29999286	0.00000000	0.41830710	5.15501900
123.49999284	0.00000000	1.16264800	4.77977300
123.69999283	0.00000000	1.48868100	4.69365100
123.89999282	0.00000000	1.16264800	4.31840500
124.09999281	0.00000000	0.37524600	3.57406500
124.29999280	0.00000000	-0.41830710	3.19881900
124.49999279	0.00000000	-1.58095500	3.15575800
124.69999277	0.00000000	-2.69439000	3.19881900
124.89999276	0.00000000	-3.11884800	3.57406500
125.09999275	0.00000000	-3.16190900	4.31840500
125.29999274	0.00000000	-3.11884800	4.73671200
125.49999273	0.00000000	-2.74360200	5.15501900
125.69999271	0.00000000	-1.95620100	5.89320800
125.89999270	0.00000000	-1.16264800	6.26845500
126.09999269	0.00000000	0.00000000	6.26845500
126.29999268	0.00000000	1.11343500	5.89320800
126.49999267	0.00000000	1.48868100	5.15501900
126.69999265	0.00000000	1.16264800	4.73671200
126.89999264	0.00000000	0.37524600	4.31840500
127.09999263	0.00000000	-0.41830710	3.57406500
127.29999262	0.00000000	-1.58095500	3.19881900
127.49999261	0.00000000	-2.69439000	3.15575800
127.69999260	0.00000000	-3.11884800	3.15575800
127.89999258	0.00000000	-3.16190900	3.19881900
128.09999257	0.00000000	-3.11884800	3.57406500
128.29999256	0.00000000	-2.69439000	4.31840500
128.49999255	0.00000000	-1.53789400	4.69365100
128.69999254	0.00000000	-0.04306102	4.73671200
128.89999252	0.00000000	1.11343500	4.73671200
129.09999251	0.00000000	1.48868100	4.73671200
129.29999250	0.00000000	1.16264800	4.69365100
129.49999249	0.00000000	0.37524600	4.31840500
129.69999248	0.00000000	-0.41830710	3.57406500
129.89999246	0.00000000	-1.58095500	3.24803100
130.09999245	0.00000000	-2.69439000	3.57406500
130.29999244	0.00000000	-3.11884800	4.31840500
130.49999243	0.00000000	-3.11884800	4.69365100
130.69999242	0.00000000	-2.69439000	4.73671200
130.89999241	0.00000000	-1.58095500	4.73671200
131.09999239	0.00000000	-0.46751960	4.73671200
131.29999238	0.00000000	-0.04306102	4.73671200
131.49999237	0.00000000	0.00000000	4.69365100
131.69999236	0.00000000	0.00000000	4.31840500
131.89999235	0.00000000	-0.04306102	3.57406500
132.09999233	0.00000000	-0.41830710	3.19881900
132.29999232	0.00000000	-1.16264800	3.15575800
132.49999231	0.00000000	-1.53789400	3.19881900
132.69999230	0.00000000	-1.58095500	3.57406500
132.89999229	0.00000000	-1.58095500	4.36146600
133.09999227	0.00000000	-1.58095500	5.11195900
133.29999226	0.00000000	-1.58095500	5.89320800
133.49999225	0.00000000	-1.58095500	6.26845500
133.69999224	0.00000000	-1.58095500	6.26845500
133.89999223	0.00000000	-1.58095500	5.89320800
134.09999222	0.00000000	-1.58095500	5.11195900
134.29999220	0.00000000	-1.53789400	4.36146600
134.49999219	0.00000000	-1.20570900	3.57406500
134.69999218	0.00000000	-0.79355310	3.19881900
134.89999217	0.00000000	-0.78740150	3.15575800
135.09999216	0.00000000	-0.37524600	3.15575800
135.29999214	0.00000000	-0.04306102	3.19881900
135.49999213	0.00000000	-0.04306102	3.57406500
135.69999212	0.00000000	-0.41830710	4.31840500
135.89999211	0.00000000	-1.16264800	4.73671200
136.09999210	0.00000000	-1.53789400	5.15501900
136.29999208	0.00000000	-1.62401600	5.89320800
136.49999207	0.00000000	-1.95620100	6.21924200
136.69999206	0.00000000	-2.32529500	5.89320800
136.89999205	0.00000000	-1.91314000	5.15501900
137.09999204	0.00000000	-1.20570900	4.73671200
137.29999203	0.00000000	-0.37524600	4.31840500
137.49999201	0.00000000	0.37524600	3.57406500
137.69999200	0.00000000	1.11343500	3.19881900
137.89999199	0.00000000	1.11343500	3.15575800
138.09999198	0.00000000	0.37524600	3.15575800
138.29999197	0.00000000	-0.37524600	3.19881900
138.49999195	0.00000000	-1.16264800	3.57406500
138.69999194	0.00000000	-1.58095500	4.31840500
138.89999193	0.00000000	-1.95620100	4.69365100
139.09999192	0.00000000	-2.32529500	4.77977300
139.29999191	0.00000000	-1.95620100	5.15501900
139.49999189	0.00000000	-1.58095500	5.89320800
139.69999188	0.00000000	-1.16264800	6.21924200
139.89999187	0.00000000	-0.41830710	5.89320800
140.09999186	0.00000000	-0.04306102	5.11195900
140.29999185	0.00000000	0.00000000	4.36146600
140.49999184	0.00000000	-0.04306102	3.57406500
140.69999182	0.00000000	-0.41830710	3.19881900
140.89999181	0.00000000	-1.16264800	3.15575800
141.09999180	0.00000000	-1.53789400	3.15575800
141.29999179	0.00000000	-1.58095500	3.19881900
141.49999178	0.00000000	-1.58095500	3.57406500
141.69999176	0.00000000	-1.53789400	4.36146600
141.89999175	0.00000000	-1.16264800	5.11195900
142.09999174	0.00000000	-0.41830710	5.89320800
142.29999173	0.00000000	-0.04306102	6.26845500
142.49999172	0.00000000	0.00000000	6.26845500
142.69999170	0.00000000	-0.04306102	5.89320800
142.89999169	0.00000000	-0.37524600	5.15501900
143.09999168	0.00000000	-0.78740150	4.73671200
143.29999167	0.00000000	-0.79355310	4.31840500
143.49999166	0.00000000	-1.20570900	3.57406500
143.69999165	0.00000000	-1.53789400	3.19881900
143.89999163	0.00000000	-1.53789400	3.19881900
144.09999162	0.00000000	-1.16264800	3.57406500
144.29999161	0.00000000	-0.41830710	4.36146600
144.49999160	0.00000000	-0.04306102	5.11195900
144.69999159	0.00000000	0.00000000	5.89320800
144.89999157	0.00000000	0.00000000	6.26845500
145.09999156	0.00000000	-0.04306102	6.26845500
145.29999155	0.00000000	-0.41830710	5.89320800
145.49999154	0.00000000	-1.16264800	5.11195900
145.69999153	0.00000000	-1.53789400	4.36146600
145.89999151	0.00000000	-1.58095500	3.57406500
146.09999150	-0.15871060	-1.58095500	3.19881900
146.29999149	0.00000000	-1.53789400	3.15575800
146.49999148	-0.15871060	-1.16264800	3.15575800
146.69999147	0.00000000	-0.41830710	3.19881900
146.89999146	0.00000000	-0.04306102	3.57406500
147.09999144	0.00000000	0.00000000	4.31840500
147.29999143	0.00000000	0.00000000	4.73671200
147.49999142	0.00000000	-0.04306102	5.15501900
147.69999141	0.00000000	-0.41830710	5.89320800
147.89999140	0.00000000	-1.16264800	6.21924200
148.09999138	0.00000000	-1.53789400	5.89320800
148.29999137	0.00000000	-1.58095500	5.15501900
148.49999136	0.00000000	-1.58095500	4.73671200
148.69999135	0.00000000	-1.53789400	4.31840500
148.89999134	0.00000000	-1.16264800	3.57406500
149.09999132	0.00000000	-0.41830710	3.19881900
149.29999131	0.00000000	-0.04306102	3.19881900
149.49999130	0.00000000	0.00000000	3.57406500
149.69999129	0.00000000	0.00000000	4.31840500
149.89999128	0.00000000	0.00000000	4.69365100
150.09999127	0.00000000	0.00000000	4.77977300
150.29999125	0.00000000	-0.04306102	5.11195900
150.49999124	0.00000000	-0.41830710	5.47490100
150.69999123	0.00000000	-1.16264800	5.11195900
150.89999122	0.00000000	-1.53789400	4.77977300
151.09999121	0.00000000	-1.58095500	4.73671200
151.29999119	0.00000000	-1.58095500	4.73671200
151.49999118	0.00000000	-1.53789400	4.73671200
151.69999117	0.00000000	-1.16264800	4.73671200
151.89999116	0.00000000	-0.37524600	4.73671200
152.09999115	0.00000000	0.28297240	4.69365100
152.29999113	0.00000000	0.36909450	4.36146600
152.49999112	0.00000000	-0.36909450	3.99237200
152.69999111	0.00000000	-0.33218500	4.36146600
152.89999110	0.00000000	-0.04306102	4.69365100
153.09999109	0.00000000	0.00000000	4.73671200
153.29999108	0.00000000	-0.04306102	4.73671200
153.49999106	0.00000000	-0.41830710	4.73671200
153.69999105	0.00000000	-1.16264800	4.73671200
153.89999104	0.00000000	-1.53789400	4.73671200
154.09999103	0.00000000	-1.58095500	4.73671200
154.29999102	0.00000000	-1.58095500	4.73671200
154.49999100	0.00000000	-1.58095500	4.73671200
154.69999099	0.00000000	-1.53789400	4.73671200
154.89999098	0.00000000	-1.16264800	4.69365100
155.09999097	0.00000000	-0.41830710	4.31840500
155.29999096	0.00000000	-0.04306102	3.62327700
155.49999094	0.00000000	0.00000000	3.62327700
155.69999093	0.00000000	0.00000000	4.31840500
155.89999092	0.00000000	0.00000000	4.69365100
156.09999091	0.00000000	0.00000000	4.73671200
156.29999090	0.00000000	-0.04306102	4.77977300
156.49999089	0.00000000	-0.41830710	5.15501900
156.69999087	0.00000000	-1.16264800	5.85014700
156.89999086	0.00000000	-1.53789400	5.85014700
157.09999085	0.00000000	-1.58095500	5.15501900
157.29999084	0.00000000	-1.58095500	4.77977300
157.49999083	0.00000000	-1.58095500	4.69365100
157.69999081	0.00000000	-1.53789400	4.36146600
157.89999080	0.00000000	-1.16264800	3.94931100
158.09999079	0.00000000	-0.41830710	3.94315900
158.29999078	0.00000000	-0.04306102	3.53100400
158.49999077	0.00000000	0.00000000	3.24803100
158.69999075	0.00000000	0.00000000	3.57406500
158.89999074	0.00000000	0.00000000	4.31840500
159.09999073	0.00000000	-0.04306102	4.69365100
159.29999072	0.00000000	-0.41830710	4.73671200
159.49999071	0.00000000	-1.16264800	4.73671200
159.69999070	0.00000000	-1.53789400	4.77977300
159.89999068	0.00000000	-1.58095500	5.11195900
160.09999067	0.00000000	-1.58095500	5.47490100
160.29999066	0.00000000	-1.58095500	5.11195900
160.49999065	0.00000000	-1.58095500	4.77977300
160.69999064	0.00000000	-1.58095500	4.69365100
160.89999062	0.00000000	-1.58095500	4.31840500
161.09999061	0.00000000	-1.53789400	3.57406500
161.29999060	0.00000000	-1.16264800	3.24803100
161.49999059	0.00000000	-0.41830710	3.57406500
161.69999058	0.00000000	-0.04306102	4.31840500
161.89999056	0.00000000	0.00000000	4.69365100
162.09999055	0.00000000	-0.04306102	4.73671200
162.29999054	0.00000000	-0.37524600	4.73671200
162.49999053	0.00000000	-0.74434050	4.73671200
162.69999052	0.00000000	-0.41830710	4.73671200
162.89999051	0.00000000	-0.46751960	4.73671200
163.09999049	0.00000000	-1.16264800	4.73671200
163.29999048	0.00000000	-1.53789400	4.73671200
163.49999047	0.00000000	-1.58095500	4.73671200
163.69999046	0.00000000	-1.58095500	4.73671200
163.89999045	0.00000000	-1.58095500	4.73671200
164.09999043	0.00000000	-1.53789400	4.73671200
164.29999042	0.00000000	-1.16264800	4.73671200
164.49999041	0.00000000	-0.41830710	4.73671200
164.69999040	0.00000000	-0.04306102	4.73671200
164.89999039	0.00000000	0.00000000	4.73671200
165.09999037	0.00000000	0.00000000	4.73671200
165.29999036	0.00000000	0.00000000	4.73671200
165.49999035	0.00000000	-0.04306102	4.73671200
165.69999034	0.00000000	-0.41830710	4.73671200
165.89999033	0.00000000	-1.16264800	4.73671200
166.09999032	0.00000000	-1.53789400	4.73671200
166.29999030	0.00000000	-1.58095500	4.73671200
166.49999029	0.00000000	-1.58095500	4.73671200
166.69999028	0.00000000	-1.58095500	4.73671200
166.89999027	0.00000000	-1.53789400	4.73671200
167.09999026	0.00000000	-1.16264800	4.73671200
167.29999024	0.00000000	-0.41830710	4.73671200
167.49999023	0.00000000	-0.04306102	4.73671200
167.69999022	0.00000000	0.00000000	4.73671200
167.89999021	0.00000000	0.00000000	4.73671200
168.09999020	0.00000000	0.00000000	4.73671200
168.29999018	0.00000000	0.00000000	4.73671200
168.49999017	0.00000000	0.00000000	4.73671200
168.69999016	0.00000000	-0.04306102	4.73671200
168.89999015	0.00000000	-0.37524600	4.73671200
169.09999014	0.00000000	-0.74434050	4.73671200
169.29999013	0.00000000	-0.37524600	4.73671200
169.49999011	0.00000000	-0.04306102	4.73671200
169.69999010	0.00000000	0.00000000	4.73671200
169.89999009	0.00000000	0.00000000	4.73671200
170.09999008	0.00000000	0.00000000	4.73671200
170.29999007	0.00000000	0.00000000	4.73671200
170.49999005	0.00000000	0.00000000	4.73671200
170.69999004	0.00000000	0.00000000	4.73671200
170.89999003	0.00000000	0.00000000	4.69365100
171.09999002	0.00000000	0.00000000	4.36146600
171.29999001	0.00000000	0.00000000	3.99237200
171.49998999	0.00000000	0.00000000	4.36146600
171.69998998	0.00000000	0.00000000	4.69365100
171.89998997	0.00000000	-0.04306102	4.73671200
172.09998996	0.00000000	-0.37524600	4.73671200
172.29998995	0.00000000	-0.74434050	4.73671200
172.49998994	0.00000000	-0.37524600	4.73671200
172.69998992	0.00000000	-0.09227362	4.73671200
172.89998991	0.00000000	-0.37524600	4.73671200
173.09998990	0.00000000	-0.74434050	4.73671200
173.29998989	0.00000000	-0.41830710	4.73671200
173.49998988	0.00000000	-0.41830710	4.73671200
173.69998986	0.00000000	-0.74434050	4.73671200
173.89998985	0.00000000	-0.37524600	4.73671200
174.09998984	0.00000000	-0.04306102	4.73671200
174.29998983	0.00000000	0.00000000	4.73671200
174.49998982	0.00000000	-0.04306102	4.73671200
174.69998980	0.00000000	-0.37524600	4.73671200
174.89998979	0.00000000	-0.78740150	4.69365100
175.09998978	0.00000000	-0.79355310	4.36146600
175.29998977	0.00000000	-1.16264800	3.99237200
175.49998976	0.00000000	-1.11343500	4.36146600
175.69998975	0.00000000	-0.41830710	4.69365100
175.89998973	0.00000000	-0.04306102	4.73671200
176.09998972	0.00000000	0.00000000	4.73671200
176.29998971	0.00000000	0.00000000	4.73671200
176.49998970	0.00000000	-0.04306102	4.73671200
176.69998969	0.00000000	-0.37524600	4.73671200
176.89998967	0.00000000	-0.74434050	4.73671200
177.09998966	0.00000000	-0.37524600	4.73671200
177.29998965	0.00000000	-0.04306102	4.73671200
177.49998964	0.00000000	0.00000000	4.73671200
177.69998963	0.00000000	0.00000000	4.73671200
177.89998961	0.00000000	0.00000000	4.73671200
178.09998960	0.00000000	0.00000000	4.73671200
178.29998959	0.00000000	0.00000000	4.73671200
178.49998958	0.00000000	0.00000000	4.73671200
178.69998957	0.00000000	0.00000000	4.73671200
178.89998956	0.00000000	0.00000000	4.73671200
179.09998954	0.00000000	0.00000000	4.73671200
179.29998953	0.00000000	0.00000000	4.73671200
179.49998952	0.00000000	0.00000000	4.73671200
179.69998951	0.00000000	0.00000000	4.73671200
179.89998950	0.00000000	0.00000000	4.73671200
180.09998948	0.00000000	0.00000000	4.73671200
180.29998947	0.00000000	0.00000000	4.73671200
180.49998946	0.00000000	-0.04306102	4.73671200
180.69998945	0.00000000	-0.37524600	4.73671200
180.89998944	0.00000000	-0.74434050	4.73671200
181.09998942	0.00000000	-0.41830710	4.73671200
181.29998941	0.00000000	-0.46751960	4.73671200
181.49998940	0.00000000	-1.11343500	4.73671200
181.69998939	0.00000000	-1.11343500	4.77977300
181.89998938	0.00000000	-0.41830710	5.11195900
182.09998937	0.00000000	-0.04306102	5.47490100
182.29998935	0.00000000	0.00000000	5.11195900
182.49998934	0.00000000	0.00000000	4.77977300
182.69998933	0.00000000	0.00000000	4.73671200
182.89998932	0.00000000	0.00000000	4.73671200
183.09998931	0.00000000	0.00000000	4.73671200
183.29998929	0.00000000	-0.04306102	4.73671200
183.49998928	0.00000000	-0.41830710	4.73671200
183.69998927	0.00000000	-1.16264800	4.73671200
183.89998926	0.00000000	-1.48868100	4.77977300
184.09998925	0.00000000	-1.16264800	5.11195900
184.29998923	0.00000000	-0.46751960	5.47490100
184.49998922	0.00000000	-0.41830710	5.15501900
184.69998921	0.00000000	-0.74434050	5.15501900
184.89998920	0.00000000	-0.37524600	5.47490100
185.09998919	0.00000000	-0.04306102	5.11195900
185.29998918	0.00000000	0.00000000	4.77977300
185.49998916	0.00000000	0.00000000	4.69365100
185.69998915	0.00000000	0.00000000	4.31840500
185.89998914	0.00000000	0.00000000	3.57406500
186.09998913	0.00000000	0.00000000	3.24803100
186.29998912	0.00000000	0.00000000	3.57406500
186.49998910	0.00000000	-0.04306102	4.31840500
186.69998909	0.00000000	-0.41830710	4.69365100
186.89998908	0.00000000	-1.11343500	4.73671200
187.09998907	0.00000000	-1.16264800	4.73671200
187.29998906	0.00000000	-0.79355310	4.73671200
187.49998904	0.00000000	-0.83046260	4.73671200
187.69998903	0.00000000	-0.75049200	4.73671200
187.89998902	0.00000000	-0.78740150	4.73671200
188.09998901	0.00000000	-0.37524600	4.73671200
188.29998900	0.00000000	-0.04306102	4.73671200
188.49998899	0.00000000	0.00000000	4.69365100
188.69998897	0.00000000	0.00000000	4.31840500
188.89998896	0.00000000	0.00000000	3.57406500
189.09998895	0.00000000	0.00000000	3.19881900
189.29998894	0.00000000	0.00000000	3.19881900
189.49998893	0.00000000	0.00000000	3.57406500
189.69998891	0.00000000	-0.04306102	4.31840500
189.89998890	0.00000000	-0.41830710	4.69365100
190.09998889	0.00000000	-1.16264800	4.73671200
190.29998888	0.00000000	-1.48868100	4.73671200
190.49998887	0.00000000	-1.20570900	4.73671200
190.69998885	0.00000000	-0.79355310	4.73671200
190.89998884	0.00000000	-0.78740150	4.73671200
191.09998883	0.00000000	-0.37524600	4.73671200
191.29998882	0.00000000	-0.04306102	4.73671200
191.49998881	0.00000000	0.00000000	4.73671200
191.69998880	0.00000000	0.00000000	4.73671200
191.89998878	0.00000000	0.00000000	4.69365100
192.09998877	0.00000000	0.00000000	4.36146600
192.29998876	0.00000000	0.00000000	3.99237200
192.49998875	0.00000000	0.00000000	4.36146600
192.69998874	0.00000000	-0.04306102	4.69365100
192.89998872	0.00000000	-0.37524600	4.73671200
193.09998871	0.00000000	-0.78740150	4.73671200
193.29998870	0.00000000	-0.75049200	4.73671200
193.49998869	0.00000000	-0.78740150	4.73671200
193.69998868	0.00000000	-0.37524600	4.73671200
193.89998866	0.00000000	-0.04306102	4.73671200
194.09998865	0.00000000	0.00000000	4.73671200
194.29998864	0.00000000	0.00000000	4.73671200
194.49998863	0.00000000	0.00000000	4.73671200
194.69998862	0.00000000	0.00000000	4.73671200
194.89998861	0.00000000	0.00000000	4.73671200
195.09998859	0.00000000	0.00000000	4.73671200
195.29998858	0.00000000	0.00000000	4.73671200
195.49998857	0.00000000	-0.04306102	4.73671200
195.69998856	0.00000000	-0.37524600	4.73671200
195.89998855	0.00000000	-0.74434050	4.73671200
196.09998853	0.00000000	-0.37524600	4.73671200
