Time	Channel A	Channel B	Channel C
(us)	(V)	(mV)	(mV)

-4.49999956	0.00000000	0.00000000	4.73671200
-4.29999957	0.00000000	0.00000000	4.73671200
-4.09999958	0.00000000	-0.04306102	4.73671200
-3.89999959	0.00000000	-0.37524600	4.73671200
-3.69999960	0.00000000	-0.74434050	4.73671200
-3.49999962	0.00000000	-0.37524600	4.73671200
-3.29999963	0.00000000	-0.04306102	4.73671200
-3.09999964	0.00000000	0.00000000	4.73671200
-2.89999965	0.00000000	0.00000000	4.73671200
-2.69999966	0.00000000	0.00000000	4.73671200
-2.49999968	0.00000000	0.00000000	4.73671200
-2.29999969	0.00000000	0.00000000	4.73671200
-2.09999970	0.00000000	0.00000000	4.73671200
-1.89999971	0.00000000	0.00000000	4.73671200
-1.69999972	0.00000000	0.00000000	4.73671200
-1.49999973	0.00000000	0.00000000	4.73671200
-1.29999975	0.00000000	0.00000000	4.73671200
-1.09999976	0.00000000	0.00000000	4.73671200
-0.89999977	0.00000000	0.00000000	4.73671200
-0.69999978	0.00000000	-0.04306102	4.73671200
-0.49999979	0.00000000	-0.37524600	4.73671200
-0.29999981	0.15871060	-0.74434050	4.73671200
-0.09999982	0.63668800	-0.37524600	4.73671200
0.10000017	0.95533960	-0.04306102	4.73671200
0.30000016	0.95533960	0.00000000	4.73671200
0.50000015	0.95533960	0.00000000	4.73671200
0.70000013	0.47736220	0.00000000	4.73671200
0.90000012	-0.47736220	0.00000000	4.73671200
1.10000011	-1.27399100	0.00000000	4.73671200
1.30000010	-2.22994600	0.00000000	4.77977300
1.50000009	-2.70792300	0.00000000	5.11195900
1.70000008	-2.54859700	0.00000000	5.51796200
1.90000006	-1.59264300	0.00000000	5.48105300
2.10000005	0.15871060	0.00000000	5.56717500
2.30000004	2.22994600	0.00000000	5.48105300
2.50000003	4.30056600	0.00000000	5.51796200
2.70000002	5.25652100	0.00000000	5.11195900
2.90000000	4.93786900	-0.04306102	4.73671200
3.09999999	3.34522600	-0.41830710	4.31840500
3.29999998	0.47736220	-1.11343500	3.62327700
3.49999997	-3.02657500	-1.11343500	3.62327700
3.69999996	-6.05315000	-0.41830710	4.31840500
3.89999994	-7.80511800	-0.04306102	4.69365100
4.09999993	-7.80511800	0.00000000	4.73671200
4.29999992	-5.57517200	0.00000000	4.73671200
4.49999991	-1.75196900	0.00000000	4.73671200
4.69999990	2.70792300	0.00000000	4.73671200
4.89999989	6.69045300	0.00000000	4.73671200
5.09999987	9.07972400	0.00000000	4.73671200
5.29999986	9.23905000	0.00000000	4.69365100
5.49999985	7.00848900	0.00000000	4.31840500
5.69999984	3.02657500	0.00000000	3.57406500
5.89999983	-1.75196900	0.00000000	3.24803100
6.09999981	-6.05315000	0.00000000	3.57406500
6.29999980	-8.76107300	0.00000000	4.36146600
6.49999979	-9.39837600	0.00000000	5.11195900
6.69999978	-7.64579200	0.00000000	5.85014700
6.89999977	-3.98191400	0.00000000	5.85014700
7.09999975	0.31803640	0.00000000	5.15501900
7.29999974	4.30056600	0.00000000	4.77977300
7.49999973	7.00848900	0.00000000	4.73671200
7.69999972	7.80511800	-0.04306102	4.73671200
7.89999971	6.53112700	-0.41830710	4.73671200
8.09999970	3.98191400	-1.11343500	4.73671200
8.29999968	0.63668800	-1.11343500	4.73671200
8.49999967	-2.38927200	-0.41830710	4.73671200
8.69999966	-4.45989200	-0.04306102	4.73671200
8.89999965	-5.25652100	0.00000000	4.73671200
9.09999964	-4.61921700	0.00000000	4.73671200
9.29999962	-3.02657500	0.00000000	4.73671200
9.49999961	-0.95533960	-0.04306102	4.73671200
9.69999960	0.79601380	-0.37524600	4.73671200
9.89999959	2.07062000	-0.74434050	4.73671200
10.09999958	2.54859700	-0.37524600	4.73671200
10.29999956	2.22994600	-0.04306102	4.73671200
10.49999955	1.59264300	0.00000000	4.73671200
10.69999954	0.63668800	0.00000000	4.73671200
10.89999953	-0.15871060	0.00000000	4.73671200
11.09999952	-0.63668800	0.00000000	4.73671200
11.29999951	-0.95533960	0.00000000	4.73671200
11.49999949	-0.95533960	0.00000000	4.73671200
11.69999948	-0.79601380	0.00000000	4.73671200
11.89999947	-0.47736220	0.00000000	4.73671200
12.09999946	-0.31803640	0.00000000	4.73671200
12.29999945	-0.15871060	0.00000000	4.73671200
12.49999943	-0.15871060	0.00000000	4.73671200
12.69999942	0.00000000	0.00000000	4.73671200
12.89999941	0.00000000	0.00000000	4.73671200
13.09999940	0.00000000	0.00000000	4.73671200
13.29999939	0.00000000	0.00000000	4.73671200
13.49999937	0.00000000	0.00000000	4.73671200
13.69999936	0.00000000	0.00000000	4.73671200
13.89999935	0.00000000	0.00000000	4.73671200
14.09999934	-0.15871060	0.00000000	4.73671200
14.29999933	-0.15871060	0.00000000	4.73671200
14.49999932	-0.15871060	0.00000000	4.73671200
14.69999930	0.00000000	0.00000000	4.73671200
14.89999929	0.00000000	0.00000000	4.73671200
15.09999928	0.00000000	0.00000000	4.73671200
15.29999927	0.00000000	0.00000000	4.73671200
15.49999926	0.00000000	0.00000000	4.73671200
15.69999924	0.00000000	0.00000000	4.73671200
15.89999923	0.00000000	0.00000000	4.73671200
16.09999922	0.00000000	0.00000000	4.73671200
16.29999921	0.00000000	0.00000000	4.73671200
16.49999920	-0.15871060	0.00000000	4.73671200
16.69999919	-0.15871060	0.00000000	4.73671200
16.89999917	-0.15871060	0.04306102	4.73671200
17.09999916	0.00000000	0.41830710	4.73671200
17.29999915	0.00000000	1.16264800	4.73671200
17.49999914	0.00000000	1.53789400	4.73671200
17.69999913	0.00000000	1.53789400	4.73671200
17.89999911	0.00000000	1.07037400	4.73671200
18.09999910	0.00000000	-0.41830710	4.69365100
18.29999909	0.00000000	-2.32529500	4.36146600
18.49999908	0.00000000	-3.53715500	3.99237200
18.69999907	0.00000000	-4.74286400	4.36146600
18.89999905	0.00000000	-5.81323800	4.69365100
19.09999904	0.00000000	-5.77017700	4.73671200
19.29999903	-0.15871060	-4.23228400	4.73671200
19.49999902	0.00000000	-1.48868100	4.73671200
19.69999901	0.00000000	1.99926200	4.73671200
19.89999900	0.00000000	5.90551100	4.73671200
20.09999898	0.00000000	9.30733200	4.73671200
20.29999897	0.00000000	11.20817000	4.73671200
20.49999896	0.00000000	10.37771000	4.73671200
20.69999895	0.00000000	6.84055100	4.73671200
20.89999894	0.00000000	0.65206690	4.73671200
21.09999892	0.00000000	-7.11122000	4.73671200
21.29999891	0.00000000	-14.42544000	4.73671200
21.49999890	0.00000000	-20.18332000	4.73671200
21.69999889	0.00000000	-21.96112000	4.73671200
21.89999888	0.00000000	-18.51624000	4.73671200
22.09999886	0.00000000	-10.33464000	4.73671200
22.29999885	0.00000000	0.92888770	4.73671200
22.49999884	0.00000000	13.71801000	4.73671200
22.69999883	0.00000000	25.16609000	4.73671200
22.89999882	0.00000000	31.68061000	4.73671200
23.09999881	0.00000000	30.85015000	4.77977300
23.29999879	-0.15871060	22.65625000	5.15501900
23.49999878	0.00000000	7.91092400	5.89320800
23.69999877	0.00000000	-10.55610000	6.31151500
23.89999876	0.00000000	-27.90969000	6.68676100
24.09999875	0.00000000	-39.87451000	7.00664300
24.29999873	0.00000000	-43.64542000	6.22539300
24.49999872	0.00000000	-37.40772000	4.73671200
24.69999871	0.00000000	-21.91806000	3.15575800
24.89999870	0.00000000	-0.69512790	1.62401600
25.09999869	0.00000000	21.72121000	0.46136810
25.29999867	0.00000000	39.82529000	0.04306102
25.49999866	0.00000000	49.45866000	0.09227362
25.69999865	-0.15871060	47.82849000	0.92888770
25.89999864	0.00000000	34.70718000	3.29109200
26.09999863	0.00000000	13.07825000	6.77903500
26.29999862	0.00000000	-12.00172000	11.00517000
26.49999860	0.00000000	-34.79946000	14.81299000
26.69999859	0.00000000	-49.83390000	16.71998000
26.89999858	0.00000000	-53.73400000	16.25861000
27.09999857	0.00000000	-45.59547000	12.77067000
27.29999856	0.00000000	-27.44832000	6.55142700
27.49999854	0.00000000	-3.11884800	-0.75049200
27.69999853	0.00000000	21.54281000	-8.12622900
27.89999852	0.00000000	40.52657000	-13.47810000
28.09999851	0.00000000	49.83390000	-15.74803000
28.29999850	0.00000000	47.92076000	-13.70571000
28.49999848	0.00000000	35.21776000	-6.74212600
28.69999847	0.00000000	15.21284000	3.70939900
28.89999846	0.00000000	-6.84055100	15.64960000
29.09999845	0.00000000	-26.24262000	26.42716000
29.29999844	0.00000000	-39.40699000	32.98474000
29.49999843	0.00000000	-43.68848000	34.09818000
29.69999841	0.00000000	-38.33661000	28.98622000
29.89999840	0.00000000	-25.25836000	17.74729000
30.09999839	0.00000000	-7.86171200	2.73745100
30.29999838	0.00000000	9.95939900	-12.72761000
30.49999837	0.00000000	24.66166000	-25.04306000
30.69999835	0.00000000	33.21850000	-31.59449000
30.89999834	0.00000000	34.06126000	-30.38878000
31.09999833	0.00000000	27.90969000	-21.46899000
31.29999832	0.00000000	16.32628000	-6.45915300
31.49999831	0.00000000	2.04847400	11.33120000
31.69999829	0.00000000	-11.54035000	27.55290000
31.89999828	0.00000000	-22.00418000	39.57923000
32.09999827	0.00000000	-27.39911000	44.50664000
32.29999826	0.00000000	-26.32874000	41.06791000
32.49999825	0.00000000	-19.82037000	29.87205000
32.69999824	0.00000000	-10.13779000	13.65650000
32.89999822	0.00000000	1.07037400	-4.14000900
33.09999821	0.00000000	11.11590000	-19.98031000
33.29999820	0.00000000	17.72884000	-30.43184000
33.49999819	0.00000000	20.04798000	-33.54453000
33.69999818	0.00000000	17.35359000	-28.90010000
33.89999816	0.00000000	10.51304000	-17.32899000
34.09999815	0.00000000	2.04847400	-1.48868100
34.29999814	0.00000000	-5.72711600	15.10212000
34.49999813	0.00000000	-11.54035000	29.02928000
34.69999812	0.00000000	-14.23474000	37.16781000
34.89999810	0.00000000	-13.07210000	38.33046000
35.09999809	0.00000000	-8.55684000	32.14813000
35.29999808	0.00000000	-2.41756900	19.83883000
35.49999807	0.00000000	2.98351400	4.82898600
35.69999806	0.00000000	6.93282500	-9.43036400
35.89999805	0.00000000	8.83981200	-19.46973000
36.09999803	0.00000000	8.42150500	-23.00074000
36.29999802	0.00000000	5.35187000	-19.98031000
36.49999801	0.00000000	0.37524600	-11.52190000
36.69999800	0.00000000	-4.60752900	0.04306102
36.89999799	0.00000000	-8.46456700	11.98942000
37.09999797	0.00000000	-9.95939900	21.55512000
37.29999796	0.00000000	-8.46456700	25.78740000
37.49999795	0.00000000	-4.65059000	23.55438000
37.69999794	0.00000000	-0.04306102	16.35089000
37.89999793	0.00000000	4.23228400	6.73597400
38.09999791	0.00000000	7.30807100	-2.51599400
38.29999790	0.00000000	8.51377900	-9.43036400
38.49999789	0.00000000	7.72637700	-12.03863000
38.69999788	0.00000000	5.39493100	-8.96899500
38.89999787	0.00000000	1.48868100	-0.97810030
39.09999786	0.00000000	-3.06963600	8.91978400
39.29999784	0.00000000	-6.93282500	17.32899000
39.49999783	0.00000000	-8.93208600	21.55512000
39.69999782	0.00000000	-9.35039300	20.44168000
39.89999781	0.00000000	-8.55684000	14.67766000
40.09999780	0.00000000	-6.18848400	5.85014700
40.29999778	0.00000000	-2.69439000	-3.72170300
40.49999777	0.00000000	1.53789400	-11.01132000
40.69999776	0.00000000	5.39493100	-14.08095000
40.89999775	0.00000000	7.76943800	-12.12475000
41.09999774	0.00000000	8.93208600	-5.25344500
41.29999772	0.00000000	8.51377900	4.31840500
41.49999771	0.00000000	6.18848400	13.56422000
41.69999770	0.00000000	2.74360200	20.53395000
41.89999769	0.00000000	-1.16264800	23.60359000
42.09999768	0.00000000	-4.60752900	22.06570000
42.29999767	0.00000000	-6.97588500	16.30167000
42.49999765	0.00000000	-7.76943800	7.84940900
42.69999764	0.00000000	-7.43725300	-0.97810030
42.89999763	0.00000000	-6.18848400	-7.89862200
43.09999762	0.00000000	-3.90625000	-11.01132000
43.29999761	0.00000000	-0.83661410	-9.89788300
43.49999759	0.00000000	1.48868100	-5.33956700
43.69999758	0.00000000	3.11884800	1.20570900
43.89999757	0.00000000	4.23228400	7.71407400
44.09999756	0.00000000	4.27534400	12.77067000
44.29999755	0.00000000	3.53715500	15.09596000
44.49999753	0.00000000	2.78666300	14.81299000
44.69999752	0.00000000	1.99926200	12.49385000
44.89999751	0.00000000	1.62401600	9.05511800
45.09999750	0.00000000	1.58095500	5.15501900
45.29999749	0.00000000	1.48868100	1.71013800
45.49999748	0.00000000	0.65206690	-0.60285430
45.69999746	0.00000000	-1.67322800	-1.02116100
45.89999745	0.00000000	-4.74286400	0.09227362
46.09999744	0.00000000	-7.81250000	1.99311000
46.29999743	0.00000000	-10.09473000	4.36146600
46.49999742	0.00000000	-10.42077000	6.64370100
46.69999740	0.00000000	-8.46456700	8.58759800
46.89999739	0.00000000	-4.18922200	9.33809000
47.09999738	0.00000000	1.62401600	9.00590400
47.29999737	0.00000000	7.81250000	7.84940900
47.49999736	0.00000000	13.16437000	6.26845500
47.69999734	0.00000000	15.81570000	4.31840500
47.89999733	0.00000000	14.65305000	1.99311000
48.09999732	0.00000000	10.00246000	0.13533460
48.29999731	0.00000000	2.60826800	-0.65206690
48.49999730	0.00000000	-6.18848400	0.13533460
48.69999729	0.00000000	-13.90871000	2.04232300
48.89999727	0.00000000	-18.14714000	4.77977300
49.09999726	0.00000000	-18.55930000	7.84940900
49.29999725	0.00000000	-14.60999000	10.53765000
49.49999724	0.00000000	-6.93282500	12.07554000
49.69999723	0.00000000	2.74360200	12.07554000
49.89999721	0.00000000	11.95866000	10.49459000
50.09999720	0.00000000	18.46703000	7.38188900
50.29999719	0.00000000	20.00492000	3.20497000
50.49999718	0.00000000	16.19094000	-0.64591530
50.69999717	0.00000000	8.51377900	-2.97736200
50.89999715	0.00000000	-1.11343500	-3.76476400
51.09999714	0.00000000	-10.00246000	-2.55905500
51.29999713	0.00000000	-16.14788000	0.51058070
51.49999712	0.00000000	-18.09178000	4.73671200
51.69999711	0.00000000	-14.98524000	8.96284400
51.89999710	0.00000000	-8.13853400	12.07554000
52.09999708	0.00000000	0.69512790	13.61343000
52.29999707	0.00000000	8.37844500	13.23819000
52.49999706	0.00000000	13.07210000	10.91289000
52.69999705	0.00000000	14.23474000	7.47416300
52.89999704	0.00000000	11.54035000	3.62327700
53.09999702	0.00000000	5.77017700	0.51058070
53.29999701	-0.15871060	-1.53789400	-1.39640700
53.49999700	0.00000000	-8.42150500	-1.80856300
53.69999699	0.00000000	-12.61073000	-0.23991140
53.89999698	0.00000000	-12.65379000	2.36835600
54.09999696	0.00000000	-8.83981200	5.47490100
54.29999695	0.00000000	-2.69439000	7.75713500
54.49999694	0.00000000	4.18922200	8.91978400
54.69999693	0.00000000	9.53494100	8.54453700
54.89999692	0.00000000	11.54035000	6.68676100
55.09999691	0.00000000	10.42077000	4.82283400
55.29999689	0.00000000	6.93282500	3.62327700
55.49999688	0.00000000	1.48868100	3.24803100
55.69999687	0.00000000	-4.56446800	3.62327700
55.89999686	0.00000000	-9.20890700	4.77977300
56.09999685	0.00000000	-10.75295000	6.31151500
56.29999683	0.00000000	-9.62721400	7.80019600
56.49999682	0.00000000	-5.77017700	8.54453700
56.69999681	0.00000000	-0.41830710	7.71407400
56.89999680	0.00000000	4.56446800	5.43184000
57.09999679	0.00000000	8.04626000	1.99311000
57.29999677	0.00000000	8.83981200	-1.02116100
57.49999676	0.00000000	7.35113100	-2.60211600
57.69999675	0.00000000	4.27534400	-2.55905500
57.89999674	0.00000000	0.41830710	-0.55979330
58.09999673	0.00000000	-3.06963600	3.66633800
58.29999672	0.00000000	-5.77017700	9.00590400
58.49999670	0.00000000	-6.93282500	13.61343000
58.69999669	0.00000000	-6.18848400	16.30167000
58.89999668	0.00000000	-4.27534400	16.25861000
59.09999667	0.00000000	-1.53789400	13.14591000
59.29999666	0.00000000	1.48868100	7.38188900
59.49999664	0.00000000	3.77091500	0.51058070
59.69999663	0.00000000	4.18922200	-5.25344500
59.89999662	0.00000000	3.11884800	-8.36614100
60.09999661	0.00000000	1.58095500	-8.36614100
60.29999660	0.00000000	0.00000000	-5.25344500
60.49999658	0.00000000	-1.53789400	0.55364170
60.69999657	0.00000000	-2.65132900	7.84940900
60.89999656	0.00000000	-2.65132900	14.76993000
61.09999655	0.00000000	-1.53789400	19.37131000
61.29999654	0.00000000	-0.04306102	20.53395000
61.49999653	0.00000000	1.11343500	17.79035000
61.69999651	0.00000000	1.53789400	11.65723000
61.89999650	0.00000000	1.53789400	3.57406500
62.09999649	0.00000000	1.11343500	-4.09079700
62.29999648	0.00000000	-0.04306102	-9.52263600
62.49999647	0.00000000	-1.53789400	-11.42962000
62.69999645	0.00000000	-2.69439000	-9.52263600
62.89999644	0.00000000	-3.06963600	-4.14000900
63.09999643	0.00000000	-2.69439000	3.15575800
63.29999642	0.00000000	-1.53789400	10.49459000
63.49999641	0.00000000	0.00000000	16.30167000
63.69999639	0.00000000	1.53789400	19.42052000
63.89999638	0.00000000	2.69439000	19.42052000
64.09999637	0.00000000	3.06963600	16.30167000
64.29999636	0.00000000	2.69439000	10.53765000
64.49999635	0.00000000	1.53789400	3.66633800
64.69999634	0.00000000	0.00000000	-2.14074800
64.89999632	0.00000000	-1.53789400	-5.71481200
65.09999631	0.00000000	-2.69439000	-7.24655500
65.29999630	0.00000000	-3.02657500	-6.50221400
65.49999629	0.00000000	-2.32529500	-3.43873000
65.69999628	0.00000000	-0.79355310	0.46751960
65.89999626	0.00000000	0.33218500	5.11195900
66.09999625	0.00000000	1.16264800	9.70103300
66.29999624	0.00000000	1.48868100	12.45079000
66.49999623	0.00000000	1.11343500	13.69956000
66.69999622	0.00000000	-0.04306102	13.69956000
66.89999620	0.00000000	-1.53789400	12.53691000
67.09999619	0.00000000	-2.65132900	10.58686000
67.29999618	0.00000000	-2.65132900	7.84940900
67.49999617	0.00000000	-1.53789400	4.73671200
67.69999616	0.00000000	0.04306102	1.58095500
67.89999615	0.00000000	1.99926200	-1.48868100
68.09999613	0.00000000	4.27534400	-3.80782500
68.29999612	0.00000000	5.72711600	-4.55831700
68.49999611	0.00000000	5.35187000	-3.80782500
68.69999610	0.00000000	3.02657500	-1.44562000
68.89999609	0.00000000	-0.41830710	2.04232300
69.09999607	0.00000000	-4.27534400	6.35457700
69.29999606	0.00000000	-7.35113100	10.95595000
69.49999605	0.00000000	-8.88902600	14.81299000
69.69999604	0.00000000	-8.46456700	16.71998000
69.89999603	0.00000000	-5.77017700	16.35089000
70.09999601	0.00000000	-1.53789400	13.61343000
70.29999600	0.00000000	3.11884800	8.96284400
70.49999599	0.00000000	7.39419200	3.20497000
70.69999598	0.00000000	10.46998000	-2.18380900
70.89999597	0.00000000	11.58341000	-5.67175200
71.09999596	0.00000000	10.00246000	-6.87130900
71.29999594	-0.15871060	5.77017700	-5.67175200
71.49999593	0.00000000	0.00000000	-2.22687000
71.69999592	0.00000000	-5.81323800	2.78051200
71.89999591	0.00000000	-10.42077000	7.75713500
72.09999590	0.00000000	-12.74606000	11.65723000
72.29999588	0.00000000	-11.95866000	13.61343000
72.49999587	0.00000000	-8.51377900	13.65650000
72.69999586	0.00000000	-3.11884800	12.07554000
72.89999585	0.00000000	2.65132900	9.00590400
73.09999584	0.00000000	7.35113100	5.19808000
73.29999582	0.00000000	10.46998000	2.12844500
73.49999581	0.00000000	11.58341000	0.55364170
73.69999580	0.00000000	10.04552000	0.51058070
73.89999579	0.00000000	6.18848400	1.62401600
74.09999578	0.00000000	1.20570900	3.15575800
74.29999577	0.00000000	-3.81397600	4.68750000
74.49999575	0.00000000	-7.30807100	5.80093500
74.69999574	0.00000000	-8.88902600	5.80093500
74.89999573	0.00000000	-8.51377900	4.68750000
75.09999572	0.00000000	-6.18848400	3.19881900
75.29999571	0.00000000	-2.74360200	2.08538400
75.49999569	0.00000000	1.07037400	2.12844500
75.69999568	0.00000000	3.81397600	3.66633800
75.89999567	0.00000000	5.02583600	6.31151500
76.09999566	0.00000000	5.39493100	9.00590400
76.29999565	0.00000000	4.23228400	10.96211000
76.49999563	0.00000000	2.04847400	12.07554000
76.69999562	0.00000000	0.46751960	11.61417000
76.89999561	0.00000000	-0.37524600	8.91978400
77.09999560	0.00000000	-1.11343500	4.69365100
77.29999559	0.00000000	-1.11343500	0.09227362
77.49999558	0.00000000	-0.41830710	-3.76476400
77.69999556	0.00000000	-0.09227362	-5.62253900
77.89999555	0.00000000	-0.41830710	-4.87204700
78.09999554	0.00000000	-1.20570900	-1.43946800
78.29999553	0.00000000	-1.95620100	3.15575800
78.49999552	0.00000000	-2.74360200	7.84940900
78.69999550	0.00000000	-3.06963600	12.11860000
78.89999549	0.00000000	-2.65132900	15.18824000
79.09999548	0.00000000	-1.11343500	16.30167000
79.29999547	0.00000000	1.16264800	14.76993000
79.49999546	0.00000000	3.11884800	10.91289000
79.69999544	0.00000000	4.65059000	5.93626900
79.89999543	0.00000000	5.39493100	0.92888770
80.09999542	0.00000000	4.60752900	-2.55905500
80.29999541	0.00000000	2.69439000	-4.18307100
80.49999540	0.00000000	-0.04306102	-4.18307100
80.69999539	0.00000000	-3.06963600	-2.60211600
80.89999537	0.00000000	-5.39493100	0.46751960
81.09999536	0.00000000	-6.14542300	4.31840500
81.29999535	0.00000000	-5.39493100	7.80019600
81.49999534	0.00000000	-3.06963600	10.53765000
81.69999533	0.00000000	-0.04306102	12.11860000
81.89999531	0.00000000	2.69439000	12.53691000
82.09999530	0.00000000	4.65059000	12.11860000
82.29999529	0.00000000	5.77017700	10.58686000
82.49999528	0.00000000	5.39493100	8.26771600
82.69999527	0.00000000	3.49409400	5.89320800
82.89999525	0.00000000	1.20570900	3.15575800
83.09999524	0.00000000	-1.11343500	0.46751960
83.29999523	0.00000000	-2.65132900	-1.43946800
83.49999522	0.00000000	-3.11884800	-2.26993100
83.69999521	0.00000000	-3.11884800	-1.85777500
83.89999520	0.00000000	-2.69439000	-0.64591530
84.09999518	0.00000000	-1.53789400	2.08538400
84.29999517	0.00000000	-0.04306102	5.89320800
84.49999516	0.00000000	1.11343500	9.38115100
84.69999515	0.00000000	1.53789400	12.11860000
84.89999514	0.00000000	1.58095500	13.61343000
85.09999512	0.00000000	1.58095500	13.23819000
85.29999511	0.00000000	1.58095500	10.91289000
85.49999510	0.00000000	1.58095500	7.43110200
85.69999509	0.00000000	1.58095500	3.15575800
85.89999508	0.00000000	1.58095500	-1.07037400
86.09999506	0.00000000	1.53789400	-4.13385800
86.29999505	0.00000000	1.11343500	-5.25344500
86.49999504	0.00000000	0.00000000	-3.71555100
86.69999503	0.00000000	-1.16264800	0.09227362
86.89999502	0.00000000	-1.95620100	4.73671200
87.09999501	0.00000000	-2.69439000	9.38115100
87.29999499	0.00000000	-2.69439000	13.18898000
87.49999498	0.00000000	-1.95620100	14.72687000
87.69999497	0.00000000	-1.16264800	13.60728000
87.89999496	0.00000000	0.04306102	10.53765000
88.09999495	0.00000000	1.53789400	6.26845500
88.29999493	0.00000000	2.69439000	1.66707700
88.49999492	0.00000000	3.06963600	-2.18380900
88.69999491	0.00000000	2.69439000	-4.09079700
88.89999490	0.00000000	1.53789400	-3.71555100
89.09999489	0.00000000	0.04306102	-0.97810030
89.29999487	0.00000000	-1.16264800	3.57406500
89.49999486	0.00000000	-1.91314000	8.58759800
89.69999485	0.00000000	-2.32529500	12.40773000
89.89999484	0.00000000	-1.91314000	14.35162000
90.09999483	0.00000000	-1.20570900	13.56422000
90.29999482	0.00000000	-0.37524600	10.53765000
90.49999480	0.00000000	0.37524600	6.26845500
90.69999479	0.00000000	1.16264800	1.66707700
90.89999478	0.00000000	1.53789400	-2.14074800
91.09999477	0.00000000	1.53789400	-3.67249000
91.29999476	0.00000000	1.16264800	-2.55905500
91.49999474	0.00000000	0.41830710	0.55364170
91.69999473	0.00000000	0.04306102	5.15501900
91.89999472	0.00000000	0.04306102	10.11934000
92.09999471	0.00000000	0.37524600	13.56422000
92.29999470	0.00000000	0.74434050	14.72687000
92.49999468	0.00000000	0.37524600	13.18898000
92.69999467	0.00000000	0.00000000	9.38115100
92.89999466	0.00000000	-0.46751960	4.77977300
93.09999465	0.00000000	-1.58095500	0.51058070
93.29999464	0.00000000	-2.69439000	-2.55905500
93.49999463	0.00000000	-3.11884800	-3.67249000
93.69999461	0.00000000	-3.06963600	-2.14074800
93.89999460	0.00000000	-2.27608300	1.66707700
94.09999459	0.00000000	-0.33218500	6.21924200
94.29999458	0.00000000	1.95620100	10.11934000
94.49999457	0.00000000	4.27534400	12.40157000
94.69999455	0.00000000	5.77017700	12.81373000
94.89999454	0.00000000	5.81323800	10.86983000
95.09999453	0.00000000	4.65059000	7.47416300
95.29999452	0.00000000	2.69439000	3.57406500
95.49999451	0.00000000	-0.04306102	0.13533460
95.69999449	0.00000000	-3.11884800	-2.14074800
95.89999448	0.00000000	-5.81323800	-2.14074800
96.09999447	0.00000000	-7.30807100	0.09227362
96.29999446	0.00000000	-6.93282500	3.15575800
96.49999445	0.00000000	-4.60752900	6.26845500
96.69999444	0.00000000	-1.16264800	8.96284400
96.89999442	0.00000000	2.74360200	10.49459000
97.09999441	0.00000000	6.18848400	10.49459000
97.29999440	0.00000000	8.51377900	8.96284400
97.49999439	0.00000000	8.88902600	6.31151500
97.69999438	0.00000000	7.39419200	3.66633800
97.89999436	0.00000000	4.65059000	2.08538400
98.09999435	0.00000000	1.16264800	1.66707700
98.29999434	0.00000000	-2.74360200	1.99311000
98.49999433	0.00000000	-6.18848400	2.78051200
98.69999432	0.00000000	-8.46456700	3.57406500
98.89999430	0.00000000	-8.51377900	4.73671200
99.09999429	0.00000000	-6.60679100	5.85014700
99.29999428	0.00000000	-3.85703700	6.26845500
99.49999427	0.00000000	0.00000000	6.31151500
99.69999426	0.00000000	3.81397600	6.35457700
99.89999425	0.00000000	6.18848400	6.68676100
100.09999423	0.00000000	7.39419200	7.09891700
100.29999422	0.00000000	7.35113100	7.10506800
100.49999421	0.00000000	5.81323800	7.47416300
100.69999420	0.00000000	3.11884800	7.38188900
100.89999419	0.00000000	0.04306102	6.26845500
101.09999417	0.00000000	-2.69439000	4.73671200
101.29999416	0.00000000	-4.65059000	3.15575800
101.49999415	0.00000000	-5.81323800	1.62401600
101.69999414	0.00000000	-5.81323800	0.51058070
101.89999413	0.00000000	-4.65059000	0.55364170
102.09999411	0.00000000	-2.74360200	2.04232300
102.29999410	0.00000000	-0.37524600	4.36146600
102.49999409	0.00000000	1.91314000	6.68676100
102.69999408	0.00000000	3.85703700	9.00590400
102.89999407	0.00000000	4.65059000	10.53765000
103.09999406	0.00000000	4.69980300	10.91289000
103.29999404	0.00000000	4.23228400	10.11934000
103.49999403	0.00000000	2.69439000	7.80019600
103.69999402	0.00000000	0.41830710	4.73671200
103.89999401	0.00000000	-1.53789400	1.66707700
104.09999400	0.00000000	-3.11884800	-0.64591530
104.29999398	0.00000000	-4.23228400	-1.39640700
104.49999397	0.00000000	-4.23228400	-0.64591530
104.69999396	0.00000000	-3.11884800	1.66707700
104.89999395	0.00000000	-1.58095500	4.68750000
105.09999394	0.00000000	0.00000000	7.43110200
105.29999392	0.00000000	1.53789400	9.33809000
105.49999391	0.00000000	2.65132900	10.11934000
105.69999390	0.00000000	2.69439000	9.33809000
105.89999389	0.00000000	1.95620100	7.47416300
106.09999388	0.00000000	1.16264800	5.15501900
106.29999387	0.00000000	0.00000000	3.19881900
106.49999385	0.00000000	-1.11343500	1.66707700
106.69999384	0.00000000	-1.53789400	0.92888770
106.89999383	0.00000000	-1.53789400	1.66707700
107.09999382	0.00000000	-1.11343500	3.19881900
107.29999381	0.00000000	0.00000000	5.11195900
107.49999379	0.00000000	1.11343500	7.01279500
107.69999378	0.00000000	1.53789400	7.80019600
107.89999377	0.00000000	1.53789400	7.80019600
108.09999376	0.00000000	1.16264800	7.05585600
108.29999375	0.00000000	0.37524600	5.53026500
108.49999374	0.00000000	-0.37524600	4.36146600
108.69999372	0.00000000	-1.16264800	3.15575800
108.89999371	0.00000000	-1.53789400	2.08538400
109.09999370	0.00000000	-1.53789400	2.08538400
109.29999369	0.00000000	-1.11343500	3.24803100
109.49999368	0.00000000	0.00000000	5.11195900
109.69999366	0.00000000	1.16264800	7.01279500
109.89999365	0.00000000	1.95620100	7.80019600
110.09999364	0.00000000	2.69439000	7.84940900
110.29999363	0.00000000	2.69439000	7.47416300
110.49999362	0.00000000	1.95620100	6.68676100
110.69999360	0.00000000	1.16264800	5.89320800
110.89999359	0.00000000	0.00000000	4.68750000
111.09999358	0.00000000	-1.11343500	3.19881900
111.29999357	0.00000000	-1.53789400	2.04232300
111.49999356	0.00000000	-1.53789400	1.66707700
111.69999355	0.00000000	-1.16264800	2.04232300
111.89999353	0.00000000	-0.41830710	3.19881900
112.09999352	0.00000000	0.00000000	4.68750000
112.29999351	0.00000000	0.41830710	5.89320800
112.49999350	0.00000000	1.16264800	6.64370100
112.69999349	0.00000000	1.53789400	7.05585600
112.89999347	0.00000000	1.53789400	6.68676100
113.09999346	0.00000000	1.16264800	6.35457700
113.29999345	0.00000000	0.41830710	6.26845500
113.49999344	0.00000000	0.04306102	5.89320800
113.69999343	0.00000000	0.00000000	5.15501900
113.89999341	0.00000000	0.00000000	4.77977300
114.09999340	0.00000000	0.00000000	4.69365100
114.29999339	0.00000000	0.00000000	4.31840500
114.49999338	0.00000000	0.00000000	3.57406500
114.69999337	0.00000000	0.00000000	3.19881900
114.89999336	-0.15871060	0.00000000	3.15575800
115.09999334	0.00000000	0.04306102	3.15575800
115.29999333	0.00000000	0.41830710	3.19881900
115.49999332	0.00000000	1.11343500	3.57406500
115.69999331	0.00000000	1.11343500	4.36146600
115.89999330	0.00000000	0.41830710	5.11195900
116.09999328	0.00000000	0.04306102	5.93626900
116.29999327	0.00000000	0.00000000	6.64370100
116.49999326	0.00000000	0.00000000	7.05585600
116.69999325	0.00000000	0.00000000	6.68676100
116.89999324	0.00000000	0.00000000	6.31151500
117.09999322	0.00000000	0.00000000	5.85014700
117.29999321	0.00000000	0.04306102	4.73671200
117.49999320	0.00000000	0.41830710	3.62327700
117.69999319	0.00000000	1.16264800	3.19881900
117.89999318	0.00000000	1.53789400	3.15575800
118.09999317	0.00000000	1.58095500	3.19881900
118.29999315	0.00000000	1.53789400	3.57406500
118.49999314	0.00000000	1.11343500	4.36146600
118.69999313	0.00000000	0.00000000	5.11195900
118.89999312	0.00000000	-1.11343500	5.93626900
119.09999311	0.00000000	-1.53789400	6.68676100
119.29999309	0.00000000	-1.58095500	7.42495000
119.49999308	0.00000000	-1.53789400	7.42495000
119.69999307	0.00000000	-1.16264800	6.72982200
119.89999306	0.00000000	-0.37524600	6.31151500
120.09999305	0.00000000	0.41830710	5.85014700
120.29999303	0.00000000	1.58095500	4.77977300
120.49999302	0.00000000	2.69439000	4.04158400
120.69999301	0.00000000	3.06963600	4.36146600
120.89999300	0.00000000	2.74360200	4.69365100
121.09999299	0.00000000	1.95620100	4.73671200
121.29999298	0.00000000	1.16264800	4.73671200
121.49999296	0.00000000	-0.04306102	4.73671200
121.69999295	0.00000000	-1.53789400	4.73671200
121.89999294	0.00000000	-2.69439000	4.77977300
122.09999293	0.00000000	-3.06963600	5.15501900
122.29999292	0.00000000	-2.74360200	5.89320800
122.49999290	0.00000000	-1.95620100	6.26845500
122.69999289	0.00000000	-1.16264800	6.31151500
122.89999288	0.00000000	0.00000000	6.31151500
123.09999287	0.00000000	1.16264800	6.26845500
123.29999286	0.00000000	1.95620100	5.89320800
123.49999284	0.00000000	2.74360200	5.15501900
123.69999283	0.00000000	3.06963600	4.77977300
123.89999282	0.00000000	2.74360200	4.73671200
124.09999281	0.00000000	1.95620100	4.69365100
124.29999280	0.00000000	1.16264800	4.31840500
124.49999279	0.00000000	0.00000000	3.62327700
124.69999277	0.00000000	-1.11343500	3.62327700
124.89999276	0.00000000	-1.53789400	4.31840500
125.09999275	0.00000000	-1.58095500	4.69365100
125.29999274	0.00000000	-1.58095500	4.77977300
125.49999273	0.00000000	-1.53789400	5.15501900
125.69999271	0.00000000	-1.11343500	5.89320800
125.89999270	0.00000000	0.04306102	6.26845500
126.09999269	0.00000000	1.53789400	6.31151500
126.29999268	0.00000000	2.69439000	6.26845500
126.49999267	0.00000000	3.06963600	5.89320800
126.69999265	0.00000000	2.74360200	5.15501900
126.89999264	0.00000000	1.95620100	4.77977300
127.09999263	0.00000000	1.16264800	4.73671200
127.29999262	0.00000000	0.00000000	4.73671200
127.49999261	0.00000000	-1.11343500	4.73671200
127.69999260	0.00000000	-1.53789400	4.77977300
127.89999258	0.00000000	-1.58095500	5.15501900
128.09999257	0.00000000	-1.53789400	5.89320800
128.29999256	0.00000000	-1.11343500	6.26845500
128.49999255	0.00000000	0.04306102	6.31151500
128.69999254	0.00000000	1.53789400	6.31151500
128.89999252	0.00000000	2.69439000	6.31151500
129.09999251	0.00000000	3.06963600	6.26845500
129.29999250	0.00000000	2.69439000	5.89320800
129.49999249	0.00000000	1.53789400	5.15501900
129.69999248	0.00000000	0.04306102	4.73671200
129.89999246	0.00000000	-1.11343500	4.36146600
130.09999245	0.00000000	-1.53789400	3.99237200
130.29999244	0.00000000	-1.58095500	4.36146600
130.49999243	0.00000000	-1.53789400	4.73671200
130.69999242	0.00000000	-1.16264800	5.11195900
130.89999241	0.00000000	-0.37524600	5.51796200
131.09999239	0.00000000	0.37524600	5.48105300
131.29999238	0.00000000	1.16264800	5.51796200
131.49999237	0.00000000	1.53789400	5.11195900
131.69999236	0.00000000	1.58095500	4.73671200
131.89999235	0.00000000	1.53789400	4.31840500
132.09999233	0.00000000	1.16264800	3.62327700
132.29999232	0.00000000	0.37524600	3.62327700
132.49999231	0.00000000	-0.37524600	4.26919300
132.69999230	0.00000000	-1.11343500	4.36146600
132.89999229	0.00000000	-1.11343500	4.41067900
133.09999227	0.00000000	-0.41830710	5.51796200
133.29999226	0.00000000	-0.04306102	6.21924200
133.49999225	0.00000000	0.00000000	6.31151500
133.69999224	0.00000000	0.00000000	6.31151500
133.89999223	0.00000000	0.00000000	6.26845500
134.09999222	0.00000000	0.00000000	5.89320800
134.29999220	0.00000000	0.00000000	5.11195900
134.49999219	0.00000000	0.04306102	4.36146600
134.69999218	0.00000000	0.41830710	3.57406500
134.89999217	0.00000000	1.16264800	3.19881900
135.09999216	0.00000000	1.53789400	3.15575800
135.29999214	0.00000000	1.58095500	3.19881900
135.49999213	0.00000000	1.53789400	3.62327700
135.69999212	0.00000000	1.16264800	4.73671200
135.89999211	0.00000000	0.41830710	5.85014700
136.09999210	0.00000000	0.00000000	6.26845500
136.29999208	0.00000000	-0.41830710	6.31151500
136.49999207	0.00000000	-1.11343500	6.31151500
136.69999206	0.00000000	-1.11343500	6.26845500
136.89999205	0.00000000	-0.41830710	5.89320800
137.09999204	0.00000000	0.00000000	5.15501900
137.29999203	0.00000000	0.41830710	4.73671200
137.49999201	0.00000000	1.16264800	4.31840500
137.69999200	0.00000000	1.53789400	3.57406500
137.89999199	0.00000000	1.58095500	3.24803100
138.09999198	0.00000000	1.53789400	3.57406500
138.29999197	0.00000000	1.16264800	4.31840500
138.49999195	0.00000000	0.41830710	4.69365100
138.69999194	0.00000000	0.00000000	4.73671200
138.89999193	0.00000000	-0.41830710	4.77977300
139.09999192	0.00000000	-1.11343500	5.15501900
139.29999191	0.00000000	-1.11343500	5.89320800
139.49999189	0.00000000	-0.37524600	6.26845500
139.69999188	0.00000000	0.37524600	6.31151500
139.89999187	0.00000000	1.16264800	6.26845500
140.09999186	0.00000000	1.53789400	5.89320800
140.29999185	0.00000000	1.58095500	5.15501900
140.49999184	0.00000000	1.53789400	4.73671200
140.69999182	0.00000000	1.16264800	4.31840500
140.89999181	0.00000000	0.41830710	3.57406500
141.09999180	0.00000000	0.04306102	3.24803100
141.29999179	0.00000000	0.00000000	3.57406500
141.49999178	0.00000000	0.00000000	4.36146600
141.69999176	0.00000000	0.00000000	5.11195900
141.89999175	0.00000000	0.04306102	5.89320800
142.09999174	0.00000000	0.41830710	6.31151500
142.29999173	0.00000000	1.16264800	6.68676100
142.49999172	0.00000000	1.48868100	7.05585600
142.69999170	0.00000000	1.20570900	6.64370100
142.89999169	0.00000000	0.79355310	5.89320800
143.09999168	0.00000000	0.78740150	4.73671200
143.29999167	-0.15871060	0.37524600	3.62327700
143.49999166	0.00000000	0.04306102	3.19881900
143.69999165	0.00000000	0.00000000	3.19881900
143.89999163	0.00000000	0.04306102	3.57406500
144.09999162	0.00000000	0.41830710	4.36146600
144.29999161	0.00000000	1.16264800	5.11195900
144.49999160	-0.15871060	1.53789400	5.89320800
144.69999159	0.00000000	1.58095500	6.26845500
144.89999157	0.00000000	1.58095500	6.31151500
145.09999156	0.00000000	1.53789400	6.31151500
145.29999155	0.00000000	1.16264800	6.26845500
145.49999154	0.00000000	0.41830710	5.89320800
145.69999153	0.00000000	0.04306102	5.11195900
145.89999151	0.00000000	0.00000000	4.36146600
146.09999150	0.00000000	0.00000000	3.57406500
146.29999149	0.00000000	0.00000000	3.24803100
146.49999148	0.00000000	0.04306102	3.57406500
146.69999147	0.00000000	0.41830710	4.31840500
146.89999146	0.00000000	1.16264800	4.73671200
147.09999144	0.00000000	1.53789400	5.15501900
147.29999143	0.00000000	1.53789400	5.89320800
147.49999142	0.00000000	1.16264800	6.26845500
147.69999141	0.00000000	0.41830710	6.31151500
147.89999140	0.00000000	0.04306102	6.31151500
148.09999138	0.00000000	0.00000000	6.26845500
148.29999137	0.00000000	0.00000000	5.89320800
148.49999136	0.00000000	0.00000000	5.15501900
148.69999135	0.00000000	0.00000000	4.77977300
148.89999134	0.00000000	0.00000000	4.73671200
149.09999132	0.00000000	0.04306102	4.73671200
149.29999131	0.00000000	0.41830710	4.73671200
149.49999130	0.00000000	1.16264800	4.73671200
149.69999129	0.00000000	1.53789400	4.73671200
149.89999128	0.00000000	1.58095500	4.77977300
150.09999127	0.00000000	1.58095500	5.15501900
150.29999125	0.00000000	1.53789400	5.89320800
150.49999124	0.00000000	1.16264800	6.26845500
150.69999123	0.00000000	0.41830710	6.31151500
150.89999122	0.00000000	0.04306102	6.26845500
151.09999121	0.00000000	0.00000000	5.89320800
151.29999119	0.00000000	0.00000000	5.15501900
151.49999118	0.00000000	0.00000000	4.77977300
151.69999117	0.00000000	0.00000000	4.73671200
151.89999116	0.00000000	0.04306102	4.73671200
152.09999115	0.00000000	0.41830710	4.73671200
152.29999113	0.00000000	1.16264800	4.73671200
152.49999112	0.00000000	1.53789400	4.73671200
152.69999111	0.00000000	1.58095500	4.73671200
152.89999110	0.00000000	1.58095500	4.77977300
153.09999109	0.00000000	1.53789400	5.15501900
153.29999108	0.00000000	1.16264800	5.89320800
153.49999106	0.00000000	0.41830710	6.26845500
153.69999105	0.00000000	0.04306102	6.31151500
153.89999104	0.00000000	0.00000000	6.26845500
154.09999103	0.00000000	0.00000000	5.89320800
154.29999102	0.00000000	0.00000000	5.15501900
154.49999100	0.00000000	0.00000000	4.77977300
154.69999099	0.00000000	0.00000000	4.73671200
154.89999098	0.00000000	0.04306102	4.73671200
155.09999097	0.00000000	0.41830710	4.73671200
155.29999096	0.00000000	1.16264800	4.73671200
155.49999094	0.00000000	1.53789400	4.73671200
155.69999093	0.00000000	1.58095500	4.73671200
155.89999092	0.00000000	1.53789400	4.73671200
156.09999091	0.00000000	1.16264800	4.77977300
156.29999090	0.00000000	0.41830710	5.15501900
156.49999089	0.00000000	0.04306102	5.89320800
156.69999087	0.00000000	0.00000000	6.26845500
156.89999086	0.00000000	0.00000000	6.31151500
157.09999085	0.00000000	0.00000000	6.26845500
157.29999084	0.00000000	0.00000000	5.89320800
157.49999083	0.00000000	0.00000000	5.15501900
157.69999081	0.00000000	0.00000000	4.77977300
157.89999080	0.00000000	0.04306102	4.73671200
158.09999079	0.00000000	0.41830710	4.73671200
158.29999078	0.00000000	1.16264800	4.73671200
158.49999077	0.00000000	1.53789400	4.73671200
158.69999075	0.00000000	1.58095500	4.73671200
158.89999074	0.00000000	1.58095500	4.77977300
159.09999073	0.00000000	1.53789400	5.15501900
159.29999072	0.00000000	1.16264800	5.89320800
159.49999071	0.00000000	0.41830710	6.26845500
159.69999070	0.00000000	0.04306102	6.31151500
159.89999068	0.00000000	0.00000000	6.31151500
160.09999067	0.00000000	0.00000000	6.26845500
160.29999066	0.00000000	0.00000000	5.89320800
160.49999065	0.00000000	0.00000000	5.15501900
160.69999064	0.00000000	0.00000000	4.77977300
160.89999062	0.00000000	0.00000000	4.73671200
161.09999061	0.00000000	0.04306102	4.73671200
161.29999060	0.00000000	0.37524600	4.73671200
161.49999059	0.00000000	0.78740150	4.73671200
161.69999058	0.00000000	0.79355310	4.73671200
161.89999056	0.00000000	1.20570900	4.77977300
162.09999055	0.00000000	1.53789400	5.15501900
162.29999054	0.00000000	1.58095500	5.89320800
162.49999053	0.00000000	1.53789400	6.26845500
162.69999052	0.00000000	1.16264800	6.31151500
162.89999051	0.00000000	0.41830710	6.31151500
163.09999049	0.00000000	0.04306102	6.26845500
163.29999048	0.00000000	0.00000000	5.89320800
163.49999047	0.00000000	0.00000000	5.15501900
163.69999046	0.00000000	0.00000000	4.77977300
163.89999045	0.00000000	0.00000000	4.73671200
164.09999043	0.00000000	0.00000000	4.73671200
164.29999042	0.00000000	0.04306102	4.73671200
164.49999041	0.00000000	0.41830710	4.73671200
164.69999040	0.00000000	1.16264800	4.73671200
164.89999039	0.00000000	1.53789400	4.73671200
165.09999037	0.00000000	1.58095500	4.73671200
165.29999036	0.00000000	1.53789400	4.73671200
165.49999035	0.00000000	1.16264800	4.73671200
165.69999034	0.00000000	0.41830710	4.77977300
165.89999033	0.00000000	0.04306102	5.11195900
166.09999032	0.00000000	0.00000000	5.47490100
166.29999030	0.00000000	0.00000000	5.11195900
166.49999029	0.00000000	0.00000000	4.77977300
166.69999028	0.00000000	0.00000000	4.73671200
166.89999027	0.00000000	0.00000000	4.73671200
167.09999026	0.00000000	0.04306102	4.73671200
167.29999024	0.00000000	0.41830710	4.73671200
167.49999023	0.00000000	1.16264800	4.73671200
167.69999022	0.00000000	1.53789400	4.73671200
167.89999021	0.00000000	1.58095500	4.73671200
168.09999020	0.00000000	1.53789400	4.73671200
168.29999018	0.00000000	1.16264800	4.73671200
168.49999017	0.00000000	0.46751960	4.73671200
168.69999016	0.00000000	0.41830710	4.73671200
168.89999015	0.00000000	0.74434050	4.73671200
169.09999014	0.00000000	0.37524600	4.73671200
169.29999013	0.00000000	0.04306102	4.73671200
169.49999011	0.00000000	0.00000000	4.73671200
169.69999010	0.00000000	0.00000000	4.73671200
169.89999009	0.00000000	0.00000000	4.73671200
170.09999008	0.00000000	0.00000000	4.73671200
170.29999007	0.00000000	0.04306102	4.73671200
170.49999005	0.00000000	0.37524600	4.73671200
170.69999004	0.00000000	0.74434050	4.73671200
170.89999003	0.00000000	0.41830710	4.73671200
171.09999002	0.00000000	0.46751960	4.73671200
171.29999001	0.00000000	1.16264800	4.73671200
171.49998999	0.00000000	1.53789400	4.73671200
171.69998998	0.00000000	1.53789400	4.73671200
171.89998997	0.00000000	1.20570900	4.73671200
172.09998996	0.00000000	0.79355310	4.73671200
172.29998995	0.00000000	0.83046260	4.73671200
172.49998994	0.00000000	0.79355310	4.73671200
172.69998992	0.00000000	1.16264800	4.73671200
172.89998991	0.00000000	1.11343500	4.73671200
173.09998990	0.00000000	0.46751960	4.73671200
173.29998989	0.00000000	0.46751960	4.73671200
173.49998988	0.00000000	1.16264800	4.73671200
173.69998986	0.00000000	1.48868100	4.73671200
173.89998985	0.00000000	1.20570900	4.73671200
174.09998984	0.00000000	0.79355310	4.73671200
174.29998983	0.00000000	0.83046260	4.73671200
174.49998982	0.00000000	0.75049200	4.73671200
174.69998980	0.00000000	0.78740150	4.73671200
174.89998979	0.00000000	0.37524600	4.73671200
175.09998978	0.00000000	0.04306102	4.73671200
175.29998977	0.00000000	0.04306102	4.77977300
175.49998976	0.00000000	0.41830710	5.15501900
175.69998975	0.00000000	1.11343500	5.85014700
175.89998973	0.00000000	1.16264800	5.89320800
176.09998972	0.00000000	0.83661410	5.57332700
176.29998971	0.00000000	1.20570900	5.89320800
176.49998970	0.00000000	1.53789400	5.89320800
176.69998969	0.00000000	1.58095500	5.53026500
176.89998967	0.00000000	1.53789400	5.51796200
177.09998966	0.00000000	1.16264800	5.11195900
177.29998965	0.00000000	0.41830710	4.77977300
177.49998964	0.00000000	0.04306102	4.73671200
177.69998963	0.00000000	0.00000000	4.73671200
177.89998961	0.00000000	0.00000000	4.73671200
178.09998960	0.00000000	0.00000000	4.73671200
178.29998959	0.00000000	0.00000000	4.73671200
178.49998958	0.00000000	0.00000000	4.77977300
178.69998957	0.00000000	0.00000000	5.11195900
178.89998956	0.00000000	0.04306102	5.47490100
179.09998954	0.00000000	0.41830710	5.11195900
179.29998953	0.00000000	1.11343500	4.77977300
179.49998952	0.00000000	1.16264800	4.73671200
179.69998951	0.00000000	0.83661410	4.73671200
179.89998950	0.00000000	1.20570900	4.73671200
180.09998948	0.00000000	1.48868100	4.73671200
180.29998947	0.00000000	1.16264800	4.73671200
180.49998946	0.00000000	0.41830710	4.73671200
180.69998945	0.00000000	0.04306102	4.73671200
180.89998944	0.00000000	0.00000000	4.73671200
181.09998942	0.00000000	0.00000000	4.73671200
181.29998941	0.00000000	0.00000000	4.77977300
181.49998940	0.00000000	0.04306102	5.15501900
181.69998939	0.00000000	0.37524600	5.89320800
181.89998938	0.00000000	0.78740150	6.26845500
182.09998937	0.00000000	0.79355310	6.26845500
182.29998935	0.00000000	1.20570900	5.89320800
182.49998934	0.00000000	1.53789400	5.15501900
182.69998933	0.00000000	1.58095500	4.77977300
182.89998932	0.00000000	1.58095500	4.73671200
183.09998931	0.00000000	1.53789400	4.73671200
183.29998929	0.00000000	1.20570900	4.73671200
183.49998928	0.00000000	0.79355310	4.73671200
183.69998927	0.00000000	0.78740150	4.77977300
183.89998926	0.00000000	0.37524600	5.15501900
184.09998925	0.00000000	0.04306102	5.89320800
184.29998923	0.00000000	0.00000000	6.26845500
184.49998922	0.00000000	0.00000000	6.31151500
184.69998921	0.00000000	0.00000000	6.31151500
184.89998920	0.00000000	0.04306102	6.26845500
185.09998919	0.00000000	0.41830710	5.89320800
185.29998918	0.00000000	1.16264800	5.15501900
185.49998916	0.00000000	1.53789400	4.77977300
185.69998915	0.00000000	1.58095500	4.73671200
185.89998914	0.00000000	1.58095500	4.73671200
186.09998913	0.00000000	1.53789400	4.73671200
186.29998912	0.00000000	1.20570900	4.73671200
186.49998910	0.00000000	0.79355310	4.73671200
186.69998909	0.00000000	0.78740150	4.73671200
186.89998908	0.00000000	0.37524600	4.77977300
187.09998907	0.00000000	0.04306102	5.15501900
187.29998906	0.00000000	0.00000000	5.89320800
187.49998904	0.00000000	0.04306102	6.26845500
187.69998903	0.00000000	0.41830710	6.31151500
187.89998902	0.00000000	1.16264800	6.26845500
188.09998901	0.00000000	1.48868100	5.89320800
188.29998900	0.00000000	1.20570900	5.15501900
188.49998899	0.00000000	0.83661410	4.77977300
188.69998897	0.00000000	1.20570900	4.73671200
188.89998896	0.00000000	1.53789400	4.73671200
189.09998895	0.00000000	1.53789400	4.73671200
189.29998894	0.00000000	1.16264800	4.73671200
189.49998893	0.00000000	0.41830710	4.73671200
189.69998891	-0.15871060	0.04306102	4.73671200
189.89998890	0.00000000	0.00000000	4.73671200
190.09998889	0.00000000	0.00000000	4.77977300
190.29998888	0.00000000	0.00000000	5.11195900
190.49998887	0.00000000	0.04306102	5.51796200
190.69998885	0.00000000	0.37524600	5.53026500
190.89998884	0.00000000	0.78740150	5.93626900
191.09998883	0.00000000	0.75049200	6.21924200
191.29998882	0.00000000	0.83046260	5.89320800
191.49998881	0.00000000	0.79355310	5.15501900
191.69998880	0.00000000	1.20570900	4.77977300
191.89998878	0.00000000	1.53789400	4.73671200
192.09998877	0.00000000	1.53789400	4.73671200
192.29998876	0.00000000	1.16264800	4.73671200
192.49998875	0.00000000	0.41830710	4.73671200
192.69998874	0.00000000	0.04306102	4.73671200
192.89998872	0.00000000	0.00000000	4.73671200
193.09998871	0.00000000	0.00000000	4.73671200
193.29998870	0.00000000	0.04306102	4.73671200
193.49998869	0.00000000	0.41830710	4.73671200
193.69998868	0.00000000	1.16264800	4.77977300
193.89998866	0.00000000	1.53789400	5.11195900
194.09998865	0.00000000	1.58095500	5.47490100
194.29998864	0.00000000	1.58095500	5.11195900
194.49998863	0.00000000	1.53789400	4.77977300
194.69998862	0.00000000	1.20570900	4.73671200
194.89998861	0.00000000	0.83661410	4.73671200
195.09998859	0.00000000	1.16264800	4.73671200
195.29998858	0.00000000	1.11343500	4.73671200
195.49998857	0.00000000	0.46751960	4.73671200
195.69998856	0.00000000	0.41830710	4.73671200
195.89998855	0.00000000	0.74434050	4.73671200
196.09998853	0.00000000	0.37524600	4.73671200
