Time	Channel A	Channel B	Channel C
(us)	(V)	(mV)	(mV)

-4.59999956	0.00000000	-31.61909000	-11.04823000
-4.39999957	0.00000000	-31.61909000	-11.04823000
-4.19999958	0.00000000	-31.61909000	-11.04823000
-3.99999959	0.00000000	-31.61909000	-11.04823000
-3.79999960	0.00000000	-31.61909000	-11.04823000
-3.59999962	0.00000000	-31.61909000	-11.04823000
-3.39999963	0.00000000	-31.61909000	-11.04823000
-3.19999964	0.00000000	-31.61909000	-11.04823000
-2.99999965	0.00000000	-31.61909000	-11.04823000
-2.79999966	0.00000000	-31.61909000	-11.04823000
-2.59999968	0.00000000	-31.61909000	-11.04823000
-2.39999969	0.00000000	-31.61909000	-11.04823000
-2.19999970	0.00000000	-31.61909000	-11.04823000
-1.99999971	0.00000000	-31.61909000	-11.04823000
-1.79999972	0.00000000	-31.61909000	-11.04823000
-1.59999973	0.00000000	-31.61909000	-11.04823000
-1.39999975	0.00000000	-31.61909000	-11.04823000
-1.19999976	0.00000000	-31.61909000	-11.04823000
-0.99999977	0.00000000	-31.57603000	-11.04823000
-0.79999978	0.00000000	-31.24384000	-11.04823000
-0.59999979	0.00000000	-30.87475000	-11.00517000
-0.39999981	0.15871060	-31.24384000	-10.67298000
-0.19999982	0.47736220	-31.57603000	-10.31004000
0.00000017	0.79601380	-31.61909000	-10.67298000
0.20000016	1.11466500	-31.61909000	-11.00517000
0.40000015	0.95533960	-31.61909000	-11.04823000
0.60000013	0.47736220	-31.61909000	-11.04823000
0.80000012	-0.15871060	-31.61909000	-11.04823000
1.00000011	-1.11466500	-31.61909000	-11.04823000
1.20000010	-2.07062000	-31.61909000	-11.04823000
1.40000009	-2.70792300	-31.61909000	-11.00517000
1.60000008	-2.70792300	-31.61909000	-10.67298000
1.80000006	-1.75196900	-31.61909000	-10.26698000
2.00000005	-0.15871060	-31.61909000	-10.30389000
2.20000004	1.91129400	-31.61909000	-10.26698000
2.40000003	3.98191400	-31.61909000	-10.67298000
2.60000002	5.09719500	-31.61909000	-11.00517000
2.80000000	5.25652100	-31.61909000	-11.04823000
2.99999999	3.66326300	-31.61909000	-11.04823000
3.19999998	0.95533960	-31.61909000	-11.04823000
3.39999997	-2.38927200	-31.61909000	-11.04823000
3.59999996	-5.57517200	-31.61909000	-11.04823000
3.79999994	-7.64579200	-31.61909000	-11.04823000
3.99999993	-7.80511800	-31.57603000	-11.00517000
4.19999992	-6.05315000	-31.24384000	-10.62992000
4.39999991	-2.54859700	-30.87475000	-9.93479300
4.59999990	1.91129400	-31.24384000	-9.93479300
4.79999989	6.05315000	-31.57603000	-10.62992000
4.99999987	8.76107300	-31.61909000	-11.00517000
5.19999986	9.39837600	-31.61909000	-11.04823000
5.39999985	7.64579200	-31.61909000	-11.09129000
5.59999984	3.98191400	-31.61909000	-11.46653000
5.79999983	-0.79601380	-31.61909000	-12.16166000
5.99999981	-5.25652100	-31.61909000	-12.16166000
6.19999980	-8.44242100	-31.61909000	-11.46653000
6.39999979	-9.39837600	-31.61909000	-11.09129000
6.59999978	-8.12377000	-31.61909000	-11.00517000
6.79999977	-4.77854300	-31.61909000	-10.67298000
6.99999975	-0.47736220	-31.61909000	-10.31004000
7.19999974	3.66326300	-31.61909000	-10.67298000
7.39999973	6.69045300	-31.61909000	-11.00517000
7.59999972	7.80511800	-31.61909000	-11.04823000
7.79999971	7.00848900	-31.61909000	-11.04823000
7.99999970	4.45989200	-31.61909000	-11.04823000
8.19999968	1.11466500	-31.61909000	-11.04823000
8.39999967	-1.91129400	-31.61909000	-11.04823000
8.59999966	-4.14124000	-31.61909000	-11.04823000
8.79999965	-5.25652100	-31.61909000	-11.04823000
8.99999964	-4.77854300	-31.61909000	-11.04823000
9.19999962	-3.34522600	-31.61909000	-11.04823000
9.39999961	-1.27399100	-31.61909000	-11.04823000
9.59999960	0.63668800	-31.61909000	-11.04823000
9.79999959	1.91129400	-31.61909000	-11.04823000
9.99999958	2.54859700	-31.61909000	-11.04823000
10.19999956	2.38927200	-31.61909000	-11.04823000
10.39999955	1.75196900	-31.61909000	-11.04823000
10.59999954	0.79601380	-31.57603000	-11.00517000
10.79999953	0.00000000	-31.24384000	-10.67298000
10.99999952	-0.63668800	-30.87475000	-10.31004000
11.19999951	-0.95533960	-31.24384000	-10.67298000
11.39999949	-0.95533960	-31.57603000	-11.00517000
11.59999948	-0.79601380	-31.61909000	-11.04823000
11.79999947	-0.47736220	-31.61909000	-11.04823000
11.99999946	-0.15871060	-31.61909000	-11.04823000
12.19999945	-0.15871060	-31.61909000	-11.04823000
12.39999943	-0.15871060	-31.61909000	-11.04823000
12.59999942	0.00000000	-31.61909000	-11.04823000
12.79999941	0.00000000	-31.61909000	-11.04823000
12.99999940	0.00000000	-31.61909000	-11.04823000
13.19999939	0.00000000	-31.61909000	-11.04823000
13.39999937	0.00000000	-31.61909000	-11.04823000
13.59999936	0.00000000	-31.61909000	-11.04823000
13.79999935	0.00000000	-31.61909000	-11.04823000
13.99999934	-0.15871060	-31.61909000	-11.04823000
14.19999933	-0.15871060	-31.61909000	-11.04823000
14.39999932	-0.15871060	-31.61909000	-11.04823000
14.59999930	-0.15871060	-31.61909000	-11.04823000
14.79999929	0.00000000	-31.61909000	-11.04823000
14.99999928	0.00000000	-31.57603000	-11.00517000
15.19999927	0.00000000	-31.24384000	-10.67298000
15.39999926	0.00000000	-30.87475000	-10.31004000
15.59999924	0.00000000	-31.24384000	-10.67298000
15.79999923	0.00000000	-31.57603000	-10.95595000
15.99999922	0.00000000	-31.57603000	-10.62992000
16.19999921	0.00000000	-31.20078000	-9.89173200
16.39999920	-0.15871060	-30.45644000	-9.56569900
16.59999919	-0.15871060	-30.08120000	-9.89173200
16.79999917	-0.15871060	-29.99508000	-10.62992000
16.99999916	0.00000000	-29.61983000	-11.00517000
17.19999915	0.00000000	-28.87549000	-11.00517000
17.39999914	0.00000000	-28.50024000	-10.62992000
17.59999913	0.00000000	-28.50024000	-9.93479300
17.79999911	0.00000000	-28.87549000	-9.93479300
17.99999910	0.00000000	-29.70595000	-10.62992000
18.19999909	0.00000000	-30.83169000	-11.00517000
18.39999908	0.00000000	-32.44956000	-11.00517000
18.59999907	0.00000000	-33.95054000	-10.62992000
18.79999905	0.00000000	-35.52534000	-9.89173200
18.99999904	0.00000000	-36.18971000	-9.51648500
19.19999903	0.00000000	-35.43922000	-9.51648500
19.39999902	0.00000000	-33.06471000	-9.89173200
19.59999901	0.00000000	-29.66289000	-10.62992000
19.79999900	0.00000000	-26.08883000	-11.00517000
19.99999898	0.00000000	-23.00689000	-11.04823000
20.19999897	0.00000000	-20.31865000	-11.04823000
20.39999896	0.00000000	-19.66043000	-11.04823000
20.59999895	0.00000000	-21.61663000	-11.04823000
20.79999894	0.00000000	-26.31643000	-11.04823000
20.99999892	0.00000000	-33.29232000	-11.04823000
21.19999891	0.00000000	-40.97564000	-11.04823000
21.39999890	0.00000000	-47.53321000	-11.04823000
21.59999889	0.00000000	-50.97810000	-11.04823000
21.79999888	0.00000000	-50.51673000	-11.04823000
21.99999886	0.00000000	-45.39862000	-11.04823000
22.19999885	0.00000000	-35.67913000	-11.04823000
22.39999884	0.00000000	-23.33907000	-11.04823000
22.59999883	0.00000000	-11.01747000	-11.04823000
22.79999882	0.00000000	-2.17150600	-11.04823000
22.99999881	0.00000000	0.85506890	-11.04823000
23.19999879	0.00000000	-3.10039400	-11.00517000
23.39999878	0.00000000	-14.40084000	-10.62992000
23.59999877	0.00000000	-30.96703000	-9.89173200
23.79999876	0.00000000	-49.11417000	-9.51648500
23.99999875	0.00000000	-64.14247000	-9.47342500
24.19999873	0.00000000	-72.61318000	-9.51648500
24.39999872	0.00000000	-72.15181000	-9.93479300
24.59999871	0.00000000	-62.00787000	-11.09744000
24.79999870	0.00000000	-43.86073000	-12.62918000
24.99999869	0.00000000	-21.43824000	-14.21014000
25.19999867	0.00000000	-0.21530510	-15.69882000
25.39999866	0.00000000	15.18209000	-16.43701000
25.59999865	0.00000000	20.48474000	-15.64960000
25.79999864	0.00000000	13.55192000	-13.69956000
25.99999863	0.00000000	-3.84473400	-10.53765000
26.19999862	0.00000000	-27.80512000	-6.31151500
26.39999860	0.00000000	-53.25418000	-2.12844500
26.59999859	0.00000000	-73.68356000	0.60285430
26.79999858	0.00000000	-84.15353000	1.35334600
26.99999857	0.00000000	-82.61565000	0.09227362
27.19999856	0.00000000	-69.45128000	-4.21998000
27.39999854	0.00000000	-47.44094000	-11.14050000
27.59999853	0.00000000	-21.61663000	-18.85458000
27.79999852	0.00000000	1.55019700	-25.82431000
27.99999851	0.00000000	16.71383000	-30.37647000
28.19999850	0.00000000	21.37057000	-31.07775000
28.39999848	0.00000000	14.80684000	-26.75935000
28.59999847	0.00000000	-1.79626000	-17.88263000
28.79999846	0.00000000	-24.13878000	-6.26845500
28.99999845	0.00000000	-46.97957000	5.71481200
29.19999844	0.00000000	-65.17593000	15.70497000
29.39999843	0.00000000	-75.27066000	21.00148000
29.59999841	0.00000000	-75.31373000	19.42667000
29.79999840	0.00000000	-65.68652000	10.92520000
29.99999839	0.00000000	-49.11417000	-2.63902500
30.19999838	0.00000000	-29.38607000	-18.89764000
30.39999837	0.00000000	-11.23893000	-34.65182000
30.59999835	0.00000000	1.64247000	-45.80462000
30.79999834	0.00000000	7.04355200	-49.24335000
30.99999833	0.00000000	4.37992100	-44.26673000
31.19999832	0.00000000	-5.98548200	-31.82209000
31.39999831	0.00000000	-20.64468000	-14.48696000
31.59999829	0.00000000	-36.14050000	4.45989200
31.79999828	0.00000000	-49.67397000	20.26329000
31.99999827	0.00000000	-57.81865000	29.92126000
32.19999826	0.00000000	-59.49188000	31.08391000
32.39999825	0.00000000	-55.21038000	23.37598000
32.59999824	0.00000000	-45.95226000	9.10433000
32.79999822	0.00000000	-33.61835000	-9.14739100
32.99999821	0.00000000	-21.65969000	-27.64517000
33.19999820	0.00000000	-12.72761000	-42.69193000
33.39999819	0.00000000	-8.45226300	-50.40600000
33.59999818	0.00000000	-9.56569900	-49.33562000
33.79999816	0.00000000	-15.33587000	-40.45890000
33.99999815	0.00000000	-24.18184000	-25.77510000
34.19999814	0.00000000	-33.80905000	-8.40305000
34.39999813	0.00000000	-41.53543000	7.85556000
34.59999812	0.00000000	-45.81693000	19.84498000
34.79999810	0.00000000	-45.81693000	25.23376000
34.99999809	0.00000000	-41.67076000	22.53937000
35.19999808	0.00000000	-35.11319000	12.54921000
35.39999807	0.00000000	-28.21727000	-2.08538400
35.59999806	0.00000000	-22.41018000	-17.88263000
35.79999805	0.00000000	-19.75271000	-31.03469000
35.99999803	0.00000000	-20.45399000	-38.79183000
36.19999802	0.00000000	-24.26796000	-39.95448000
36.39999801	0.00000000	-29.61983000	-34.19045000
36.59999800	0.00000000	-34.65182000	-23.08686000
36.79999799	0.00000000	-38.55807000	-10.02707000
36.99999797	0.00000000	-40.42199000	1.58710600
37.19999796	0.00000000	-39.67150000	9.25196800
37.39999795	0.00000000	-36.18971000	11.20202000
37.59999794	0.00000000	-31.24384000	6.60679100
37.79999793	0.00000000	-26.22416000	-2.50369100
37.99999791	0.00000000	-22.73007000	-13.23819000
38.19999790	0.00000000	-21.14911000	-22.06570000
38.39999789	0.00000000	-21.57357000	-26.71629000
38.59999788	0.00000000	-24.26796000	-26.34104000
38.79999787	0.00000000	-28.45718000	-20.95226000
38.99999786	0.00000000	-32.73868000	-12.16781000
39.19999784	0.00000000	-36.23277000	-2.59596400
39.39999783	0.00000000	-38.55807000	4.60752900
39.59999782	0.00000000	-38.97638000	6.92667200
39.79999781	0.00000000	-37.85679000	3.49409400
39.99999780	0.00000000	-35.90059000	-4.12770700
40.19999778	0.00000000	-33.15699000	-13.79183000
40.39999777	0.00000000	-30.08120000	-22.95152000
40.59999776	0.00000000	-27.34375000	-29.07849000
40.79999775	0.00000000	-25.38755000	-29.82283000
40.99999774	0.00000000	-24.18184000	-25.22145000
41.19999772	0.00000000	-23.80659000	-16.39395000
41.39999771	0.00000000	-24.22490000	-5.66560000
41.59999770	0.00000000	-25.76279000	3.53715500
41.79999769	0.00000000	-28.08194000	8.96899500
41.99999768	0.00000000	-30.45644000	9.34424200
42.19999767	0.00000000	-33.15699000	4.78592500
42.39999765	0.00000000	-35.43922000	-3.29109200
42.59999764	0.00000000	-36.27584000	-12.53691000
42.79999763	0.00000000	-36.32505000	-20.99532000
42.99999762	0.00000000	-35.90059000	-26.38410000
43.19999761	0.00000000	-34.69488000	-27.22072000
43.39999759	0.00000000	-32.78174000	-24.15723000
43.59999758	0.00000000	-30.45644000	-18.01796000
43.79999757	0.00000000	-28.50024000	-10.35925000
43.99999756	0.00000000	-26.91929000	-3.80167300
44.19999755	0.00000000	-25.76279000	0.51673230
44.39999753	0.00000000	-25.33834000	2.04847400
44.59999752	0.00000000	-25.33834000	0.55979330
44.79999751	0.00000000	-25.71358000	-3.24803100
44.99999750	0.00000000	-26.50098000	-7.84940900
45.19999749	0.00000000	-27.34375000	-12.16166000
45.39999748	0.00000000	-28.92470000	-15.60654000
45.59999746	0.00000000	-31.28691000	-17.55044000
45.79999745	0.00000000	-33.99360000	-17.23056000
45.99999744	0.00000000	-37.10630000	-15.74188000
46.19999743	0.00000000	-39.39468000	-13.74262000
46.39999742	0.00000000	-40.55733000	-11.00517000
46.59999740	0.00000000	-40.04675000	-7.98474400
46.79999739	0.00000000	-36.92790000	-5.66560000
46.99999738	0.00000000	-31.53297000	-4.82898600
47.19999737	0.00000000	-25.33834000	-4.87204700
47.39999736	0.00000000	-19.52510000	-6.04084600
47.59999734	0.00000000	-15.29281000	-8.72293300
47.79999733	0.00000000	-13.80413000	-11.38041000
47.99999732	0.00000000	-15.80339000	-13.79183000
48.19999731	0.00000000	-21.61663000	-15.64960000
48.39999730	0.00000000	-30.08735000	-16.43701000
48.59999729	0.00000000	-38.97638000	-15.64960000
48.79999727	0.00000000	-46.32751000	-13.69956000
48.99999726	0.00000000	-50.51673000	-10.62992000
49.19999725	0.00000000	-50.09227000	-7.14812900
49.39999724	0.00000000	-44.69734000	-4.44758800
49.59999723	0.00000000	-35.81446000	-2.54675200
49.79999721	0.00000000	-25.38755000	-2.59596400
49.99999720	0.00000000	-15.80339000	-4.87204700
50.19999719	0.00000000	-10.03322000	-8.31077700
50.39999718	0.00000000	-9.61491000	-12.21087000
50.59999717	0.00000000	-14.22244000	-15.64960000
50.79999715	0.00000000	-22.68701000	-17.97490000
50.99999714	0.00000000	-32.68946000	-18.35015000
51.19999713	0.00000000	-41.57849000	-16.81225000
51.39999712	0.00000000	-47.35482000	-13.69956000
51.59999711	0.00000000	-48.51131000	-9.47342500
51.79999710	0.00000000	-44.69734000	-5.24729300
51.99999708	0.00000000	-37.39542000	-2.17765700
52.19999707	0.00000000	-28.54946000	-1.01501000
52.39999706	0.00000000	-20.50320000	-2.17765700
52.59999705	0.00000000	-15.84646000	-5.24729300
52.79999704	0.00000000	-15.42815000	-9.47342500
52.99999702	0.00000000	-18.87303000	-13.65650000
53.19999701	0.00000000	-25.38755000	-16.35089000
53.39999700	0.00000000	-32.68946000	-16.81225000
53.59999699	0.00000000	-38.84104000	-15.69882000
53.79999698	0.00000000	-42.27977000	-13.74262000
53.99999696	0.00000000	-41.53543000	-11.04823000
54.19999695	0.00000000	-37.39542000	-8.40305000
54.39999694	0.00000000	-31.61909000	-6.86515700
54.59999693	0.00000000	-25.80585000	-6.82209600
54.79999692	0.00000000	-21.19833000	-7.93553100
54.99999691	0.00000000	-18.96531000	-9.51648500
55.19999689	0.00000000	-20.50320000	-11.38041000
55.39999688	0.00000000	-25.43061000	-12.86294000
55.59999687	0.00000000	-31.53297000	-12.49385000
55.79999686	0.00000000	-36.92790000	-11.00517000
55.99999685	0.00000000	-40.04675000	-9.05511800
56.19999683	0.00000000	-40.42199000	-6.77903500
56.39999682	0.00000000	-38.09055000	-5.29035400
56.59999681	0.00000000	-33.11393000	-5.29035400
56.79999680	0.00000000	-27.38681000	-6.86515700
56.99999679	0.00000000	-22.73007000	-9.93479300
57.19999677	0.00000000	-20.03568000	-13.79183000
57.39999676	0.00000000	-20.03568000	-17.23056000
57.59999675	0.00000000	-22.68701000	-19.46358000
57.79999674	0.00000000	-26.91929000	-19.00221000
57.99999673	0.00000000	-31.53297000	-15.18824000
58.19999672	0.00000000	-35.39001000	-9.47342500
58.39999670	0.00000000	-37.35236000	-3.70939900
58.59999669	0.00000000	-37.39542000	0.55979330
58.79999668	0.00000000	-35.81446000	2.46678100
58.99999667	0.00000000	-32.73868000	1.67322800
59.19999666	0.00000000	-28.92470000	-2.22071800
59.39999664	0.00000000	-25.84892000	-8.40305000
59.59999663	0.00000000	-24.26796000	-15.69882000
59.79999662	0.00000000	-24.26796000	-22.15797000
59.99999661	0.00000000	-25.80585000	-25.22145000
60.19999660	0.00000000	-28.45718000	-24.10802000
60.39999658	0.00000000	-31.10851000	-19.50664000
60.59999657	0.00000000	-32.73252000	-12.54306000
60.79999656	0.00000000	-33.48917000	-4.82898600
60.99999655	0.00000000	-33.47687000	2.04847400
61.19999654	0.00000000	-31.90822000	5.89936000
61.39999653	0.00000000	-29.66289000	5.53641700
61.59999651	0.00000000	-27.34375000	1.67322800
61.79999650	0.00000000	-25.84892000	-5.29035400
61.99999649	0.00000000	-25.80585000	-13.69956000
62.19999648	0.00000000	-26.96850000	-21.03838000
62.39999647	0.00000000	-28.87549000	-25.68897000
62.59999645	0.00000000	-31.20078000	-26.80241000
62.79999644	0.00000000	-33.11393000	-23.78199000
62.99999643	0.00000000	-34.27657000	-17.60581000
63.19999642	0.00000000	-34.23351000	-10.29774000
63.39999641	0.00000000	-32.68946000	-2.97121000
63.59999639	0.00000000	-30.03814000	2.04847400
63.79999638	0.00000000	-27.34375000	4.04773600
63.99999637	0.00000000	-25.43061000	3.25418300
64.19999636	0.00000000	-24.64321000	-0.59670270
64.39999635	0.00000000	-25.43061000	-6.31151500
64.59999634	0.00000000	-27.34375000	-12.16166000
64.79999632	0.00000000	-30.03814000	-17.18750000
64.99999631	0.00000000	-32.68946000	-20.66314000
65.19999630	0.00000000	-34.23351000	-21.46284000
65.39999629	0.00000000	-34.27657000	-19.97416000
65.59999628	0.00000000	-33.11393000	-16.90453000
65.79999626	0.00000000	-31.20078000	-13.04749000
65.99999625	0.00000000	-28.92470000	-9.51648500
66.19999624	0.00000000	-27.38681000	-6.36072800
66.39999623	0.00000000	-26.96850000	-3.66633800
66.59999622	0.00000000	-27.38681000	-2.08538400
66.79999620	0.00000000	-28.92470000	-1.66707700
66.99999619	0.00000000	-31.15157000	-2.08538400
67.19999618	0.00000000	-32.68946000	-3.66633800
67.39999617	0.00000000	-33.06471000	-6.36072800
67.59999616	0.00000000	-32.31422000	-9.47342500
67.79999615	0.00000000	-30.37032000	-12.62918000
67.99999613	0.00000000	-28.08194000	-15.74188000
68.19999612	0.00000000	-25.71358000	-18.43627000
68.39999611	0.00000000	-23.89271000	-19.97416000
68.59999610	0.00000000	-23.52977000	-19.93110000
68.79999609	0.00000000	-25.47367000	-17.93184000
68.99999607	0.00000000	-28.92470000	-13.69956000
69.19999606	0.00000000	-33.15699000	-8.31077700
69.39999605	0.00000000	-37.02018000	-3.24803100
69.59999604	0.00000000	-39.30241000	1.02116100
69.79999603	0.00000000	-39.67150000	3.62942900
69.99999601	0.00000000	-37.30315000	3.21112200
70.19999600	0.00000000	-32.68946000	-0.59670270
70.39999599	0.00000000	-26.87623000	-6.36072800
70.59999598	0.00000000	-21.14911000	-12.58612000
70.79999597	0.00000000	-17.29208000	-18.35015000
70.99999596	0.00000000	-16.49852000	-22.20103000
71.19999594	0.00000000	-18.45472000	-22.99459000
71.39999593	0.00000000	-23.10531000	-21.08760000
71.59999592	0.00000000	-29.66289000	-16.85531000
71.79999591	0.00000000	-36.23277000	-11.46653000
71.99999590	0.00000000	-41.62770000	-6.44685000
72.19999588	0.00000000	-44.32209000	-2.54675200
72.39999587	0.00000000	-43.54084000	-0.63976370
72.59999586	0.00000000	-39.71457000	-1.01501000
72.79999585	0.00000000	-33.53223000	-3.66633800
72.99999584	0.00000000	-26.96850000	-7.47416300
73.19999582	0.00000000	-21.10605000	-10.91289000
73.39999581	0.00000000	-16.91683000	-13.28125000
73.59999580	0.00000000	-15.76033000	-14.03174000
73.79999579	0.00000000	-18.03642000	-13.32431000
73.99999578	0.00000000	-22.68701000	-11.42347000
74.19999577	0.00000000	-28.83243000	-9.55954600
74.39999575	0.00000000	-34.97170000	-8.40305000
74.59999574	0.00000000	-38.88410000	-8.44611200
74.79999573	0.00000000	-40.46506000	-9.93479300
74.99999572	0.00000000	-39.67150000	-12.16781000
75.19999571	0.00000000	-36.23277000	-13.69956000
75.39999569	0.00000000	-31.66830000	-14.07480000
75.59999568	0.00000000	-27.38681000	-13.28125000
75.79999567	0.00000000	-24.26796000	-10.91289000
75.99999566	0.00000000	-22.68701000	-7.47416300
76.19999565	0.00000000	-22.68701000	-3.66633800
76.39999563	0.00000000	-24.18184000	-1.01501000
76.59999562	0.00000000	-26.50098000	-0.63976370
76.79999561	0.00000000	-28.78937000	-2.54675200
76.99999560	0.00000000	-30.73326000	-6.44685000
77.19999559	0.00000000	-31.52682000	-11.46653000
77.39999558	0.00000000	-31.57603000	-16.85531000
77.59999556	0.00000000	-31.20078000	-21.03838000
77.79999555	0.00000000	-30.45644000	-22.57628000
77.99999554	0.00000000	-30.08120000	-21.03838000
78.19999553	0.00000000	-30.03814000	-16.81225000
78.39999552	0.00000000	-30.08120000	-11.04823000
78.59999550	0.00000000	-30.41338000	-5.19808000
78.79999549	0.00000000	-30.78248000	-0.17839570
78.99999548	0.00000000	-30.37032000	3.21112200
79.19999547	0.00000000	-29.57062000	3.21112200
79.39999546	0.00000000	-28.03888000	-0.17839570
79.59999544	0.00000000	-26.13189000	-5.15501900
79.79999543	0.00000000	-25.01230000	-10.62992000
79.99999542	0.00000000	-24.60015000	-15.64960000
80.19999541	0.00000000	-25.43061000	-19.50664000
80.39999540	0.00000000	-27.29453000	-21.04454000
80.59999539	0.00000000	-29.66289000	-19.97416000
80.79999537	0.00000000	-31.99434000	-17.27977000
80.99999536	0.00000000	-34.27657000	-13.74262000
81.19999535	0.00000000	-35.34695000	-9.51648500
81.39999534	0.00000000	-34.27657000	-5.66560000
81.59999533	0.00000000	-31.99434000	-3.29109200
81.79999531	0.00000000	-29.61983000	-2.08538400
81.99999530	0.00000000	-26.91929000	-2.08538400
82.19999529	0.00000000	-24.64321000	-3.19881900
82.39999528	0.00000000	-23.84965000	-4.77977300
82.59999527	0.00000000	-24.22490000	-6.77903500
82.79999525	0.00000000	-25.76279000	-9.47342500
82.99999524	0.00000000	-28.03888000	-12.16781000
83.19999523	0.00000000	-29.99508000	-14.16092000
83.39999522	0.00000000	-31.52682000	-15.69882000
83.59999521	0.00000000	-32.31422000	-16.48007000
83.79999520	0.00000000	-31.95128000	-16.06791000
83.99999518	0.00000000	-31.20078000	-14.90526000
84.19999517	0.00000000	-30.03814000	-12.49385000
84.39999516	0.00000000	-28.92470000	-9.05511800
84.59999515	0.00000000	-28.50024000	-5.19808000
84.79999514	0.00000000	-28.45718000	-2.12844500
84.99999512	0.00000000	-28.45718000	-0.59670270
85.19999511	0.00000000	-28.45718000	-0.97194880
85.39999510	0.00000000	-28.45718000	-3.29109200
85.59999509	0.00000000	-28.41412000	-6.77903500
85.79999508	0.00000000	-28.03888000	-11.04823000
85.99999506	0.00000000	-27.29453000	-15.27436000
86.19999505	0.00000000	-26.96850000	-18.35015000
86.39999504	0.00000000	-27.34375000	-19.50664000
86.59999503	0.00000000	-28.50024000	-18.35015000
86.79999502	0.00000000	-30.03814000	-15.23130000
86.99999501	0.00000000	-31.57603000	-10.62992000
87.19999499	0.00000000	-32.73252000	-5.66560000
87.39999498	0.00000000	-33.10777000	-2.22071800
87.59999497	0.00000000	-32.73252000	-1.01501000
87.79999496	0.00000000	-31.52682000	-2.12844500
87.99999495	0.00000000	-29.61983000	-4.82283400
88.19999493	0.00000000	-27.34375000	-8.35998900
88.39999492	0.00000000	-25.80585000	-12.58612000
88.59999491	0.00000000	-25.38755000	-16.35089000
88.79999490	0.00000000	-25.76279000	-17.88263000
88.99999489	0.00000000	-26.91929000	-16.76919000
89.19999487	0.00000000	-28.45718000	-13.74262000
89.39999486	0.00000000	-30.03814000	-9.84867000
89.59999485	0.00000000	-31.57603000	-6.02854300
89.79999484	0.00000000	-32.68946000	-2.92199800
89.99999483	0.00000000	-32.68946000	-1.84547200
90.19999482	0.00000000	-31.57603000	-2.92199800
90.39999480	0.00000000	-30.03814000	-6.02854300
90.59999479	0.00000000	-28.50024000	-9.84867000
90.79999478	0.00000000	-27.34375000	-13.74262000
90.99999477	0.00000000	-26.91929000	-16.76919000
91.19999476	0.00000000	-26.91929000	-17.88263000
91.39999474	0.00000000	-27.29453000	-16.35089000
91.59999473	0.00000000	-28.03888000	-12.53691000
91.79999472	0.00000000	-28.41412000	-7.93553100
91.99999471	0.00000000	-28.45718000	-3.70939900
92.19999470	0.00000000	-28.45718000	-1.01501000
92.39999468	0.00000000	-28.45718000	-0.63976370
92.59999467	0.00000000	-28.45718000	-2.59596400
92.79999466	0.00000000	-28.50024000	-6.82209600
92.99999465	0.00000000	-28.92470000	-12.11860000
93.19999464	0.00000000	-30.03814000	-16.35089000
93.39999463	0.00000000	-31.15157000	-18.35015000
93.59999461	0.00000000	-31.52682000	-18.35015000
93.79999460	0.00000000	-31.20078000	-16.35089000
93.99999459	0.00000000	-30.37032000	-12.16166000
94.19999458	0.00000000	-29.20152000	-7.19734200
94.39999457	0.00000000	-27.25147000	-3.33415300
94.59999455	0.00000000	-25.38755000	-1.01501000
94.79999454	0.00000000	-24.18184000	-1.06422200
94.99999453	0.00000000	-23.80659000	-3.70939900
95.19999452	0.00000000	-24.26796000	-7.93553100
95.39999451	0.00000000	-26.22416000	-12.53691000
95.59999449	0.00000000	-29.66289000	-16.35089000
95.79999448	0.00000000	-33.11393000	-17.92569000
95.99999447	0.00000000	-35.81446000	-17.18750000
96.19999446	0.00000000	-36.97712000	-14.85605000
96.39999445	0.00000000	-36.18971000	-11.00517000
96.59999444	0.00000000	-33.90133000	-6.86515700
96.79999442	0.00000000	-30.37032000	-4.12770700
96.99999441	0.00000000	-26.50098000	-3.33415300
97.19999440	0.00000000	-22.64394000	-4.08464600
97.39999439	0.00000000	-19.99262000	-6.36072800
97.59999438	0.00000000	-19.56816000	-9.05511800
97.79999436	0.00000000	-21.06299000	-11.38041000
97.99999435	0.00000000	-23.80659000	-13.28125000
98.19999434	0.00000000	-27.34375000	-13.69956000
98.39999433	0.00000000	-31.57603000	-13.00443000
98.59999432	0.00000000	-35.39001000	-12.21087000
98.79999430	0.00000000	-37.35236000	-11.00517000
98.99999429	0.00000000	-37.39542000	-9.51648500
99.19999428	0.00000000	-35.81446000	-8.35998900
99.39999427	0.00000000	-32.73868000	-7.93553100
99.59999426	0.00000000	-28.87549000	-7.89247000
99.79999425	0.00000000	-25.38755000	-7.89247000
99.99999423	0.00000000	-22.64394000	-7.89247000
100.19999422	0.00000000	-21.10605000	-7.89247000
100.39999421	0.00000000	-21.10605000	-7.89247000
100.59999420	0.00000000	-22.68701000	-7.89247000
100.79999419	0.00000000	-25.71358000	-7.93553100
100.99999417	0.00000000	-29.20152000	-8.35998900
101.19999416	0.00000000	-31.90822000	-9.51648500
101.39999415	0.00000000	-33.90133000	-11.04823000
101.59999414	0.00000000	-34.65182000	-12.58612000
101.79999413	0.00000000	-34.31963000	-13.69956000
101.99999411	0.00000000	-33.11393000	-13.69956000
102.19999410	0.00000000	-31.20078000	-12.53691000
102.39999409	0.00000000	-28.87549000	-10.58686000
102.59999408	0.00000000	-26.91929000	-7.89247000
102.79999407	0.00000000	-25.33834000	-5.24729300
102.99999406	0.00000000	-24.22490000	-3.70939900
103.19999404	0.00000000	-24.18184000	-3.66633800
103.39999403	0.00000000	-24.96309000	-4.87204700
103.59999402	0.00000000	-26.13189000	-7.14812900
103.79999401	0.00000000	-28.08194000	-10.25467000
103.99999400	0.00000000	-29.99508000	-12.91215000
104.19999398	0.00000000	-31.57603000	-14.90526000
104.39999397	0.00000000	-32.68946000	-15.60654000
104.59999396	0.00000000	-32.68946000	-14.85605000
104.79999395	0.00000000	-31.57603000	-12.53691000
104.99999394	0.00000000	-30.03814000	-9.51648500
105.19999392	0.00000000	-28.50024000	-6.77903500
105.39999391	0.00000000	-27.34375000	-4.87204700
105.59999390	0.00000000	-26.91929000	-4.08464600
105.79999389	0.00000000	-26.87623000	-4.87204700
105.99999388	0.00000000	-26.91929000	-6.72982200
106.19999387	0.00000000	-27.29453000	-9.05511800
106.39999385	0.00000000	-28.08194000	-11.00517000
106.59999384	0.00000000	-28.83243000	-12.53691000
106.79999383	0.00000000	-29.61983000	-13.28125000
106.99999382	0.00000000	-29.94586000	-12.49385000
107.19999381	0.00000000	-29.57062000	-10.62992000
107.39999379	0.00000000	-28.45718000	-8.35383800
107.59999378	0.00000000	-27.34375000	-6.82209600
107.79999377	0.00000000	-26.96850000	-6.40378900
107.99999376	0.00000000	-27.29453000	-6.77903500
108.19999375	0.00000000	-28.08194000	-7.93553100
108.39999374	0.00000000	-28.83243000	-9.47342500
108.59999372	0.00000000	-29.66289000	-11.00517000
108.79999371	0.00000000	-30.37032000	-12.11860000
108.99999370	0.00000000	-30.78248000	-12.16166000
109.19999369	0.00000000	-30.37032000	-11.42347000
109.39999368	0.00000000	-29.61983000	-10.58686000
109.59999366	0.00000000	-28.41412000	-9.05511800
109.79999365	0.00000000	-26.91929000	-7.19734200
109.99999364	0.00000000	-25.80585000	-6.40378900
110.19999363	0.00000000	-25.76279000	-6.35457700
110.39999362	0.00000000	-26.50098000	-6.77903500
110.59999360	0.00000000	-27.29453000	-7.93553100
110.79999359	0.00000000	-28.50024000	-9.47342500
110.99999358	0.00000000	-29.99508000	-11.00517000
111.19999357	0.00000000	-31.10851000	-12.16166000
111.39999356	0.00000000	-31.15157000	-12.53691000
111.59999355	0.00000000	-30.41338000	-12.16166000
111.79999353	0.00000000	-29.66289000	-11.04823000
111.99999352	0.00000000	-28.83243000	-9.89173200
112.19999351	0.00000000	-28.08194000	-9.09817800
112.39999350	0.00000000	-27.29453000	-8.31077700
112.59999349	0.00000000	-26.91929000	-7.93553100
112.79999347	0.00000000	-26.91929000	-7.89247000
112.99999346	0.00000000	-27.29453000	-7.89247000
113.19999345	0.00000000	-28.08194000	-7.93553100
113.39999344	0.00000000	-28.83243000	-8.31077700
113.59999343	0.00000000	-29.61983000	-9.05511800
113.79999341	0.00000000	-29.99508000	-9.43036400
113.99999340	0.00000000	-29.99508000	-9.51648500
114.19999339	0.00000000	-29.61983000	-9.84867000
114.39999338	0.00000000	-28.87549000	-10.21161000
114.59999337	0.00000000	-28.45718000	-9.89173200
114.79999336	0.00000000	-28.03888000	-9.93479300
114.99999334	0.00000000	-27.29453000	-10.62992000
115.19999333	0.00000000	-26.91929000	-10.95595000
115.39999332	0.00000000	-26.91929000	-10.62992000
115.59999331	0.00000000	-27.25147000	-9.84867000
115.79999330	0.00000000	-27.70669000	-9.09817800
115.99999328	0.00000000	-28.08809000	-8.31077700
116.19999327	0.00000000	-29.24459000	-7.93553100
116.39999326	0.00000000	-29.94586000	-7.89247000
116.59999325	0.00000000	-29.99508000	-7.89247000
116.79999324	0.00000000	-29.61983000	-7.93553100
116.99999322	0.00000000	-28.87549000	-8.35998900
117.19999321	0.00000000	-28.45718000	-9.47342500
117.39999320	0.00000000	-28.03888000	-10.58686000
117.59999319	0.00000000	-27.29453000	-11.00517000
117.79999318	0.00000000	-26.87623000	-11.04823000
117.99999317	0.00000000	-26.50098000	-11.04823000
118.19999315	0.00000000	-26.13189000	-11.00517000
118.39999314	0.00000000	-26.54404000	-10.62992000
118.59999313	0.00000000	-27.29453000	-9.84867000
118.79999312	0.00000000	-28.45718000	-9.09817800
118.99999311	0.00000000	-29.61983000	-8.31077700
119.19999309	0.00000000	-30.37032000	-7.93553100
119.39999308	0.00000000	-30.78248000	-7.89247000
119.59999307	0.00000000	-30.37032000	-7.89247000
119.79999306	0.00000000	-29.61983000	-7.93553100
119.99999305	0.00000000	-28.45718000	-8.31077700
120.19999303	0.00000000	-27.29453000	-9.05511800
120.39999302	0.00000000	-26.50098000	-9.43036400
120.59999301	0.00000000	-25.71358000	-9.51648500
120.79999300	0.00000000	-25.38755000	-9.89173200
120.99999299	0.00000000	-25.71358000	-10.58686000
121.19999298	0.00000000	-26.50098000	-10.58686000
121.39999296	0.00000000	-27.29453000	-9.89173200
121.59999295	0.00000000	-28.45718000	-9.51648500
121.79999294	0.00000000	-29.57062000	-9.47342500
121.99999293	0.00000000	-30.03814000	-9.43036400
122.19999292	0.00000000	-30.41338000	-9.05511800
122.39999290	0.00000000	-30.78248000	-8.31077700
122.59999289	0.00000000	-30.37032000	-7.93553100
122.79999288	0.00000000	-29.61983000	-7.89247000
122.99999287	0.00000000	-28.45718000	-7.89247000
123.19999286	0.00000000	-27.34375000	-7.89247000
123.39999284	0.00000000	-26.87623000	-7.93553100
123.59999283	0.00000000	-26.50098000	-8.31077700
123.79999282	0.00000000	-26.13189000	-9.09817800
123.99999281	0.00000000	-26.50098000	-9.84867000
124.19999280	0.00000000	-26.87623000	-10.62992000
124.39999279	0.00000000	-27.34375000	-11.00517000
124.59999277	0.00000000	-28.45718000	-11.00517000
124.79999276	0.00000000	-29.57062000	-10.62992000
124.99999275	0.00000000	-29.99508000	-9.89173200
125.19999274	0.00000000	-30.03814000	-9.51648500
125.39999273	0.00000000	-29.99508000	-9.47342500
125.59999271	0.00000000	-29.61983000	-9.43036400
125.79999270	0.00000000	-28.83243000	-9.05511800
125.99999269	0.00000000	-28.08194000	-8.31077700
126.19999268	0.00000000	-27.25147000	-7.93553100
126.39999267	0.00000000	-26.50098000	-7.89247000
126.59999265	0.00000000	-25.71358000	-7.93553100
126.79999264	0.00000000	-25.33834000	-8.31077700
126.99999263	0.00000000	-25.38755000	-9.05511800
127.19999262	0.00000000	-26.18110000	-9.43036400
127.39999261	0.00000000	-28.03888000	-9.47342500
127.59999260	0.00000000	-29.52756000	-9.47342500
127.79999258	0.00000000	-29.99508000	-9.47342500
127.99999257	0.00000000	-30.03814000	-9.47342500
128.19999256	0.00000000	-29.99508000	-9.43036400
128.39999255	0.00000000	-29.57062000	-9.05511800
128.59999254	0.00000000	-28.41412000	-8.31077700
128.79999252	0.00000000	-26.91929000	-7.93553100
128.99999251	0.00000000	-25.76279000	-7.93553100
129.19999250	0.00000000	-25.38755000	-8.26771600
129.39999249	0.00000000	-25.71358000	-8.67987200
129.59999248	0.00000000	-26.50098000	-8.68602300
129.79999246	0.00000000	-27.29453000	-9.09817800
129.99999245	0.00000000	-28.45718000	-9.43036400
130.19999244	0.00000000	-29.57062000	-9.47342500
130.39999243	0.00000000	-29.94586000	-9.47342500
130.59999242	0.00000000	-29.61983000	-9.43036400
130.79999241	0.00000000	-28.83243000	-9.05511800
130.99999239	0.00000000	-28.08194000	-8.31077700
131.19999238	0.00000000	-27.25147000	-7.98474400
131.39999237	0.00000000	-26.54404000	-8.31077700
131.59999236	0.00000000	-26.13189000	-9.09817800
131.79999235	0.00000000	-26.54404000	-9.79945900
131.99999233	0.00000000	-27.25147000	-10.21161000
132.19999232	0.00000000	-28.03888000	-9.89173200
132.39999231	0.00000000	-28.41412000	-9.89173200
132.59999230	0.00000000	-28.45718000	-10.21161000
132.79999229	0.00000000	-28.45718000	-9.79945900
132.99999227	0.00000000	-28.45718000	-9.09817800
133.19999226	0.00000000	-28.41412000	-8.31077700
133.39999225	0.00000000	-28.03888000	-7.93553100
133.59999224	0.00000000	-27.29453000	-7.89247000
133.79999223	0.00000000	-26.91929000	-7.89247000
133.99999222	0.00000000	-26.91929000	-7.93553100
134.19999220	0.00000000	-27.29453000	-8.31077700
134.39999219	0.00000000	-28.03888000	-9.09817800
134.59999218	0.00000000	-28.41412000	-9.84867000
134.79999217	0.00000000	-28.41412000	-10.62992000
134.99999216	0.00000000	-28.03888000	-11.00517000
135.19999214	0.00000000	-27.29453000	-11.00517000
135.39999213	0.00000000	-26.96850000	-10.62992000
135.59999212	0.00000000	-27.25147000	-9.84867000
135.79999211	0.00000000	-27.66363000	-9.09817800
135.99999210	0.00000000	-27.66978000	-8.31077700
136.19999208	0.00000000	-28.08194000	-7.93553100
136.39999207	0.00000000	-28.41412000	-7.89247000
136.59999206	0.00000000	-28.45718000	-7.93553100
136.79999205	0.00000000	-28.45718000	-8.31077700
136.99999204	0.00000000	-28.45718000	-9.05511800
137.19999203	0.00000000	-28.41412000	-9.43036400
137.39999201	0.00000000	-27.98966000	-9.47342500
137.59999200	0.00000000	-26.87623000	-9.47342500
137.79999199	0.00000000	-25.80585000	-9.47342500
137.99999198	0.00000000	-25.76279000	-9.47342500
138.19999197	0.00000000	-26.45792000	-9.47342500
138.39999195	0.00000000	-26.87623000	-9.47342500
138.59999194	0.00000000	-27.29453000	-9.47342500
138.79999193	0.00000000	-28.03888000	-9.47342500
138.99999192	0.00000000	-28.45718000	-9.43036400
139.19999191	0.00000000	-28.83243000	-9.05511800
139.39999189	0.00000000	-29.20152000	-8.31077700
139.59999188	0.00000000	-28.83243000	-7.93553100
139.79999187	0.00000000	-28.45718000	-7.89247000
139.99999186	0.00000000	-28.03888000	-7.89247000
140.19999185	0.00000000	-27.29453000	-7.93553100
140.39999184	0.00000000	-26.91929000	-8.31077700
140.59999182	0.00000000	-26.87623000	-9.09817800
140.79999181	0.00000000	-26.91929000	-9.84867000
140.99999180	0.00000000	-27.29453000	-10.62992000
141.19999179	0.00000000	-28.03888000	-10.95595000
141.39999178	0.00000000	-28.41412000	-10.62992000
141.59999176	0.00000000	-28.45718000	-9.84867000
141.79999175	0.00000000	-28.41412000	-9.09817800
141.99999174	0.00000000	-28.03888000	-8.26771600
142.19999173	0.00000000	-27.29453000	-7.51722400
142.39999172	0.00000000	-26.91929000	-6.72982200
142.59999170	0.00000000	-26.87623000	-6.40378900
142.79999169	0.00000000	-26.87623000	-6.72982200
142.99999168	0.00000000	-26.91929000	-7.51722400
143.19999167	0.00000000	-27.29453000	-8.31077700
143.39999166	0.00000000	-28.03888000	-9.47342500
143.59999165	0.00000000	-28.41412000	-10.58686000
143.79999163	0.00000000	-28.45718000	-10.95595000
143.99999162	0.00000000	-28.41412000	-10.62992000
144.19999161	0.00000000	-28.03888000	-9.84867000
144.39999160	0.00000000	-27.29453000	-9.09817800
144.59999159	0.00000000	-26.91929000	-8.31077700
144.79999157	0.00000000	-26.87623000	-7.93553100
144.99999156	0.00000000	-26.87623000	-7.89247000
145.19999155	0.00000000	-26.87623000	-7.89247000
145.39999154	0.00000000	-26.91929000	-7.93553100
145.59999153	0.00000000	-27.29453000	-8.31077700
145.79999151	0.00000000	-28.03888000	-9.05511800
145.99999150	0.00000000	-28.41412000	-9.43036400
146.19999149	0.00000000	-28.45718000	-9.47342500
146.39999148	0.00000000	-28.41412000	-9.47342500
146.59999147	0.00000000	-28.03888000	-9.47342500
146.79999146	0.00000000	-27.29453000	-9.47342500
146.99999144	0.00000000	-26.87623000	-9.43036400
147.19999143	0.00000000	-26.50098000	-9.05511800
147.39999142	0.00000000	-26.13189000	-8.31077700
147.59999141	0.00000000	-26.50098000	-7.93553100
147.79999140	0.00000000	-26.83317000	-7.89247000
147.99999138	0.00000000	-26.91929000	-7.89247000
148.19999137	0.00000000	-27.29453000	-7.89247000
148.39999136	0.00000000	-28.03888000	-7.89247000
148.59999135	0.00000000	-28.36491000	-7.93553100
148.79999134	0.00000000	-28.03888000	-8.31077700
148.99999132	0.00000000	-27.29453000	-9.05511800
149.19999131	0.00000000	-26.91929000	-9.43036400
149.39999130	0.00000000	-26.87623000	-9.47342500
149.59999129	0.00000000	-26.87623000	-9.47342500
149.79999128	0.00000000	-26.87623000	-9.47342500
149.99999127	0.00000000	-26.87623000	-9.47342500
150.19999125	0.00000000	-26.87623000	-9.43036400
150.39999124	0.00000000	-26.91929000	-9.05511800
150.59999123	0.00000000	-27.29453000	-8.31077700
150.79999122	0.00000000	-28.03888000	-7.93553100
150.99999121	0.00000000	-28.41412000	-7.89247000
151.19999119	0.00000000	-28.45718000	-7.93553100
151.39999118	0.00000000	-28.45718000	-8.26771600
151.59999117	0.00000000	-28.45718000	-8.67987200
151.79999116	0.00000000	-28.41412000	-8.68602300
151.99999115	0.00000000	-28.03888000	-9.09817800
152.19999113	0.00000000	-27.29453000	-9.43036400
152.39999112	0.00000000	-26.91929000	-9.47342500
152.59999111	0.00000000	-26.87623000	-9.47342500
152.79999110	0.00000000	-26.87623000	-9.47342500
152.99999109	0.00000000	-26.87623000	-9.43036400
153.19999108	0.00000000	-26.91929000	-9.05511800
153.39999106	0.00000000	-27.25147000	-8.31077700
153.59999105	0.00000000	-27.66363000	-7.93553100
153.79999104	0.00000000	-27.66978000	-7.89247000
153.99999103	0.00000000	-28.08194000	-7.89247000
154.19999102	0.00000000	-28.41412000	-7.89247000
154.39999100	0.00000000	-28.41412000	-7.89247000
154.59999099	0.00000000	-28.03888000	-7.93553100
154.79999098	0.00000000	-27.29453000	-8.31077700
154.99999097	0.00000000	-26.91929000	-9.05511800
155.19999096	0.00000000	-26.87623000	-9.43036400
155.39999094	0.00000000	-26.83317000	-9.47342500
155.59999093	0.00000000	-26.45792000	-9.47342500
155.79999092	0.00000000	-25.76279000	-9.43036400
155.99999091	0.00000000	-25.76279000	-9.05511800
156.19999090	0.00000000	-26.45792000	-8.31077700
156.39999089	0.00000000	-26.83317000	-7.93553100
156.59999087	0.00000000	-26.87623000	-7.89247000
156.79999086	0.00000000	-26.91929000	-7.89247000
156.99999085	0.00000000	-27.29453000	-7.89247000
157.19999084	0.00000000	-28.03888000	-7.89247000
157.39999083	0.00000000	-28.41412000	-7.93553100
157.59999081	0.00000000	-28.41412000	-8.31077700
157.79999080	0.00000000	-28.03888000	-9.05511800
157.99999079	0.00000000	-27.25147000	-9.38115100
158.19999078	0.00000000	-26.54404000	-9.14124000
158.39999077	0.00000000	-26.13189000	-9.10433000
158.59999075	0.00000000	-26.50098000	-9.83636800
158.79999074	0.00000000	-26.83317000	-9.79945900
158.99999073	0.00000000	-26.87623000	-9.51648500
159.19999072	0.00000000	-26.87623000	-9.43036400
159.39999071	0.00000000	-26.87623000	-9.05511800
159.59999070	0.00000000	-26.87623000	-8.31077700
159.79999068	0.00000000	-26.87623000	-7.93553100
159.99999067	0.00000000	-26.91929000	-7.89247000
160.19999066	0.00000000	-27.29453000	-7.89247000
160.39999065	0.00000000	-27.98966000	-7.89247000
160.59999064	0.00000000	-27.98966000	-7.93553100
160.79999062	0.00000000	-27.29453000	-8.31077700
160.99999061	0.00000000	-26.91929000	-9.05511800
161.19999060	0.00000000	-26.87623000	-9.43036400
161.39999059	0.00000000	-26.87623000	-9.47342500
161.59999058	0.00000000	-26.87623000	-9.47342500
161.79999056	0.00000000	-26.87623000	-9.43036400
161.99999055	0.00000000	-26.87623000	-9.05511800
162.19999054	0.00000000	-26.87623000	-8.31077700
162.39999053	0.00000000	-26.87623000	-7.93553100
162.59999052	0.00000000	-26.87623000	-7.89247000
162.79999051	0.00000000	-26.87623000	-7.89247000
162.99999049	0.00000000	-26.87623000	-7.89247000
163.19999048	0.00000000	-26.91929000	-7.89247000
163.39999047	0.00000000	-27.29453000	-7.93553100
163.59999046	0.00000000	-28.03888000	-8.26771600
163.79999045	0.00000000	-28.36491000	-8.67987200
163.99999043	0.00000000	-28.08194000	-8.68602300
164.19999042	0.00000000	-27.66978000	-9.09817800
164.39999041	0.00000000	-27.66363000	-9.43036400
164.59999040	0.00000000	-27.25147000	-9.43036400
164.79999039	0.00000000	-26.91929000	-9.09817800
164.99999037	0.00000000	-26.87623000	-8.72908400
165.19999036	0.00000000	-26.87623000	-9.09817800
165.39999035	0.00000000	-26.87623000	-9.43036400
165.59999034	0.00000000	-26.87623000	-9.43036400
165.79999033	0.00000000	-26.87623000	-9.05511800
165.99999032	0.00000000	-26.91929000	-8.31077700
166.19999030	0.00000000	-27.25147000	-7.93553100
166.39999029	0.00000000	-27.66363000	-7.89247000
166.59999028	0.00000000	-27.62672000	-7.89247000
166.79999027	0.00000000	-27.66363000	-7.89247000
166.99999026	0.00000000	-27.25147000	-7.93553100
167.19999024	0.00000000	-26.91929000	-8.26771600
167.39999023	0.00000000	-26.87623000	-8.67987200
167.59999022	0.00000000	-26.87623000	-8.68602300
167.79999021	0.00000000	-26.87623000	-9.09817800
167.99999020	0.00000000	-26.87623000	-9.43036400
168.19999018	0.00000000	-26.87623000	-9.47342500
168.39999017	0.00000000	-26.87623000	-9.43036400
168.59999016	0.00000000	-26.87623000	-9.05511800
168.79999015	0.00000000	-26.87623000	-8.31077700
168.99999014	0.00000000	-26.87623000	-7.93553100
169.19999013	0.00000000	-26.87623000	-7.89247000
169.39999011	0.00000000	-26.87623000	-7.93553100
169.59999010	0.00000000	-26.87623000	-8.26771600
169.79999009	0.00000000	-26.87623000	-8.63681000
169.99999008	0.00000000	-26.87623000	-8.26771600
170.19999007	0.00000000	-26.87623000	-7.93553100
170.39999005	0.00000000	-26.87623000	-7.89247000
170.59999004	0.00000000	-26.87623000	-7.89247000
170.79999003	0.00000000	-26.87623000	-7.89247000
170.99999002	0.00000000	-26.87623000	-7.89247000
171.19999001	0.00000000	-26.87623000	-7.89247000
171.39998999	0.00000000	-26.87623000	-7.93553100
171.59998998	0.00000000	-26.87623000	-8.31077700
171.79998997	0.00000000	-26.87623000	-9.05511800
171.99998996	0.00000000	-26.87623000	-9.43036400
172.19998995	0.00000000	-26.87623000	-9.43036400
172.39998994	0.00000000	-26.87623000	-9.09817800
172.59998992	0.00000000	-26.87623000	-8.68602300
172.79998991	0.00000000	-26.87623000	-8.67987200
172.99998990	0.00000000	-26.87623000	-8.26771600
173.19998989	0.00000000	-26.87623000	-7.93553100
173.39998988	0.00000000	-26.87623000	-7.89247000
173.59998986	0.00000000	-26.87623000	-7.89247000
173.79998985	0.00000000	-26.83317000	-7.89247000
173.99998984	0.00000000	-26.50098000	-7.93553100
174.19998983	0.00000000	-26.13189000	-8.26771600
174.39998982	0.00000000	-26.50098000	-8.67987200
174.59998980	0.00000000	-26.83317000	-8.68602300
174.79998979	0.00000000	-26.87623000	-9.09817800
174.99998978	0.00000000	-26.87623000	-9.38115100
175.19998977	0.00000000	-26.87623000	-9.05511800
175.39998976	0.00000000	-26.87623000	-8.31077700
175.59998975	0.00000000	-26.87623000	-7.93553100
175.79998973	0.00000000	-26.87623000	-7.89247000
175.99998972	0.00000000	-26.87623000	-7.89247000
176.19998971	0.00000000	-26.87623000	-7.89247000
176.39998970	0.00000000	-26.87623000	-7.89247000
176.59998969	0.00000000	-26.87623000	-7.89247000
176.79998967	0.00000000	-26.87623000	-7.89247000
176.99998966	0.00000000	-26.87623000	-7.89247000
177.19998965	0.00000000	-26.87623000	-7.89247000
177.39998964	0.00000000	-26.87623000	-7.93553100
177.59998963	0.00000000	-26.87623000	-8.26771600
177.79998961	0.00000000	-26.87623000	-8.67987200
177.99998960	0.00000000	-26.87623000	-8.64296200
178.19998959	0.00000000	-26.87623000	-8.67987200
178.39998958	0.00000000	-26.87623000	-8.26771600
178.59998957	0.00000000	-26.87623000	-7.93553100
178.79998956	0.00000000	-26.83317000	-7.89247000
178.99998954	0.00000000	-26.45792000	-7.89247000
179.19998953	0.00000000	-25.76279000	-7.89247000
179.39998952	0.00000000	-25.76279000	-7.89247000
179.59998951	0.00000000	-26.45792000	-7.89247000
179.79998950	0.00000000	-26.78395000	-7.89247000
179.99998948	0.00000000	-26.50098000	-7.93553100
180.19998947	0.00000000	-26.13189000	-8.31077700
180.39998946	0.00000000	-26.50098000	-9.05511800
180.59998945	0.00000000	-26.83317000	-9.38115100
180.79998944	0.00000000	-26.87623000	-9.09817800
180.99998942	0.00000000	-26.87623000	-8.68602300
181.19998941	0.00000000	-26.87623000	-8.67987200
181.39998940	0.00000000	-26.87623000	-8.26771600
181.59998939	0.00000000	-26.87623000	-7.93553100
181.79998938	0.00000000	-26.87623000	-7.89247000
181.99998937	0.00000000	-26.83317000	-7.89247000
182.19998935	0.00000000	-26.50098000	-7.89247000
182.39998934	0.00000000	-26.13189000	-7.89247000
182.59998933	0.00000000	-26.50098000	-7.93553100
182.79998932	0.00000000	-26.83317000	-8.31077700
182.99998931	0.00000000	-26.87623000	-9.05511800
183.19998929	0.00000000	-26.87623000	-9.43036400
183.39998928	0.00000000	-26.87623000	-9.47342500
183.59998927	0.00000000	-26.87623000	-9.47342500
183.79998926	0.00000000	-26.87623000	-9.43036400
183.99998925	0.00000000	-26.87623000	-9.05511800
184.19998923	0.00000000	-26.87623000	-8.31077700
184.39998922	0.00000000	-26.87623000	-7.93553100
184.59998921	0.00000000	-26.87623000	-7.89247000
184.79998920	0.00000000	-26.87623000	-7.89247000
184.99998919	0.00000000	-26.87623000	-7.89247000
185.19998918	0.00000000	-26.87623000	-7.89247000
185.39998916	0.00000000	-26.83317000	-7.89247000
185.59998915	0.00000000	-26.45792000	-7.93553100
185.79998914	0.00000000	-25.71358000	-8.31077700
185.99998913	0.00000000	-25.33834000	-9.05511800
186.19998912	0.00000000	-25.33834000	-9.43036400
186.39998910	0.00000000	-25.67052000	-9.47342500
186.59998909	0.00000000	-26.08268000	-9.47342500
186.79998908	0.00000000	-26.08883000	-9.43036400
186.99998907	0.00000000	-26.50098000	-9.05511800
187.19998906	0.00000000	-26.83317000	-8.31077700
187.39998904	0.00000000	-26.87623000	-7.93553100
187.59998903	0.00000000	-26.87623000	-7.89247000
187.79998902	0.00000000	-26.87623000	-7.89247000
187.99998901	0.00000000	-26.87623000	-7.89247000
188.19998900	0.00000000	-26.83317000	-7.89247000
188.39998899	0.00000000	-26.45792000	-7.89247000
188.59998897	0.00000000	-25.71358000	-7.89247000
188.79998896	0.00000000	-25.38755000	-7.93553100
188.99998895	0.00000000	-25.67052000	-8.31077700
189.19998894	0.00000000	-26.03961000	-9.05511800
189.39998893	0.00000000	-25.71358000	-9.43036400
189.59998891	0.00000000	-25.76279000	-9.47342500
189.79998890	0.00000000	-26.45792000	-9.43036400
189.99998889	0.00000000	-26.83317000	-9.05511800
190.19998888	0.00000000	-26.87623000	-8.31077700
190.39998887	0.00000000	-26.87623000	-7.93553100
190.59998885	0.00000000	-26.87623000	-7.89247000
190.79998884	0.00000000	-26.87623000	-7.89247000
190.99998883	0.00000000	-26.87623000	-7.89247000
191.19998882	0.00000000	-26.83317000	-7.89247000
191.39998881	0.00000000	-26.45792000	-7.89247000
191.59998880	0.00000000	-25.71358000	-7.89247000
191.79998878	0.00000000	-25.33834000	-7.89247000
191.99998877	0.00000000	-25.29527000	-7.93553100
192.19998876	0.00000000	-25.29527000	-8.31077700
192.39998875	0.00000000	-25.33834000	-9.05511800
192.59998874	0.00000000	-25.71358000	-9.38115100
192.79998872	0.00000000	-26.45792000	-9.05511800
192.99998871	0.00000000	-26.83317000	-8.31077700
193.19998870	0.00000000	-26.87623000	-7.93553100
193.39998869	0.00000000	-26.87623000	-7.89247000
193.59998868	0.00000000	-26.87623000	-7.89247000
193.79998866	0.00000000	-26.87623000	-7.89247000
193.99998865	0.00000000	-26.83317000	-7.89247000
194.19998864	0.00000000	-26.45792000	-7.89247000
194.39998863	0.00000000	-25.71358000	-7.89247000
194.59998862	0.00000000	-25.33834000	-7.89247000
194.79998861	0.00000000	-25.33834000	-7.89247000
194.99998859	0.00000000	-25.67052000	-7.89247000
195.19998858	0.00000000	-26.03961000	-7.89247000
195.39998857	0.00000000	-25.71358000	-7.89247000
195.59998856	0.00000000	-25.76279000	-7.89247000
195.79998855	0.00000000	-26.45792000	-7.89247000
195.99998853	0.00000000	-26.83317000	-7.89247000
