Time	Channel A	Channel B	Channel C
(us)	(V)	(mV)	(mV)

-4.49999956	0.00000000	71.15526000	29.20767000
-4.29999957	0.00000000	71.15526000	28.83858000
-4.09999958	0.00000000	71.15526000	28.83858000
-3.89999959	0.00000000	71.15526000	29.16461000
-3.69999960	0.00000000	71.15526000	28.83858000
-3.49999962	0.00000000	71.15526000	28.88779000
-3.29999963	0.00000000	71.15526000	29.58292000
-3.09999964	0.00000000	71.15526000	29.95817000
-2.89999965	0.00000000	71.15526000	29.95817000
-2.69999966	0.00000000	71.15526000	29.58292000
-2.49999968	0.00000000	71.15526000	28.88779000
-2.29999969	0.00000000	71.15526000	28.88779000
-2.09999970	0.00000000	71.15526000	29.58292000
-1.89999971	0.00000000	71.15526000	29.90895000
-1.69999972	0.00000000	71.15526000	29.62598000
-1.49999973	0.00000000	71.11221000	29.21383000
-1.29999975	0.00000000	70.73695000	29.20767000
-1.09999976	0.00000000	70.04182000	28.83858000
-0.89999977	0.00000000	70.04182000	28.88779000
-0.69999978	0.00000000	70.73695000	29.53371000
-0.49999979	0.00000000	71.06299000	29.53371000
-0.29999981	0.31803640	70.78001000	28.88779000
-0.09999982	0.63668800	70.41092000	28.83858000
0.10000017	0.95533960	70.73695000	29.16461000
0.30000016	0.95533960	70.68774000	28.79552000
0.50000015	0.95533960	70.04182000	28.46333000
0.70000013	0.47736220	70.04182000	28.42027000
0.90000012	-0.31803640	70.68774000	28.42027000
1.10000011	-1.43331700	70.68774000	28.42027000
1.30000010	-2.22994600	70.04182000	28.46333000
1.50000009	-2.70792300	70.04182000	28.83858000
1.70000008	-2.54859700	70.73695000	29.58292000
1.90000006	-1.43331700	71.11221000	29.95817000
2.10000005	0.31803640	71.15526000	30.00123000
2.30000004	2.38927200	71.11221000	29.95817000
2.50000003	4.30056600	70.73695000	29.58292000
2.70000002	5.25652100	69.99261000	28.83858000
2.90000000	5.09719500	69.61736000	28.46333000
3.09999999	3.34522600	69.57431000	28.42027000
3.29999998	0.47736220	69.57431000	28.42027000
3.49999997	-3.02657500	69.66658000	28.42027000
3.69999996	-6.05315000	70.36786000	28.42027000
3.89999994	-7.80511800	71.47514000	28.46333000
4.09999993	-7.64579200	71.48744000	28.83858000
4.29999992	-5.57517200	71.19833000	29.58292000
4.49999991	-1.75196900	71.11221000	29.95817000
4.69999990	2.70792300	70.73695000	30.00123000
4.89999989	6.69045300	70.04182000	29.95817000
5.09999987	9.07972400	69.99261000	29.53371000
5.29999986	9.23905000	70.31865000	28.46333000
5.49999985	7.00848900	69.94955000	27.72515000
5.69999984	3.02657500	69.61736000	28.04503000
5.89999983	-1.59264300	69.57431000	28.37721000
6.09999981	-6.05315000	69.57431000	28.42027000
6.29999980	-8.92039900	69.61736000	28.42027000
6.49999979	-9.39837600	69.99261000	28.46333000
6.69999978	-7.64579200	70.68774000	28.83858000
6.89999977	-4.14124000	70.73695000	29.58292000
7.09999975	0.31803640	70.36786000	29.90895000
7.29999974	4.30056600	70.36171000	29.58292000
7.49999973	7.00848900	69.99261000	28.83858000
7.69999972	7.80511800	69.99261000	28.46333000
7.89999971	6.53112700	70.31865000	28.42027000
8.09999970	3.98191400	69.94955000	28.42027000
8.29999968	0.63668800	69.61736000	28.42027000
8.49999967	-2.38927200	69.57431000	28.42027000
8.69999966	-4.45989200	69.57431000	28.42027000
8.89999965	-5.09719500	69.57431000	28.46333000
9.09999964	-4.61921700	69.57431000	28.83858000
9.29999962	-3.02657500	69.57431000	29.53371000
9.49999961	-0.95533960	69.57431000	29.53371000
9.69999960	0.79601380	69.57431000	28.83858000
9.89999959	2.07062000	69.61736000	28.51255000
10.09999958	2.54859700	69.94955000	28.79552000
10.29999956	2.22994600	70.31865000	29.16461000
10.49999955	1.59264300	69.94955000	28.79552000
10.69999954	0.63668800	69.61736000	28.46333000
10.89999953	-0.15871060	69.61736000	28.42027000
11.09999952	-0.63668800	69.99261000	28.42027000
11.29999951	-0.95533960	70.68774000	28.42027000
11.49999949	-0.95533960	70.68774000	28.42027000
11.69999948	-0.79601380	69.99261000	28.42027000
11.89999947	-0.47736220	69.61736000	28.46333000
12.09999946	-0.15871060	69.57431000	28.83858000
12.29999945	-0.15871060	69.61736000	29.53371000
12.49999943	-0.15871060	69.94955000	29.53371000
12.69999942	0.00000000	70.31865000	28.83858000
12.89999941	0.00000000	69.99261000	28.51255000
13.09999940	0.00000000	69.99261000	28.79552000
13.29999939	0.15871060	70.31865000	29.20767000
13.49999937	0.00000000	69.94955000	29.17077000
13.69999936	0.00000000	69.61736000	29.25074000
13.89999935	0.00000000	69.57431000	29.17077000
14.09999934	-0.15871060	69.57431000	29.20767000
14.29999933	-0.15871060	69.57431000	28.83858000
14.49999932	-0.15871060	69.57431000	28.88779000
14.69999930	0.00000000	69.57431000	29.53371000
14.89999929	0.00000000	69.57431000	29.53371000
15.09999928	0.00000000	69.57431000	28.83858000
15.29999927	0.00000000	69.57431000	28.46333000
15.49999926	0.00000000	69.57431000	28.42027000
15.69999924	0.00000000	69.57431000	28.46333000
15.89999923	0.00000000	69.57431000	28.79552000
16.09999922	0.00000000	69.57431000	29.16461000
16.29999921	0.00000000	69.57431000	28.79552000
16.49999920	0.00000000	69.57431000	28.46333000
16.69999919	-0.15871060	69.61736000	28.42027000
16.89999917	0.00000000	69.99261000	28.42027000
17.09999916	0.00000000	70.73695000	28.42027000
17.29999915	0.00000000	71.11221000	28.42027000
17.49999914	0.00000000	71.15526000	28.42027000
17.69999913	0.00000000	71.15526000	28.42027000
17.89999911	0.00000000	71.11221000	28.42027000
18.09999910	0.00000000	70.68774000	28.42027000
18.29999909	0.00000000	69.53124000	28.42027000
18.49999908	0.00000000	67.99335000	28.42027000
18.69999907	0.00000000	66.45546000	28.42027000
18.89999905	0.00000000	65.29281000	28.42027000
19.09999904	0.00000000	64.91756000	28.42027000
19.29999903	0.00000000	65.37893000	28.42027000
19.49999902	0.00000000	67.33513000	28.42027000
19.69999901	0.00000000	70.82307000	28.42027000
19.89999900	0.00000000	74.64935000	28.42027000
20.09999898	0.00000000	78.17421000	28.42027000
20.29999897	0.00000000	80.41338000	28.42027000
20.49999896	0.00000000	80.78248000	28.42027000
20.69999895	0.00000000	78.37106000	28.42027000
20.89999894	0.00000000	73.33907000	28.42027000
21.09999892	0.00000000	66.32012000	28.42027000
21.29999891	0.00000000	58.63681000	28.42027000
21.49999890	0.00000000	52.12844000	28.42027000
21.69999889	0.00000000	49.09572000	28.42027000
21.89999888	0.00000000	50.67667000	28.42027000
22.09999886	0.00000000	56.95743000	28.42027000
22.29999885	0.00000000	67.42741000	28.42027000
22.49999884	0.00000000	80.13041000	28.42027000
22.69999883	0.00000000	91.71383000	28.42027000
22.89999882	0.00000000	99.39714000	28.42027000
23.09999881	0.00000000	101.25490000	28.46333000
23.29999879	0.00000000	95.72465000	28.83858000
23.49999878	0.00000000	83.34153000	29.58292000
23.69999877	0.00000000	66.32012000	29.95817000
23.89999876	0.00000000	48.58514000	30.00123000
24.09999875	0.00000000	34.30118000	30.00123000
24.29999873	0.00000000	27.08538000	29.95817000
24.49999872	0.00000000	29.46604000	29.53371000
24.69999871	0.00000000	41.83686000	28.37721000
24.89999870	0.00000000	61.19586000	26.83932000
25.09999869	0.00000000	83.62450000	25.30758000
25.29999867	0.00000000	104.41680000	24.15108000
25.49999866	0.00000000	117.87030000	23.77584000
25.69999865	0.00000000	120.56470000	24.23720000
25.89999864	0.00000000	111.63260000	26.19340000
26.09999863	0.00000000	92.69807000	29.66904000
26.29999862	0.00000000	67.99335000	33.53223000
26.49999860	0.00000000	43.28247000	37.38312000
26.69999859	0.00000000	24.34793000	40.03444000
26.89999858	0.00000000	15.50197000	40.40969000
27.09999857	0.00000000	18.99606000	38.41043000
27.29999856	0.00000000	34.39346000	33.71678000
27.49999854	0.00000000	57.51722000	26.75320000
27.69999853	0.00000000	82.69561000	19.03297000
27.89999852	0.00000000	104.70590000	12.11245000
28.09999851	0.00000000	118.61470000	7.92937900
28.29999850	0.00000000	120.98920000	8.01550200
28.49999848	0.00000000	112.14320000	13.08440000
28.69999847	0.00000000	94.37131000	22.74852000
28.89999846	0.00000000	71.57356000	34.73794000
29.09999845	0.00000000	49.18799000	46.72736000
29.29999844	0.00000000	32.11737000	56.25000000
29.49999843	0.00000000	23.97268000	60.05782000
29.69999841	0.00000000	25.83661000	56.62524000
29.89999840	0.00000000	37.00172000	47.28715000
30.09999839	0.00000000	54.36146000	33.29847000
30.29999838	0.00000000	73.71432000	16.76304000
30.49999837	0.00000000	91.16018000	2.12229300
30.69999835	0.00000000	103.16810000	-7.16658400
30.89999834	0.00000000	107.44950000	-9.44266700
31.09999833	0.00000000	103.26030000	-3.54330700
31.29999832	0.00000000	92.08907000	9.92864100
31.49999831	0.00000000	77.01156000	28.08809000
31.69999829	0.00000000	61.14665000	46.59203000
31.89999828	0.00000000	48.02534000	61.68184000
32.09999827	0.00000000	40.63115000	69.77116000
32.29999826	0.00000000	40.16978000	69.39591000
32.49999825	0.00000000	45.93381000	60.48228000
32.69999824	0.00000000	56.31767000	44.68504000
32.89999822	0.00000000	68.68848000	25.77510000
33.09999821	0.00000000	79.90896000	7.97859100
33.29999820	0.00000000	88.09055000	-5.21653500
33.49999819	0.00000000	91.53543000	-11.39272000
33.69999818	0.00000000	89.67150000	-9.44266700
33.89999816	0.00000000	83.11392000	0.59055110
34.09999815	0.00000000	73.89886000	16.38779000
34.29999814	0.00000000	64.26550000	34.18430000
34.49999813	0.00000000	56.95743000	50.39985000
34.69999812	0.00000000	53.79552000	61.59571000
34.89999810	0.00000000	54.91510000	65.08366000
35.09999809	0.00000000	59.52263000	60.52534000
35.29999808	0.00000000	66.40624000	49.32948000
35.49999807	0.00000000	73.29601000	34.31963000
35.69999806	0.00000000	77.99581000	18.84842000
35.89999805	0.00000000	79.95201000	6.53297200
36.09999803	0.00000000	79.15845000	-0.05536417
36.29999802	0.00000000	75.30142000	0.68282480
36.49999801	0.00000000	69.61736000	7.92937900
36.69999800	0.00000000	64.22243000	19.45743000
36.89999799	0.00000000	60.72834000	32.18504000
37.09999797	0.00000000	59.52263000	42.96875000
37.29999796	0.00000000	60.72834000	49.51402000
37.49999795	0.00000000	64.17323000	49.88927000
37.69999794	0.00000000	69.15600000	44.21752000
37.89999793	0.00000000	73.76353000	34.60261000
38.09999791	0.00000000	76.88238000	23.91117000
38.29999790	0.00000000	78.08808000	15.08366000
38.49999789	0.00000000	77.25147000	11.22047000
38.69999788	0.00000000	74.59399000	12.70915000
38.89999787	0.00000000	70.36786000	18.89148000
39.09999786	0.00000000	66.49852000	28.42027000
39.29999784	0.00000000	63.33661000	37.94907000
39.49999783	0.00000000	61.05437000	44.08218000
39.69999782	0.00000000	60.63607000	45.24483000
39.89999781	0.00000000	61.79872000	41.01255000
40.09999780	0.00000000	64.08710000	32.60334000
40.29999778	0.00000000	67.19980000	22.61319000
40.49999777	0.00000000	69.90649000	13.82874000
40.69999776	0.00000000	72.31791000	8.85826700
40.89999775	0.00000000	74.27411000	9.59645700
41.09999774	0.00000000	75.80585000	15.36048000
41.29999772	0.00000000	76.55019000	24.61245000
41.49999771	0.00000000	75.76279000	35.34079000
41.69999770	0.00000000	73.84965000	44.17446000
41.89999769	0.00000000	71.15526000	48.82505000
42.09999768	0.00000000	68.41166000	48.44980000
42.29999767	0.00000000	66.08021000	43.10408000
42.49999765	0.00000000	64.08095000	34.64567000
42.69999764	0.00000000	62.96136000	25.39985000
42.89999763	0.00000000	62.54921000	17.31053000
43.09999762	0.00000000	63.37967000	12.66609000
43.29999761	0.00000000	65.24360000	12.24778000
43.49999759	0.00000000	67.57505000	15.69267000
43.69999758	0.00000000	69.53124000	22.23794000
43.89999757	0.00000000	71.15526000	29.86589000
44.09999756	0.00000000	72.69316000	36.41117000
44.29999755	0.00000000	73.84965000	39.94832000
44.49999753	0.00000000	74.27411000	40.45890000
44.69999752	0.00000000	74.27411000	38.87795000
44.89999751	0.00000000	73.89886000	35.38385000
45.09999750	0.00000000	73.11147000	30.41954000
45.29999749	0.00000000	72.26870000	25.81816000
45.49999748	0.00000000	70.64468000	22.65625000
45.69999746	0.00000000	67.94415000	21.12451000
45.89999745	0.00000000	64.87450000	21.45669000
46.09999744	0.00000000	62.13090000	23.35753000
46.29999743	0.00000000	60.17470000	25.68282000
46.49999742	0.00000000	59.05511000	28.42027000
46.69999740	0.00000000	59.56569000	31.11466000
46.89999739	0.00000000	62.72760000	33.06471000
47.09999738	0.00000000	68.45472000	34.18430000
47.29999737	0.00000000	75.01230000	33.80905000
47.49999736	0.00000000	80.46259000	31.90822000
47.69999734	0.00000000	84.31963000	29.58292000
47.89999733	0.00000000	85.39001000	26.83932000
48.09999732	0.00000000	82.64640000	24.19414000
48.29999731	0.00000000	76.45792000	22.61319000
48.49999730	0.00000000	67.94415000	22.23794000
48.69999729	0.00000000	59.05511000	23.03149000
48.89999727	0.00000000	51.79626000	25.35064000
49.09999726	0.00000000	48.35752000	28.42027000
49.29999725	0.00000000	50.25836000	31.53297000
49.49999724	0.00000000	56.40379000	34.18430000
49.69999723	0.00000000	65.33588000	35.34079000
49.89999721	0.00000000	75.38755000	34.60261000
50.09999720	0.00000000	84.18430000	32.64640000
50.29999719	0.00000000	89.20398000	29.49065000
50.49999718	0.00000000	88.83488000	25.30758000
50.69999717	0.00000000	83.85210000	21.49975000
50.89999715	0.00000000	75.34448000	19.54355000
51.09999714	0.00000000	65.33588000	19.54355000
51.29999713	0.00000000	56.49606000	21.49975000
51.49999712	0.00000000	51.10113000	25.35679000
51.69999711	0.00000000	50.67667000	29.90895000
51.89999710	0.00000000	54.91510000	33.80905000
52.09999708	0.00000000	62.59227000	36.13435000
52.29999707	0.00000000	71.80733000	36.92175000
52.49999706	0.00000000	79.44143000	35.71604000
52.69999705	0.00000000	83.39075000	32.64640000
52.89999704	0.00000000	82.97858000	28.46333000
53.09999702	0.00000000	78.78322000	24.61245000
53.29999701	0.00000000	71.48130000	22.28100000
53.49999700	0.00000000	63.89025000	21.49975000
53.69999699	0.00000000	58.45226000	22.65625000
53.89999698	0.00000000	56.49606000	25.30758000
54.09999696	0.00000000	58.02780000	28.37721000
54.29999695	0.00000000	62.64148000	31.02239000
54.49999694	0.00000000	69.15600000	32.18504000
54.69999693	0.00000000	75.25220000	31.48991000
54.89999692	0.00000000	79.10925000	29.95201000
55.09999691	0.00000000	79.53371000	28.04503000
55.29999689	0.00000000	76.88238000	26.14419000
55.49999688	0.00000000	72.22563000	25.39985000
55.69999687	0.00000000	66.45546000	25.77510000
55.89999686	0.00000000	61.10359000	27.34990000
56.09999685	0.00000000	58.02780000	29.95201000
56.29999683	0.00000000	58.02780000	32.27731000
56.49999682	0.00000000	61.05437000	33.39690000
56.69999681	0.00000000	66.08021000	33.34153000
56.89999680	0.00000000	71.43823000	31.02239000
57.09999679	0.00000000	76.08267000	27.21457000
57.29999677	0.00000000	78.37106000	23.35138000
57.49999676	0.00000000	78.03887000	19.91880000
57.69999675	0.00000000	75.34448000	18.47318000
57.89999674	0.00000000	71.10605000	19.96186000
58.09999673	0.00000000	66.49852000	23.86196000
58.29999672	0.00000000	62.63533000	29.25689000
58.49999670	0.00000000	60.72834000	35.38385000
58.69999669	0.00000000	61.05437000	39.94832000
58.89999668	0.00000000	63.33661000	41.48006000
59.09999667	0.00000000	66.45546000	39.57308000
59.29999666	0.00000000	69.94955000	34.55955000
59.49999664	0.00000000	73.34522000	28.00197000
59.69999663	0.00000000	74.87697000	21.08145000
59.89999662	0.00000000	74.18184000	15.73573000
60.09999661	0.00000000	72.26870000	13.78568000
60.29999660	0.00000000	69.57431000	15.31742000
60.49999658	0.00000000	66.87376000	19.96186000
60.69999657	0.00000000	64.96062000	26.93159000
60.89999656	0.00000000	64.17323000	34.60261000
61.09999655	0.00000000	64.96062000	41.10482000
61.29999654	0.00000000	66.82455000	44.17446000
61.49999653	0.00000000	69.15600000	43.06102000
61.69999651	0.00000000	71.06299000	38.45349000
61.89999650	0.00000000	72.22563000	31.48991000
62.09999649	0.00000000	72.22563000	23.76968000
62.29999648	0.00000000	71.06299000	16.84916000
62.49999647	0.00000000	69.15600000	12.62303000
62.69999645	0.00000000	66.82455000	12.24778000
62.89999644	0.00000000	64.91756000	15.69267000
63.09999643	0.00000000	63.79798000	22.19488000
63.29999642	0.00000000	64.21629000	29.53371000
63.49999641	0.00000000	66.45546000	36.13435000
63.69999639	0.00000000	69.10678000	41.14788000
63.89999638	0.00000000	71.11221000	43.01181000
64.09999637	0.00000000	72.64394000	41.14788000
64.29999636	0.00000000	73.38828000	36.17741000
64.49999635	0.00000000	72.60088000	30.04429000
64.69999634	0.00000000	70.68774000	24.19414000
64.89999632	0.00000000	67.99335000	19.54355000
65.09999631	0.00000000	65.33588000	16.80610000
65.29999630	0.00000000	63.79798000	16.43085000
65.49999629	0.00000000	63.79798000	18.29478000
65.69999628	0.00000000	65.29281000	21.77658000
65.89999626	0.00000000	67.57505000	25.59055000
66.09999625	0.00000000	69.48203000	29.16461000
66.29999624	0.00000000	70.68774000	31.86516000
66.49999623	0.00000000	71.06299000	33.90133000
66.69999622	0.00000000	70.64468000	35.02091000
66.89999620	0.00000000	69.10678000	35.43307000
67.09999619	0.00000000	66.87376000	34.64567000
67.29999618	0.00000000	65.33588000	33.11393000
67.49999617	0.00000000	64.96062000	31.11466000
67.69999616	0.00000000	65.71111000	28.37721000
67.89999615	0.00000000	67.66117000	25.26452000
68.09999613	0.00000000	69.94955000	22.15182000
68.29999612	0.00000000	72.26870000	19.45743000
68.49999611	0.00000000	73.76353000	17.91953000
68.69999610	0.00000000	73.72047000	17.96260000
68.89999609	0.00000000	71.76427000	19.96186000
69.09999607	0.00000000	67.90108000	24.19414000
69.29999606	0.00000000	63.33661000	29.58292000
69.49999605	0.00000000	59.47342000	34.64567000
69.69999604	0.00000000	57.56643000	38.87795000
69.89999603	0.00000000	57.98474000	41.14788000
70.09999601	0.00000000	61.10359000	40.36663000
70.29999600	0.00000000	66.45546000	36.92175000
70.49999599	0.00000000	72.22563000	31.48991000
70.69999598	0.00000000	76.92544000	25.30758000
70.89999597	0.00000000	79.99508000	19.54355000
71.09999596	0.00000000	80.73941000	15.73573000
71.29999594	0.00000000	78.37106000	15.31742000
71.49999593	0.00000000	73.38828000	17.91953000
71.69999592	0.00000000	66.78149000	22.19488000
71.89999591	0.00000000	60.26082000	27.25763000
72.09999590	0.00000000	55.24114000	32.60334000
72.29999588	0.00000000	53.33415000	36.45423000
72.49999587	0.00000000	54.82283000	37.67224000
72.69999586	0.00000000	59.09818000	36.92175000
72.89999585	0.00000000	65.29281000	34.22736000
73.09999584	0.00000000	72.22563000	30.41954000
73.29999582	0.00000000	77.99581000	26.97465000
73.49999581	0.00000000	81.11466000	24.65551000
73.69999580	0.00000000	81.15772000	24.23720000
73.89999579	0.00000000	78.46333000	25.30758000
74.09999578	0.00000000	73.76353000	26.79626000
74.29999577	0.00000000	67.61810000	28.00197000
74.49999575	0.00000000	61.47884000	28.75246000
74.69999574	0.00000000	57.60949000	29.07234000
74.89999573	0.00000000	56.40379000	27.90969000
75.09999572	0.00000000	57.94168000	25.72589000
75.29999571	0.00000000	61.75566000	24.19414000
75.49999569	0.00000000	66.36318000	23.81890000
75.69999568	0.00000000	70.64468000	24.65551000
75.89999567	0.00000000	73.76353000	27.34990000
76.09999566	0.00000000	75.30142000	31.15772000
76.29999565	0.00000000	74.92618000	34.60261000
76.49999563	0.00000000	72.69316000	36.92175000
76.69999562	0.00000000	70.04182000	37.24778000
76.89999561	0.00000000	68.03641000	35.29773000
77.09999560	0.00000000	66.45546000	31.02239000
77.29999559	0.00000000	65.33588000	25.30758000
77.49999558	0.00000000	65.29281000	19.91880000
77.69999556	0.00000000	66.03100000	16.43085000
77.89999555	0.00000000	66.78149000	15.31742000
78.09999554	0.00000000	67.52583000	17.26747000
78.29999553	0.00000000	67.52583000	22.23794000
78.49999552	0.00000000	66.82455000	28.37721000
78.69999550	0.00000000	66.44931000	34.22736000
78.89999549	0.00000000	66.44931000	38.82874000
79.09999548	0.00000000	66.87376000	41.14788000
79.29999547	0.00000000	68.03641000	40.36663000
79.49999546	0.00000000	69.57431000	36.92175000
79.69999544	0.00000000	71.11221000	31.53297000
79.89999543	0.00000000	72.26870000	25.77510000
80.09999542	0.00000000	72.60088000	21.08145000
80.29999541	0.00000000	71.80733000	17.96260000
80.49999540	0.00000000	69.48203000	16.84916000
80.69999539	0.00000000	66.45546000	18.33784000
80.89999537	0.00000000	63.75492000	21.72736000
81.09999536	0.00000000	62.17396000	25.21530000
81.29999535	0.00000000	61.79872000	28.42027000
81.49999534	0.00000000	62.59227000	31.53297000
81.69999533	0.00000000	64.91756000	34.18430000
81.89999531	0.00000000	67.99335000	35.38385000
82.09999530	0.00000000	71.06299000	35.06397000
82.29999529	0.00000000	73.34522000	34.27042000
82.49999528	0.00000000	73.76353000	32.69562000
82.69999527	0.00000000	72.64394000	30.37647000
82.89999525	0.00000000	70.73695000	28.04503000
83.09999524	0.00000000	68.41166000	25.63976000
83.29999523	0.00000000	66.49852000	23.35753000
83.49999522	0.00000000	65.29281000	21.36442000
83.69999521	0.00000000	64.86835000	20.28789000
83.89999520	0.00000000	64.86835000	20.29404000
84.09999518	0.00000000	65.29281000	22.23794000
84.29999517	0.00000000	66.40624000	25.30758000
84.49999516	0.00000000	67.52583000	28.79552000
84.69999515	0.00000000	67.95029000	32.27731000
84.89999514	0.00000000	67.99335000	34.60261000
85.09999512	0.00000000	67.99335000	35.80217000
85.29999511	0.00000000	67.99335000	35.71604000
85.49999510	0.00000000	68.03641000	33.76599000
85.69999509	0.00000000	68.36859000	29.95817000
85.89999508	0.00000000	68.78075000	25.68282000
86.09999506	0.00000000	68.78691000	21.81964000
86.29999505	0.00000000	69.15600000	18.80536000
86.49999504	0.00000000	69.06373000	18.43012000
86.69999503	0.00000000	67.94415000	20.66314000
86.89999502	0.00000000	66.45546000	24.15108000
87.09999501	0.00000000	65.24360000	28.42027000
87.29999499	0.00000000	64.49311000	32.64640000
87.49999498	0.00000000	64.13016000	35.71604000
87.69999497	0.00000000	64.91756000	36.87254000
87.89999496	0.00000000	66.40624000	35.71604000
88.09999495	0.00000000	67.99335000	32.64640000
88.29999493	0.00000000	69.57431000	28.42027000
88.49999492	0.00000000	71.06299000	24.19414000
88.69999491	0.00000000	71.80733000	21.12451000
88.89999490	0.00000000	71.06299000	19.96801000
89.09999489	0.00000000	69.57431000	21.12451000
89.29999487	0.00000000	67.99335000	24.19414000
89.49999486	0.00000000	66.40624000	28.42027000
89.69999485	0.00000000	64.91756000	32.60334000
89.89999484	0.00000000	64.13016000	35.29773000
90.09999483	0.00000000	64.49311000	35.71604000
90.29999482	0.00000000	65.24360000	34.18430000
90.49999480	0.00000000	66.45546000	31.06545000
90.69999479	0.00000000	67.94415000	26.83932000
90.89999478	0.00000000	69.10678000	22.65625000
91.09999477	0.00000000	69.53124000	20.01107000
91.29999476	0.00000000	69.57431000	19.96186000
91.49999474	0.00000000	69.53124000	22.23794000
91.69999473	0.00000000	69.15600000	25.72589000
91.89999472	0.00000000	68.41166000	30.00123000
92.09999471	0.00000000	68.03641000	34.18430000
92.29999470	0.00000000	67.99335000	36.82948000
92.49999468	0.00000000	67.99335000	36.82948000
92.69999467	0.00000000	67.95029000	34.18430000
92.89999466	0.00000000	67.57505000	29.95817000
93.09999465	0.00000000	66.78149000	25.30758000
93.29999464	0.00000000	66.03100000	21.08145000
93.49999463	0.00000000	65.24360000	18.43012000
93.69999461	0.00000000	64.91756000	18.43012000
93.89999460	0.00000000	65.29281000	21.12451000
94.09999459	0.00000000	66.45546000	25.68282000
94.29999458	0.00000000	67.99335000	30.64714000
94.49999457	0.00000000	69.57431000	34.13509000
94.69999455	0.00000000	71.15526000	35.71604000
94.89999454	0.00000000	72.64394000	35.29773000
95.09999453	0.00000000	73.34522000	32.60334000
95.29999452	0.00000000	72.18258000	28.42027000
95.49999451	0.00000000	69.52509000	24.19414000
95.69999449	0.00000000	66.40624000	21.08145000
95.89999448	0.00000000	63.28740000	19.59276000
96.09999447	0.00000000	60.63607000	20.33710000
96.29999446	0.00000000	59.47342000	23.35138000
96.49999445	0.00000000	60.26082000	26.79626000
96.69999444	0.00000000	62.59227000	29.95201000
96.89999442	0.00000000	66.45546000	32.60334000
97.09999441	0.00000000	70.68774000	33.71678000
97.29999440	0.00000000	74.13878000	32.64640000
97.49999439	0.00000000	76.13188000	30.37647000
97.69999438	0.00000000	76.09497000	28.04503000
97.89999436	0.00000000	74.59399000	25.72589000
98.09999435	0.00000000	71.43823000	24.19414000
98.29999434	0.00000000	67.61810000	23.77584000
98.49999433	0.00000000	63.71186000	24.15108000
98.69999432	0.00000000	60.63607000	25.30758000
98.89999430	0.00000000	59.05511000	26.79626000
99.09999429	0.00000000	59.09818000	28.00197000
99.29999428	0.00000000	61.01131000	28.75246000
99.49999427	0.00000000	64.49925000	29.16461000
99.69999426	0.00000000	68.31938000	28.79552000
99.89999425	0.00000000	71.85040000	28.46333000
100.09999423	0.00000000	74.13878000	28.46333000
100.29999422	0.00000000	74.96924000	28.83858000
100.49999421	0.00000000	74.18184000	29.58292000
100.69999420	0.00000000	72.26870000	29.90895000
100.89999419	0.00000000	69.52509000	29.53371000
101.09999417	0.00000000	66.45546000	28.37721000
101.29999416	0.00000000	63.71186000	26.83932000
101.49999415	0.00000000	61.75566000	25.30758000
101.69999414	0.00000000	60.63607000	24.15108000
101.89999413	0.00000000	61.01131000	23.77584000
102.09999411	0.00000000	62.91216000	24.15108000
102.29999410	0.00000000	65.20053000	25.35064000
102.49999409	0.00000000	67.57505000	27.30684000
102.69999408	0.00000000	69.53124000	29.95201000
102.89999407	0.00000000	71.11221000	32.27731000
103.09999406	0.00000000	72.22563000	33.39690000
103.29999404	0.00000000	72.22563000	33.43381000
103.49999403	0.00000000	71.11221000	31.86516000
103.69999402	0.00000000	69.57431000	29.58292000
103.89999401	0.00000000	67.94415000	26.79626000
104.09999400	0.00000000	66.03100000	23.77584000
104.29999398	0.00000000	64.13016000	21.49975000
104.49999397	0.00000000	63.37967000	21.12451000
104.69999396	0.00000000	63.66264000	22.61319000
104.89999395	0.00000000	64.49311000	25.26452000
105.09999394	0.00000000	65.66806000	28.00197000
105.29999392	0.00000000	67.57505000	30.32726000
105.49999391	0.00000000	69.06373000	32.22810000
105.69999390	0.00000000	69.53124000	32.60334000
105.89999389	0.00000000	69.53124000	31.48991000
106.09999388	0.00000000	69.15600000	29.58292000
106.29999387	0.00000000	68.36859000	27.25763000
106.49999385	0.00000000	67.57505000	25.35064000
106.69999384	0.00000000	66.45546000	24.19414000
106.89999383	0.00000000	65.71111000	24.19414000
107.09999382	0.00000000	66.07406000	25.30758000
107.29999381	0.00000000	66.78149000	26.83932000
107.49999379	0.00000000	67.61810000	28.42027000
107.69999378	0.00000000	68.32554000	29.90895000
107.89999377	0.00000000	68.73769000	30.64714000
108.09999376	0.00000000	68.32554000	29.90895000
108.29999375	0.00000000	67.57505000	28.42027000
108.49999374	0.00000000	66.40624000	26.88853000
108.69999372	0.00000000	65.29281000	25.72589000
108.89999371	0.00000000	64.86835000	25.30758000
109.09999370	0.00000000	64.86835000	25.30758000
109.29999369	0.00000000	65.29281000	25.72589000
109.49999368	0.00000000	66.40624000	26.88853000
109.69999366	0.00000000	67.57505000	28.42027000
109.89999365	0.00000000	68.36859000	29.95201000
110.09999364	0.00000000	69.15600000	31.06545000
110.29999363	0.00000000	69.48203000	31.06545000
110.49999362	0.00000000	69.10678000	29.95201000
110.69999360	0.00000000	67.94415000	28.42027000
110.89999359	0.00000000	66.45546000	26.83932000
111.09999358	0.00000000	65.29281000	25.30758000
111.29999357	0.00000000	64.86835000	24.15108000
111.49999356	0.00000000	64.86835000	23.77584000
111.69999355	0.00000000	65.24360000	24.15108000
111.89999353	0.00000000	66.03100000	25.26452000
112.09999352	0.00000000	66.82455000	26.42101000
112.29999351	0.00000000	67.99335000	27.21457000
112.49999350	0.00000000	69.06373000	28.00197000
112.69999349	0.00000000	69.10678000	28.37721000
112.89999347	0.00000000	68.36859000	28.42027000
113.09999346	0.00000000	67.61810000	28.42027000
113.29999345	0.00000000	66.82455000	28.37721000
113.49999344	0.00000000	66.40624000	28.00197000
113.69999343	0.00000000	65.98794000	27.25763000
113.89999341	0.00000000	65.29281000	26.88238000
114.09999340	0.00000000	65.29281000	26.83932000
114.29999339	0.00000000	65.98794000	26.79626000
114.49999338	0.00000000	66.40624000	26.46407000
114.69999337	0.00000000	66.82455000	26.05807000
114.89999336	0.00000000	67.57505000	26.04577000
115.09999334	0.00000000	67.95029000	25.63976000
115.29999333	0.00000000	67.95029000	25.35679000
115.49999332	0.00000000	67.57505000	25.68282000
115.69999331	0.00000000	66.82455000	26.46407000
115.89999330	0.00000000	66.44931000	27.21457000
116.09999328	0.00000000	66.36318000	28.04503000
116.29999327	0.00000000	65.98794000	28.79552000
116.49999326	0.00000000	65.29281000	29.58292000
116.69999325	0.00000000	65.29281000	29.90895000
116.89999324	0.00000000	65.98794000	29.53371000
117.09999322	0.00000000	66.40624000	28.42027000
117.29999321	0.00000000	66.82455000	27.25763000
117.49999320	0.00000000	67.61810000	26.46407000
117.69999319	0.00000000	68.36859000	25.68282000
117.89999318	0.00000000	69.15600000	25.30758000
118.09999317	0.00000000	69.48203000	25.30758000
118.29999315	0.00000000	69.10678000	25.68282000
118.49999314	0.00000000	67.99335000	26.46407000
118.69999313	0.00000000	66.82455000	27.21457000
118.89999312	0.00000000	65.98794000	28.00197000
119.09999311	0.00000000	64.86835000	28.42027000
119.29999309	0.00000000	64.13016000	28.79552000
119.49999308	0.00000000	64.45004000	29.16461000
119.69999307	0.00000000	64.82529000	28.79552000
119.89999306	0.00000000	65.29281000	28.46333000
120.09999305	0.00000000	66.40624000	28.37721000
120.29999303	0.00000000	67.57505000	28.00197000
120.49999302	0.00000000	68.36859000	27.25763000
120.69999301	0.00000000	69.15600000	26.88238000
120.89999300	0.00000000	69.48203000	26.79626000
121.09999299	0.00000000	69.10678000	26.46407000
121.29999298	0.00000000	67.99335000	26.10113000
121.49999296	0.00000000	66.82455000	26.46407000
121.69999295	0.00000000	66.03100000	26.79626000
121.89999294	0.00000000	65.24360000	26.88238000
122.09999293	0.00000000	64.86835000	27.25763000
122.29999292	0.00000000	64.82529000	28.00197000
122.49999290	0.00000000	64.86835000	28.37721000
122.69999289	0.00000000	65.24360000	28.42027000
122.89999288	0.00000000	66.03100000	28.42027000
123.09999287	0.00000000	66.78149000	28.42027000
123.29999286	0.00000000	67.57505000	28.42027000
123.49999284	0.00000000	67.95029000	28.37721000
123.69999283	0.00000000	68.03641000	28.00197000
123.89999282	0.00000000	68.36859000	27.21457000
124.09999281	0.00000000	68.68848000	26.51329000
124.29999280	0.00000000	67.94415000	26.10113000
124.49999279	0.00000000	66.87376000	26.46407000
124.69999277	0.00000000	66.40624000	26.79626000
124.89999276	0.00000000	65.98794000	26.83932000
125.09999275	0.00000000	65.24360000	26.88238000
125.29999274	0.00000000	64.86835000	27.21457000
125.49999273	0.00000000	64.82529000	27.62672000
125.69999271	0.00000000	64.86835000	27.63287000
125.89999270	0.00000000	65.24360000	28.04503000
126.09999269	0.00000000	66.03100000	28.37721000
126.29999268	0.00000000	66.82455000	28.42027000
126.49999267	0.00000000	67.94415000	28.37721000
126.69999265	0.00000000	68.68848000	28.00197000
126.89999264	0.00000000	68.36859000	27.25763000
127.09999263	0.00000000	67.99335000	26.88238000
127.29999262	0.00000000	67.52583000	26.83932000
127.49999261	0.00000000	66.40624000	26.83932000
127.69999260	0.00000000	65.24360000	26.83932000
127.89999258	0.00000000	64.49311000	26.83932000
128.09999257	0.00000000	64.08095000	26.83932000
128.29999256	0.00000000	64.49311000	26.83932000
128.49999255	0.00000000	65.24360000	26.83932000
128.69999254	0.00000000	66.40624000	26.88238000
128.89999252	0.00000000	67.52583000	27.21457000
129.09999251	0.00000000	67.95029000	27.58366000
129.29999250	0.00000000	67.95029000	27.21457000
129.49999249	0.00000000	67.61810000	26.88238000
129.69999248	0.00000000	67.15674000	26.83932000
129.89999246	0.00000000	66.77534000	26.83932000
130.09999245	0.00000000	65.61884000	26.83932000
130.29999244	0.00000000	64.91756000	26.83932000
130.49999243	0.00000000	64.82529000	26.83932000
130.69999242	0.00000000	64.86835000	26.83932000
130.89999241	0.00000000	65.29281000	26.88238000
131.09999239	0.00000000	66.40624000	27.21457000
131.29999238	0.00000000	67.52583000	27.58366000
131.49999237	0.00000000	67.95029000	27.21457000
131.69999236	0.00000000	67.99335000	26.88238000
131.89999235	0.00000000	67.95029000	26.79626000
132.09999233	0.00000000	67.52583000	26.42101000
132.29999232	0.00000000	66.40624000	25.68282000
132.49999231	0.00000000	65.29281000	25.35679000
132.69999230	0.00000000	64.86835000	25.68282000
132.89999229	0.00000000	64.82529000	26.46407000
133.09999227	0.00000000	64.86835000	27.21457000
133.29999226	0.00000000	65.24360000	28.00197000
133.49999225	0.00000000	65.98794000	28.37721000
133.69999224	0.00000000	66.36318000	28.42027000
133.89999223	0.00000000	66.44931000	28.42027000
134.09999222	0.00000000	66.78149000	28.37721000
134.29999220	0.00000000	67.15059000	28.00197000
134.49999219	0.00000000	66.78149000	27.21457000
134.69999218	0.00000000	66.44931000	26.46407000
134.89999217	0.00000000	66.40624000	25.68282000
135.09999216	0.00000000	66.40624000	25.30758000
135.29999214	0.00000000	66.40624000	25.30758000
135.49999213	0.00000000	66.40624000	25.68282000
135.69999212	0.00000000	66.40624000	26.46407000
135.89999211	0.00000000	66.40624000	27.21457000
136.09999210	0.00000000	66.36318000	28.00197000
136.29999208	0.00000000	65.98794000	28.37721000
136.49999207	0.00000000	65.24360000	28.42027000
136.69999206	0.00000000	64.86835000	28.37721000
136.89999205	0.00000000	64.82529000	28.00197000
137.09999204	0.00000000	64.86835000	27.25763000
137.29999203	0.00000000	65.24360000	26.88238000
137.49999201	0.00000000	66.03100000	26.83932000
137.69999200	0.00000000	66.78149000	26.83932000
137.89999199	0.00000000	67.57505000	26.79626000
138.09999198	0.00000000	67.95029000	26.46407000
138.29999197	0.00000000	67.95029000	26.10113000
138.49999195	0.00000000	67.52583000	26.46407000
138.69999194	0.00000000	66.40624000	26.79626000
138.89999193	0.00000000	65.29281000	26.88238000
139.09999192	0.00000000	64.86835000	27.25763000
139.29999191	0.00000000	64.82529000	28.00197000
139.49999189	0.00000000	64.82529000	28.37721000
139.69999188	0.00000000	64.86835000	28.42027000
139.89999187	0.00000000	65.24360000	28.42027000
140.09999186	0.00000000	66.03100000	28.37721000
140.29999185	0.00000000	66.73843000	28.00197000
140.49999184	0.00000000	67.15059000	27.21457000
140.69999182	0.00000000	66.78149000	26.46407000
140.89999181	0.00000000	66.44931000	25.68282000
141.09999180	0.00000000	66.36318000	25.30758000
141.29999179	0.00000000	65.98794000	25.26452000
141.49999178	0.00000000	65.24360000	25.30758000
141.69999176	0.00000000	64.86835000	25.68282000
141.89999175	0.00000000	64.86835000	26.46407000
142.09999174	0.00000000	65.24360000	27.21457000
142.29999173	0.00000000	65.98794000	28.00197000
142.49999172	0.00000000	66.36318000	28.37721000
142.69999170	0.00000000	66.40624000	28.37721000
142.89999169	0.00000000	66.40624000	28.00197000
143.09999168	0.00000000	66.40624000	27.21457000
143.29999167	0.00000000	66.36318000	26.46407000
143.49999166	0.00000000	65.98794000	25.68282000
143.69999165	0.00000000	65.24360000	25.30758000
143.89999163	0.00000000	64.91756000	25.26452000
144.09999162	0.00000000	65.24360000	25.30758000
144.29999161	0.00000000	65.93873000	25.68282000
144.49999160	0.00000000	65.98794000	26.46407000
144.69999159	0.00000000	65.66190000	27.21457000
144.89999157	0.00000000	66.03100000	28.00197000
145.09999156	0.00000000	66.36318000	28.32800000
145.29999155	0.00000000	66.40624000	28.00197000
145.49999154	0.00000000	66.36318000	27.25763000
145.69999153	0.00000000	65.98794000	26.88238000
145.89999151	0.00000000	65.24360000	26.79626000
146.09999150	0.00000000	64.86835000	26.42101000
146.29999149	0.00000000	64.82529000	25.68282000
146.49999148	0.00000000	64.86835000	25.30758000
146.69999147	0.00000000	65.24360000	25.30758000
146.89999146	0.00000000	65.98794000	25.68282000
147.09999144	0.00000000	66.36318000	26.42101000
147.29999143	0.00000000	66.40624000	26.79626000
147.49999142	0.00000000	66.40624000	26.88238000
147.69999141	0.00000000	66.40624000	27.25763000
147.89999140	0.00000000	66.36318000	28.00197000
148.09999138	0.00000000	65.98794000	28.37721000
148.29999137	0.00000000	65.24360000	28.37721000
148.49999136	0.00000000	64.86835000	28.00197000
148.69999135	0.00000000	64.82529000	27.25763000
148.89999134	0.00000000	64.86835000	26.88238000
149.09999132	0.00000000	65.24360000	26.83932000
149.29999131	0.00000000	65.98794000	26.83932000
149.49999130	0.00000000	66.36318000	26.83932000
149.69999129	0.00000000	66.40624000	26.83932000
149.89999128	0.00000000	66.40624000	26.83932000
150.09999127	0.00000000	66.40624000	26.83932000
150.29999125	0.00000000	66.40624000	26.88238000
150.49999124	0.00000000	66.31397000	27.21457000
150.69999123	0.00000000	65.65575000	27.62672000
150.89999122	0.00000000	64.88066000	27.63287000
151.09999121	0.00000000	65.23744000	28.04503000
151.29999119	0.00000000	65.20053000	28.37721000
151.49999118	0.00000000	65.29281000	28.37721000
151.69999117	0.00000000	65.98794000	28.00197000
151.89999116	0.00000000	66.36318000	27.25763000
152.09999115	0.00000000	66.40624000	26.88238000
152.29999113	0.00000000	66.40624000	26.83932000
152.49999112	0.00000000	66.40624000	26.83932000
152.69999111	0.00000000	66.40624000	26.83932000
152.89999110	0.00000000	66.40624000	26.83932000
153.09999109	0.00000000	66.40624000	26.83932000
153.29999108	0.00000000	66.40624000	26.83932000
153.49999106	0.00000000	66.36318000	26.83932000
153.69999105	0.00000000	65.98794000	26.83932000
153.89999104	0.00000000	65.24360000	26.83932000
154.09999103	0.00000000	64.86835000	26.83932000
154.29999102	0.00000000	64.82529000	26.83932000
154.49999100	0.00000000	64.82529000	26.83932000
154.69999099	0.00000000	64.82529000	26.83932000
154.89999098	0.00000000	64.86835000	26.83932000
155.09999097	0.00000000	65.24360000	26.83932000
155.29999096	0.00000000	65.98794000	26.83932000
155.49999094	0.00000000	66.36318000	26.83932000
155.69999093	0.00000000	66.40624000	26.83932000
155.89999092	0.00000000	66.40624000	26.83932000
156.09999091	0.00000000	66.40624000	26.83932000
156.29999090	0.00000000	66.36318000	26.83932000
156.49999089	0.00000000	65.98794000	26.83932000
156.69999087	0.00000000	65.24360000	26.83932000
156.89999086	0.00000000	64.86835000	26.83932000
157.09999085	0.00000000	64.82529000	26.83932000
157.29999084	0.00000000	64.82529000	26.83932000
157.49999083	0.00000000	64.82529000	26.83932000
157.69999081	0.00000000	64.82529000	26.83932000
157.89999080	0.00000000	64.86835000	26.83932000
158.09999079	0.00000000	65.24360000	26.79626000
158.29999078	0.00000000	65.98794000	26.42101000
158.49999077	0.00000000	66.36318000	25.68282000
158.69999075	0.00000000	66.40624000	25.30758000
158.89999074	0.00000000	66.40624000	25.30758000
159.09999073	0.00000000	66.40624000	25.68282000
159.29999072	0.00000000	66.36318000	26.42101000
159.49999071	0.00000000	65.98794000	26.79626000
159.69999070	0.00000000	65.24360000	26.88238000
159.89999068	0.00000000	64.86835000	27.25763000
160.09999067	0.00000000	64.82529000	27.95275000
160.29999066	0.00000000	64.82529000	27.95275000
160.49999065	0.00000000	64.82529000	27.25763000
160.69999064	0.00000000	64.82529000	26.88238000
160.89999062	0.00000000	64.82529000	26.79626000
161.09999061	0.00000000	64.82529000	26.42101000
161.29999060	0.00000000	64.86835000	25.68282000
161.49999059	0.00000000	65.20053000	25.30758000
161.69999058	0.00000000	65.61269000	25.30758000
161.89999056	0.00000000	65.61884000	25.68282000
162.09999055	0.00000000	65.98794000	26.42101000
162.29999054	0.00000000	65.98794000	26.79626000
162.49999053	0.00000000	65.61884000	26.83932000
162.69999052	0.00000000	65.61269000	26.88238000
162.89999051	0.00000000	65.20053000	27.21457000
163.09999049	0.00000000	64.86835000	27.58366000
163.29999048	0.00000000	64.82529000	27.21457000
163.49999047	0.00000000	64.82529000	26.88238000
163.69999046	0.00000000	64.82529000	26.83932000
163.89999045	0.00000000	64.82529000	26.83932000
164.09999043	0.00000000	64.82529000	26.83932000
164.29999042	0.00000000	64.82529000	26.83932000
164.49999041	0.00000000	64.82529000	26.79626000
164.69999040	0.00000000	64.86835000	26.46407000
164.89999039	0.00000000	65.24360000	26.10113000
165.09999037	0.00000000	65.98794000	26.46407000
165.29999036	0.00000000	66.36318000	26.79626000
165.49999035	0.00000000	66.40624000	26.83932000
165.69999034	0.00000000	66.36318000	26.79626000
165.89999033	0.00000000	65.98794000	26.46407000
166.09999032	0.00000000	65.24360000	26.10113000
166.29999030	0.00000000	64.86835000	26.46407000
166.49999029	0.00000000	64.82529000	26.79626000
166.69999028	0.00000000	64.82529000	26.83932000
166.89999027	0.00000000	64.82529000	26.83932000
167.09999026	0.00000000	64.82529000	26.83932000
167.29999024	0.00000000	64.86835000	26.83932000
167.49999023	0.00000000	65.20053000	26.83932000
167.69999022	0.00000000	65.61269000	26.83932000
167.89999021	0.00000000	65.57578000	26.83932000
168.09999020	0.00000000	65.61269000	26.83932000
168.29999018	0.00000000	65.24360000	26.83932000
168.49999017	0.00000000	65.24360000	26.83932000
168.69999016	0.00000000	65.56963000	26.83932000
168.89999015	0.00000000	65.20053000	26.83932000
169.09999014	0.00000000	64.86835000	26.83932000
169.29999013	0.00000000	64.82529000	26.83932000
169.49999011	0.00000000	64.82529000	26.83932000
169.69999010	0.00000000	64.82529000	26.83932000
169.89999009	0.00000000	64.82529000	26.83932000
170.09999008	0.00000000	64.82529000	26.83932000
170.29999007	0.00000000	64.82529000	26.83932000
170.49999005	0.00000000	64.86835000	26.83932000
170.69999004	0.00000000	65.20053000	26.83932000
170.89999003	0.00000000	65.56963000	26.83932000
171.09999002	0.00000000	65.20053000	26.83932000
171.29999001	0.00000000	64.86835000	26.83932000
171.49998999	0.00000000	64.82529000	26.83932000
171.69998998	0.00000000	64.82529000	26.83932000
171.89998997	0.00000000	64.82529000	26.83932000
172.09998996	0.00000000	64.82529000	26.83932000
172.29998995	0.00000000	64.82529000	26.83932000
172.49998994	0.00000000	64.82529000	26.83932000
172.69998992	0.00000000	64.82529000	26.83932000
172.89998991	0.00000000	64.82529000	26.83932000
173.09998990	0.00000000	64.82529000	26.83932000
173.29998989	0.00000000	64.86835000	26.83932000
173.49998988	0.00000000	65.20053000	26.83932000
173.69998986	0.00000000	65.56963000	26.83932000
173.89998985	0.00000000	65.20053000	26.83932000
174.09998984	0.00000000	64.86835000	26.83932000
174.29998983	0.00000000	64.82529000	26.79626000
174.49998982	0.00000000	64.82529000	26.42101000
174.69998980	0.00000000	64.82529000	25.72589000
174.89998979	0.00000000	64.82529000	25.72589000
175.09998978	0.00000000	64.82529000	26.37795000
175.29998977	0.00000000	64.82529000	26.37795000
175.49998976	0.00000000	64.82529000	25.72589000
175.69998975	0.00000000	64.82529000	25.72589000
175.89998973	0.00000000	64.82529000	26.42101000
176.09998972	0.00000000	64.82529000	26.79626000
176.29998971	0.00000000	64.82529000	26.83932000
176.49998970	0.00000000	64.82529000	26.83932000
176.69998969	0.00000000	64.82529000	26.83932000
176.89998967	0.00000000	64.82529000	26.83932000
177.09998966	0.00000000	64.82529000	26.83932000
177.29998965	0.00000000	64.82529000	26.79626000
177.49998964	0.00000000	64.82529000	26.42101000
177.69998963	0.00000000	64.82529000	25.72589000
177.89998961	0.00000000	64.82529000	25.72589000
178.09998960	0.00000000	64.82529000	26.42101000
178.29998959	0.00000000	64.82529000	26.79626000
178.49998958	0.00000000	64.82529000	26.83932000
178.69998957	0.00000000	64.82529000	26.83932000
178.89998956	0.00000000	64.82529000	26.83932000
179.09998954	0.00000000	64.82529000	26.83932000
179.29998953	0.00000000	64.82529000	26.83932000
179.49998952	0.00000000	64.82529000	26.83932000
179.69998951	0.00000000	64.82529000	26.83932000
179.89998950	0.00000000	64.82529000	26.83932000
180.09998948	0.00000000	64.82529000	26.83932000
180.29998947	0.00000000	64.82529000	26.79626000
180.49998946	0.00000000	64.82529000	26.37795000
180.69998945	0.00000000	64.82529000	25.35064000
180.89998944	0.00000000	64.82529000	24.98770000
181.09998942	0.00000000	64.82529000	26.04577000
181.29998941	0.00000000	64.82529000	26.74705000
181.49998940	0.00000000	64.82529000	26.83932000
181.69998939	0.00000000	64.82529000	26.83932000
181.89998938	0.00000000	64.82529000	26.83932000
182.09998937	0.00000000	64.82529000	26.83932000
182.29998935	0.00000000	64.82529000	26.83932000
182.49998934	0.00000000	64.82529000	26.83932000
182.69998933	0.00000000	64.82529000	26.83932000
182.89998932	0.00000000	64.82529000	26.83932000
183.09998931	0.00000000	64.82529000	26.79626000
183.29998929	0.00000000	64.82529000	26.42101000
183.49998928	0.00000000	64.82529000	25.72589000
183.69998927	0.00000000	64.82529000	25.72589000
183.89998926	0.00000000	64.82529000	26.42101000
184.09998925	0.00000000	64.82529000	26.79626000
184.29998923	0.00000000	64.82529000	26.83932000
184.49998922	0.00000000	64.82529000	26.83932000
184.69998921	0.00000000	64.82529000	26.83932000
184.89998920	0.00000000	64.78223000	26.83932000
185.09998919	0.00000000	64.45004000	26.83932000
185.29998918	0.00000000	64.08095000	26.83932000
185.49998916	0.00000000	64.45004000	26.83932000
185.69998915	0.00000000	64.78223000	26.79626000
185.89998914	0.00000000	64.82529000	26.42101000
186.09998913	0.00000000	64.82529000	25.68282000
186.29998912	0.00000000	64.82529000	25.30758000
186.49998910	0.00000000	64.82529000	25.26452000
186.69998909	0.00000000	64.82529000	25.26452000
186.89998908	0.00000000	64.82529000	25.30758000
187.09998907	0.00000000	64.82529000	25.68282000
187.29998906	0.00000000	64.82529000	26.42101000
187.49998904	0.00000000	64.82529000	26.79626000
187.69998903	0.00000000	64.82529000	26.83932000
187.89998902	0.00000000	64.82529000	26.83932000
188.09998901	0.00000000	64.82529000	26.83932000
188.29998900	0.00000000	64.82529000	26.83932000
188.49998899	0.00000000	64.82529000	26.83932000
188.69998897	0.00000000	64.82529000	26.79626000
188.89998896	0.00000000	64.82529000	26.42101000
189.09998895	0.00000000	64.82529000	25.68282000
189.29998894	0.00000000	64.82529000	25.30758000
189.49998893	0.00000000	64.82529000	25.26452000
189.69998891	0.00000000	64.82529000	25.30758000
189.89998890	0.00000000	64.82529000	25.68282000
190.09998889	0.00000000	64.78223000	26.42101000
190.29998888	0.00000000	64.45004000	26.79626000
190.49998887	0.00000000	64.08095000	26.83932000
190.69998885	0.00000000	64.45004000	26.83932000
190.89998884	0.00000000	64.78223000	26.83932000
191.09998883	0.00000000	64.82529000	26.83932000
191.29998882	0.00000000	64.82529000	26.83932000
191.49998881	0.00000000	64.82529000	26.83932000
191.69998880	0.00000000	64.82529000	26.83932000
191.89998878	0.00000000	64.82529000	26.79626000
192.09998877	0.00000000	64.82529000	26.46407000
192.29998876	0.00000000	64.82529000	26.05807000
192.49998875	0.00000000	64.82529000	26.04577000
192.69998874	0.00000000	64.82529000	25.63976000
192.89998872	0.00000000	64.78223000	25.30758000
193.09998871	0.00000000	64.40699000	25.30758000
193.29998870	0.00000000	63.66264000	25.68282000
193.49998869	0.00000000	63.28740000	26.42101000
193.69998868	0.00000000	63.28740000	26.79626000
193.89998866	0.00000000	63.66264000	26.83932000
194.09998865	0.00000000	64.40699000	26.83932000
194.29998864	0.00000000	64.78223000	26.83932000
194.49998863	0.00000000	64.82529000	26.83932000
194.69998862	0.00000000	64.82529000	26.83932000
194.89998861	0.00000000	64.82529000	26.83932000
195.09998859	0.00000000	64.82529000	26.79626000
195.29998858	0.00000000	64.82529000	26.46407000
195.49998857	0.00000000	64.82529000	26.10113000
195.69998856	0.00000000	64.82529000	26.42101000
195.89998855	0.00000000	64.78223000	26.42101000
196.09998853	0.00000000	64.40699000	26.05807000
