Time	Channel A	Channel B	Channel C
(us)	(V)	(mV)	(mV)

-4.49999956	0.00000000	-63.98867000	-25.26452000
-4.29999957	0.00000000	-63.66264000	-25.26452000
-4.09999958	0.00000000	-63.66264000	-25.26452000
-3.89999959	0.00000000	-63.98867000	-25.30758000
-3.69999960	0.00000000	-63.66264000	-25.68282000
-3.49999962	0.00000000	-63.71186000	-26.42101000
-3.29999963	0.00000000	-64.35777000	-26.74705000
-3.09999964	0.00000000	-64.35777000	-26.46407000
-2.89999965	0.00000000	-63.66264000	-26.10113000
-2.69999966	0.00000000	-63.33661000	-26.42101000
-2.49999968	0.00000000	-63.66264000	-26.37795000
-2.29999969	0.00000000	-64.40699000	-25.68282000
-2.09999970	0.00000000	-64.73302000	-25.30758000
-1.89999971	0.00000000	-64.45004000	-25.30758000
-1.69999972	0.00000000	-64.08095000	-25.68282000
-1.49999973	0.00000000	-64.45004000	-26.42101000
-1.29999975	0.00000000	-64.73302000	-26.79626000
-1.09999976	0.00000000	-64.45004000	-26.79626000
-0.89999977	0.00000000	-64.03790000	-26.46407000
-0.69999978	0.00000000	-64.07480000	-26.05807000
-0.49999979	0.00000000	-63.99483000	-26.09498000
-0.29999981	0.31803640	-64.03174000	-26.05807000
-0.09999982	0.63668800	-63.66264000	-26.46407000
0.10000017	0.95533960	-63.71186000	-26.79626000
0.30000016	1.11466500	-64.35777000	-26.83932000
0.50000015	0.79601380	-64.40699000	-26.83932000
0.70000013	0.31803640	-64.08095000	-26.83932000
0.90000012	-0.47736220	-64.40699000	-26.83932000
1.10000011	-1.43331700	-64.35777000	-26.83932000
1.30000010	-2.22994600	-63.66264000	-26.79626000
1.50000009	-2.70792300	-63.33661000	-26.46407000
1.70000008	-2.54859700	-63.61958000	-26.05807000
1.90000006	-1.43331700	-63.98867000	-26.04577000
2.10000005	0.31803640	-63.61958000	-25.63976000
2.30000004	2.54859700	-63.28740000	-25.35679000
2.50000003	4.30056600	-63.28740000	-25.68282000
2.70000002	5.25652100	-63.61958000	-26.42101000
2.90000000	4.93786900	-64.03174000	-26.79626000
3.09999999	3.18590100	-64.03790000	-26.83932000
3.29999998	0.15871060	-64.40699000	-26.79626000
3.49999997	-3.18590100	-64.40699000	-26.42101000
3.69999996	-6.21247500	-64.03790000	-25.68282000
3.89999994	-7.80511800	-64.03174000	-25.30758000
4.09999993	-7.64579200	-63.61958000	-25.26452000
4.29999992	-5.41584600	-63.28740000	-25.26452000
4.49999991	-1.43331700	-63.24434000	-25.26452000
4.69999990	3.02657500	-63.28740000	-25.26452000
4.89999989	6.84916400	-63.61958000	-25.30758000
5.09999987	9.23905000	-64.03174000	-25.68282000
5.29999986	9.23905000	-63.99483000	-26.42101000
5.49999985	6.84916400	-64.03174000	-26.79626000
5.69999984	2.86724900	-63.61958000	-26.79626000
5.89999983	-1.91129400	-63.28740000	-26.46407000
6.09999981	-6.21247500	-63.24434000	-26.05807000
6.29999980	-8.92039900	-63.24434000	-26.04577000
6.49999979	-9.39837600	-63.24434000	-25.63976000
6.69999978	-7.48646600	-63.24434000	-25.30758000
6.89999977	-3.82258900	-63.24434000	-25.26452000
7.09999975	0.47736220	-63.24434000	-25.26452000
7.29999974	4.45989200	-63.24434000	-25.26452000
7.49999973	7.16781500	-63.24434000	-25.26452000
7.69999972	7.64579200	-63.24434000	-25.30758000
7.89999971	6.37180100	-63.24434000	-25.68282000
8.09999970	3.66326300	-63.24434000	-26.42101000
8.29999968	0.47736220	-63.24434000	-26.74705000
8.49999967	-2.54859700	-63.24434000	-26.42101000
8.69999966	-4.61921700	-63.24434000	-25.68282000
8.89999965	-5.25652100	-63.24434000	-25.30758000
9.09999964	-4.45989200	-63.24434000	-25.26452000
9.29999962	-2.86724900	-63.24434000	-25.26452000
9.49999961	-0.79601380	-63.24434000	-25.26452000
9.69999960	0.95533960	-63.24434000	-25.26452000
9.89999959	2.07062000	-63.24434000	-25.26452000
10.09999958	2.54859700	-63.24434000	-25.30758000
10.29999956	2.22994600	-63.24434000	-25.68282000
10.49999955	1.43331700	-63.24434000	-26.37795000
10.69999954	0.63668800	-63.24434000	-26.42101000
10.89999953	-0.15871060	-63.24434000	-26.05807000
11.09999952	-0.63668800	-63.24434000	-26.04577000
11.29999951	-0.95533960	-63.24434000	-25.63976000
11.49999949	-0.95533960	-63.24434000	-25.30758000
11.69999948	-0.79601380	-63.24434000	-25.26452000
11.89999947	-0.47736220	-63.24434000	-25.26452000
12.09999946	-0.15871060	-63.24434000	-25.26452000
12.29999945	-0.15871060	-63.24434000	-25.26452000
12.49999943	-0.15871060	-63.24434000	-25.30758000
12.69999942	0.00000000	-63.24434000	-25.63976000
12.89999941	0.00000000	-63.24434000	-26.00270000
13.09999940	0.00000000	-63.24434000	-25.63976000
13.29999939	0.00000000	-63.24434000	-25.30758000
13.49999937	0.00000000	-63.24434000	-25.30758000
13.69999936	0.00000000	-63.24434000	-25.63976000
13.89999935	0.00000000	-63.24434000	-26.00270000
14.09999934	0.00000000	-63.24434000	-25.63976000
14.29999933	-0.15871060	-63.24434000	-25.30758000
14.49999932	-0.15871060	-63.24434000	-25.26452000
14.69999930	0.00000000	-63.24434000	-25.26452000
14.89999929	0.00000000	-63.24434000	-25.26452000
15.09999928	0.00000000	-63.24434000	-25.26452000
15.29999927	0.00000000	-63.24434000	-25.26452000
15.49999926	0.00000000	-63.28740000	-25.26452000
15.69999924	0.00000000	-63.61958000	-25.26452000
15.89999923	0.00000000	-63.98867000	-25.30758000
16.09999922	0.00000000	-63.61958000	-25.63976000
16.29999921	0.00000000	-63.28740000	-26.00270000
16.49999920	-0.15871060	-63.24434000	-25.63976000
16.69999919	-0.15871060	-63.24434000	-25.30758000
16.89999917	-0.15871060	-63.20127000	-25.30758000
17.09999916	0.00000000	-62.82603000	-25.63976000
17.29999915	0.00000000	-62.08169000	-26.00270000
17.49999914	0.00000000	-61.70644000	-25.63976000
17.69999913	0.00000000	-61.70644000	-25.30758000
17.89999911	0.00000000	-62.13090000	-25.26452000
18.09999910	0.00000000	-63.24434000	-25.26452000
18.29999909	0.00000000	-64.40699000	-25.26452000
18.49999908	0.00000000	-65.24360000	-25.26452000
18.69999907	0.00000000	-66.45546000	-25.26452000
18.89999905	0.00000000	-67.90108000	-25.26452000
19.09999904	0.00000000	-68.64542000	-25.26452000
19.29999903	0.00000000	-67.85802000	-25.26452000
19.49999902	0.00000000	-65.94488000	-25.26452000
19.69999901	0.00000000	-63.10900000	-25.26452000
19.89999900	0.00000000	-59.28888000	-25.26452000
20.09999898	0.00000000	-55.06274000	-25.26452000
20.29999897	0.00000000	-52.44832000	-25.26452000
20.49999896	0.00000000	-52.07923000	-25.26452000
20.69999895	0.00000000	-54.86589000	-25.26452000
20.89999894	0.00000000	-60.63607000	-25.30758000
21.09999892	0.00000000	-67.99335000	-25.63976000
21.29999891	0.00000000	-75.34448000	-26.00270000
21.49999890	0.00000000	-81.11466000	-25.63976000
21.69999889	0.00000000	-83.76598000	-25.30758000
21.89999888	0.00000000	-82.14198000	-25.26452000
22.09999886	0.00000000	-75.86122000	-25.26452000
22.29999885	0.00000000	-65.39124000	-25.26452000
22.49999884	0.00000000	-52.68823000	-25.26452000
22.69999883	0.00000000	-41.10482000	-25.26452000
22.89999882	0.00000000	-33.42150000	-25.26452000
23.09999881	0.00000000	-31.60679000	-25.22145000
23.29999879	0.00000000	-37.51230000	-24.84621000
23.49999878	0.00000000	-50.63361000	-24.10187000
23.69999877	0.00000000	-68.03641000	-23.68356000
23.89999876	0.00000000	-85.76525000	-23.30832000
24.09999875	0.00000000	-99.63090000	-22.98843000
24.29999873	0.00000000	-105.77630000	-23.72662000
24.49999872	0.00000000	-102.61440000	-24.84621000
24.69999871	0.00000000	-90.18823000	-25.68282000
24.89999870	0.00000000	-70.46629000	-26.88853000
25.09999869	0.00000000	-48.08071000	-28.42027000
25.29999867	0.00000000	-27.97736000	-29.90895000
25.49999866	0.00000000	-14.94833000	-30.64714000
25.69999865	0.00000000	-12.67224000	-29.86589000
25.89999864	0.00000000	-22.34252000	-27.90969000
26.09999863	0.00000000	-41.65846000	-24.75394000
26.29999862	0.00000000	-66.40624000	-20.57087000
26.49999860	0.00000000	-91.06790000	-16.71383000
26.69999859	0.00000000	-109.59030000	-14.43159000
26.89999858	0.00000000	-117.35970000	-14.06865000
27.09999857	0.00000000	-113.08440000	-16.47392000
27.29999856	0.00000000	-97.63164000	-21.49975000
27.49999854	0.00000000	-74.08956000	-28.51255000
27.69999853	0.00000000	-48.63435000	-36.17741000
27.89999852	0.00000000	-26.95620000	-42.72884000
28.09999851	0.00000000	-13.78568000	-46.16756000
28.29999850	0.00000000	-11.82948000	-45.70620000
28.49999848	0.00000000	-21.09375000	-40.59424000
28.69999847	0.00000000	-39.60999000	-30.93627000
28.89999846	0.00000000	-62.73376000	-18.98991000
29.09999845	0.00000000	-84.79330000	-7.37573800
29.29999844	0.00000000	-101.07650000	1.45177200
29.49999843	0.00000000	-108.47690000	5.21653500
29.69999841	0.00000000	-105.81940000	2.06077700
29.89999840	0.00000000	-94.27903000	-7.97244000
30.09999839	0.00000000	-76.87623000	-22.65625000
30.29999838	0.00000000	-57.52337000	-38.87795000
30.49999837	0.00000000	-40.12057000	-53.13730000
30.69999835	0.00000000	-28.53716000	-62.01402000
30.89999834	0.00000000	-25.32603000	-63.50270000
31.09999833	0.00000000	-30.30265000	-56.90206000
31.29999832	0.00000000	-41.48006000	-42.96875000
31.49999831	0.00000000	-56.59448000	-24.84621000
31.69999829	0.00000000	-72.04723000	-6.31151500
31.89999828	0.00000000	-84.83636000	8.32308000
32.09999827	0.00000000	-92.18749000	15.71112000
32.29999826	0.00000000	-92.60580000	14.55463000
32.49999825	0.00000000	-86.50959000	5.25959600
32.69999824	0.00000000	-75.71973000	-10.58071000
32.89999822	0.00000000	-63.37967000	-29.49065000
33.09999821	0.00000000	-52.12844000	-47.28715000
33.29999820	0.00000000	-44.35285000	-60.43307000
33.49999819	0.00000000	-41.24015000	-66.24015000
33.69999818	0.00000000	-43.14714000	-63.55191000
33.89999816	0.00000000	-49.70472000	-53.13730000
34.09999815	0.00000000	-58.91978000	-37.29700000
34.29999814	0.00000000	-68.55315000	-19.54355000
34.49999813	0.00000000	-75.81815000	-3.70324800
34.69999812	0.00000000	-78.60482000	6.74827700
34.89999810	0.00000000	-76.79011000	9.86097400
35.09999809	0.00000000	-72.18258000	5.25959600
35.29999808	0.00000000	-65.94488000	-5.89320800
35.49999807	0.00000000	-59.05511000	-20.57087000
35.69999806	0.00000000	-53.70940000	-35.62992000
35.89999805	0.00000000	-51.70398000	-47.93922000
36.09999803	0.00000000	-52.86663000	-54.12155000
36.29999802	0.00000000	-56.73597000	-53.05118000
36.49999801	0.00000000	-62.82603000	-45.74926000
36.69999800	0.00000000	-68.55315000	-34.18430000
36.89999799	0.00000000	-72.04723000	-21.12451000
37.09999797	0.00000000	-72.87770000	-9.97170200
37.29999796	0.00000000	-70.92765000	-3.78937000
37.49999795	0.00000000	-67.10752000	-3.74630900
37.69999794	0.00000000	-62.03863000	-9.46727400
37.89999793	0.00000000	-57.09892000	-19.03912000
38.09999791	0.00000000	-53.61712000	-29.40452000
38.29999790	0.00000000	-52.82357000	-37.81373000
38.49999789	0.00000000	-54.31225000	-41.66461000
38.69999788	0.00000000	-57.43110000	-39.76993000
38.89999787	0.00000000	-61.66338000	-33.29847000
39.09999786	0.00000000	-65.89567000	-24.10187000
39.29999784	0.00000000	-69.02066000	-15.31742000
39.49999783	0.00000000	-70.60162000	-9.55339400
39.69999782	0.00000000	-70.64468000	-8.43996000
39.89999781	0.00000000	-69.48203000	-12.66609000
40.09999780	0.00000000	-67.52583000	-21.08145000
40.29999778	0.00000000	-64.78223000	-31.07160000
40.49999777	0.00000000	-61.70644000	-39.85605000
40.69999776	0.00000000	-58.96899000	-44.82652000
40.89999775	0.00000000	-57.01279000	-44.03912000
41.09999774	0.00000000	-55.85014000	-37.94907000
41.29999772	0.00000000	-55.85014000	-28.32800000
41.49999771	0.00000000	-56.96358000	-17.96260000
41.69999770	0.00000000	-58.54454000	-9.46727400
41.89999769	0.00000000	-60.54995000	-4.90895600
42.09999768	0.00000000	-63.24434000	-5.65329700
42.29999767	0.00000000	-65.94488000	-11.78642000
42.49999765	0.00000000	-67.90108000	-20.94611000
42.69999764	0.00000000	-69.06373000	-30.60408000
42.89999763	0.00000000	-69.10678000	-38.31816000
43.09999762	0.00000000	-68.32554000	-42.59350000
43.29999761	0.00000000	-67.10752000	-42.59350000
43.49999759	0.00000000	-64.78223000	-38.41043000
43.69999758	0.00000000	-62.13090000	-31.53297000
43.89999757	0.00000000	-60.17470000	-24.19414000
44.09999756	0.00000000	-58.96899000	-18.01181000
44.29999755	0.00000000	-58.54454000	-14.11171000
44.49999753	0.00000000	-58.50147000	-13.31816000
44.69999752	0.00000000	-58.50147000	-15.22515000
44.89999751	0.00000000	-58.54454000	-19.41437000
45.09999750	0.00000000	-58.96899000	-24.37869000
45.29999749	0.00000000	-60.17470000	-28.28494000
45.49999748	0.00000000	-62.13090000	-31.06545000
45.69999746	0.00000000	-64.87450000	-32.60334000
45.89999745	0.00000000	-67.94415000	-32.60334000
46.09999744	0.00000000	-70.68774000	-31.06545000
46.29999743	0.00000000	-72.55782000	-28.37721000
46.49999742	0.00000000	-72.96998000	-25.30758000
46.69999740	0.00000000	-71.35211000	-22.57013000
46.89999739	0.00000000	-68.22096000	-20.66314000
47.09999738	0.00000000	-63.10900000	-19.87574000
47.29999737	0.00000000	-56.96358000	-20.61393000
47.49999736	0.00000000	-51.15034000	-22.15182000
47.69999734	0.00000000	-46.96112000	-24.14493000
47.89999733	0.00000000	-45.89075000	-26.83932000
48.09999732	0.00000000	-48.96653000	-29.49065000
48.29999731	0.00000000	-55.56717000	-31.02239000
48.49999730	0.00000000	-64.03790000	-31.06545000
48.69999729	0.00000000	-72.96382000	-29.90895000
48.89999727	0.00000000	-79.81668000	-27.95891000
49.09999726	0.00000000	-82.92322000	-25.21530000
49.29999725	0.00000000	-80.93011000	-22.15182000
49.49999724	0.00000000	-74.45866000	-19.45743000
49.69999723	0.00000000	-65.11441000	-17.96260000
49.89999721	0.00000000	-55.09965000	-18.33784000
50.09999720	0.00000000	-46.26599000	-20.66314000
50.29999719	0.00000000	-41.70152000	-24.10187000
50.49999718	0.00000000	-42.77190000	-28.00197000
50.69999717	0.00000000	-48.49901000	-31.44069000
50.89999715	0.00000000	-57.01279000	-33.71678000
51.09999714	0.00000000	-66.32012000	-33.71678000
51.29999713	0.00000000	-74.78469000	-31.44069000
51.49999712	0.00000000	-80.13657000	-27.95275000
51.69999711	0.00000000	-80.51180000	-23.68356000
51.89999710	0.00000000	-75.99655000	-19.50049000
52.09999708	0.00000000	-68.23326000	-16.80610000
52.29999707	0.00000000	-59.42421000	-16.38164000
52.49999706	0.00000000	-51.34104000	-17.91953000
52.69999705	0.00000000	-47.18872000	-20.98917000
52.89999704	0.00000000	-47.84694000	-24.84621000
53.09999702	0.00000000	-52.82357000	-28.28494000
53.29999701	0.00000000	-60.03937000	-30.60408000
53.49999700	0.00000000	-67.01525000	-31.02239000
53.69999699	0.00000000	-72.04723000	-29.90895000
53.89999698	0.00000000	-74.36639000	-27.95891000
54.09999696	0.00000000	-73.16068000	-25.26452000
54.29999695	0.00000000	-68.59621000	-22.61319000
54.49999694	0.00000000	-62.08169000	-21.08145000
54.69999693	0.00000000	-55.98548000	-21.08145000
54.89999692	0.00000000	-52.12844000	-22.61319000
55.09999691	0.00000000	-51.70398000	-25.21530000
55.29999689	0.00000000	-54.35531000	-27.49138000
55.49999688	0.00000000	-59.01205000	-28.28494000
55.69999687	0.00000000	-64.78223000	-27.90969000
55.89999686	0.00000000	-70.13410000	-26.32874000
56.09999685	0.00000000	-73.20988000	-23.68356000
56.29999683	0.00000000	-73.20988000	-21.08145000
56.49999682	0.00000000	-70.13410000	-19.91880000
56.69999681	0.00000000	-64.78223000	-20.70620000
56.89999680	0.00000000	-59.05511000	-23.03149000
57.09999679	0.00000000	-54.77977000	-26.88238000
57.29999677	0.00000000	-52.82357000	-31.06545000
57.49999676	0.00000000	-53.19881000	-34.13509000
57.69999675	0.00000000	-55.89320000	-35.25467000
57.89999674	0.00000000	-60.12549000	-33.67372000
58.09999673	0.00000000	-64.73917000	-29.44759000
58.29999672	0.00000000	-68.59621000	-23.68356000
58.49999670	0.00000000	-70.50935000	-17.91953000
58.69999669	0.00000000	-70.18331000	-13.69340000
58.89999668	0.00000000	-67.85802000	-12.15551000
59.09999667	0.00000000	-64.40699000	-13.73647000
59.29999666	0.00000000	-60.54995000	-18.38706000
59.49999664	0.00000000	-57.47416000	-25.30758000
59.69999663	0.00000000	-55.93627000	-32.56028000
59.89999662	0.00000000	-56.31151000	-37.94907000
60.09999661	0.00000000	-58.54454000	-39.85605000
60.29999660	0.00000000	-61.24508000	-37.94907000
60.49999658	0.00000000	-63.57652000	-32.56028000
60.69999657	0.00000000	-65.52042000	-25.26452000
60.89999656	0.00000000	-66.22785000	-17.91953000
61.09999655	0.00000000	-65.52042000	-12.11245000
61.29999654	0.00000000	-63.57652000	-9.09202700
61.49999653	0.00000000	-61.33120000	-9.88558000
61.69999651	0.00000000	-59.38730000	-14.84990000
61.89999650	0.00000000	-58.63681000	-22.15182000
62.09999649	0.00000000	-58.96899000	-29.90895000
62.29999648	0.00000000	-60.17470000	-36.82948000
62.49999647	0.00000000	-62.08169000	-41.01255000
62.69999645	0.00000000	-64.35777000	-41.05561000
62.89999644	0.00000000	-65.89567000	-37.24778000
63.09999643	0.00000000	-66.31397000	-31.06545000
63.29999642	0.00000000	-65.89567000	-23.72662000
63.49999641	0.00000000	-64.31471000	-16.80610000
63.69999639	0.00000000	-61.66338000	-12.15551000
63.89999638	0.00000000	-59.01205000	-10.58071000
64.09999637	0.00000000	-57.47416000	-12.15551000
64.29999636	0.00000000	-57.43110000	-16.75689000
64.49999635	0.00000000	-58.59375000	-23.26525000
64.69999634	0.00000000	-60.50073000	-29.40452000
64.89999632	0.00000000	-62.82603000	-33.76599000
65.09999631	0.00000000	-64.73302000	-36.09129000
65.29999630	0.00000000	-65.89567000	-36.50344000
65.49999629	0.00000000	-65.89567000	-34.55955000
65.69999628	0.00000000	-64.78223000	-31.15772000
65.89999626	0.00000000	-63.24434000	-27.25763000
66.09999625	0.00000000	-61.66338000	-23.77584000
66.29999624	0.00000000	-60.17470000	-20.98917000
66.49999623	0.00000000	-59.43036000	-19.03912000
66.69999622	0.00000000	-60.17470000	-17.83341000
66.89999620	0.00000000	-61.66338000	-17.45817000
67.09999619	0.00000000	-63.24434000	-17.87647000
67.29999618	0.00000000	-64.73302000	-19.45743000
67.49999617	0.00000000	-65.47736000	-22.15182000
67.69999616	0.00000000	-64.68996000	-25.26452000
67.89999615	0.00000000	-62.77681000	-28.42027000
68.09999613	0.00000000	-60.08243000	-31.53297000
68.29999612	0.00000000	-57.43110000	-34.22736000
68.49999611	0.00000000	-55.89320000	-35.71604000
68.69999610	0.00000000	-55.98548000	-35.24852000
68.89999609	0.00000000	-58.26771000	-32.18504000
69.09999607	0.00000000	-62.49385000	-27.21457000
69.29999606	0.00000000	-66.69537000	-22.14567000
69.49999605	0.00000000	-70.22637000	-17.45817000
69.69999604	0.00000000	-72.09030000	-13.60113000
69.89999603	0.00000000	-71.71505000	-11.73720000
70.09999601	0.00000000	-68.92839000	-12.53076000
70.29999600	0.00000000	-63.94562000	-16.38164000
70.49999599	0.00000000	-57.75713000	-22.14567000
70.69999598	0.00000000	-52.40526000	-28.32800000
70.89999597	0.00000000	-48.91732000	-33.71678000
71.09999596	0.00000000	-48.59129000	-36.82948000
71.29999594	0.00000000	-51.61786000	-37.20472000
71.49999593	0.00000000	-57.05585000	-34.92249000
71.69999592	0.00000000	-63.61958000	-30.28420000
71.89999591	0.00000000	-70.17716000	-24.93233000
72.09999590	0.00000000	-74.79084000	-19.87574000
72.29999588	0.00000000	-76.37180000	-16.43085000
72.49999587	0.00000000	-74.79084000	-15.22515000
72.69999586	0.00000000	-70.17716000	-16.38779000
72.89999585	0.00000000	-63.61958000	-19.40822000
73.09999584	0.00000000	-57.05585000	-23.26525000
73.29999582	0.00000000	-51.61786000	-26.70398000
73.49999581	0.00000000	-48.54207000	-29.02928000
73.69999580	0.00000000	-48.54207000	-29.44759000
73.89999579	0.00000000	-51.61786000	-28.32800000
74.09999578	0.00000000	-57.01279000	-26.46407000
74.29999577	0.00000000	-63.15822000	-24.56324000
74.49999575	0.00000000	-68.59621000	-23.81890000
74.69999574	0.00000000	-72.09030000	-24.19414000
74.89999573	0.00000000	-73.29601000	-25.72589000
75.09999572	0.00000000	-72.09030000	-27.95891000
75.29999571	0.00000000	-68.64542000	-29.44759000
75.49999569	0.00000000	-63.66264000	-29.49065000
75.69999568	0.00000000	-59.05511000	-28.28494000
75.89999567	0.00000000	-55.93627000	-25.91043000
76.09999566	0.00000000	-54.73056000	-22.10261000
76.29999565	0.00000000	-55.47490000	-18.33784000
76.49999563	0.00000000	-57.33883000	-16.38164000
76.69999562	0.00000000	-59.70718000	-16.38164000
76.89999561	0.00000000	-61.99557000	-18.38090000
77.09999560	0.00000000	-63.93946000	-22.65625000
77.29999559	0.00000000	-64.68996000	-28.37721000
77.49999558	0.00000000	-64.40699000	-33.76599000
77.69999556	0.00000000	-63.61958000	-37.20472000
77.89999555	0.00000000	-62.86909000	-37.99213000
78.09999554	0.00000000	-62.13090000	-35.67298000
78.29999553	0.00000000	-62.13090000	-31.06545000
78.49999552	0.00000000	-62.82603000	-25.21530000
78.69999550	0.00000000	-63.20127000	-19.08218000
78.89999549	0.00000000	-63.20127000	-14.06865000
79.09999548	0.00000000	-62.77681000	-11.78026000
79.29999547	0.00000000	-61.62032000	-12.48770000
79.49999546	0.00000000	-60.08243000	-15.96334000
79.69999544	0.00000000	-58.54454000	-20.98917000
79.89999543	0.00000000	-57.43110000	-26.79626000
80.09999542	0.00000000	-57.43110000	-32.13582000
80.29999541	0.00000000	-58.59375000	-35.24852000
80.49999540	0.00000000	-60.50073000	-35.71604000
80.69999539	0.00000000	-62.86909000	-34.18430000
80.89999537	0.00000000	-65.15748000	-31.11466000
81.09999536	0.00000000	-67.06447000	-27.25763000
81.29999535	0.00000000	-67.43970000	-23.72662000
81.49999534	0.00000000	-66.32012000	-20.61393000
81.69999533	0.00000000	-64.35777000	-18.29478000
81.89999531	0.00000000	-61.66338000	-17.50123000
82.09999530	0.00000000	-58.96899000	-17.83341000
82.29999529	0.00000000	-57.05585000	-18.98991000
82.49999528	0.00000000	-56.26845000	-20.57087000
82.69999527	0.00000000	-57.05585000	-22.57013000
82.89999525	0.00000000	-58.91978000	-25.26452000
83.09999524	0.00000000	-61.24508000	-27.95891000
83.29999523	0.00000000	-63.15207000	-29.95201000
83.49999522	0.00000000	-64.35777000	-31.53297000
83.69999521	0.00000000	-64.73302000	-32.60334000
83.89999520	0.00000000	-64.40699000	-32.22810000
84.09999518	0.00000000	-63.61958000	-30.28420000
84.29999517	0.00000000	-62.86909000	-27.54060000
84.49999516	0.00000000	-62.08169000	-23.64050000
84.69999515	0.00000000	-61.66338000	-19.45743000
84.89999514	0.00000000	-61.28814000	-16.38779000
85.09999512	0.00000000	-60.87598000	-15.22515000
85.29999511	0.00000000	-60.91289000	-16.33858000
85.49999510	0.00000000	-60.83292000	-19.03297000
85.69999509	0.00000000	-60.86983000	-22.57013000
85.89999508	0.00000000	-60.45767000	-26.83932000
86.09999506	0.00000000	-60.12549000	-31.02239000
86.29999505	0.00000000	-60.08243000	-33.71678000
86.49999504	0.00000000	-60.17470000	-34.14124000
86.69999503	0.00000000	-60.91904000	-32.60334000
86.89999502	0.00000000	-62.49385000	-29.44759000
87.09999501	0.00000000	-63.99483000	-24.84621000
87.29999499	0.00000000	-65.52042000	-19.91880000
87.49999498	0.00000000	-65.85260000	-16.84916000
87.69999497	0.00000000	-64.78223000	-16.38164000
87.89999496	0.00000000	-63.20127000	-17.91953000
88.09999495	0.00000000	-61.28814000	-20.98917000
88.29999493	0.00000000	-59.33809000	-24.88927000
88.49999492	0.00000000	-58.21850000	-28.70325000
88.69999491	0.00000000	-57.80634000	-31.76673000
88.89999490	0.00000000	-58.59375000	-32.51107000
89.09999489	0.00000000	-60.08243000	-31.02239000
89.29999487	0.00000000	-61.66338000	-27.90969000
89.49999486	0.00000000	-63.20127000	-23.72662000
89.69999485	0.00000000	-64.35777000	-19.87574000
89.89999484	0.00000000	-64.78223000	-17.54429000
90.09999483	0.00000000	-64.73302000	-16.80610000
90.29999482	0.00000000	-63.93946000	-18.38090000
90.49999480	0.00000000	-62.08169000	-22.19488000
90.69999479	0.00000000	-60.54995000	-26.74705000
90.89999478	0.00000000	-59.75024000	-30.60408000
91.09999477	0.00000000	-59.33809000	-32.56028000
91.29999476	0.00000000	-59.70718000	-32.56028000
91.49999474	0.00000000	-60.08243000	-30.60408000
91.69999473	0.00000000	-60.50073000	-26.74705000
91.89999472	0.00000000	-61.24508000	-22.19488000
92.09999471	0.00000000	-61.62032000	-18.33784000
92.29999470	0.00000000	-61.66338000	-16.43085000
92.49999468	0.00000000	-61.66338000	-16.80610000
92.69999467	0.00000000	-61.66338000	-19.50049000
92.89999466	0.00000000	-61.70644000	-23.72662000
93.09999465	0.00000000	-62.08169000	-28.32800000
93.29999464	0.00000000	-62.86909000	-32.18504000
93.49999463	0.00000000	-63.57652000	-34.09203000
93.69999461	0.00000000	-63.98867000	-33.71678000
93.89999460	0.00000000	-63.57652000	-30.97933000
94.09999459	0.00000000	-62.77681000	-26.37795000
94.29999458	0.00000000	-61.19586000	-21.08145000
94.49999457	0.00000000	-58.91978000	-17.22441000
94.69999455	0.00000000	-57.01279000	-16.01255000
94.89999454	0.00000000	-55.85014000	-16.80610000
95.09999453	0.00000000	-55.89320000	-19.87574000
95.29999452	0.00000000	-57.43110000	-24.47096000
95.49999451	0.00000000	-60.12549000	-28.66018000
95.69999449	0.00000000	-63.20127000	-31.80979000
95.89999448	0.00000000	-65.94488000	-32.88632000
96.09999447	0.00000000	-67.90108000	-31.80979000
96.29999446	0.00000000	-69.02066000	-28.70325000
96.49999445	0.00000000	-68.55315000	-24.93233000
96.69999444	0.00000000	-65.85260000	-21.40748000
96.89999442	0.00000000	-61.66338000	-19.12524000
97.09999441	0.00000000	-57.43110000	-18.33784000
97.29999440	0.00000000	-54.31225000	-19.50049000
97.49999439	0.00000000	-52.73130000	-22.10261000
97.69999438	0.00000000	-52.73130000	-24.79700000
97.89999436	0.00000000	-54.31225000	-26.75320000
98.09999435	0.00000000	-57.43110000	-27.95275000
98.29999434	0.00000000	-61.66338000	-28.32800000
98.49999433	0.00000000	-65.89567000	-27.95275000
98.69999432	0.00000000	-68.97145000	-26.79626000
98.89999430	0.00000000	-70.18331000	-25.30758000
99.09999429	0.00000000	-69.39591000	-24.15108000
99.29999428	0.00000000	-67.10752000	-23.72662000
99.49999427	0.00000000	-63.57652000	-23.68356000
99.69999426	0.00000000	-59.75024000	-23.68356000
99.89999425	0.00000000	-56.22539000	-23.68356000
100.09999423	0.00000000	-53.93700000	-23.64050000
100.29999422	0.00000000	-53.10654000	-23.26525000
100.49999421	0.00000000	-53.89394000	-22.52091000
100.69999420	0.00000000	-55.80708000	-22.19488000
100.89999419	0.00000000	-58.54454000	-22.57013000
101.09999417	0.00000000	-61.62032000	-23.72662000
101.29999416	0.00000000	-64.35777000	-25.26452000
101.49999415	0.00000000	-66.27091000	-26.79626000
101.69999414	0.00000000	-67.05831000	-27.95275000
101.89999413	0.00000000	-66.32012000	-28.32800000
102.09999411	0.00000000	-64.78223000	-27.95275000
102.29999410	0.00000000	-62.82603000	-26.75320000
102.49999409	0.00000000	-60.50073000	-24.79700000
102.69999408	0.00000000	-58.54454000	-22.10261000
102.89999407	0.00000000	-57.01279000	-19.45743000
103.09999406	0.00000000	-56.22539000	-17.96260000
103.29999404	0.00000000	-56.58833000	-18.33784000
103.49999403	0.00000000	-57.38804000	-20.57087000
103.69999402	0.00000000	-58.96899000	-23.26525000
103.89999401	0.00000000	-61.24508000	-25.63976000
104.09999400	0.00000000	-63.15207000	-28.00197000
104.29999398	0.00000000	-64.35777000	-29.86589000
104.49999397	0.00000000	-64.73302000	-30.60408000
104.69999396	0.00000000	-64.35777000	-29.44759000
104.89999395	0.00000000	-63.20127000	-26.83932000
105.09999394	0.00000000	-61.70644000	-24.14493000
105.29999392	0.00000000	-60.50073000	-22.15182000
105.49999391	0.00000000	-59.70718000	-20.61393000
105.69999390	0.00000000	-58.96899000	-19.91880000
105.89999389	0.00000000	-58.96899000	-21.03838000
106.09999388	0.00000000	-59.70718000	-23.30832000
106.29999387	0.00000000	-60.50073000	-25.59055000
106.49999385	0.00000000	-61.66338000	-27.54060000
106.69999384	0.00000000	-62.77681000	-28.32800000
106.89999383	0.00000000	-63.15207000	-28.37721000
107.09999382	0.00000000	-62.77681000	-27.90969000
107.29999381	0.00000000	-61.66338000	-26.37795000
107.49999379	0.00000000	-60.54995000	-24.14493000
107.69999378	0.00000000	-60.12549000	-22.61319000
107.89999377	0.00000000	-60.08243000	-22.19488000
108.09999376	0.00000000	-60.12549000	-22.57013000
108.29999375	0.00000000	-60.54995000	-23.72662000
108.49999374	0.00000000	-61.66338000	-25.26452000
108.69999372	0.00000000	-62.77681000	-26.79626000
108.89999371	0.00000000	-63.20127000	-27.90969000
109.09999370	0.00000000	-63.20127000	-27.90969000
109.29999369	0.00000000	-62.77681000	-26.79626000
109.49999368	0.00000000	-61.62032000	-25.26452000
109.69999366	0.00000000	-60.12549000	-23.68356000
109.89999365	0.00000000	-58.96899000	-22.15182000
110.09999364	0.00000000	-58.59375000	-21.03838000
110.29999363	0.00000000	-58.91978000	-21.03838000
110.49999362	0.00000000	-59.70718000	-22.15182000
110.69999360	0.00000000	-60.50073000	-23.68356000
110.89999359	0.00000000	-61.66338000	-25.21530000
111.09999358	0.00000000	-62.77681000	-26.42101000
111.29999357	0.00000000	-63.20127000	-27.17150000
111.49999356	0.00000000	-63.20127000	-27.58366000
111.69999355	0.00000000	-62.77681000	-27.17150000
111.89999353	0.00000000	-61.66338000	-26.42101000
112.09999352	0.00000000	-60.50073000	-25.21530000
112.29999351	0.00000000	-59.70718000	-23.72662000
112.49999350	0.00000000	-58.91978000	-22.57013000
112.69999349	0.00000000	-58.59375000	-22.19488000
112.89999347	0.00000000	-58.91978000	-22.52091000
113.09999346	0.00000000	-59.70718000	-23.26525000
113.29999345	0.00000000	-60.45767000	-23.68356000
113.49999344	0.00000000	-61.24508000	-24.10187000
113.69999343	0.00000000	-61.62032000	-24.84621000
113.89999341	0.00000000	-61.66338000	-25.22145000
114.09999340	0.00000000	-61.66338000	-25.26452000
114.29999339	0.00000000	-61.62032000	-25.26452000
114.49999338	0.00000000	-61.24508000	-25.26452000
114.69999337	0.00000000	-60.50073000	-25.30758000
114.89999336	0.00000000	-60.12549000	-25.63976000
115.09999334	0.00000000	-60.08243000	-26.00270000
115.29999333	0.00000000	-60.08243000	-25.63976000
115.49999332	0.00000000	-60.08243000	-25.30758000
115.69999331	0.00000000	-60.12549000	-25.22145000
115.89999330	0.00000000	-60.50073000	-24.79700000
116.09999328	0.00000000	-61.28814000	-23.68356000
116.29999327	0.00000000	-61.99557000	-22.57013000
116.49999326	0.00000000	-62.40772000	-22.19488000
116.69999325	0.00000000	-62.03863000	-22.52091000
116.89999324	0.00000000	-61.66338000	-23.30832000
117.09999322	0.00000000	-61.24508000	-24.05881000
117.29999321	0.00000000	-60.50073000	-24.88927000
117.49999320	0.00000000	-60.08243000	-25.63976000
117.69999319	0.00000000	-59.66412000	-26.42101000
117.89999318	0.00000000	-58.91978000	-26.74705000
118.09999317	0.00000000	-58.54454000	-26.42101000
118.29999315	0.00000000	-58.54454000	-25.68282000
118.49999314	0.00000000	-58.96899000	-25.26452000
118.69999313	0.00000000	-60.08243000	-24.84621000
118.89999312	0.00000000	-61.24508000	-24.05881000
119.09999311	0.00000000	-62.03863000	-23.30832000
119.29999309	0.00000000	-62.82603000	-22.52091000
119.49999308	0.00000000	-63.15207000	-22.19488000
119.69999307	0.00000000	-62.82603000	-22.52091000
119.89999306	0.00000000	-61.99557000	-23.26525000
120.09999305	0.00000000	-60.86983000	-23.64050000
120.29999303	0.00000000	-59.33809000	-23.72662000
120.49999302	0.00000000	-58.54454000	-24.10187000
120.69999301	0.00000000	-58.12622000	-24.84621000
120.89999300	0.00000000	-57.80634000	-25.22145000
121.09999299	0.00000000	-58.54454000	-25.26452000
121.29999298	0.00000000	-59.66412000	-25.26452000
121.49999296	0.00000000	-60.50073000	-25.26452000
121.69999295	0.00000000	-61.66338000	-25.22145000
121.89999294	0.00000000	-62.77681000	-24.84621000
122.09999293	0.00000000	-63.20127000	-24.10187000
122.29999292	0.00000000	-63.20127000	-23.72662000
122.49999290	0.00000000	-62.82603000	-23.68356000
122.69999289	0.00000000	-62.03863000	-23.64050000
122.89999288	0.00000000	-61.28814000	-23.30832000
123.09999287	0.00000000	-60.45767000	-22.93922000
123.29999286	0.00000000	-59.70718000	-23.30832000
123.49999284	0.00000000	-58.91978000	-23.68356000
123.69999283	0.00000000	-58.54454000	-24.10187000
123.89999282	0.00000000	-58.54454000	-24.84621000
124.09999281	0.00000000	-58.91978000	-25.22145000
124.29999280	0.00000000	-59.66412000	-25.26452000
124.49999279	0.00000000	-60.08243000	-25.26452000
124.69999277	0.00000000	-60.54995000	-25.26452000
124.89999276	0.00000000	-61.66338000	-25.26452000
125.09999275	0.00000000	-62.77681000	-25.22145000
125.29999274	0.00000000	-63.15207000	-24.84621000
125.49999273	0.00000000	-62.82603000	-24.10187000
125.69999271	0.00000000	-62.03863000	-23.72662000
125.89999270	0.00000000	-61.24508000	-23.68356000
126.09999269	0.00000000	-60.08243000	-23.68356000
126.29999268	0.00000000	-58.96899000	-23.68356000
126.49999267	0.00000000	-58.54454000	-23.68356000
126.69999265	0.00000000	-58.50147000	-23.68356000
126.89999264	0.00000000	-58.54454000	-23.72662000
127.09999263	0.00000000	-58.96899000	-24.10187000
127.29999262	0.00000000	-60.08243000	-24.84621000
127.49999261	0.00000000	-61.19586000	-25.22145000
127.69999260	0.00000000	-61.66338000	-25.26452000
127.89999258	0.00000000	-62.03863000	-25.26452000
128.09999257	0.00000000	-62.40772000	-25.22145000
128.29999256	0.00000000	-61.99557000	-24.84621000
128.49999255	0.00000000	-61.24508000	-24.10187000
128.69999254	0.00000000	-60.08243000	-23.72662000
128.89999252	0.00000000	-58.91978000	-23.68356000
129.09999251	0.00000000	-58.16929000	-23.68356000
129.29999250	0.00000000	-57.80634000	-23.68356000
129.49999249	0.00000000	-58.54454000	-23.72662000
129.69999248	0.00000000	-59.66412000	-24.10187000
129.89999246	0.00000000	-60.50073000	-24.84621000
130.09999245	0.00000000	-61.66338000	-25.17224000
130.29999244	0.00000000	-62.73376000	-24.84621000
130.49999243	0.00000000	-62.77681000	-24.10187000
130.69999242	0.00000000	-62.03863000	-23.72662000
130.89999241	0.00000000	-61.28814000	-23.68356000
131.09999239	0.00000000	-60.45767000	-23.68356000
131.29999238	0.00000000	-59.70718000	-23.72662000
131.49999237	0.00000000	-58.91978000	-24.10187000
131.69999236	0.00000000	-58.59375000	-24.84621000
131.89999235	0.00000000	-58.91978000	-25.22145000
132.09999233	0.00000000	-59.70718000	-25.26452000
132.29999232	0.00000000	-60.45767000	-25.26452000
132.49999231	0.00000000	-61.24508000	-25.26452000
132.69999230	0.00000000	-61.62032000	-25.22145000
132.89999229	0.00000000	-61.66338000	-24.84621000
133.09999227	0.00000000	-61.62032000	-24.10187000
133.29999226	0.00000000	-61.24508000	-23.68356000
133.49999225	0.00000000	-60.50073000	-23.26525000
133.69999224	0.00000000	-60.12549000	-22.57013000
133.89999223	0.00000000	-60.08243000	-22.57013000
134.09999222	0.00000000	-60.08243000	-23.30832000
134.29999220	0.00000000	-60.08243000	-24.05881000
134.49999219	0.00000000	-60.12549000	-24.88927000
134.69999218	0.00000000	-60.45767000	-25.59055000
134.89999217	0.00000000	-60.82677000	-26.04577000
135.09999216	0.00000000	-60.45767000	-26.00886000
135.29999214	0.00000000	-60.12549000	-26.04577000
135.49999213	0.00000000	-60.08243000	-25.59055000
135.69999212	0.00000000	-60.08243000	-24.88927000
135.89999211	0.00000000	-60.08243000	-24.05881000
136.09999210	0.00000000	-60.12549000	-23.35138000
136.29999208	0.00000000	-60.50073000	-22.93922000
136.49999207	0.00000000	-61.24508000	-23.30832000
136.69999206	0.00000000	-61.62032000	-23.64050000
136.89999205	0.00000000	-61.66338000	-23.72662000
137.09999204	0.00000000	-61.62032000	-24.10187000
137.29999203	0.00000000	-61.19586000	-24.84621000
137.49999201	0.00000000	-60.08243000	-25.22145000
137.69999200	0.00000000	-58.96899000	-25.26452000
137.89999199	0.00000000	-58.54454000	-25.26452000
138.09999198	0.00000000	-58.54454000	-25.26452000
138.29999197	0.00000000	-58.91978000	-25.26452000
138.49999195	0.00000000	-59.66412000	-25.26452000
138.69999194	0.00000000	-60.08243000	-25.26452000
138.89999193	0.00000000	-60.50073000	-25.22145000
139.09999192	0.00000000	-61.19586000	-24.84621000
139.29999191	0.00000000	-61.24508000	-24.10187000
139.49999189	0.00000000	-60.87598000	-23.72662000
139.69999188	0.00000000	-60.86983000	-23.68356000
139.89999187	0.00000000	-60.41461000	-23.68356000
140.09999186	0.00000000	-59.70718000	-23.68356000
140.29999185	0.00000000	-58.91978000	-23.72662000
140.49999184	0.00000000	-58.59375000	-24.10187000
140.69999182	0.00000000	-58.91978000	-24.84621000
140.89999181	0.00000000	-59.66412000	-25.22145000
141.09999180	0.00000000	-60.08243000	-25.26452000
141.29999179	0.00000000	-60.45767000	-25.26452000
141.49999178	0.00000000	-60.86983000	-25.22145000
141.69999176	0.00000000	-60.83292000	-24.84621000
141.89999175	0.00000000	-60.86983000	-24.05881000
142.09999174	0.00000000	-60.45767000	-23.30832000
142.29999173	0.00000000	-60.08243000	-22.52091000
142.49999172	0.00000000	-59.66412000	-22.14567000
142.69999170	0.00000000	-58.96899000	-22.14567000
142.89999169	0.00000000	-58.96899000	-22.52091000
143.09999168	0.00000000	-59.66412000	-23.30832000
143.29999167	0.00000000	-60.03937000	-24.10187000
143.49999166	0.00000000	-60.08243000	-25.21530000
143.69999165	0.00000000	-60.12549000	-25.95964000
143.89999163	0.00000000	-60.45767000	-25.63976000
144.09999162	0.00000000	-60.82677000	-25.26452000
144.29999161	0.00000000	-60.45767000	-24.84621000
144.49999160	0.00000000	-60.12549000	-24.10187000
144.69999159	0.00000000	-60.03937000	-23.68356000
144.89999157	0.00000000	-59.66412000	-23.26525000
145.09999156	0.00000000	-58.96899000	-22.52091000
145.29999155	0.00000000	-58.96899000	-22.19488000
145.49999154	0.00000000	-59.66412000	-22.52091000
145.69999153	0.00000000	-60.03937000	-23.30832000
145.89999151	0.00000000	-60.08243000	-24.05881000
146.09999150	0.00000000	-60.08243000	-24.84621000
146.29999149	0.00000000	-60.08243000	-25.22145000
146.49999148	0.00000000	-60.08243000	-25.26452000
146.69999147	0.00000000	-60.08243000	-25.26452000
146.89999146	0.00000000	-60.03937000	-25.22145000
147.09999144	0.00000000	-59.70718000	-24.84621000
147.29999143	0.00000000	-59.29502000	-24.10187000
147.49999142	0.00000000	-59.33194000	-23.72662000
147.69999141	0.00000000	-59.29502000	-23.68356000
147.89999140	0.00000000	-59.75024000	-23.68356000
148.09999138	0.00000000	-60.45767000	-23.68356000
148.29999137	0.00000000	-61.19586000	-23.68356000
148.49999136	0.00000000	-61.19586000	-23.68356000
148.69999135	0.00000000	-60.50073000	-23.68356000
148.89999134	0.00000000	-60.12549000	-23.72662000
149.09999132	0.00000000	-60.08243000	-24.10187000
149.29999131	0.00000000	-60.08243000	-24.84621000
149.49999130	0.00000000	-60.03937000	-25.17224000
149.69999129	0.00000000	-59.66412000	-24.88927000
149.89999128	0.00000000	-58.91978000	-24.47712000
150.09999127	0.00000000	-58.59375000	-24.47096000
150.29999125	0.00000000	-58.91978000	-24.05881000
150.49999124	0.00000000	-59.66412000	-23.72662000
150.69999123	0.00000000	-60.03937000	-23.68356000
150.89999122	0.00000000	-60.08243000	-23.68356000
151.09999121	0.00000000	-60.08243000	-23.68356000
151.29999119	0.00000000	-60.08243000	-23.68356000
151.49999118	0.00000000	-60.08243000	-23.68356000
151.69999117	0.00000000	-60.08243000	-23.68356000
151.89999116	0.00000000	-60.08243000	-23.72662000
152.09999115	0.00000000	-60.08243000	-24.10187000
152.29999113	0.00000000	-60.08243000	-24.84621000
152.49999112	0.00000000	-60.03937000	-25.22145000
152.69999111	0.00000000	-59.66412000	-25.22145000
152.89999110	0.00000000	-58.96899000	-24.84621000
153.09999109	0.00000000	-58.96899000	-24.10187000
153.29999108	0.00000000	-59.66412000	-23.72662000
153.49999106	0.00000000	-60.03937000	-23.68356000
153.69999105	0.00000000	-60.08243000	-23.68356000
153.89999104	0.00000000	-60.12549000	-23.68356000
154.09999103	0.00000000	-60.50073000	-23.68356000
154.29999102	0.00000000	-61.19586000	-23.68356000
154.49999100	0.00000000	-61.19586000	-23.68356000
154.69999099	0.00000000	-60.50073000	-23.68356000
154.89999098	0.00000000	-60.12549000	-23.72662000
155.09999097	0.00000000	-60.08243000	-24.10187000
155.29999096	0.00000000	-60.03937000	-24.79700000
155.49999094	0.00000000	-59.66412000	-24.84621000
155.69999093	0.00000000	-58.91978000	-24.47712000
155.89999092	0.00000000	-58.54454000	-24.47096000
156.09999091	0.00000000	-58.54454000	-24.05881000
156.29999090	0.00000000	-58.91978000	-23.72662000
156.49999089	0.00000000	-59.70718000	-23.68356000
156.69999087	0.00000000	-60.45767000	-23.68356000
156.89999086	0.00000000	-61.24508000	-23.64050000
157.09999085	0.00000000	-61.62032000	-23.30832000
157.29999084	0.00000000	-61.62032000	-22.93922000
157.49999083	0.00000000	-61.24508000	-23.30832000
157.69999081	0.00000000	-60.50073000	-23.64050000
157.89999080	0.00000000	-60.12549000	-23.72662000
158.09999079	0.00000000	-60.03937000	-24.10187000
158.29999078	0.00000000	-59.66412000	-24.84621000
158.49999077	0.00000000	-58.91978000	-25.22145000
158.69999075	0.00000000	-58.54454000	-25.22145000
158.89999074	0.00000000	-58.50147000	-24.84621000
159.09999073	0.00000000	-58.54454000	-24.10187000
159.29999072	0.00000000	-58.91978000	-23.72662000
159.49999071	0.00000000	-59.66412000	-23.68356000
159.69999070	0.00000000	-60.03937000	-23.64050000
159.89999068	0.00000000	-60.08243000	-23.26525000
160.09999067	0.00000000	-60.08243000	-22.57013000
160.29999066	0.00000000	-60.08243000	-22.57013000
160.49999065	0.00000000	-60.08243000	-23.26525000
160.69999064	0.00000000	-60.08243000	-23.64050000
160.89999062	0.00000000	-60.08243000	-23.68356000
161.09999061	0.00000000	-60.08243000	-23.72662000
161.29999060	0.00000000	-60.08243000	-24.10187000
161.49999059	0.00000000	-60.03937000	-24.79700000
161.69999058	0.00000000	-59.66412000	-24.79700000
161.89999056	0.00000000	-58.91978000	-24.10187000
162.09999055	0.00000000	-58.54454000	-23.72662000
162.29999054	0.00000000	-58.50147000	-23.68356000
162.49999053	0.00000000	-58.50147000	-23.64050000
162.69999052	0.00000000	-58.54454000	-23.30832000
162.89999051	0.00000000	-58.91978000	-22.93922000
163.09999049	0.00000000	-59.66412000	-23.30832000
163.29999048	0.00000000	-60.03937000	-23.64050000
163.49999047	0.00000000	-60.08243000	-23.68356000
163.69999046	0.00000000	-60.08243000	-23.68356000
163.89999045	0.00000000	-60.08243000	-23.68356000
164.09999043	0.00000000	-60.08243000	-23.68356000
164.29999042	0.00000000	-60.03937000	-23.68356000
164.49999041	0.00000000	-59.66412000	-23.68356000
164.69999040	0.00000000	-58.91978000	-23.68356000
164.89999039	0.00000000	-58.54454000	-23.68356000
165.09999037	0.00000000	-58.50147000	-23.68356000
165.29999036	0.00000000	-58.50147000	-23.68356000
165.49999035	0.00000000	-58.50147000	-23.68356000
165.69999034	0.00000000	-58.54454000	-23.68356000
165.89999033	0.00000000	-58.91978000	-23.68356000
166.09999032	0.00000000	-59.70718000	-23.68356000
166.29999030	0.00000000	-60.45767000	-23.68356000
166.49999029	0.00000000	-61.19586000	-23.68356000
166.69999028	0.00000000	-61.19586000	-23.68356000
166.89999027	0.00000000	-60.50073000	-23.68356000
167.09999026	0.00000000	-60.12549000	-23.68356000
167.29999024	0.00000000	-60.08243000	-23.68356000
167.49999023	0.00000000	-60.08243000	-23.72662000
167.69999022	0.00000000	-60.08243000	-24.10187000
167.89999021	0.00000000	-60.03937000	-24.79700000
168.09999020	0.00000000	-59.66412000	-24.84621000
168.29999018	0.00000000	-58.91978000	-24.47712000
168.49999017	0.00000000	-58.54454000	-24.47096000
168.69999016	0.00000000	-58.54454000	-24.05881000
168.89999015	0.00000000	-58.91978000	-23.72662000
169.09999014	0.00000000	-59.66412000	-23.68356000
169.29999013	0.00000000	-60.03937000	-23.68356000
169.49999011	0.00000000	-60.08243000	-23.68356000
169.69999010	0.00000000	-60.08243000	-23.68356000
169.89999009	0.00000000	-60.08243000	-23.68356000
170.09999008	0.00000000	-60.08243000	-23.68356000
170.29999007	0.00000000	-60.03937000	-23.68356000
170.49999005	0.00000000	-59.70718000	-23.68356000
170.69999004	0.00000000	-59.33809000	-23.68356000
170.89999003	0.00000000	-59.70718000	-23.68356000
171.09999002	0.00000000	-59.99015000	-23.68356000
171.29999001	0.00000000	-59.66412000	-23.68356000
171.49998999	0.00000000	-58.91978000	-23.68356000
171.69998998	0.00000000	-58.59375000	-23.68356000
171.89998997	0.00000000	-58.87672000	-23.68356000
172.09998996	0.00000000	-59.28888000	-23.68356000
172.29998995	0.00000000	-59.25196000	-23.68356000
172.49998994	0.00000000	-59.33194000	-23.68356000
172.69998992	0.00000000	-59.29502000	-23.68356000
172.89998991	0.00000000	-59.70718000	-23.68356000
173.09998990	0.00000000	-60.03937000	-23.68356000
173.29998989	0.00000000	-60.03937000	-23.68356000
173.49998988	0.00000000	-59.70718000	-23.68356000
173.69998986	0.00000000	-59.29502000	-23.68356000
173.89998985	0.00000000	-59.28888000	-23.68356000
174.09998984	0.00000000	-58.87672000	-23.68356000
174.29998983	0.00000000	-58.54454000	-23.68356000
174.49998982	0.00000000	-58.50147000	-23.68356000
174.69998980	0.00000000	-58.54454000	-23.68356000
174.89998979	0.00000000	-58.91978000	-23.68356000
175.09998978	0.00000000	-59.61491000	-23.68356000
175.29998977	0.00000000	-59.66412000	-23.68356000
175.49998976	0.00000000	-59.33809000	-23.68356000
175.69998975	0.00000000	-59.70718000	-23.68356000
175.89998973	0.00000000	-60.03937000	-23.68356000
176.09998972	0.00000000	-60.08243000	-23.68356000
176.29998971	0.00000000	-60.03937000	-23.68356000
176.49998970	0.00000000	-59.66412000	-23.68356000
176.69998969	0.00000000	-58.96899000	-23.68356000
176.89998967	0.00000000	-58.91978000	-23.68356000
177.09998966	0.00000000	-59.24582000	-23.68356000
177.29998965	0.00000000	-58.91978000	-23.68356000
177.49998964	0.00000000	-58.96899000	-23.68356000
177.69998963	0.00000000	-59.66412000	-23.68356000
177.89998961	0.00000000	-60.03937000	-23.68356000
178.09998960	0.00000000	-60.08243000	-23.68356000
178.29998959	0.00000000	-60.03937000	-23.68356000
178.49998958	0.00000000	-59.66412000	-23.68356000
178.69998957	0.00000000	-58.91978000	-23.68356000
178.89998956	0.00000000	-58.54454000	-23.68356000
179.09998954	0.00000000	-58.50147000	-23.68356000
179.29998953	0.00000000	-58.50147000	-23.68356000
179.49998952	0.00000000	-58.50147000	-23.68356000
179.69998951	0.00000000	-58.50147000	-23.68356000
179.89998950	0.00000000	-58.50147000	-23.68356000
180.09998948	0.00000000	-58.50147000	-23.72662000
180.29998947	0.00000000	-58.50147000	-24.05881000
180.49998946	0.00000000	-58.54454000	-24.42790000
180.69998945	0.00000000	-58.91978000	-24.05881000
180.89998944	0.00000000	-59.61491000	-23.72662000
181.09998942	0.00000000	-59.61491000	-23.72662000
181.29998941	0.00000000	-58.91978000	-24.05881000
181.49998940	0.00000000	-58.54454000	-24.42790000
181.69998939	0.00000000	-58.50147000	-24.05881000
181.89998938	0.00000000	-58.50147000	-23.72662000
182.09998937	0.00000000	-58.50147000	-23.68356000
182.29998935	0.00000000	-58.50147000	-23.68356000
182.49998934	0.00000000	-58.50147000	-23.68356000
182.69998933	0.00000000	-58.50147000	-23.68356000
182.89998932	0.00000000	-58.50147000	-23.68356000
183.09998931	0.00000000	-58.50147000	-23.72662000
183.29998929	0.00000000	-58.50147000	-24.10187000
183.49998928	0.00000000	-58.50147000	-24.79700000
183.69998927	0.00000000	-58.50147000	-24.79700000
183.89998926	0.00000000	-58.50147000	-24.10187000
184.09998925	0.00000000	-58.54454000	-23.72662000
184.29998923	0.00000000	-58.91978000	-23.68356000
184.49998922	0.00000000	-59.61491000	-23.68356000
184.69998921	0.00000000	-59.61491000	-23.64050000
184.89998920	0.00000000	-58.91978000	-23.30832000
185.09998919	0.00000000	-58.54454000	-22.93922000
185.29998918	0.00000000	-58.50147000	-23.30832000
185.49998916	0.00000000	-58.50147000	-23.64050000
185.69998915	0.00000000	-58.50147000	-23.68356000
185.89998914	0.00000000	-58.50147000	-23.68356000
186.09998913	0.00000000	-58.50147000	-23.68356000
186.29998912	0.00000000	-58.50147000	-23.72662000
186.49998910	0.00000000	-58.50147000	-24.10187000
186.69998909	0.00000000	-58.50147000	-24.79700000
186.89998908	0.00000000	-58.54454000	-24.79700000
187.09998907	0.00000000	-58.87672000	-24.10187000
187.29998906	0.00000000	-59.24582000	-23.72662000
187.49998904	0.00000000	-58.91978000	-23.64050000
187.69998903	0.00000000	-58.96899000	-23.26525000
187.89998902	0.00000000	-59.61491000	-22.52091000
188.09998901	0.00000000	-59.61491000	-22.19488000
188.29998900	0.00000000	-58.91978000	-22.52091000
188.49998899	0.00000000	-58.54454000	-23.26525000
188.69998897	0.00000000	-58.50147000	-23.64050000
188.89998896	0.00000000	-58.50147000	-23.68356000
189.09998895	0.00000000	-58.50147000	-23.68356000
189.29998894	0.00000000	-58.50147000	-23.68356000
189.49998893	0.00000000	-58.50147000	-23.68356000
189.69998891	0.00000000	-58.50147000	-23.68356000
189.89998890	0.00000000	-58.50147000	-23.68356000
190.09998889	0.00000000	-58.54454000	-23.68356000
190.29998888	0.00000000	-58.87672000	-23.68356000
190.49998887	0.00000000	-59.24582000	-23.64050000
190.69998885	0.00000000	-58.87672000	-23.30832000
190.89998884	0.00000000	-58.54454000	-22.93922000
191.09998883	0.00000000	-58.50147000	-23.30832000
191.29998882	0.00000000	-58.50147000	-23.64050000
191.49998881	0.00000000	-58.50147000	-23.68356000
191.69998880	0.00000000	-58.50147000	-23.68356000
191.89998878	0.00000000	-58.50147000	-23.68356000
192.09998877	0.00000000	-58.50147000	-23.68356000
192.29998876	0.00000000	-58.50147000	-23.68356000
192.49998875	0.00000000	-58.50147000	-23.68356000
192.69998874	0.00000000	-58.50147000	-23.68356000
192.89998872	0.00000000	-58.50147000	-23.68356000
193.09998871	0.00000000	-58.54454000	-23.68356000
193.29998870	0.00000000	-58.91978000	-23.68356000
193.49998869	0.00000000	-59.61491000	-23.64050000
193.69998868	0.00000000	-59.61491000	-23.30832000
193.89998866	0.00000000	-58.91978000	-22.89616000
194.09998865	0.00000000	-58.54454000	-22.89001000
194.29998864	0.00000000	-58.50147000	-22.52091000
194.49998863	0.00000000	-58.50147000	-22.57013000
194.69998862	0.00000000	-58.50147000	-23.26525000
194.89998861	0.00000000	-58.50147000	-23.64050000
195.09998859	0.00000000	-58.50147000	-23.68356000
195.29998858	0.00000000	-58.50147000	-23.68356000
195.49998857	0.00000000	-58.50147000	-23.68356000
195.69998856	0.00000000	-58.54454000	-23.68356000
195.89998855	0.00000000	-58.87672000	-23.68356000
196.09998853	0.00000000	-59.28888000	-23.68356000
