Time	Channel A	Channel B	Channel C
(us)	(V)	(mV)	(mV)

-4.53333289	0.00000000	42.69193000	15.36663000
-4.33333290	0.00000000	42.69193000	15.04675000
-4.13333291	0.00000000	42.69193000	15.40969000
-3.93333293	0.00000000	42.69193000	15.74188000
-3.73333294	0.00000000	42.69193000	15.78494000
-3.53333295	0.00000000	42.69193000	15.78494000
-3.33333296	0.00000000	42.69193000	15.78494000
-3.13333297	0.00000000	42.69193000	15.78494000
-2.93333299	0.00000000	42.69193000	15.78494000
-2.73333300	0.00000000	42.69193000	15.74188000
-2.53333301	0.00000000	42.64886000	15.40969000
-2.33333302	0.00000000	42.31668000	15.04675000
-2.13333303	0.00000000	41.90453000	15.36663000
-1.93333304	0.00000000	41.94144000	15.32357000
-1.73333306	0.00000000	41.90453000	14.67150000
-1.53333307	0.00000000	42.31668000	14.67150000
-1.33333308	0.00000000	42.59965000	15.32357000
-1.13333309	0.00000000	42.31668000	15.36663000
-0.93333310	0.00000000	41.94759000	15.04675000
-0.73333312	0.00000000	42.31668000	15.40969000
-0.53333313	0.00000000	42.64886000	15.74188000
-0.33333314	0.15871060	42.69193000	15.78494000
-0.13333315	0.47736220	42.69193000	15.78494000
0.06666684	0.95533960	42.69193000	15.78494000
0.26666682	0.95533960	42.69193000	15.74188000
0.46666681	0.95533960	42.69193000	15.36663000
0.66666680	0.47736220	42.69193000	14.62844000
0.86666679	-0.31803640	42.69193000	14.30241000
1.06666678	-1.27399100	42.69193000	14.62844000
1.26666677	-2.22994600	42.69193000	15.36663000
1.46666675	-2.70792300	42.69193000	15.74188000
1.66666674	-2.70792300	42.69193000	15.78494000
1.86666673	-1.75196900	42.69193000	15.78494000
2.06666672	0.00000000	42.69193000	15.78494000
2.26666671	2.07062000	42.64886000	15.74188000
2.46666669	4.14124000	42.27362000	15.36663000
2.66666668	5.25652100	41.52928000	14.62844000
2.86666667	5.09719500	41.15403000	14.25320000
3.06666666	3.50393700	41.11097000	14.21014000
3.26666665	0.63668800	41.11097000	14.21014000
3.46666663	-2.70792300	41.15403000	14.21014000
3.66666662	-5.73449800	41.52928000	14.25320000
3.86666661	-7.64579200	42.27362000	14.62844000
4.06666660	-7.80511800	42.64886000	15.36663000
4.26666659	-5.73449800	42.69193000	15.69267000
4.46666658	-2.22994600	42.69193000	15.40969000
4.66666656	2.22994600	42.69193000	15.04675000
4.86666655	6.37180100	42.69193000	15.36663000
5.06666654	8.92039900	42.64886000	15.32357000
5.26666653	9.39837600	42.27362000	14.62844000
5.46666652	7.32714100	41.52928000	14.25320000
5.66666650	3.66326300	41.15403000	14.21014000
5.86666649	-1.11466500	41.11097000	14.21014000
6.06666648	-5.57517200	41.15403000	14.25320000
6.26666647	-8.76107300	41.52928000	14.62844000
6.46666646	-9.39837600	42.27362000	15.36663000
6.66666644	-7.96444400	42.64886000	15.74188000
6.86666643	-4.45989200	42.69193000	15.78494000
7.06666642	-0.15871060	42.69193000	15.78494000
7.26666641	3.98191400	42.69193000	15.74188000
7.46666640	6.84916400	42.64886000	15.36663000
7.66666639	7.80511800	42.27362000	14.62844000
7.86666637	6.84916400	41.52928000	14.25320000
8.06666636	4.30056600	41.15403000	14.21014000
8.26666635	0.95533960	41.11097000	14.21014000
8.46666634	-2.07062000	41.11097000	14.21014000
8.66666633	-4.30056600	41.11097000	14.25320000
8.86666631	-5.25652100	41.15403000	14.62844000
9.06666630	-4.77854300	41.48622000	15.36663000
9.26666629	-3.18590100	41.85531000	15.69267000
9.46666628	-1.27399100	41.52928000	15.36663000
9.66666627	0.63668800	41.52928000	14.62844000
9.86666625	1.91129400	41.89838000	14.30241000
10.06666624	2.54859700	41.86147000	14.58538000
10.26666623	2.38927200	41.94144000	14.94833000
10.46666622	1.75196900	41.90453000	14.58538000
10.66666621	0.79601380	42.27362000	14.30241000
10.86666620	0.00000000	42.27362000	14.62844000
11.06666618	-0.63668800	41.94759000	15.36663000
11.26666617	-0.95533960	42.27362000	15.69267000
11.46666616	-0.95533960	42.27362000	15.40969000
11.66666615	-0.79601380	41.94759000	15.04675000
11.86666614	-0.47736220	42.27362000	15.40969000
12.06666612	-0.15871060	42.27362000	15.74188000
12.26666611	-0.15871060	41.94759000	15.78494000
12.46666610	0.00000000	42.27362000	15.74188000
12.66666609	0.00000000	42.22441000	15.36663000
12.86666608	0.00000000	41.52928000	14.62844000
13.06666606	0.00000000	41.15403000	14.25320000
13.26666605	0.15871060	41.11097000	14.21014000
13.46666604	0.00000000	41.11097000	14.21014000
13.66666603	0.00000000	41.11097000	14.21014000
13.86666602	0.00000000	41.11097000	14.21014000
14.06666601	-0.15871060	41.11097000	14.21014000
14.26666599	-0.15871060	41.11097000	14.21014000
14.46666598	-0.15871060	41.11097000	14.21014000
14.66666597	-0.15871060	41.15403000	14.21014000
14.86666596	0.00000000	41.48622000	14.21014000
15.06666595	0.00000000	41.85531000	14.25320000
15.26666593	0.00000000	41.48622000	14.58538000
15.46666592	0.00000000	41.15403000	14.94833000
15.66666591	0.00000000	41.11097000	14.62844000
15.86666590	0.00000000	41.11097000	14.67150000
16.06666589	0.00000000	41.11097000	15.32357000
16.26666587	0.00000000	41.11097000	15.32357000
16.46666586	0.00000000	41.15403000	14.67150000
16.66666585	-0.15871060	41.52928000	14.67150000
16.86666584	-0.15871060	42.27362000	15.36663000
17.06666583	0.00000000	42.69193000	15.74188000
17.26666582	0.00000000	43.11023000	15.74188000
17.46666580	0.00000000	43.85457000	15.40969000
17.66666579	0.00000000	44.18061000	15.04675000
17.86666578	0.00000000	43.80536000	15.40969000
18.06666577	0.00000000	42.64886000	15.74188000
18.26666576	0.00000000	41.11097000	15.78494000
18.46666574	0.00000000	39.53002000	15.74188000
18.66666573	0.00000000	37.99213000	15.40969000
18.86666572	0.00000000	36.87869000	15.04675000
19.06666571	-0.15871060	36.87869000	15.40969000
19.26666570	0.00000000	38.04134000	15.74188000
19.46666568	0.00000000	40.04060000	15.78494000
19.66666567	0.00000000	43.15945000	15.78494000
19.86666566	0.00000000	47.01648000	15.78494000
20.06666565	0.00000000	50.46136000	15.78494000
20.26666564	0.00000000	52.73745000	15.74188000
20.46666563	0.00000000	52.69439000	15.36663000
20.66666561	0.00000000	49.95078000	14.62844000
20.86666560	0.00000000	44.88189000	14.30241000
21.06666559	0.00000000	37.89985000	14.58538000
21.26666558	0.00000000	30.54872000	14.94833000
21.46666557	0.00000000	24.40330000	14.58538000
21.66666555	0.00000000	21.00763000	14.25320000
21.86666554	0.00000000	22.26255000	14.21014000
22.06666553	0.00000000	28.45103000	14.21014000
22.26666552	0.00000000	38.58883000	14.21014000
22.46666551	0.00000000	50.97194000	14.21014000
22.66666549	0.00000000	63.25048000	14.21014000
22.86666548	0.00000000	71.63509000	14.25320000
23.06666547	-0.15871060	73.17297000	14.62844000
23.26666546	0.00000000	67.31053000	15.36663000
23.46666545	0.00000000	54.88435000	15.74188000
23.66666544	0.00000000	37.85679000	15.78494000
23.86666542	0.00000000	20.12795000	15.82800000
24.06666541	0.00000000	5.84399600	16.16018000
24.26666540	0.00000000	-1.37180100	16.48007000
24.46666539	0.00000000	1.00270700	15.69882000
24.66666538	0.00000000	13.42274000	14.21014000
24.86666536	0.00000000	33.10777000	12.62918000
25.06666535	0.00000000	55.89936000	11.04823000
25.26666534	0.00000000	76.28567000	9.55954600
25.46666533	0.00000000	89.03174000	8.82135800
25.66666532	0.00000000	90.94487000	9.60875900
25.86666530	0.00000000	81.68060000	11.55881000
26.06666529	0.00000000	63.07209000	14.72072000
26.26666528	0.00000000	39.15477000	18.94685000
26.46666527	0.00000000	15.19439000	23.12992000
26.66666526	0.00000000	-2.95275600	25.82431000
26.86666525	0.00000000	-11.46038000	26.19955000
27.06666523	0.00000000	-8.29847400	24.20029000
27.26666522	0.00000000	6.35457700	19.50664000
27.46666521	0.00000000	29.10310000	12.54306000
27.66666520	0.00000000	54.18307000	4.87204700
27.86666519	0.00000000	75.86736000	-1.67322800
28.06666517	0.00000000	89.40698000	-5.11195900
28.26666516	0.00000000	92.15059000	-4.69365100
28.46666515	0.00000000	83.67986000	0.04306102
28.66666514	0.00000000	66.32628000	9.00590400
28.86666513	0.00000000	44.31594000	20.94611000
29.06666511	0.00000000	22.63779000	33.21235000
29.26666510	0.00000000	5.97933100	42.08292000
29.46666509	0.00000000	-2.53444900	45.52780000
29.66666508	0.00000000	-1.03961600	42.78420000
29.86666507	0.00000000	9.70103300	33.45226000
30.06666506	0.00000000	26.27337000	19.55585000
30.26666504	0.00000000	44.87574000	3.66633800
30.46666503	0.00000000	61.53420000	-10.92520000
30.66666502	0.00000000	73.21604000	-20.54011000
30.86666501	0.00000000	77.82357000	-22.44709000
31.06666500	0.00000000	74.42175000	-16.27091000
31.26666498	0.00000000	64.05019000	-3.11884800
31.46666497	0.00000000	50.12918000	14.25320000
31.66666496	0.00000000	35.38385000	32.04970000
31.86666495	0.00000000	22.63779000	46.73351000
32.06666494	0.00000000	14.86836000	55.18577000
32.26666492	0.00000000	13.28740000	55.14271000
32.46666491	0.00000000	17.89493000	46.31520000
32.66666490	0.00000000	27.52214000	30.88705000
32.86666489	0.00000000	39.48080000	12.72146000
33.06666488	0.00000000	51.11343000	-4.74286400
33.26666487	0.00000000	59.95324000	-18.22096000
33.46666485	0.00000000	63.85950000	-24.76624000
33.66666484	0.00000000	62.00172000	-22.49631000
33.86666483	0.00000000	55.89936000	-12.50615000
34.06666482	0.00000000	47.34252000	2.59596400
34.26666481	0.00000000	38.08440000	19.97416000
34.46666479	0.00000000	30.03199000	35.81446000
34.66666478	0.00000000	25.75049000	46.64124000
34.86666477	0.00000000	26.07652000	50.49828000
35.06666476	0.00000000	29.89665000	46.26599000
35.26666475	0.00000000	36.45423000	35.16240000
35.46666473	0.00000000	43.71924000	20.47859000
35.66666472	0.00000000	49.53248000	5.38262700
35.86666471	0.00000000	52.60211000	-7.30191900
36.06666470	0.00000000	52.27608000	-14.22244000
36.26666469	0.00000000	48.83735000	-13.52731000
36.46666468	0.00000000	43.80536000	-6.27460600
36.66666466	0.00000000	37.99213000	5.24729300
36.86666465	0.00000000	32.68332000	17.97490000
37.06666464	0.00000000	30.03199000	28.75861000
37.26666463	0.00000000	31.10236000	35.30389000
37.46666462	0.00000000	34.92249000	35.72219000
37.66666460	0.00000000	39.94832000	30.37647000
37.86666459	0.00000000	45.34325000	21.17372000
38.06666458	0.00000000	49.53248000	10.44537000
38.26666457	0.00000000	51.15649000	1.66092500
38.46666456	0.00000000	50.41830000	-2.56520700
38.66666454	0.00000000	48.08686000	-1.03346500
38.86666453	0.00000000	44.18061000	5.80093500
39.06666452	0.00000000	39.62229000	15.32357000
39.26666451	0.00000000	35.71604000	24.15723000
39.46666450	0.00000000	33.33538000	29.91511000
39.66666449	0.00000000	32.17273000	31.02854000
39.86666447	0.00000000	32.59719000	26.84547000
40.06666446	0.00000000	34.87328000	18.81152000
40.26666445	0.00000000	37.99213000	9.60875900
40.46666444	0.00000000	41.52928000	1.48253000
40.66666443	0.00000000	45.38631000	-3.45103300
40.86666441	0.00000000	48.46210000	-3.81397600
41.06666440	0.00000000	50.04306000	1.19955700
41.26666439	0.00000000	50.04306000	9.98400600
41.46666438	0.00000000	48.50517000	20.01722000
41.66666437	0.00000000	45.81078000	28.84473000
41.86666435	0.00000000	42.69193000	34.19045000
42.06666434	0.00000000	39.57308000	34.19045000
42.26666433	0.00000000	36.87869000	28.89395000
42.46666432	0.00000000	35.29773000	20.43553000
42.66666431	0.00000000	34.87943000	11.18356000
42.86666430	0.00000000	35.25467000	3.10039400
43.06666428	0.00000000	36.46038000	-1.53789400
43.26666427	0.00000000	38.36737000	-1.95620100
43.46666426	0.00000000	40.69267000	1.48253000
43.66666425	0.00000000	42.64886000	7.98474400
43.86666424	0.00000000	44.22982000	15.27436000
44.06666422	0.00000000	45.38631000	21.45669000
44.26666421	0.00000000	45.81078000	25.35679000
44.46666420	0.00000000	45.81078000	26.19955000
44.66666419	0.00000000	45.43553000	24.66166000
44.86666418	0.00000000	44.69119000	21.17372000
45.06666416	0.00000000	44.27288000	16.20325000
45.26666415	0.00000000	43.76230000	11.60187000
45.46666414	0.00000000	42.22441000	8.48917200
45.66666413	0.00000000	39.90526000	7.24040300
45.86666412	0.00000000	37.53075000	7.60949800
46.06666411	0.00000000	34.78716000	8.77214500
46.26666409	0.00000000	32.17273000	11.14050000
46.46666408	0.00000000	31.05930000	14.21014000
46.66666407	0.00000000	32.22195000	17.27977000
46.86666406	0.00000000	35.34079000	19.59892000
47.06666405	0.00000000	40.08366000	20.39247000
47.26666403	0.00000000	46.22908000	20.01722000
47.46666402	0.00000000	52.36220000	18.43627000
47.66666401	0.00000000	56.18848000	15.78494000
47.86666400	0.00000000	56.96973000	13.04749000
48.06666399	0.00000000	54.18307000	10.72219000
48.26666397	0.00000000	47.99458000	8.82135800
48.46666396	0.00000000	39.53002000	8.44611200
48.66666395	0.00000000	31.05930000	9.60875900
48.86666394	0.00000000	24.87082000	11.93405000
49.06666393	0.00000000	22.17027000	15.40969000
49.26666392	0.00000000	23.75123000	18.85458000
49.46666390	0.00000000	29.57062000	21.54897000
49.66666389	0.00000000	38.41043000	22.66240000
49.86666388	0.00000000	48.04380000	21.54897000
50.06666387	0.00000000	55.76402000	18.85458000
50.26666386	0.00000000	60.04552000	15.36663000
50.46666384	0.00000000	60.00246000	11.46653000
50.66666383	0.00000000	55.30265000	8.02780400
50.86666382	0.00000000	46.54896000	5.75172200
51.06666381	0.00000000	36.55265000	5.75172200
51.26666380	0.00000000	28.82013000	8.02780400
51.46666379	0.00000000	24.16954000	11.51575000
51.66666377	0.00000000	24.21875000	15.78494000
51.86666376	0.00000000	29.10310000	19.97416000
52.06666375	0.00000000	36.41117000	22.66855000
52.26666374	0.00000000	44.18061000	23.08686000
52.46666373	0.00000000	51.07037000	21.54897000
52.66666371	0.00000000	54.88435000	18.47933000
52.86666370	0.00000000	54.18307000	14.62844000
53.06666369	0.00000000	50.00000000	11.14050000
53.26666368	0.00000000	43.80536000	8.44611200
53.46666367	0.00000000	36.92175000	7.33267600
53.66666365	0.00000000	31.56988000	8.44611200
53.86666364	0.00000000	29.61368000	11.09744000
54.06666363	0.00000000	31.10236000	14.16092000
54.26666362	0.00000000	35.34079000	16.85531000
54.46666361	0.00000000	41.11097000	18.39321000
54.66666360	0.00000000	46.83809000	18.39321000
54.86666358	0.00000000	50.69513000	16.90453000
55.06666357	0.00000000	51.48868000	14.62844000
55.26666356	0.00000000	49.57554000	12.72146000
55.46666355	0.00000000	45.30019000	11.60187000
55.66666354	0.00000000	39.57308000	11.97711000
55.86666352	0.00000000	34.22121000	13.87795000
56.06666351	0.00000000	31.14542000	16.16018000
56.26666350	0.00000000	31.10236000	18.47933000
56.46666349	0.00000000	33.75369000	19.93110000
56.66666348	0.00000000	37.99213000	19.55585000
56.86666346	0.00000000	42.64886000	17.23056000
57.06666345	0.00000000	46.88115000	13.79183000
57.26666344	0.00000000	49.53248000	9.93479300
57.46666343	0.00000000	49.57554000	6.91437000
57.66666342	0.00000000	47.29946000	5.75172200
57.86666341	0.00000000	43.85457000	6.95743000
58.06666339	0.00000000	39.99754000	10.44537000
58.26666338	0.00000000	36.92175000	15.83415000
58.46666337	0.00000000	35.34079000	21.54897000
58.66666336	0.00000000	35.29773000	25.77510000
58.86666335	0.00000000	36.46038000	27.26378000
59.06666333	0.00000000	38.36737000	25.35679000
59.26666332	0.00000000	40.69267000	20.34941000
59.46666331	0.00000000	42.59965000	13.79183000
59.66666330	0.00000000	43.76230000	6.86515700
59.86666329	0.00000000	43.76230000	1.48253000
60.06666327	0.00000000	42.64886000	-0.79970470
60.26666326	0.00000000	41.15403000	0.36909450
60.46666325	0.00000000	39.99754000	5.42568800
60.66666324	0.00000000	39.57308000	13.04749000
60.86666323	0.00000000	39.57308000	21.13066000
61.06666322	0.00000000	39.99754000	27.31299000
61.26666320	0.00000000	41.11097000	30.42569000
61.46666319	0.00000000	42.22441000	30.00738000
61.66666318	0.00000000	42.64886000	25.73203000
61.86666317	0.00000000	42.64886000	18.43627000
62.06666316	0.00000000	42.22441000	9.98400600
62.26666314	0.00000000	41.06791000	2.68823800
62.46666313	0.00000000	39.53002000	-1.58710600
62.66666312	0.00000000	37.99213000	-2.00541300
62.86666311	0.00000000	36.87869000	1.10728300
63.06666310	0.00000000	36.92175000	7.28346400
63.26666308	0.00000000	38.41658000	15.32357000
63.46666307	0.00000000	40.69267000	22.66240000
63.66666306	0.00000000	42.64886000	27.68824000
63.86666305	0.00000000	44.22982000	29.63213000
64.06666304	0.00000000	45.34325000	27.73130000
64.26666303	0.00000000	45.30019000	23.17298000
64.46666301	0.00000000	43.80536000	17.32283000
64.66666300	0.00000000	41.48622000	11.14050000
64.86666299	0.00000000	39.19783000	5.75172200
65.06666298	0.00000000	37.25394000	2.68208600
65.26666297	0.00000000	36.50344000	2.59596400
65.46666295	0.00000000	36.83563000	4.87204700
65.66666294	0.00000000	38.04134000	8.35998900
65.86666293	0.00000000	39.94832000	12.62918000
66.06666292	0.00000000	42.22441000	16.85531000
66.26666291	0.00000000	43.71924000	20.01722000
66.46666289	0.00000000	43.76230000	22.01649000
66.66666288	0.00000000	42.59965000	23.17298000
66.86666287	0.00000000	40.73573000	23.12992000
67.06666286	0.00000000	38.78568000	21.64124000
67.26666285	0.00000000	37.66609000	19.27288000
67.46666284	0.00000000	37.29700000	16.57234000
67.66666282	0.00000000	38.50270000	13.42274000
67.86666281	0.00000000	41.11097000	10.72219000
68.06666280	0.00000000	43.80536000	8.26771600
68.26666279	0.00000000	45.76156000	6.02854300
68.46666278	0.00000000	46.88115000	4.54601300
68.66666276	0.00000000	46.41363000	5.37647600
68.86666275	0.00000000	43.71924000	8.40305000
69.06666274	0.00000000	39.53002000	12.67224000
69.26666273	0.00000000	35.24852000	17.36589000
69.46666272	0.00000000	31.84670000	21.96727000
69.66666270	0.00000000	30.27190000	25.39985000
69.86666269	0.00000000	31.47145000	26.15034000
70.06666268	0.00000000	34.55339000	24.29257000
70.26666267	0.00000000	39.61614000	20.39247000
70.46666266	0.00000000	45.34325000	15.36663000
70.66666265	0.00000000	50.00000000	9.93479300
70.86666263	0.00000000	52.69439000	5.33341500
71.06666262	0.00000000	52.69439000	2.63902500
71.26666261	0.00000000	49.95078000	2.63902500
71.46666260	0.00000000	44.92495000	5.29035400
71.66666259	0.00000000	38.36737000	9.51648500
71.86666257	0.00000000	32.22195000	14.21014000
72.06666256	0.00000000	27.94045000	18.81152000
72.26666255	0.00000000	26.40256000	22.24409000
72.46666254	0.00000000	27.94045000	23.03765000
72.66666253	0.00000000	32.22195000	21.59203000
72.86666251	0.00000000	38.36737000	18.89764000
73.06666250	0.00000000	44.92495000	15.83415000
73.26666249	0.00000000	49.95078000	13.09055000
73.46666248	0.00000000	52.69439000	11.18356000
73.66666247	0.00000000	52.69439000	10.40231000
73.86666246	0.00000000	49.95078000	11.14050000
74.06666244	0.00000000	44.96801000	12.62918000
74.26666243	0.00000000	38.82874000	14.16092000
74.46666242	0.00000000	33.80290000	15.27436000
74.66666241	0.00000000	30.68405000	15.27436000
74.86666240	0.00000000	29.89665000	14.11786000
75.06666238	0.00000000	31.79749000	12.25394000
75.26666237	0.00000000	35.20546000	10.40231000
75.46666236	0.00000000	39.11171000	10.07013000
75.66666235	0.00000000	42.59965000	11.55881000
75.86666234	0.00000000	45.34325000	14.29626000
76.06666232	0.00000000	46.88115000	17.74114000
76.26666231	0.00000000	46.83809000	21.22293000
76.46666230	0.00000000	45.01722000	23.45595000
76.66666229	0.00000000	42.37204000	23.82505000
76.86666228	0.00000000	40.77879000	21.50590000
77.06666227	0.00000000	39.53002000	17.27362000
77.26666225	0.00000000	38.45964000	12.21087000
77.46666224	0.00000000	38.41658000	6.86515700
77.66666223	0.00000000	39.11171000	3.05733300
77.86666222	0.00000000	39.48696000	2.26377900
78.06666221	0.00000000	39.53002000	4.17076700
78.26666219	0.00000000	39.48696000	8.44611200
78.46666218	0.00000000	39.11171000	14.21014000
78.66666217	0.00000000	38.41658000	20.01722000
78.86666216	0.00000000	38.41658000	24.61860000
79.06666215	0.00000000	39.19783000	26.93774000
79.26666213	0.00000000	40.36663000	26.19955000
79.46666212	0.00000000	42.31668000	23.12992000
79.66666211	0.00000000	44.18061000	18.47933000
79.86666210	0.00000000	45.34325000	13.04749000
80.06666209	0.00000000	45.34325000	8.07086500
80.26666208	0.00000000	44.18061000	4.59522600
80.46666206	0.00000000	42.22441000	3.80167300
80.66666205	0.00000000	39.53002000	5.24729300
80.86666204	0.00000000	36.83563000	7.93553100
81.06666203	0.00000000	34.92249000	11.09744000
81.26666202	0.00000000	34.17815000	14.58538000
81.46666200	0.00000000	35.34079000	18.11024000
81.66666199	0.00000000	37.99213000	20.81078000
81.86666198	0.00000000	41.06791000	22.75467000
82.06666197	0.00000000	43.76230000	23.08686000
82.26666196	0.00000000	45.30019000	21.59203000
82.46666194	0.00000000	45.34325000	18.89764000
82.66666193	0.00000000	44.22982000	15.78494000
82.86666192	0.00000000	42.64886000	12.67224000
83.06666191	0.00000000	40.73573000	9.93479300
83.26666190	0.00000000	38.78568000	7.98474400
83.46666189	0.00000000	37.61687000	6.77903500
83.66666187	0.00000000	36.83563000	6.44685000
83.86666186	0.00000000	36.87869000	7.24040300
84.06666185	0.00000000	37.99213000	9.60875900
84.26666184	0.00000000	39.48696000	13.04749000
84.46666183	0.00000000	40.64345000	16.94759000
84.66666181	0.00000000	41.06791000	20.43553000
84.86666180	0.00000000	41.11097000	23.12992000
85.06666179	0.00000000	41.11097000	24.24335000
85.26666178	0.00000000	41.11097000	23.08686000
85.46666177	0.00000000	41.11097000	19.97416000
85.66666175	0.00000000	41.11097000	15.36663000
85.86666174	0.00000000	41.11097000	10.35310000
86.06666173	0.00000000	41.11097000	6.48991100
86.26666172	0.00000000	41.11097000	4.17076700
86.46666171	0.00000000	41.06791000	4.17076700
86.66666170	0.00000000	40.64345000	6.48991100
86.86666168	0.00000000	39.53002000	10.35310000
87.06666167	0.00000000	38.36737000	15.41585000
87.26666166	0.00000000	37.61687000	20.34941000
87.46666165	0.00000000	37.25394000	23.82505000
87.66666164	0.00000000	38.04134000	24.57554000
87.86666162	0.00000000	39.53002000	22.71161000
88.06666161	0.00000000	41.11097000	18.85458000
88.26666160	0.00000000	42.64886000	14.25320000
88.46666159	0.00000000	43.76230000	9.93479300
88.66666158	0.00000000	43.80536000	6.53912400
88.86666156	0.00000000	43.02411000	5.01353300
89.06666155	0.00000000	41.85531000	6.53912400
89.26666154	0.00000000	39.94832000	9.93479300
89.46666153	0.00000000	38.41658000	14.21014000
89.66666152	0.00000000	37.57381000	18.43627000
89.86666151	0.00000000	36.83563000	21.50590000
90.06666149	0.00000000	36.87869000	22.66240000
90.26666148	0.00000000	37.99213000	21.50590000
90.46666147	0.00000000	39.53002000	18.43627000
90.66666146	0.00000000	41.06791000	14.21014000
90.86666145	0.00000000	42.22441000	9.98400600
91.06666143	0.00000000	42.59965000	6.91437000
91.26666142	0.00000000	42.27362000	5.79478300
91.46666141	0.00000000	41.52928000	7.33267600
91.66666140	0.00000000	41.11097000	11.14050000
91.86666139	0.00000000	40.73573000	15.74188000
92.06666137	0.00000000	40.32357000	19.97416000
92.26666136	0.00000000	40.36048000	22.61934000
92.46666135	0.00000000	40.28051000	22.66855000
92.66666134	0.00000000	40.31742000	20.34941000
92.86666133	0.00000000	39.90526000	16.52928000
93.06666132	0.00000000	39.53002000	11.88484000
93.26666130	0.00000000	39.11171000	8.11392700
93.46666129	0.00000000	38.36737000	6.12696800
93.66666128	0.00000000	37.99213000	6.53912400
93.86666127	0.00000000	38.04134000	8.82135800
94.06666126	0.00000000	38.83489000	12.67224000
94.26666124	0.00000000	40.73573000	16.90453000
94.46666123	0.00000000	42.64886000	20.34941000
94.66666122	0.00000000	44.22982000	22.24409000
94.86666121	0.00000000	45.34325000	21.46284000
95.06666120	0.00000000	45.30019000	18.43627000
95.26666118	0.00000000	43.76230000	14.21014000
95.46666117	0.00000000	41.06791000	10.02707000
95.66666116	0.00000000	37.99213000	7.33267600
95.86666115	0.00000000	35.24852000	6.86515700
96.06666114	0.00000000	33.33538000	7.98474400
96.26666113	0.00000000	32.59104000	9.98400600
96.46666111	0.00000000	33.75369000	13.09670000
96.66666110	0.00000000	36.45423000	16.85531000
96.86666109	0.00000000	39.94832000	19.50664000
97.06666108	0.00000000	43.80536000	19.97416000
97.26666107	0.00000000	46.88115000	18.85458000
97.46666105	0.00000000	48.46210000	16.90453000
97.66666104	0.00000000	48.46210000	14.21014000
97.86666103	0.00000000	46.88115000	11.60187000
98.06666102	0.00000000	43.76230000	10.40231000
98.26666101	0.00000000	39.53002000	10.72219000
98.46666099	0.00000000	35.34079000	11.46653000
98.66666098	0.00000000	32.59719000	12.62918000
98.86666097	0.00000000	31.75443000	13.79183000
99.06666096	0.00000000	32.17273000	14.58538000
99.26666095	0.00000000	34.12894000	15.36663000
99.46666094	0.00000000	37.57381000	15.74188000
99.66666092	0.00000000	41.06791000	15.78494000
99.86666091	0.00000000	44.18061000	15.78494000
100.06666090	0.00000000	46.50590000	15.78494000
100.26666089	0.00000000	47.25640000	15.78494000
100.46666088	0.00000000	46.54896000	15.78494000
100.66666086	0.00000000	44.60506000	15.78494000
100.86666085	0.00000000	42.27362000	15.74188000
101.06666084	0.00000000	39.53002000	15.32357000
101.26666083	0.00000000	36.83563000	14.16092000
101.46666082	0.00000000	34.87328000	12.62918000
101.66666080	0.00000000	33.75369000	11.09744000
101.86666079	0.00000000	34.12894000	9.98400600
102.06666078	0.00000000	36.03592000	10.02707000
102.26666077	0.00000000	38.32431000	11.51575000
102.46666076	0.00000000	40.69267000	13.83489000
102.66666075	0.00000000	42.59965000	16.16018000
102.86666073	0.00000000	43.80536000	18.47933000
103.06666072	0.00000000	44.18061000	19.97416000
103.26666071	0.00000000	43.80536000	19.97416000
103.46666070	0.00000000	42.64886000	18.43627000
103.66666069	0.00000000	41.11097000	15.74188000
103.86666067	0.00000000	39.53002000	12.67224000
104.06666066	0.00000000	37.99213000	9.98400600
104.26666065	0.00000000	36.83563000	8.40305000
104.46666064	0.00000000	36.46038000	8.02780400
104.66666063	0.00000000	36.78642000	8.82135800
104.86666061	0.00000000	37.57381000	11.14050000
105.06666060	0.00000000	38.36737000	14.16092000
105.26666059	0.00000000	39.57308000	16.90453000
105.46666058	0.00000000	41.06791000	18.81152000
105.66666057	0.00000000	42.18134000	19.59892000
105.86666056	0.00000000	42.18134000	18.81152000
106.06666054	0.00000000	41.11097000	16.90453000
106.26666053	0.00000000	39.99754000	14.25320000
106.46666052	0.00000000	39.53002000	11.93405000
106.66666051	0.00000000	39.15477000	10.76525000
106.86666050	0.00000000	38.78568000	10.35310000
107.06666048	0.00000000	39.15477000	11.14050000
107.26666047	0.00000000	39.53002000	12.62918000
107.46666046	0.00000000	39.94832000	14.21014000
107.66666045	0.00000000	40.69267000	15.74188000
107.86666044	0.00000000	41.06791000	16.85531000
108.06666042	0.00000000	41.06791000	16.85531000
108.26666041	0.00000000	40.64345000	15.74188000
108.46666040	0.00000000	39.53002000	14.21014000
108.66666039	0.00000000	38.41658000	12.67224000
108.86666038	0.00000000	37.99213000	11.51575000
109.06666037	0.00000000	37.99213000	11.14050000
109.26666035	0.00000000	38.41658000	11.55881000
109.46666034	0.00000000	39.57308000	13.09055000
109.66666033	0.00000000	41.06791000	15.32357000
109.86666032	0.00000000	42.22441000	16.85531000
110.06666031	0.00000000	42.59965000	17.27362000
110.26666029	0.00000000	42.27362000	16.94759000
110.46666028	0.00000000	41.48622000	16.16018000
110.66666027	0.00000000	40.69267000	15.36663000
110.86666026	0.00000000	39.53002000	14.16092000
111.06666025	0.00000000	38.41658000	12.67224000
111.26666023	0.00000000	37.99213000	11.51575000
111.46666022	0.00000000	37.94907000	11.14050000
111.66666021	0.00000000	37.99213000	11.46653000
111.86666020	0.00000000	38.41658000	12.25394000
112.06666019	0.00000000	39.53002000	13.04749000
112.26666018	0.00000000	40.64345000	14.21014000
112.46666016	0.00000000	41.06791000	15.32357000
112.66666015	0.00000000	41.11097000	15.74188000
112.86666014	0.00000000	41.06791000	15.74188000
113.06666013	0.00000000	40.69267000	15.36663000
113.26666012	0.00000000	39.94832000	14.62844000
113.46666010	0.00000000	39.57308000	14.25320000
113.66666009	0.00000000	39.53002000	14.21014000
113.86666008	0.00000000	39.53002000	14.16708000
114.06666007	0.00000000	39.53002000	13.79183000
114.26666006	0.00000000	39.53002000	13.04749000
114.46666004	0.00000000	39.53002000	12.67224000
114.66666003	0.00000000	39.57308000	12.62918000
114.86666002	0.00000000	39.94832000	12.62918000
115.06666001	0.00000000	40.69267000	12.62918000
115.26666000	0.00000000	41.01870000	12.62918000
115.46665999	0.00000000	40.73573000	12.67224000
115.66665997	0.00000000	40.32357000	13.09670000
115.86665996	0.00000000	40.31742000	14.21014000
116.06665995	0.00000000	39.90526000	15.32357000
116.26665994	0.00000000	39.57308000	15.78494000
116.46665993	0.00000000	39.48696000	16.16018000
116.66665991	0.00000000	39.11171000	16.52928000
116.86665990	0.00000000	38.41658000	16.11712000
117.06665989	0.00000000	38.41658000	15.36663000
117.26665988	0.00000000	39.15477000	14.16092000
117.46665987	0.00000000	39.90526000	12.67224000
117.66665985	0.00000000	40.69267000	11.51575000
117.86665984	0.00000000	41.06791000	11.09129000
118.06665983	0.00000000	41.11097000	11.14050000
118.26665982	0.00000000	41.06791000	11.84178000
118.46665981	0.00000000	40.69267000	12.99828000
118.66665980	0.00000000	39.90526000	13.37967000
118.86665978	0.00000000	39.11171000	13.87795000
119.06665977	0.00000000	37.94907000	14.58538000
119.26665976	0.00000000	36.87869000	15.36663000
119.46665975	0.00000000	36.83563000	15.74188000
119.66665974	0.00000000	37.57381000	15.74188000
119.86665972	0.00000000	38.36737000	15.36663000
120.06665971	0.00000000	39.53002000	14.62844000
120.26665970	0.00000000	40.69267000	14.25320000
120.46665969	0.00000000	41.48622000	14.16708000
120.66665968	0.00000000	42.27362000	13.79183000
120.86665966	0.00000000	42.59965000	13.04749000
121.06665965	0.00000000	42.22441000	12.67224000
121.26665964	0.00000000	41.11097000	12.62918000
121.46665963	0.00000000	39.94832000	12.67224000
121.66665962	0.00000000	39.11171000	13.04749000
121.86665961	0.00000000	37.94907000	13.79183000
122.06665959	0.00000000	36.87869000	14.21014000
122.26665958	0.00000000	36.83563000	14.62844000
122.46665957	0.00000000	37.57381000	15.36663000
122.66665956	0.00000000	38.32431000	15.74188000
122.86665955	0.00000000	39.15477000	15.78494000
123.06665953	0.00000000	39.90526000	15.78494000
123.26665952	0.00000000	40.69267000	15.78494000
123.46665951	0.00000000	41.06791000	15.74188000
123.66665950	0.00000000	41.11097000	15.36663000
123.86665949	0.00000000	41.11097000	14.62844000
124.06665947	0.00000000	41.06791000	14.21014000
124.26665946	0.00000000	40.69267000	13.79183000
124.46665945	0.00000000	39.90526000	13.09670000
124.66665944	0.00000000	39.15477000	13.09670000
124.86665943	0.00000000	38.36737000	13.79183000
125.06665942	0.00000000	37.99213000	14.16708000
125.26665940	0.00000000	37.94907000	14.21014000
125.46665939	0.00000000	37.99213000	14.25320000
125.66665938	0.00000000	38.36737000	14.62844000
125.86665937	0.00000000	39.15477000	15.36663000
126.06665936	0.00000000	39.90526000	15.74188000
126.26665934	0.00000000	40.73573000	15.78494000
126.46665933	0.00000000	41.44316000	15.74188000
126.66665932	0.00000000	41.85531000	15.32357000
126.86665931	0.00000000	41.44316000	14.21014000
127.06665930	0.00000000	40.69267000	13.09670000
127.26665928	0.00000000	39.53002000	12.67224000
127.46665927	0.00000000	38.36737000	12.62918000
127.66665926	0.00000000	37.57381000	12.62918000
127.86665925	0.00000000	36.83563000	12.62918000
128.06665924	0.00000000	36.83563000	12.67224000
128.26665923	0.00000000	37.57381000	13.04749000
128.46665921	0.00000000	38.36737000	13.79183000
128.66665920	0.00000000	39.53002000	14.16708000
128.86665919	0.00000000	40.64345000	14.21014000
129.06665918	0.00000000	41.06791000	14.21014000
129.26665917	0.00000000	41.06791000	14.21014000
129.46665915	0.00000000	40.69267000	14.16708000
129.66665914	0.00000000	39.90526000	13.79183000
129.86665913	0.00000000	39.11171000	13.04749000
130.06665912	0.00000000	37.94907000	12.67224000
130.26665911	0.00000000	36.87869000	12.67224000
130.46665909	0.00000000	36.83563000	13.04749000
130.66665908	0.00000000	37.57381000	13.79183000
130.86665907	0.00000000	38.36737000	14.16708000
131.06665906	0.00000000	39.53002000	14.21014000
131.26665905	0.00000000	40.64345000	14.21014000
131.46665904	0.00000000	41.06791000	14.16708000
131.66665902	0.00000000	41.06791000	13.79183000
131.86665901	0.00000000	40.69267000	13.04749000
132.06665900	0.00000000	39.90526000	12.67224000
132.26665899	0.00000000	39.15477000	12.62918000
132.46665898	0.00000000	38.36737000	12.62918000
132.66665896	0.00000000	37.99213000	12.67224000
132.86665895	0.00000000	37.99213000	13.04749000
133.06665894	0.00000000	38.36737000	13.83489000
133.26665893	0.00000000	39.11171000	14.58538000
133.46665892	0.00000000	39.48696000	15.36663000
133.66665890	0.00000000	39.53002000	15.74188000
133.86665889	0.00000000	39.53002000	15.74188000
134.06665888	0.00000000	39.53002000	15.36663000
134.26665887	0.00000000	39.53002000	14.62844000
134.46665886	0.00000000	39.53002000	14.21014000
134.66665885	0.00000000	39.53002000	13.79183000
134.86665883	0.00000000	39.53002000	13.04749000
135.06665882	0.00000000	39.53002000	12.67224000
135.26665881	0.00000000	39.57308000	12.67224000
135.46665880	0.00000000	39.90526000	13.04749000
135.66665879	0.00000000	40.27436000	13.79183000
135.86665877	0.00000000	39.90526000	14.21014000
136.06665876	0.00000000	39.53002000	14.62844000
136.26665875	0.00000000	39.11171000	15.32357000
136.46665874	0.00000000	38.36737000	15.32357000
136.66665873	0.00000000	37.99213000	14.62844000
136.86665871	0.00000000	37.94907000	14.25320000
137.06665870	0.00000000	37.99213000	14.21014000
137.26665869	0.00000000	38.41658000	14.21014000
137.46665868	0.00000000	39.48696000	14.16708000
137.66665867	0.00000000	40.27436000	13.79183000
137.86665866	0.00000000	40.32357000	13.04749000
138.06665864	0.00000000	40.69267000	12.67224000
138.26665863	0.00000000	40.64345000	12.62918000
138.46665862	0.00000000	39.90526000	12.62918000
138.66665861	0.00000000	39.15477000	12.67224000
138.86665860	0.00000000	38.36737000	13.04749000
139.06665858	0.00000000	37.99213000	13.79183000
139.26665857	0.00000000	37.94907000	14.21014000
139.46665856	0.00000000	37.99213000	14.62844000
139.66665855	0.00000000	38.36737000	15.36663000
139.86665854	0.00000000	39.11171000	15.74188000
140.06665852	0.00000000	39.48696000	15.74188000
140.26665851	0.00000000	39.57308000	15.32357000
140.46665850	0.00000000	39.90526000	14.21014000
140.66665849	0.00000000	40.27436000	13.04749000
140.86665848	0.00000000	39.90526000	12.29700000
141.06665847	0.00000000	39.53002000	11.88484000
141.26665845	0.00000000	39.11171000	12.25394000
141.46665844	0.00000000	38.36737000	12.62918000
141.66665843	0.00000000	38.04134000	13.04749000
141.86665842	0.00000000	38.36737000	13.83489000
142.06665841	0.00000000	39.11171000	14.58538000
142.26665839	0.00000000	39.48696000	15.36663000
142.46665838	0.00000000	39.53002000	15.74188000
142.66665837	0.00000000	39.53002000	15.74188000
142.86665836	0.00000000	39.53002000	15.32357000
143.06665835	0.00000000	39.53002000	14.21014000
143.26665834	0.00000000	39.48696000	13.09670000
143.46665832	0.00000000	39.11171000	12.62918000
143.66665831	0.00000000	38.36737000	12.21087000
143.86665830	0.00000000	37.99213000	11.51575000
144.06665829	0.00000000	37.99213000	11.55881000
144.26665828	0.00000000	38.36737000	12.62918000
144.46665826	0.00000000	39.11171000	13.74262000
144.66665825	0.00000000	39.48696000	14.21014000
144.86665824	0.00000000	39.53002000	14.62844000
145.06665823	0.00000000	39.53002000	15.32357000
145.26665822	0.00000000	39.53002000	15.32357000
145.46665820	0.00000000	39.48696000	14.62844000
145.66665819	0.00000000	39.11171000	14.21014000
145.86665818	0.00000000	38.36737000	13.79183000
146.06665817	0.00000000	37.99213000	13.04749000
146.26665816	0.00000000	37.94907000	12.67224000
146.46665815	0.00000000	37.99213000	12.62918000
146.66665813	0.00000000	38.36737000	12.62918000
146.86665812	0.00000000	39.11171000	12.67224000
147.06665811	0.00000000	39.48696000	13.04749000
147.26665810	0.00000000	39.53002000	13.79183000
147.46665809	0.00000000	39.53002000	14.16708000
147.66665807	0.00000000	39.48696000	14.21014000
147.86665806	0.00000000	39.11171000	14.21014000
148.06665805	0.00000000	38.36737000	14.21014000
148.26665804	0.00000000	37.99213000	14.21014000
148.46665803	0.00000000	37.94907000	14.21014000
148.66665801	0.00000000	37.94907000	14.21014000
148.86665800	0.00000000	37.99213000	14.16708000
149.06665799	0.00000000	38.36737000	13.79183000
149.26665798	0.00000000	39.11171000	13.04749000
149.46665797	0.00000000	39.48696000	12.67224000
149.66665796	0.00000000	39.53002000	12.67224000
149.86665794	0.00000000	39.53002000	13.04749000
150.06665793	0.00000000	39.53002000	13.79183000
150.26665792	0.00000000	39.53002000	14.16708000
150.46665791	0.00000000	39.53002000	14.21014000
150.66665790	0.00000000	39.48696000	14.21014000
150.86665788	0.00000000	39.11171000	14.25320000
151.06665787	0.00000000	38.36737000	14.58538000
151.26665786	0.00000000	37.99213000	14.94833000
151.46665785	0.00000000	37.94907000	14.53617000
151.66665784	0.00000000	37.99213000	13.83489000
151.86665782	0.00000000	38.36737000	13.04749000
152.06665781	0.00000000	39.11171000	12.67224000
152.26665780	0.00000000	39.48696000	12.62918000
152.46665779	0.00000000	39.53002000	12.62918000
152.66665778	0.00000000	39.53002000	12.67224000
152.86665777	0.00000000	39.53002000	13.04749000
153.06665775	0.00000000	39.53002000	13.79183000
153.26665774	0.00000000	39.53002000	14.16708000
153.46665773	0.00000000	39.53002000	14.21014000
153.66665772	0.00000000	39.48696000	14.21014000
153.86665771	0.00000000	39.11171000	14.21014000
154.06665769	0.00000000	38.36737000	14.21014000
154.26665768	0.00000000	37.99213000	14.21014000
154.46665767	0.00000000	37.94907000	14.21014000
154.66665766	0.00000000	37.99213000	14.21014000
154.86665765	0.00000000	38.36737000	14.21014000
155.06665763	0.00000000	39.11171000	14.21014000
155.26665762	0.00000000	39.48696000	14.16708000
155.46665761	0.00000000	39.53002000	13.79183000
155.66665760	0.00000000	39.53002000	13.04749000
155.86665759	0.00000000	39.53002000	12.72146000
156.06665758	0.00000000	39.53002000	13.04749000
156.26665756	0.00000000	39.48696000	13.79183000
156.46665755	0.00000000	39.11171000	14.16708000
156.66665754	0.00000000	38.36737000	14.21014000
156.86665753	0.00000000	37.99213000	14.21014000
157.06665752	0.00000000	37.94907000	14.21014000
157.26665750	0.00000000	37.94907000	14.21014000
157.46665749	0.00000000	37.94907000	14.21014000
157.66665748	0.00000000	37.99213000	14.16708000
157.86665747	0.00000000	38.36737000	13.79183000
158.06665746	0.00000000	39.11171000	13.04749000
158.26665744	0.00000000	39.48696000	12.67224000
158.46665743	0.00000000	39.53002000	12.62918000
158.66665742	0.00000000	39.53002000	12.62918000
158.86665741	0.00000000	39.53002000	12.62918000
159.06665740	0.00000000	39.53002000	12.67224000
159.26665739	0.00000000	39.48696000	13.04749000
159.46665737	0.00000000	39.11171000	13.83489000
159.66665736	0.00000000	38.36737000	14.58538000
159.86665735	0.00000000	37.99213000	15.32357000
160.06665734	0.00000000	37.94907000	15.32357000
160.26665733	0.00000000	37.94907000	14.62844000
160.46665731	0.00000000	37.94907000	14.25320000
160.66665730	0.00000000	37.99213000	14.21014000
160.86665729	0.00000000	38.32431000	14.16708000
161.06665728	0.00000000	38.69341000	13.79183000
161.26665727	0.00000000	38.32431000	13.04749000
161.46665725	0.00000000	38.04134000	12.67224000
161.66665724	0.00000000	38.36737000	12.62918000
161.86665723	0.00000000	39.11171000	12.62918000
162.06665722	0.00000000	39.48696000	12.67224000
162.26665721	0.00000000	39.53002000	13.04749000
162.46665720	0.00000000	39.53002000	13.79183000
162.66665718	0.00000000	39.48696000	14.16708000
162.86665717	0.00000000	39.11171000	14.21014000
163.06665716	0.00000000	38.36737000	14.21014000
163.26665715	0.00000000	37.99213000	14.21014000
163.46665714	0.00000000	37.94907000	14.21014000
163.66665712	0.00000000	37.94907000	14.16708000
163.86665711	0.00000000	37.94907000	13.79183000
164.06665710	0.00000000	37.94907000	13.04749000
164.26665709	0.00000000	37.99213000	12.67224000
164.46665708	0.00000000	38.32431000	12.62918000
164.66665706	0.00000000	38.73647000	12.67224000
164.86665705	0.00000000	38.74261000	13.04749000
165.06665704	0.00000000	39.15477000	13.79183000
165.26665703	0.00000000	39.48696000	14.16708000
165.46665702	0.00000000	39.53002000	14.21014000
165.66665701	0.00000000	39.48696000	14.21014000
165.86665699	0.00000000	39.11171000	14.21014000
166.06665698	0.00000000	38.36737000	14.21014000
166.26665697	0.00000000	37.99213000	14.21014000
166.46665696	0.00000000	37.90600000	14.21014000
166.66665695	0.00000000	37.57381000	14.21014000
166.86665693	0.00000000	37.20472000	14.21014000
167.06665692	0.00000000	37.61687000	14.21014000
167.26665691	0.00000000	38.32431000	14.21014000
167.46665690	0.00000000	39.11171000	14.21014000
167.66665689	0.00000000	39.48696000	14.21014000
167.86665687	0.00000000	39.53002000	14.21014000
168.06665686	0.00000000	39.53002000	14.21014000
168.26665685	0.00000000	39.53002000	14.16708000
168.46665684	0.00000000	39.53002000	13.83489000
168.66665683	0.00000000	39.53002000	13.46580000
168.86665682	0.00000000	39.48696000	13.83489000
169.06665680	0.00000000	39.11171000	14.16708000
169.26665679	0.00000000	38.36737000	14.16708000
169.46665678	0.00000000	37.99213000	13.83489000
169.66665677	0.00000000	37.94907000	13.46580000
169.86665676	0.00000000	37.94907000	13.83489000
170.06665674	0.00000000	37.94907000	14.11786000
170.26665673	0.00000000	37.94907000	13.83489000
170.46665672	0.00000000	37.99213000	13.46580000
170.66665671	0.00000000	38.32431000	13.79183000
170.86665670	0.00000000	38.73647000	13.74262000
171.06665668	0.00000000	38.74261000	13.09670000
171.26665667	0.00000000	39.15477000	13.04749000
171.46665666	0.00000000	39.48696000	13.37352000
171.66665665	0.00000000	39.53002000	13.00443000
171.86665664	0.00000000	39.53002000	12.67224000
172.06665663	0.00000000	39.48696000	12.62918000
172.26665661	0.00000000	39.11171000	12.67224000
172.46665660	0.00000000	38.36737000	13.04749000
172.66665659	0.00000000	37.99213000	13.74262000
172.86665658	0.00000000	37.94907000	13.74262000
173.06665657	0.00000000	37.94907000	13.09670000
173.26665655	0.00000000	37.94907000	13.04749000
173.46665654	0.00000000	37.94907000	13.37352000
173.66665653	0.00000000	37.94907000	13.00443000
173.86665652	0.00000000	37.94907000	12.67224000
174.06665651	0.00000000	37.94907000	12.62918000
174.26665649	0.00000000	37.94907000	12.62918000
174.46665648	0.00000000	37.94907000	12.62918000
174.66665647	0.00000000	37.94907000	12.62918000
174.86665646	0.00000000	37.94907000	12.62918000
175.06665645	0.00000000	37.94907000	12.67224000
175.26665644	0.00000000	37.94907000	13.00443000
175.46665642	0.00000000	37.94907000	13.37352000
175.66665641	0.00000000	37.94907000	13.04749000
175.86665640	0.00000000	37.94907000	13.09670000
176.06665639	0.00000000	37.94907000	13.79183000
176.26665638	0.00000000	37.99213000	14.16708000
176.46665636	0.00000000	38.36737000	14.21014000
176.66665635	0.00000000	39.11171000	14.21014000
176.86665634	0.00000000	39.43774000	14.21014000
177.06665633	0.00000000	39.11171000	14.16708000
177.26665632	0.00000000	38.36737000	13.83489000
177.46665630	0.00000000	37.99213000	13.46580000
177.66665629	0.00000000	37.94907000	13.79183000
177.86665628	0.00000000	37.94907000	13.74262000
178.06665627	0.00000000	37.94907000	13.04749000
178.26665626	0.00000000	37.94907000	12.67224000
178.46665625	0.00000000	37.94907000	12.67224000
178.66665623	0.00000000	37.99213000	13.04749000
178.86665622	0.00000000	38.32431000	13.79183000
179.06665621	0.00000000	38.73647000	14.16708000
179.26665620	0.00000000	38.69955000	14.16708000
179.46665619	0.00000000	38.77953000	13.83489000
179.66665617	0.00000000	38.69955000	13.46580000
179.86665616	0.00000000	38.73647000	13.79183000
180.06665615	0.00000000	38.32431000	13.74262000
180.26665614	0.00000000	37.99213000	13.04749000
180.46665613	0.00000000	37.94907000	12.67224000
180.66665611	0.00000000	37.94907000	12.62918000
180.86665610	0.00000000	37.94907000	12.67224000
181.06665609	0.00000000	37.94907000	13.04749000
181.26665608	0.00000000	37.99213000	13.79183000
181.46665607	0.00000000	38.32431000	14.16708000
181.66665606	0.00000000	38.69341000	14.21014000
181.86665604	0.00000000	38.32431000	14.21014000
182.06665603	0.00000000	37.99213000	14.21014000
182.26665602	0.00000000	37.94907000	14.16708000
182.46665601	0.00000000	37.99213000	13.79183000
182.66665600	0.00000000	38.32431000	13.09670000
182.86665598	0.00000000	38.73647000	13.04749000
183.06665597	0.00000000	38.69955000	13.37352000
183.26665596	0.00000000	38.73647000	13.00443000
183.46665595	0.00000000	38.32431000	12.67224000
183.66665594	0.00000000	37.99213000	12.62918000
183.86665592	0.00000000	37.94907000	12.67224000
184.06665591	0.00000000	37.94907000	13.00443000
184.26665590	0.00000000	37.94907000	13.41658000
184.46665589	0.00000000	37.94907000	13.42274000
184.66665588	0.00000000	37.94907000	13.83489000
184.86665587	0.00000000	37.94907000	14.16708000
185.06665585	0.00000000	37.94907000	14.21014000
185.26665584	0.00000000	37.94907000	14.16708000
185.46665583	0.00000000	37.94907000	13.79183000
185.66665582	0.00000000	37.99213000	13.04749000
185.86665581	0.00000000	38.32431000	12.67224000
186.06665579	0.00000000	38.69341000	12.62918000
186.26665578	0.00000000	38.32431000	12.62918000
186.46665577	0.00000000	37.99213000	12.62918000
186.66665576	0.00000000	37.94907000	12.62918000
186.86665575	0.00000000	37.94907000	12.62918000
187.06665573	0.00000000	37.94907000	12.67224000
187.26665572	0.00000000	37.94907000	13.04749000
187.46665571	0.00000000	37.94907000	13.79183000
187.66665570	0.00000000	37.94907000	14.16708000
187.86665569	0.00000000	37.94907000	14.21014000
188.06665568	0.00000000	37.94907000	14.21014000
188.26665566	0.00000000	37.94907000	14.21014000
188.46665565	0.00000000	37.94907000	14.16708000
188.66665564	0.00000000	37.94907000	13.79183000
188.86665563	0.00000000	37.99213000	13.04749000
189.06665562	0.00000000	38.32431000	12.67224000
189.26665560	0.00000000	38.69341000	12.62918000
189.46665559	0.00000000	38.32431000	12.62918000
189.66665558	0.00000000	37.99213000	12.62918000
189.86665557	0.00000000	37.94907000	12.67224000
190.06665556	0.00000000	37.94907000	13.00443000
190.26665554	0.00000000	37.94907000	13.41658000
190.46665553	0.00000000	37.94907000	13.42274000
190.66665552	0.00000000	37.94907000	13.83489000
190.86665551	0.00000000	37.94907000	14.16708000
191.06665550	0.00000000	37.94907000	14.21014000
191.26665549	0.00000000	37.94907000	14.21014000
191.46665547	0.00000000	37.94907000	14.16708000
191.66665546	0.00000000	37.94907000	13.79183000
191.86665545	0.00000000	37.94907000	13.04749000
192.06665544	0.00000000	37.94907000	12.67224000
192.26665543	0.00000000	37.94907000	12.62918000
192.46665541	0.00000000	37.94907000	12.67224000
192.66665540	0.00000000	37.94907000	13.00443000
192.86665539	0.00000000	37.94907000	13.37352000
193.06665538	0.00000000	37.94907000	13.00443000
193.26665537	0.00000000	37.94907000	12.67224000
193.46665535	0.00000000	37.94907000	12.67224000
193.66665534	0.00000000	37.94907000	13.04749000
193.86665533	0.00000000	37.94907000	13.79183000
194.06665532	0.00000000	37.94907000	14.16708000
194.26665531	0.00000000	37.99213000	14.21014000
194.46665530	0.00000000	38.32431000	14.21014000
194.66665528	0.00000000	38.69341000	14.16708000
194.86665527	0.00000000	38.32431000	13.79183000
195.06665526	0.00000000	37.99213000	13.04749000
195.26665525	0.00000000	37.94907000	12.67224000
195.46665524	0.00000000	37.94907000	12.62918000
195.66665522	0.00000000	37.94907000	12.62918000
195.86665521	0.00000000	37.94907000	12.62918000
196.06665520	0.00000000	37.94907000	12.62918000
