Time	Channel A	Channel B	Channel C
(us)	(V)	(mV)	(mV)

-4.59999956	0.00000000	30.03814000	9.51648500
-4.39999957	0.00000000	30.08120000	9.84867000
-4.19999958	0.00000000	30.41338000	10.21161000
-3.99999959	0.00000000	30.78248000	9.84867000
-3.79999960	0.00000000	30.41338000	9.51648500
-3.59999962	0.00000000	30.08120000	9.47342500
-3.39999963	0.00000000	30.03814000	9.47342500
-3.19999964	0.00000000	30.03814000	9.47342500
-2.99999965	0.00000000	30.03814000	9.47342500
-2.79999966	0.00000000	30.03814000	9.47342500
-2.59999968	0.00000000	30.03814000	9.47342500
-2.39999969	0.00000000	30.03814000	9.47342500
-2.19999970	0.00000000	30.03814000	9.47342500
-1.99999971	0.00000000	30.03814000	9.47342500
-1.79999972	0.00000000	30.03814000	9.47342500
-1.59999973	0.00000000	30.03814000	9.47342500
-1.39999975	0.00000000	30.03814000	9.47342500
-1.19999976	0.00000000	30.03814000	9.47342500
-0.99999977	0.00000000	30.03814000	9.47342500
-0.79999978	0.00000000	30.03814000	9.47342500
-0.59999979	0.00000000	30.03814000	9.47342500
-0.39999981	0.15871060	30.03814000	9.47342500
-0.19999982	0.47736220	30.03814000	9.47342500
0.00000017	0.79601380	30.03814000	9.47342500
0.20000016	0.95533960	30.03814000	9.47342500
0.40000015	0.95533960	30.03814000	9.47342500
0.60000013	0.63668800	30.03814000	9.47342500
0.80000012	-0.15871060	30.03814000	9.47342500
1.00000011	-1.11466500	30.03814000	9.47342500
1.20000010	-2.07062000	29.99508000	9.47342500
1.40000009	-2.70792300	29.66289000	9.47342500
1.60000008	-2.70792300	29.29380000	9.47342500
1.80000006	-1.91129400	29.66289000	9.47342500
2.00000005	-0.31803640	29.99508000	9.47342500
2.20000004	1.75196900	30.03814000	9.47342500
2.40000003	3.82258900	30.03814000	9.47342500
2.60000002	5.09719500	30.03814000	9.47342500
2.80000000	5.25652100	29.99508000	9.43036400
2.99999999	3.98191400	29.61983000	9.05511800
3.19999998	1.27399100	28.92470000	8.35998900
3.39999997	-1.91129400	28.92470000	8.31077700
3.59999996	-5.25652100	29.61983000	8.67987200
3.79999994	-7.48646600	29.99508000	8.72908400
3.99999993	-7.96444400	30.03814000	9.51648500
4.19999992	-6.37180100	30.03814000	10.53765000
4.39999991	-3.02657500	30.03814000	10.62992000
4.59999990	1.43331700	30.03814000	10.31004000
4.79999989	5.73449800	29.99508000	10.62992000
4.99999987	8.60174700	29.66289000	10.58686000
5.19999986	9.55770200	29.29380000	9.89173200
5.39999985	7.96444400	29.66289000	9.51648500
5.59999984	4.30056600	29.94586000	9.47342500
5.79999983	-0.31803640	29.66289000	9.47342500
5.99999981	-4.93786900	29.29380000	9.47342500
6.19999980	-8.28309500	29.66289000	9.51648500
6.39999979	-9.55770200	29.99508000	9.89173200
6.59999978	-8.28309500	30.03814000	10.62992000
6.79999977	-5.09719500	30.03814000	11.00517000
6.99999975	-0.95533960	29.99508000	11.00517000
7.19999974	3.34522600	29.66289000	10.62992000
7.39999973	6.37180100	29.29380000	9.89173200
7.59999972	7.80511800	29.66289000	9.51648500
7.79999971	7.00848900	29.99508000	9.47342500
7.99999970	4.77854300	30.03814000	9.47342500
8.19999968	1.59264300	30.03814000	9.47342500
8.39999967	-1.59264300	30.03814000	9.51648500
8.59999966	-3.98191400	30.03814000	9.84867000
8.79999965	-5.09719500	30.03814000	10.21161000
8.99999964	-4.77854300	30.03814000	9.84867000
9.19999962	-3.50393700	30.03814000	9.56569900
9.39999961	-1.59264300	30.03814000	9.84867000
9.59999960	0.31803640	30.03814000	10.21161000
9.79999959	1.75196900	30.03814000	9.84867000
9.99999958	2.54859700	30.03814000	9.51648500
10.19999956	2.38927200	29.99508000	9.47342500
10.39999955	1.91129400	29.61983000	9.47342500
10.59999954	0.95533960	28.92470000	9.47342500
10.79999953	0.15871060	28.87549000	9.47342500
10.99999952	-0.63668800	29.24459000	9.47342500
11.19999951	-0.95533960	29.25074000	9.47342500
11.39999949	-0.95533960	29.66289000	9.47342500
11.59999948	-0.79601380	29.99508000	9.47342500
11.79999947	-0.63668800	30.03814000	9.47342500
11.99999946	-0.31803640	30.03814000	9.47342500
12.19999945	-0.15871060	30.03814000	9.47342500
12.39999943	-0.15871060	30.03814000	9.47342500
12.59999942	0.00000000	30.03814000	9.47342500
12.79999941	0.00000000	30.03814000	9.47342500
12.99999940	0.00000000	29.99508000	9.47342500
13.19999939	0.00000000	29.66289000	9.47342500
13.39999937	0.00000000	29.25074000	9.47342500
13.59999936	0.00000000	29.28765000	9.47342500
13.79999935	0.00000000	29.25074000	9.47342500
13.99999934	0.00000000	29.66289000	9.47342500
14.19999933	-0.15871060	29.94586000	9.47342500
14.39999932	-0.15871060	29.61983000	9.47342500
14.59999930	-0.15871060	28.87549000	9.47342500
14.79999929	0.00000000	28.50024000	9.47342500
14.99999928	0.00000000	28.50024000	9.47342500
15.19999927	0.00000000	28.83243000	9.47342500
15.39999926	0.00000000	29.20152000	9.47342500
15.59999924	0.00000000	28.83243000	9.47342500
15.79999923	0.00000000	28.50024000	9.47342500
15.99999922	0.00000000	28.45718000	9.47342500
16.19999921	0.00000000	28.50024000	9.47342500
16.39999920	-0.15871060	28.87549000	9.47342500
16.59999919	-0.15871060	29.61983000	9.47342500
16.79999917	0.00000000	30.03814000	9.47342500
16.99999916	-0.15871060	30.45644000	9.51648500
17.19999915	0.00000000	31.20078000	9.84867000
17.39999914	0.00000000	31.57603000	10.21161000
17.59999913	0.00000000	31.57603000	9.84867000
17.79999911	0.00000000	31.15157000	9.47342500
17.99999910	0.00000000	29.99508000	9.05511800
18.19999909	0.00000000	28.50024000	8.35998900
18.39999908	0.00000000	27.25147000	8.35998900
18.59999907	0.00000000	26.08268000	9.00590400
18.79999905	0.00000000	24.55093000	9.00590400
18.99999904	0.00000000	23.84965000	8.35998900
19.19999903	0.00000000	24.22490000	8.35998900
19.39999902	0.00000000	25.84892000	9.05511800
19.59999901	0.00000000	28.96776000	9.43036400
19.79999900	0.00000000	33.20005000	9.47342500
19.99999898	0.00000000	37.39542000	9.47342500
20.19999897	0.00000000	40.13902000	9.47342500
20.39999896	0.00000000	40.84030000	9.47342500
20.59999895	0.00000000	39.25320000	9.47342500
20.79999894	0.00000000	34.51648000	9.47342500
20.99999892	0.00000000	27.62057000	9.47342500
21.19999891	0.00000000	19.85728000	9.47342500
21.39999890	0.00000000	13.33661000	9.47342500
21.59999889	0.00000000	9.47957600	9.47342500
21.79999888	0.00000000	9.61491000	9.47342500
21.99999886	0.00000000	14.68381000	9.47342500
22.19999885	0.00000000	24.40330000	9.47342500
22.39999884	0.00000000	36.74335000	9.47342500
22.59999883	0.00000000	49.06496000	9.47342500
22.79999882	0.00000000	57.91092000	9.51648500
22.99999881	0.00000000	60.93750000	9.84867000
23.19999879	0.00000000	57.02509000	10.25467000
23.39999878	0.00000000	46.09990000	10.26698000
23.59999877	0.00000000	30.27190000	10.67298000
23.79999876	0.00000000	12.46309000	11.04823000
23.99999875	0.00000000	-2.89739200	11.42347000
24.19999873	0.00000000	-12.10630000	11.74336000
24.39999872	0.00000000	-12.02018000	10.96211000
24.59999871	0.00000000	-1.96850400	9.47342500
24.79999870	0.00000000	15.84646000	7.89247000
24.99999869	0.00000000	37.89985000	6.36072800
25.19999867	0.00000000	59.44881000	5.19808000
25.39999866	0.00000000	74.84621000	4.82898600
25.59999865	0.00000000	79.87819000	5.24729300
25.79999864	0.00000000	73.68356000	6.82209600
25.99999863	0.00000000	57.35728000	9.55954600
26.19999862	0.00000000	33.85827000	13.04749000
26.39999860	0.00000000	8.78444900	16.90453000
26.59999859	0.00000000	-11.31890000	19.92495000
26.79999858	0.00000000	-22.57628000	21.08760000
26.99999857	0.00000000	-22.48400000	19.83883000
27.19999856	0.00000000	-10.52534000	15.93258000
27.39999854	0.00000000	10.68528000	9.33809000
27.59999853	0.00000000	35.72219000	1.62401600
27.79999852	0.00000000	58.56299000	-5.67175200
27.99999851	0.00000000	74.10802000	-10.63607000
28.19999850	0.00000000	79.92126000	-11.34350000
28.39999848	0.00000000	74.84621000	-7.48031400
28.59999847	0.00000000	59.39960000	0.73203740
28.79999846	0.00000000	37.48154000	11.93405000
28.99999845	0.00000000	14.68996000	24.24335000
29.19999844	0.00000000	-3.54945900	34.23351000
29.39999843	0.00000000	-14.06250000	39.21014000
29.59999841	0.00000000	-15.22515000	38.04749000
29.79999840	0.00000000	-6.80364100	30.24729000
29.99999839	0.00000000	8.63681000	17.46432000
30.19999838	0.00000000	27.20841000	1.62401600
30.39999837	0.00000000	45.39247000	-13.74877000
30.59999835	0.00000000	58.93824000	-24.58169000
30.79999834	0.00000000	65.21899000	-28.80782000
30.99999833	0.00000000	63.72416000	-25.22761000
31.19999832	0.00000000	55.25959000	-13.61959000
31.39999831	0.00000000	42.08907000	3.70939900
31.59999829	0.00000000	27.01156000	22.61934000
31.79999828	0.00000000	13.05979000	38.84104000
31.99999827	0.00000000	3.37721400	48.91732000
32.19999826	0.00000000	-0.52288380	50.82431000
32.39999825	0.00000000	2.17150600	44.22367000
32.59999824	0.00000000	10.64222000	29.95817000
32.79999822	0.00000000	22.60088000	11.46653000
32.99999821	0.00000000	35.30389000	-6.74212600
33.19999820	0.00000000	45.34940000	-21.46899000
33.39999819	0.00000000	50.46752000	-29.97047000
33.59999818	0.00000000	50.51673000	-30.29650000
33.79999816	0.00000000	45.85999000	-22.20718000
33.99999815	0.00000000	37.43848000	-7.20349400
34.19999814	0.00000000	27.80512000	10.54380000
34.39999813	0.00000000	19.66043000	27.22072000
34.59999812	0.00000000	14.22244000	39.95448000
34.79999810	0.00000000	12.72761000	45.71235000
34.99999809	0.00000000	15.76033000	43.11023000
35.19999808	0.00000000	22.22564000	33.49532000
35.39999807	0.00000000	29.57677000	19.59892000
35.59999806	0.00000000	36.14050000	4.13385800
35.79999805	0.00000000	40.74188000	-9.34424200
35.99999803	0.00000000	41.49237000	-17.88878000
36.19999802	0.00000000	38.50886000	-19.79577000
36.39999801	0.00000000	33.11393000	-14.81914000
36.59999800	0.00000000	27.01156000	-4.09079700
36.79999799	0.00000000	21.94882000	8.91978400
36.99999797	0.00000000	19.24212000	20.53395000
37.19999796	0.00000000	18.87303000	28.24803000
37.39999795	0.00000000	21.61663000	30.56717000
37.59999794	0.00000000	26.87623000	26.71629000
37.79999793	0.00000000	32.27116000	17.97490000
37.99999791	0.00000000	36.18971000	7.24040300
38.19999790	0.00000000	38.50886000	-1.96235200
38.39999789	0.00000000	38.50886000	-7.34498000
38.59999788	0.00000000	36.23277000	-7.34498000
38.79999787	0.00000000	32.73868000	-2.00541300
38.99999786	0.00000000	28.45718000	6.72982200
39.19999784	0.00000000	24.22490000	15.97564000
39.39999783	0.00000000	21.14911000	22.85925000
39.59999782	0.00000000	19.94340000	25.92274000
39.79999781	0.00000000	20.68774000	23.55438000
39.99999780	0.00000000	22.60088000	16.30167000
40.19999778	0.00000000	25.33834000	6.36072800
40.39999777	0.00000000	28.45718000	-3.21112200
40.59999776	0.00000000	31.57603000	-9.34424200
40.79999775	0.00000000	34.27657000	-10.50074000
40.99999774	0.00000000	35.85752000	-6.27460600
41.19999772	0.00000000	36.27584000	2.17765700
41.39999771	0.00000000	35.85752000	12.53691000
41.59999770	0.00000000	34.27657000	22.15797000
41.79999769	0.00000000	31.61909000	28.29109000
41.99999768	0.00000000	28.83243000	29.49680000
42.19999767	0.00000000	26.12574000	25.63976000
42.39999765	0.00000000	23.43750000	17.97490000
42.59999764	0.00000000	22.26870000	8.35998900
42.79999763	0.00000000	22.17643000	-0.46751960
42.99999762	0.00000000	22.64394000	-6.27460600
43.19999761	0.00000000	24.18184000	-7.85556000
43.39999759	0.00000000	26.45792000	-5.25344500
43.59999758	0.00000000	28.41412000	0.17839570
43.79999757	0.00000000	29.99508000	7.10506800
43.99999756	0.00000000	31.20078000	14.39468000
44.19999755	0.00000000	31.99434000	19.41437000
44.39999753	0.00000000	32.78174000	21.41363000
44.59999752	0.00000000	33.15699000	20.66314000
44.79999751	0.00000000	33.20005000	17.23056000
44.99999750	0.00000000	33.15699000	12.62918000
45.19999749	0.00000000	32.68946000	7.98474400
45.39999748	0.00000000	31.10851000	4.08464600
45.59999746	0.00000000	28.41412000	1.75319900
45.79999745	0.00000000	25.29527000	0.97194880
45.99999744	0.00000000	22.17643000	2.12844500
46.19999743	0.00000000	19.48204000	4.77977300
46.39999742	0.00000000	17.98720000	7.89247000
46.59999740	0.00000000	18.41166000	10.96211000
46.79999739	0.00000000	21.19833000	13.28125000
46.99999738	0.00000000	26.22416000	14.11786000
47.19999737	0.00000000	32.78174000	14.16708000
47.39999736	0.00000000	38.97638000	13.69956000
47.59999734	0.00000000	43.58390000	12.11860000
47.79999733	0.00000000	45.44168000	9.42421200
47.99999732	0.00000000	43.11638000	6.36072800
48.19999731	0.00000000	37.34621000	3.70939900
48.39999730	0.00000000	29.57677000	2.54675200
48.59999729	0.00000000	21.06299000	3.29109200
48.79999727	0.00000000	13.75492000	5.19808000
48.99999726	0.00000000	9.52263600	7.98474400
49.19999725	0.00000000	9.56569900	11.42347000
49.39999724	0.00000000	14.22244000	14.85605000
49.59999723	0.00000000	22.68701000	16.76919000
49.79999721	0.00000000	32.68946000	16.76919000
49.99999720	0.00000000	41.53543000	14.85605000
50.19999719	0.00000000	46.97957000	11.38041000
50.39999718	0.00000000	47.77313000	7.51722400
50.59999717	0.00000000	44.27903000	3.66633800
50.79999715	0.00000000	36.92790000	1.01501000
50.99999714	0.00000000	27.34375000	0.59670270
51.19999713	0.00000000	18.54700000	2.12844500
51.39999712	0.00000000	13.05979000	5.24729300
51.59999711	0.00000000	11.89099000	9.47342500
51.79999710	0.00000000	14.59769000	13.69956000
51.99999708	0.00000000	21.14911000	16.76919000
52.19999707	0.00000000	29.52756000	17.92569000
52.39999706	0.00000000	36.83563000	16.81225000
52.59999705	0.00000000	41.16019000	14.11786000
52.79999704	0.00000000	41.91068000	10.62992000
52.99999702	0.00000000	39.20398000	6.77903500
53.19999701	0.00000000	33.06471000	3.75246000
53.39999700	0.00000000	25.84892000	2.54675200
53.59999699	0.00000000	20.07874000	3.29109200
53.79999698	0.00000000	17.34129000	5.19808000
53.99999696	0.00000000	18.07948000	7.89247000
54.19999695	0.00000000	21.52436000	10.53765000
54.39999694	0.00000000	26.91929000	12.07554000
54.59999693	0.00000000	32.64640000	12.11860000
54.79999692	0.00000000	36.88484000	10.96211000
54.99999691	0.00000000	38.46580000	9.09817800
55.19999689	0.00000000	37.26009000	7.19734200
55.39999688	0.00000000	33.43381000	6.44685000
55.59999687	0.00000000	27.71899000	6.82209600
55.79999686	0.00000000	22.73007000	8.40305000
55.99999685	0.00000000	19.61737000	11.04823000
56.19999683	0.00000000	18.82997000	13.69956000
56.39999682	0.00000000	20.73080000	15.18824000
56.59999681	0.00000000	24.18184000	14.81299000
56.79999680	0.00000000	28.45718000	12.49385000
56.99999679	0.00000000	32.68946000	9.00590400
57.19999677	0.00000000	35.76525000	4.77977300
57.39999676	0.00000000	36.92790000	0.97194880
57.59999675	0.00000000	35.76525000	-0.93503930
57.79999674	0.00000000	32.73868000	-0.51673230
57.99999673	0.00000000	28.87549000	2.59596400
58.19999672	0.00000000	25.43061000	7.98474400
58.39999670	0.00000000	23.10531000	14.11786000
58.59999669	0.00000000	22.68701000	19.50664000
58.79999668	0.00000000	23.80659000	22.53322000
58.99999667	0.00000000	25.71358000	22.10876000
59.19999666	0.00000000	28.03888000	17.88263000
59.39999664	0.00000000	29.94586000	11.00517000
59.59999663	0.00000000	31.20078000	3.70939900
59.79999662	0.00000000	31.90207000	-2.09153500
59.99999661	0.00000000	31.85285000	-5.20423200
60.19999660	0.00000000	29.99508000	-5.16117100
60.39999658	0.00000000	27.80512000	-1.67322800
60.59999657	0.00000000	26.96850000	4.91510800
60.79999656	0.00000000	26.91929000	12.91215000
60.99999655	0.00000000	27.34375000	20.24483000
61.19999654	0.00000000	28.45718000	24.44020000
61.39999653	0.00000000	29.57062000	24.89542000
61.59999651	0.00000000	29.99508000	21.37057000
61.79999650	0.00000000	29.99508000	14.85605000
61.99999649	0.00000000	29.61983000	6.77903500
62.19999648	0.00000000	28.78937000	-0.55979330
62.39999647	0.00000000	27.62057000	-5.57947800
62.59999645	0.00000000	25.71358000	-7.48031400
62.79999644	0.00000000	24.26796000	-5.16117100
62.99999643	0.00000000	24.22490000	0.55364170
63.19999642	0.00000000	25.38755000	7.89247000
63.39999641	0.00000000	27.29453000	15.23130000
63.59999639	0.00000000	29.61983000	20.99532000
63.79999638	0.00000000	31.52682000	23.68971000
63.99999637	0.00000000	32.73252000	22.57628000
64.19999636	0.00000000	33.06471000	18.39321000
64.39999635	0.00000000	32.31422000	12.62918000
64.59999634	0.00000000	30.37032000	6.77903500
64.79999632	0.00000000	28.08194000	1.75319900
64.99999631	0.00000000	25.76279000	-1.72244100
65.19999630	0.00000000	24.26796000	-2.50984200
65.39999629	0.00000000	24.22490000	-1.02116100
65.59999628	0.00000000	25.33834000	2.04232300
65.79999626	0.00000000	26.91929000	5.89320800
65.99999625	0.00000000	28.83243000	9.42421200
66.19999624	0.00000000	30.73326000	12.58612000
66.39999623	0.00000000	31.48376000	15.27436000
66.59999622	0.00000000	31.10851000	16.81225000
66.79999620	0.00000000	29.57062000	16.85531000
66.99999619	0.00000000	27.34375000	15.74188000
67.19999618	0.00000000	25.76279000	14.16092000
67.39999617	0.00000000	25.01230000	12.16781000
67.59999616	0.00000000	25.06151000	9.42421200
67.79999615	0.00000000	27.01156000	6.31151500
67.99999613	0.00000000	29.99508000	3.19881900
68.19999612	0.00000000	32.73868000	0.51058070
68.39999611	0.00000000	34.60261000	-0.97810030
68.59999610	0.00000000	34.97170000	-0.60285430
68.79999609	0.00000000	33.02165000	1.71013800
68.99999607	0.00000000	29.57062000	5.24729300
69.19999606	0.00000000	25.29527000	9.93479300
69.39999605	0.00000000	21.10605000	15.28051000
69.59999604	0.00000000	18.45472000	19.46358000
69.79999603	0.00000000	18.45472000	21.04454000
69.99999601	0.00000000	21.14911000	19.92495000
70.19999600	0.00000000	25.76279000	16.81225000
70.39999599	0.00000000	31.20078000	12.16166000
70.59999598	0.00000000	36.23277000	6.72982200
70.79999597	0.00000000	40.08981000	1.75319900
70.99999596	0.00000000	41.53543000	-1.72244100
71.19999594	0.00000000	39.62844000	-2.50984200
71.39999593	0.00000000	34.60876000	-0.97810030
71.59999592	0.00000000	28.08194000	2.50369100
71.79999591	0.00000000	21.48130000	7.47416300
71.99999590	0.00000000	16.45546000	12.11860000
72.19999588	0.00000000	13.75492000	15.60654000
72.39999587	0.00000000	14.17938000	17.50738000
72.59999586	0.00000000	18.03642000	16.76919000
72.79999585	0.00000000	24.18184000	14.16092000
72.99999584	0.00000000	31.15772000	11.04823000
73.19999582	0.00000000	37.30315000	7.98474400
73.39999581	0.00000000	41.20940000	5.70866100
73.59999580	0.00000000	41.95989000	5.29035400
73.79999579	0.00000000	39.67150000	6.36072800
73.99999578	0.00000000	34.65182000	7.84940900
74.19999577	0.00000000	28.50640000	9.00590400
74.39999575	0.00000000	22.68701000	9.38115100
74.59999574	0.00000000	18.45472000	9.00590400
74.79999573	0.00000000	16.87377000	7.84940900
74.99999572	0.00000000	17.98720000	6.31151500
75.19999571	0.00000000	21.06299000	4.82283400
75.39999569	0.00000000	25.29527000	4.08464600
75.59999568	0.00000000	29.52756000	4.91510800
75.79999567	0.00000000	32.68946000	7.24040300
75.99999566	0.00000000	34.60261000	11.09129000
76.19999565	0.00000000	35.01476000	15.23130000
76.39999563	0.00000000	33.48917000	17.92569000
76.59999562	0.00000000	31.24384000	18.35015000
76.79999561	0.00000000	28.87549000	16.76919000
76.99999560	0.00000000	26.96850000	13.23819000
77.19999559	0.00000000	25.80585000	7.84940900
77.39999558	0.00000000	25.76279000	2.12844500
77.59999556	0.00000000	26.45792000	-2.14074800
77.79999555	0.00000000	26.83317000	-4.04773600
77.99999554	0.00000000	26.87623000	-3.25418300
78.19999553	0.00000000	26.83317000	0.59670270
78.39999552	0.00000000	26.45792000	6.36072800
78.59999550	0.00000000	25.76279000	12.53691000
78.79999549	0.00000000	25.76279000	17.92569000
78.99999548	0.00000000	26.50098000	21.03838000
79.19999547	0.00000000	27.34375000	21.46284000
79.39999546	0.00000000	28.92470000	19.50664000
79.59999544	0.00000000	31.15157000	15.23130000
79.79999543	0.00000000	32.64640000	9.47342500
79.99999542	0.00000000	32.68946000	3.70939900
80.19999541	0.00000000	31.52682000	-0.55979330
80.39999540	0.00000000	29.57062000	-2.50984200
80.59999539	0.00000000	26.87623000	-2.18380900
80.79999537	0.00000000	24.18184000	0.13533460
80.99999536	0.00000000	22.26870000	3.62327700
81.19999535	0.00000000	21.48130000	7.89247000
81.39999534	0.00000000	22.31176000	12.16166000
81.59999533	0.00000000	24.55093000	15.60654000
81.79999531	0.00000000	27.66363000	17.59966000
81.99999530	0.00000000	30.37032000	17.64887000
82.19999529	0.00000000	32.68946000	16.89837000
82.39999528	0.00000000	33.80905000	15.23130000
82.59999527	0.00000000	33.06471000	12.16166000
82.79999525	0.00000000	31.20078000	8.35998900
82.99999524	0.00000000	28.87549000	5.19808000
83.19999523	0.00000000	26.91929000	2.78051200
83.39999522	0.00000000	25.33834000	0.51058070
83.59999521	0.00000000	24.22490000	-0.60285430
83.79999520	0.00000000	24.22490000	0.13533460
83.99999518	0.00000000	25.33834000	2.08538400
84.19999517	0.00000000	26.83317000	5.24729300
84.39999516	0.00000000	27.98966000	9.47342500
84.59999515	0.00000000	28.41412000	13.69956000
84.79999514	0.00000000	28.45718000	16.81225000
84.99999512	0.00000000	28.50024000	18.39321000
85.19999511	0.00000000	28.83243000	18.30093000
85.39999510	0.00000000	29.20152000	15.97564000
85.59999509	0.00000000	28.83243000	11.38041000
85.79999508	0.00000000	28.50024000	6.40378900
85.99999506	0.00000000	28.45718000	2.08538400
86.19999505	0.00000000	28.45718000	-0.97810030
86.39999504	0.00000000	28.41412000	-2.13459600
86.59999503	0.00000000	27.98966000	-0.93503930
86.79999502	0.00000000	26.87623000	2.55290300
86.99999501	0.00000000	25.71358000	7.89247000
87.19999499	0.00000000	24.92003000	13.23819000
87.39999498	0.00000000	24.18184000	16.76919000
87.59999497	0.00000000	24.22490000	18.35015000
87.79999496	0.00000000	25.33834000	17.92569000
87.99999495	0.00000000	26.87623000	15.18824000
88.19999493	0.00000000	28.45718000	10.62992000
88.39999492	0.00000000	29.99508000	5.61638700
88.59999491	0.00000000	31.10851000	1.80241100
88.79999490	0.00000000	31.10851000	-0.18454720
88.99999489	0.00000000	29.99508000	0.22145670
89.19999487	0.00000000	28.45718000	2.50369100
89.39999486	0.00000000	26.87623000	6.40378900
89.59999485	0.00000000	25.33834000	10.95595000
89.79999484	0.00000000	24.22490000	14.81299000
89.99999483	0.00000000	24.18184000	16.71998000
90.19999482	0.00000000	24.92003000	16.35089000
90.39999480	0.00000000	25.71358000	13.65650000
90.59999479	0.00000000	26.91929000	9.43036400
90.79999478	0.00000000	28.41412000	4.87204700
90.99999477	0.00000000	29.57062000	1.43946800
91.19999476	0.00000000	29.94586000	0.63976370
91.39999474	0.00000000	29.61983000	2.08538400
91.59999473	0.00000000	28.87549000	4.87204700
91.79999472	0.00000000	28.45718000	8.68602300
91.99999471	0.00000000	28.03888000	12.90600000
92.19999470	0.00000000	27.34375000	15.56348000
92.39999468	0.00000000	27.29453000	16.34473000
92.59999467	0.00000000	27.62057000	14.76993000
92.79999466	0.00000000	27.20841000	11.00517000
92.99999465	0.00000000	26.50098000	6.77903500
93.19999464	0.00000000	25.71358000	3.29109200
93.39999463	0.00000000	25.33834000	0.97194880
93.59999461	0.00000000	25.29527000	0.63976370
93.79999460	0.00000000	25.38755000	2.54675200
93.99999459	0.00000000	26.18110000	6.35457700
94.19999458	0.00000000	28.03888000	10.58686000
94.39999457	0.00000000	29.61983000	14.07480000
94.59999455	0.00000000	30.83169000	16.35089000
94.79999454	0.00000000	32.31422000	16.30167000
94.99999453	0.00000000	32.64640000	13.65650000
95.19999452	0.00000000	31.52682000	9.47342500
95.39999451	0.00000000	29.57062000	5.24729300
95.59999449	0.00000000	26.83317000	2.17765700
95.79999448	0.00000000	23.75738000	0.97194880
95.99999447	0.00000000	21.10605000	1.75319900
96.19999446	0.00000000	19.94340000	4.03543200
96.39999445	0.00000000	20.68774000	7.51722400
96.59999444	0.00000000	22.64394000	10.96211000
96.79999442	0.00000000	25.76279000	13.65650000
96.99999441	0.00000000	29.61983000	14.76993000
97.19999440	0.00000000	33.06471000	13.69956000
97.39999439	0.00000000	35.39001000	11.42347000
97.59999438	0.00000000	35.76525000	9.09817800
97.79999436	0.00000000	34.27657000	6.72982200
97.99999435	0.00000000	31.53297000	4.87204700
98.19999434	0.00000000	28.03888000	4.08464600
98.39999433	0.00000000	24.18184000	4.82283400
98.59999432	0.00000000	21.10605000	6.31151500
98.79999430	0.00000000	19.52510000	7.84940900
98.99999429	0.00000000	19.52510000	9.00590400
99.19999428	0.00000000	21.06299000	9.43036400
99.39999427	0.00000000	23.80659000	9.47342500
99.59999426	0.00000000	27.29453000	9.47342500
99.79999425	0.00000000	31.15772000	9.47342500
99.99999423	0.00000000	34.18430000	9.47342500
100.19999422	0.00000000	35.39616000	9.51648500
100.39999421	0.00000000	34.69488000	9.89173200
100.59999420	0.00000000	33.15699000	10.62992000
100.79999419	0.00000000	31.10851000	10.91289000
100.99999417	0.00000000	28.03888000	10.16855000
101.19999416	0.00000000	24.60015000	8.26771600
101.39999415	0.00000000	22.26870000	6.40378900
101.59999414	0.00000000	21.06299000	5.15501900
101.79999413	0.00000000	21.10605000	4.40452700
101.99999411	0.00000000	22.60088000	4.04158400
102.19999410	0.00000000	24.92003000	4.87204700
102.39999409	0.00000000	27.25147000	6.77903500
102.59999408	0.00000000	29.57062000	9.47342500
102.79999407	0.00000000	31.10851000	12.11860000
102.99999406	0.00000000	31.57603000	13.69956000
103.19999404	0.00000000	31.57603000	14.07480000
103.39999403	0.00000000	31.10851000	13.28125000
103.59999402	0.00000000	29.57062000	10.96211000
103.79999401	0.00000000	27.29453000	7.93553100
103.99999400	0.00000000	25.38755000	5.19808000
104.19999398	0.00000000	24.18184000	3.29109200
104.39999397	0.00000000	23.75738000	2.50369100
104.59999396	0.00000000	23.75738000	3.29109200
104.79999395	0.00000000	24.18184000	5.15501900
104.99999394	0.00000000	25.33834000	7.51722400
105.19999392	0.00000000	26.87623000	9.84867000
105.39999391	0.00000000	28.41412000	12.16781000
105.59999390	0.00000000	29.52756000	13.61343000
105.79999389	0.00000000	29.52756000	13.28125000
105.99999388	0.00000000	28.45718000	11.38041000
106.19999387	0.00000000	27.29453000	9.09817800
106.39999385	0.00000000	26.50098000	6.77903500
106.59999384	0.00000000	25.76279000	5.24729300
106.79999383	0.00000000	25.76279000	4.82898600
106.99999382	0.00000000	26.45792000	5.19808000
107.19999381	0.00000000	26.87623000	6.36072800
107.39999379	0.00000000	27.29453000	7.89247000
107.59999378	0.00000000	28.03888000	9.42421200
107.79999377	0.00000000	28.41412000	10.53765000
107.99999376	0.00000000	28.41412000	10.53765000
108.19999375	0.00000000	27.98966000	9.42421200
108.39999374	0.00000000	26.87623000	7.93553100
108.59999372	0.00000000	25.76279000	6.72982200
108.79999371	0.00000000	25.33834000	5.98548200
108.99999370	0.00000000	25.29527000	5.61638700
109.19999369	0.00000000	25.33834000	6.40378900
109.39999368	0.00000000	25.76279000	7.84940900
109.59999366	0.00000000	26.91929000	9.05511800
109.79999365	0.00000000	28.41412000	9.84867000
109.99999364	0.00000000	29.57062000	10.62992000
110.19999363	0.00000000	29.94586000	10.95595000
110.39999362	0.00000000	29.57062000	10.58686000
110.59999360	0.00000000	28.41412000	9.42421200
110.79999359	0.00000000	26.87623000	7.89247000
110.99999358	0.00000000	25.33834000	6.36072800
111.19999357	0.00000000	24.18184000	5.19808000
111.39999356	0.00000000	23.75738000	4.82898600
111.59999355	0.00000000	23.75738000	5.15501900
111.79999353	0.00000000	24.22490000	5.93626900
111.99999352	0.00000000	25.71358000	6.72982200
112.19999351	0.00000000	27.57136000	7.89247000
112.39999350	0.00000000	28.36491000	9.00590400
112.59999349	0.00000000	28.45718000	9.43036400
112.79999347	0.00000000	28.45718000	9.47342500
112.99999346	0.00000000	28.41412000	9.47342500
113.19999345	0.00000000	28.03888000	9.43036400
113.39999344	0.00000000	27.25147000	9.05511800
113.59999343	0.00000000	26.50098000	8.31077700
113.79999341	0.00000000	25.71358000	7.93553100
113.99999340	0.00000000	25.38755000	7.89247000
114.19999339	0.00000000	25.71358000	7.89247000
114.39999338	0.00000000	26.50098000	7.84940900
114.59999337	0.00000000	27.20841000	7.47416300
114.79999336	0.00000000	27.66363000	6.72982200
114.99999334	0.00000000	27.66978000	6.35457700
115.19999333	0.00000000	28.03888000	6.31151500
115.39999332	0.00000000	28.03888000	6.35457700
115.59999331	0.00000000	27.66978000	6.72982200
115.79999330	0.00000000	27.62057000	7.51722400
115.99999328	0.00000000	26.83317000	8.31077700
116.19999327	0.00000000	25.76279000	9.47342500
116.39999326	0.00000000	25.33834000	10.58686000
116.59999325	0.00000000	25.29527000	10.95595000
116.79999324	0.00000000	25.33834000	10.62992000
116.99999322	0.00000000	25.71358000	9.84867000
117.19999321	0.00000000	26.50098000	9.05511800
117.39999320	0.00000000	27.25147000	7.89247000
117.59999319	0.00000000	28.03888000	6.77903500
117.79999318	0.00000000	28.41412000	6.35457700
117.99999317	0.00000000	28.45718000	6.31151500
118.19999315	0.00000000	28.45718000	6.35457700
118.39999314	0.00000000	28.41412000	6.72982200
118.59999313	0.00000000	27.98966000	7.51722400
118.79999312	0.00000000	26.83317000	8.26771600
118.99999311	0.00000000	25.33834000	9.05511800
119.19999309	0.00000000	24.18184000	9.43036400
119.39999308	0.00000000	23.80659000	9.47342500
119.59999307	0.00000000	24.18184000	9.47342500
119.79999306	0.00000000	25.29527000	9.47342500
119.99999305	0.00000000	26.45792000	9.43036400
120.19999303	0.00000000	27.29453000	9.05511800
120.39999302	0.00000000	28.45718000	8.31077700
120.59999301	0.00000000	29.57062000	7.89247000
120.79999300	0.00000000	29.94586000	7.47416300
120.99999299	0.00000000	29.57062000	6.72982200
121.19999298	0.00000000	28.41412000	6.35457700
121.39999296	0.00000000	26.91929000	6.31151500
121.59999295	0.00000000	25.71358000	6.35457700
121.79999294	0.00000000	24.92003000	6.72982200
121.99999293	0.00000000	24.13263000	7.47416300
122.19999292	0.00000000	23.80659000	7.89247000
122.39999290	0.00000000	24.13263000	8.31077700
122.59999289	0.00000000	24.92003000	9.05511800
122.79999288	0.00000000	25.71358000	9.43036400
122.99999287	0.00000000	26.83317000	9.47342500
123.19999286	0.00000000	27.62057000	9.47342500
123.39999284	0.00000000	27.66978000	9.43036400
123.59999283	0.00000000	28.08194000	9.05511800
123.79999282	0.00000000	28.36491000	8.26771600
123.99999281	0.00000000	28.03888000	7.56028500
124.19999280	0.00000000	27.29453000	7.10506800
124.39999279	0.00000000	26.87623000	7.09891700
124.59999277	0.00000000	26.45792000	6.72982200
124.79999276	0.00000000	25.71358000	6.77903500
124.99999275	0.00000000	25.33834000	7.47416300
125.19999274	0.00000000	25.29527000	7.89247000
125.39999273	0.00000000	25.29527000	8.31077700
125.59999271	0.00000000	25.33834000	9.05511800
125.79999270	0.00000000	25.71358000	9.43036400
125.99999269	0.00000000	26.50098000	9.47342500
126.19999268	0.00000000	27.25147000	9.47342500
126.39999267	0.00000000	28.03888000	9.43036400
126.59999265	0.00000000	28.41412000	9.05511800
126.79999264	0.00000000	28.41412000	8.31077700
126.99999263	0.00000000	28.03888000	7.89247000
127.19999262	0.00000000	27.25147000	7.47416300
127.39999261	0.00000000	26.45792000	6.72982200
127.59999260	0.00000000	25.29527000	6.40378900
127.79999258	0.00000000	24.22490000	6.72982200
127.99999257	0.00000000	24.18184000	7.47416300
128.19999256	0.00000000	24.92003000	7.84940900
128.39999255	0.00000000	25.71358000	7.93553100
128.59999254	0.00000000	26.87623000	8.31077700
128.79999252	0.00000000	27.98966000	9.05511800
128.99999251	0.00000000	28.41412000	9.43036400
129.19999250	0.00000000	28.41412000	9.43036400
129.39999249	0.00000000	27.98966000	9.05511800
129.59999248	0.00000000	26.87623000	8.31077700
129.79999246	0.00000000	25.76279000	7.93553100
129.99999245	0.00000000	25.29527000	7.89247000
130.19999244	0.00000000	24.87697000	7.89247000
130.39999243	0.00000000	24.18184000	7.89247000
130.59999242	0.00000000	24.18184000	7.89247000
130.79999241	0.00000000	24.92003000	7.89247000
130.99999239	0.00000000	25.71358000	7.89247000
131.19999238	0.00000000	26.87623000	7.89247000
131.39999237	0.00000000	27.98966000	7.89247000
131.59999236	0.00000000	28.36491000	7.84940900
131.79999235	0.00000000	27.98966000	7.47416300
131.99999233	0.00000000	26.87623000	6.72982200
132.19999232	0.00000000	25.76279000	6.35457700
132.39999231	0.00000000	25.33834000	6.31151500
132.59999230	0.00000000	25.29527000	6.35457700
132.79999229	0.00000000	25.25221000	6.72982200
132.99999227	0.00000000	24.92003000	7.51722400
133.19999226	0.00000000	24.60015000	8.26771600
133.39999225	0.00000000	25.33834000	9.05511800
133.59999224	0.00000000	26.40871000	9.43036400
133.79999223	0.00000000	26.83317000	9.43036400
133.99999222	0.00000000	26.87623000	9.05511800
134.19999220	0.00000000	26.87623000	8.26771600
134.39999219	0.00000000	26.83317000	7.51722400
134.59999218	0.00000000	26.50098000	6.72982200
134.79999217	0.00000000	26.13189000	6.35457700
134.99999216	0.00000000	26.45792000	6.31151500
135.19999214	0.00000000	26.45792000	6.31151500
135.39999213	0.00000000	26.13189000	6.35457700
135.59999212	0.00000000	26.50098000	6.72982200
135.79999211	0.00000000	26.78395000	7.51722400
135.99999210	0.00000000	26.45792000	8.26771600
136.19999208	0.00000000	25.71358000	9.05511800
136.39999207	0.00000000	25.33834000	9.43036400
136.59999206	0.00000000	25.29527000	9.43036400
136.79999205	0.00000000	25.29527000	9.05511800
136.99999204	0.00000000	25.29527000	8.31077700
137.19999203	0.00000000	25.33834000	7.93553100
137.39999201	0.00000000	25.71358000	7.84940900
137.59999200	0.00000000	26.50098000	7.47416300
137.79999199	0.00000000	27.25147000	6.72982200
137.99999198	0.00000000	27.98966000	6.40378900
138.19999197	0.00000000	27.94660000	6.68676100
138.39999195	0.00000000	26.87623000	7.05585600
138.59999194	0.00000000	25.76279000	6.72982200
138.79999193	0.00000000	25.33834000	6.77903500
138.99999192	0.00000000	25.25221000	7.47416300
139.19999191	0.00000000	24.92003000	7.89247000
139.39999189	0.00000000	24.55093000	8.31077700
139.59999188	0.00000000	24.96309000	9.05511800
139.79999187	0.00000000	25.67052000	9.43036400
139.99999186	0.00000000	26.45792000	9.43036400
140.19999185	0.00000000	26.83317000	9.05511800
140.39999184	0.00000000	26.87623000	8.26771600
140.59999182	0.00000000	26.87623000	7.51722400
140.79999181	0.00000000	26.83317000	6.68676100
140.99999180	0.00000000	26.45792000	5.98548200
141.19999179	0.00000000	25.71358000	5.57332700
141.39999178	0.00000000	25.33834000	5.98548200
141.59999176	0.00000000	25.29527000	6.72982200
141.79999175	0.00000000	25.29527000	7.89247000
141.99999174	0.00000000	25.33834000	9.00590400
142.19999173	0.00000000	25.71358000	9.43036400
142.39999172	0.00000000	26.45792000	9.47342500
142.59999170	0.00000000	26.83317000	9.47342500
142.79999169	0.00000000	26.87623000	9.43036400
142.99999168	0.00000000	26.87623000	9.05511800
143.19999167	0.00000000	26.83317000	8.26771600
143.39999166	0.00000000	26.45792000	7.51722400
143.59999165	0.00000000	25.71358000	6.72982200
143.79999163	0.00000000	25.33834000	6.35457700
143.99999162	0.00000000	25.33834000	6.35457700
144.19999161	0.00000000	25.71358000	6.72982200
144.39999160	0.00000000	26.45792000	7.51722400
144.59999159	0.00000000	26.83317000	8.26771600
144.79999157	0.00000000	26.87623000	9.05511800
144.99999156	0.00000000	26.87623000	9.43036400
145.19999155	0.00000000	26.83317000	9.43036400
145.39999154	0.00000000	26.45792000	9.05511800
145.59999153	0.00000000	25.71358000	8.31077700
145.79999151	0.00000000	25.33834000	7.89247000
145.99999150	0.00000000	25.29527000	7.47416300
146.19999149	0.00000000	25.33834000	6.72982200
146.39999148	0.00000000	25.71358000	6.35457700
146.59999147	0.00000000	26.45792000	6.31151500
146.79999146	0.00000000	26.83317000	6.35457700
146.99999144	0.00000000	26.87623000	6.72982200
147.19999143	0.00000000	26.87623000	7.47416300
147.39999142	0.00000000	26.87623000	7.84940900
147.59999141	0.00000000	26.83317000	7.89247000
147.79999140	0.00000000	26.45792000	7.89247000
147.99999138	0.00000000	25.71358000	7.89247000
148.19999137	0.00000000	25.33834000	7.89247000
148.39999136	0.00000000	25.29527000	7.89247000
148.59999135	0.00000000	25.29527000	7.89247000
148.79999134	0.00000000	25.29527000	7.84940900
148.99999132	0.00000000	25.33834000	7.47416300
149.19999131	0.00000000	25.71358000	6.72982200
149.39999130	0.00000000	26.45792000	6.40378900
149.59999129	0.00000000	26.83317000	6.68676100
149.79999128	0.00000000	26.87623000	7.09891700
149.99999127	0.00000000	26.83317000	7.10506800
150.19999125	0.00000000	26.45792000	7.51722400
150.39999124	0.00000000	25.71358000	7.84940900
150.59999123	0.00000000	25.33834000	7.89247000
150.79999122	0.00000000	25.29527000	7.89247000
150.99999121	0.00000000	25.29527000	7.89247000
151.19999119	0.00000000	25.29527000	7.89247000
151.39999118	0.00000000	25.29527000	7.89247000
151.59999117	0.00000000	25.29527000	7.89247000
151.79999116	0.00000000	25.33834000	7.89247000
151.99999115	0.00000000	25.67052000	7.84940900
152.19999113	0.00000000	26.08268000	7.47416300
152.39999112	0.00000000	26.08883000	6.77903500
152.59999111	0.00000000	26.50098000	6.77903500
152.79999110	0.00000000	26.83317000	7.47416300
152.99999109	0.00000000	26.87623000	7.84940900
153.19999108	0.00000000	26.83317000	7.89247000
153.39999106	0.00000000	26.45792000	7.89247000
153.59999105	0.00000000	25.71358000	7.89247000
153.79999104	0.00000000	25.33834000	7.89247000
153.99999103	0.00000000	25.29527000	7.89247000
154.19999102	0.00000000	25.29527000	7.89247000
154.39999100	0.00000000	25.29527000	7.89247000
154.59999099	0.00000000	25.29527000	7.89247000
154.79999098	0.00000000	25.33834000	7.89247000
154.99999097	0.00000000	25.71358000	7.89247000
155.19999096	0.00000000	26.45792000	7.84940900
155.39999094	0.00000000	26.83317000	7.51722400
155.59999093	0.00000000	26.87623000	7.10506800
155.79999092	0.00000000	26.83317000	7.09891700
155.99999091	0.00000000	26.45792000	6.72982200
156.19999090	0.00000000	25.76279000	6.77903500
156.39999089	0.00000000	25.71358000	7.47416300
156.59999087	0.00000000	26.03961000	7.84940900
156.79999086	0.00000000	25.67052000	7.93553100
156.99999085	0.00000000	25.33834000	8.31077700
157.19999084	0.00000000	25.29527000	9.05511800
157.39999083	0.00000000	25.29527000	9.38115100
157.59999081	0.00000000	25.29527000	9.05511800
157.79999080	0.00000000	25.29527000	8.31077700
157.99999079	0.00000000	25.33834000	7.89247000
158.19999078	0.00000000	25.71358000	7.47416300
158.39999077	0.00000000	26.45792000	6.72982200
158.59999075	0.00000000	26.83317000	6.35457700
158.79999074	0.00000000	26.83317000	6.35457700
158.99999073	0.00000000	26.50098000	6.72982200
159.19999072	0.00000000	26.08883000	7.47416300
159.39999071	0.00000000	26.08268000	7.84940900
159.59999070	0.00000000	25.67052000	7.93553100
159.79999068	0.00000000	25.33834000	8.26771600
159.99999067	0.00000000	25.29527000	8.63681000
160.19999066	0.00000000	25.29527000	8.26771600
160.39999065	0.00000000	25.29527000	7.93553100
160.59999064	0.00000000	25.29527000	7.84940900
160.79999062	0.00000000	25.29527000	7.47416300
160.99999061	0.00000000	25.29527000	6.72982200
161.19999060	0.00000000	25.29527000	6.35457700
161.39999059	0.00000000	25.29527000	6.35457700
161.59999058	0.00000000	25.29527000	6.72982200
161.79999056	0.00000000	25.29527000	7.47416300
161.99999055	0.00000000	25.29527000	7.84940900
162.19999054	0.00000000	25.29527000	7.89247000
162.39999053	0.00000000	25.29527000	7.89247000
162.59999052	0.00000000	25.29527000	7.89247000
162.79999051	0.00000000	25.29527000	7.89247000
162.99999049	0.00000000	25.29527000	7.89247000
163.19999048	0.00000000	25.29527000	7.89247000
163.39999047	0.00000000	25.29527000	7.89247000
163.59999046	0.00000000	25.25221000	7.89247000
163.79999045	0.00000000	24.92003000	7.89247000
163.99999043	0.00000000	24.55093000	7.89247000
164.19999042	0.00000000	24.92003000	7.89247000
164.39999041	0.00000000	25.25221000	7.84940900
164.59999040	0.00000000	25.33834000	7.47416300
164.79999039	0.00000000	25.71358000	6.77903500
164.99999037	0.00000000	26.45792000	6.77903500
165.19999036	0.00000000	26.83317000	7.47416300
165.39999035	0.00000000	26.83317000	7.84940900
165.59999034	0.00000000	26.45792000	7.89247000
165.79999033	0.00000000	25.71358000	7.89247000
165.99999032	0.00000000	25.33834000	7.89247000
166.19999030	0.00000000	25.29527000	7.89247000
166.39999029	0.00000000	25.29527000	7.89247000
166.59999028	0.00000000	25.29527000	7.89247000
166.79999027	0.00000000	25.29527000	7.89247000
166.99999026	0.00000000	25.29527000	7.89247000
167.19999024	0.00000000	25.29527000	7.89247000
167.39999023	0.00000000	25.29527000	7.89247000
167.59999022	0.00000000	25.29527000	7.89247000
167.79999021	0.00000000	25.33834000	7.89247000
167.99999020	0.00000000	25.67052000	7.89247000
168.19999018	0.00000000	26.03961000	7.89247000
168.39999017	0.00000000	25.67052000	7.89247000
168.59999016	0.00000000	25.33834000	7.89247000
168.79999015	0.00000000	25.29527000	7.89247000
168.99999014	0.00000000	25.29527000	7.89247000
169.19999013	0.00000000	25.29527000	7.89247000
169.39999011	0.00000000	25.25221000	7.89247000
169.59999010	0.00000000	24.92003000	7.89247000
169.79999009	0.00000000	24.55093000	7.89247000
169.99999008	0.00000000	24.92003000	7.89247000
170.19999007	0.00000000	25.25221000	7.89247000
170.39999005	0.00000000	25.29527000	7.89247000
170.59999004	0.00000000	25.29527000	7.89247000
170.79999003	0.00000000	25.29527000	7.89247000
170.99999002	0.00000000	25.29527000	7.89247000
171.19999001	0.00000000	25.29527000	7.89247000
171.39998999	0.00000000	25.29527000	7.89247000
171.59998998	0.00000000	25.29527000	7.84940900
171.79998997	0.00000000	25.29527000	7.51722400
171.99998996	0.00000000	25.29527000	7.14812900
172.19998995	0.00000000	25.29527000	7.51722400
172.39998994	0.00000000	25.29527000	7.84940900
172.59998992	0.00000000	25.29527000	7.89247000
172.79998991	0.00000000	25.29527000	7.89247000
172.99998990	0.00000000	25.29527000	7.89247000
173.19998989	0.00000000	25.33834000	7.89247000
173.39998988	0.00000000	25.67052000	7.89247000
173.59998986	0.00000000	26.03961000	7.89247000
173.79998985	0.00000000	25.67052000	7.89247000
173.99998984	0.00000000	25.33834000	7.84940900
174.19998983	0.00000000	25.29527000	7.51722400
174.39998982	0.00000000	25.29527000	7.14812900
174.59998980	0.00000000	25.29527000	7.47416300
174.79998979	0.00000000	25.29527000	7.47416300
174.99998978	0.00000000	25.29527000	7.14812900
175.19998977	0.00000000	25.29527000	7.51722400
175.39998976	0.00000000	25.29527000	7.84940900
175.59998975	0.00000000	25.29527000	7.89247000
175.79998973	0.00000000	25.29527000	7.89247000
175.99998972	0.00000000	25.29527000	7.89247000
176.19998971	0.00000000	25.29527000	7.89247000
176.39998970	0.00000000	25.29527000	7.89247000
176.59998969	0.00000000	25.29527000	7.89247000
176.79998967	0.00000000	25.29527000	7.89247000
176.99998966	0.00000000	25.29527000	7.84940900
177.19998965	0.00000000	25.29527000	7.47416300
177.39998964	0.00000000	25.29527000	6.77903500
177.59998963	0.00000000	25.29527000	6.77903500
177.79998961	0.00000000	25.29527000	7.42495000
177.99998960	0.00000000	25.29527000	7.42495000
178.19998959	0.00000000	25.29527000	6.72982200
178.39998958	0.00000000	25.29527000	6.40378900
178.59998957	0.00000000	25.29527000	6.72982200
178.79998956	0.00000000	25.29527000	7.47416300
178.99998954	0.00000000	25.29527000	7.84940900
179.19998953	0.00000000	25.29527000	7.89247000
179.39998952	0.00000000	25.29527000	7.89247000
179.59998951	0.00000000	25.29527000	7.89247000
179.79998950	0.00000000	25.29527000	7.89247000
179.99998948	0.00000000	25.29527000	7.89247000
180.19998947	0.00000000	25.29527000	7.84940900
180.39998946	0.00000000	25.29527000	7.47416300
180.59998945	0.00000000	25.29527000	6.72982200
180.79998944	0.00000000	25.29527000	6.35457700
180.99998942	0.00000000	25.25221000	6.31151500
181.19998941	0.00000000	24.92003000	6.35457700
181.39998940	0.00000000	24.55093000	6.72982200
181.59998939	0.00000000	24.92003000	7.47416300
181.79998938	0.00000000	25.25221000	7.84940900
181.99998937	0.00000000	25.29527000	7.89247000
182.19998935	0.00000000	25.29527000	7.89247000
182.39998934	0.00000000	25.29527000	7.84940900
182.59998933	0.00000000	25.29527000	7.47416300
182.79998932	0.00000000	25.29527000	6.72982200
182.99998931	0.00000000	25.29527000	6.35457700
183.19998929	0.00000000	25.29527000	6.31151500
183.39998928	0.00000000	25.29527000	6.31151500
183.59998927	0.00000000	25.29527000	6.31151500
183.79998926	0.00000000	25.29527000	6.35457700
183.99998925	0.00000000	25.25221000	6.72982200
184.19998923	0.00000000	24.92003000	7.47416300
184.39998922	0.00000000	24.55093000	7.84940900
184.59998921	0.00000000	24.92003000	7.89247000
184.79998920	0.00000000	25.25221000	7.89247000
184.99998919	0.00000000	25.29527000	7.89247000
185.19998918	0.00000000	25.29527000	7.89247000
185.39998916	0.00000000	25.29527000	7.89247000
185.59998915	0.00000000	25.29527000	7.84940900
185.79998914	0.00000000	25.29527000	7.47416300
185.99998913	0.00000000	25.29527000	6.72982200
186.19998912	0.00000000	25.29527000	6.35457700
186.39998910	0.00000000	25.29527000	6.31151500
186.59998909	0.00000000	25.29527000	6.31151500
186.79998908	0.00000000	25.29527000	6.35457700
186.99998907	0.00000000	25.25221000	6.68676100
187.19998906	0.00000000	24.92003000	7.09891700
187.39998904	0.00000000	24.55093000	7.10506800
187.59998903	0.00000000	24.92003000	7.51722400
187.79998902	0.00000000	25.25221000	7.84940900
187.99998901	0.00000000	25.29527000	7.89247000
188.19998900	0.00000000	25.29527000	7.89247000
188.39998899	0.00000000	25.29527000	7.84940900
188.59998897	0.00000000	25.29527000	7.47416300
188.79998896	0.00000000	25.29527000	6.72982200
188.99998895	0.00000000	25.29527000	6.35457700
189.19998894	0.00000000	25.29527000	6.31151500
189.39998893	0.00000000	25.29527000	6.31151500
189.59998891	0.00000000	25.29527000	6.31151500
189.79998890	0.00000000	25.25221000	6.31151500
189.99998889	0.00000000	24.87697000	6.35457700
190.19998888	0.00000000	24.18184000	6.72982200
190.39998887	0.00000000	24.18184000	7.47416300
190.59998885	0.00000000	24.82775000	7.84940900
190.79998884	0.00000000	24.82775000	7.89247000
190.99998883	0.00000000	24.18184000	7.89247000
191.19998882	0.00000000	24.18184000	7.89247000
191.39998881	0.00000000	24.87697000	7.89247000
191.59998880	0.00000000	25.25221000	7.89247000
191.79998878	0.00000000	25.29527000	7.84940900
191.99998877	0.00000000	25.29527000	7.51722400
192.19998876	0.00000000	25.29527000	7.10506800
192.39998875	0.00000000	25.29527000	7.09891700
192.59998874	0.00000000	25.29527000	6.68676100
192.79998872	0.00000000	25.25221000	6.35457700
192.99998871	0.00000000	24.92003000	6.35457700
193.19998870	0.00000000	24.50787000	6.72982200
193.39998869	0.00000000	24.50172000	7.47416300
193.59998868	0.00000000	24.08957000	7.84940900
193.79998866	0.00000000	23.80659000	7.89247000
193.99998865	0.00000000	24.13263000	7.89247000
194.19998864	0.00000000	24.87697000	7.89247000
194.39998863	0.00000000	25.25221000	7.89247000
194.59998862	0.00000000	25.29527000	7.89247000
194.79998861	0.00000000	25.29527000	7.84940900
194.99998859	0.00000000	25.29527000	7.47416300
195.19998858	0.00000000	25.29527000	6.72982200
195.39998857	0.00000000	25.29527000	6.35457700
195.59998856	0.00000000	25.25221000	6.31151500
195.79998855	0.00000000	24.87697000	6.31151500
195.99998853	0.00000000	24.13263000	6.31151500
