Time	Channel A	Channel B	Channel C
(us)	(V)	(mV)	(mV)

-4.49999956	0.00000000	18.97145000	4.73671200
-4.29999957	0.00000000	18.97145000	4.73671200
-4.09999958	0.00000000	18.92839000	4.73671200
-3.89999959	0.00000000	18.59621000	4.73671200
-3.69999960	0.00000000	18.22711000	4.73671200
-3.49999962	0.00000000	18.59621000	4.73671200
-3.29999963	0.00000000	18.92839000	4.73671200
-3.09999964	0.00000000	18.97145000	4.73671200
-2.89999965	0.00000000	18.97145000	4.73671200
-2.69999966	0.00000000	18.97145000	4.73671200
-2.49999968	0.00000000	18.97145000	4.73671200
-2.29999969	0.00000000	18.97145000	4.73671200
-2.09999970	0.00000000	18.97145000	4.73671200
-1.89999971	0.00000000	18.97145000	4.73671200
-1.69999972	0.00000000	18.97145000	4.73671200
-1.49999973	0.00000000	18.97145000	4.73671200
-1.29999975	0.00000000	18.97145000	4.73671200
-1.09999976	0.00000000	18.97145000	4.73671200
-0.89999977	0.00000000	18.97145000	4.77977300
-0.69999978	0.00000000	18.97145000	5.11195900
-0.49999979	0.00000000	18.97145000	5.47490100
-0.29999981	0.31803640	18.97145000	5.11195900
-0.09999982	0.63668800	18.97145000	4.77977300
0.10000017	0.95533960	18.97145000	4.73671200
0.30000016	0.95533960	18.97145000	4.73671200
0.50000015	0.79601380	18.97145000	4.73671200
0.70000013	0.31803640	18.97145000	4.73671200
0.90000012	-0.47736220	18.97145000	4.73671200
1.10000011	-1.43331700	18.97145000	4.73671200
1.30000010	-2.22994600	18.97145000	4.73671200
1.50000009	-2.70792300	18.97145000	4.73671200
1.70000008	-2.54859700	18.97145000	4.73671200
1.90000006	-1.43331700	18.97145000	4.73671200
2.10000005	0.31803640	18.97145000	4.73671200
2.30000004	2.38927200	18.97145000	4.73671200
2.50000003	4.30056600	18.97145000	4.73671200
2.70000002	5.25652100	18.97145000	4.73671200
2.90000000	4.93786900	18.97145000	4.73671200
3.09999999	3.18590100	18.92839000	4.73671200
3.29999998	0.15871060	18.59621000	4.73671200
3.49999997	-3.18590100	18.22711000	4.73671200
3.69999996	-6.21247500	18.59621000	4.73671200
3.89999994	-7.80511800	18.92839000	4.77977300
4.09999993	-7.64579200	18.97145000	5.15501900
4.29999992	-5.41584600	18.97145000	5.89320800
4.49999991	-1.43331700	18.97145000	6.21924200
4.69999990	3.02657500	18.97145000	5.89320800
4.89999989	6.84916400	18.97145000	5.15501900
5.09999987	9.07972400	18.92839000	4.77977300
5.29999986	9.23905000	18.59621000	4.69365100
5.49999985	6.84916400	18.22711000	4.36146600
5.69999984	2.70792300	18.59621000	3.99237200
5.89999983	-1.91129400	18.92839000	4.36146600
6.09999981	-6.21247500	18.97145000	4.69365100
6.29999980	-8.92039900	18.97145000	4.73671200
6.49999979	-9.39837600	18.97145000	4.77977300
6.69999978	-7.32714100	18.97145000	5.11195900
6.89999977	-3.82258900	18.97145000	5.47490100
7.09999975	0.47736220	18.97145000	5.11195900
7.29999974	4.45989200	18.97145000	4.77977300
7.49999973	7.16781500	18.97145000	4.73671200
7.69999972	7.64579200	18.97145000	4.73671200
7.89999971	6.37180100	18.97145000	4.73671200
8.09999970	3.82258900	18.97145000	4.73671200
8.29999968	0.47736220	18.97145000	4.73671200
8.49999967	-2.54859700	18.97145000	4.73671200
8.69999966	-4.61921700	18.92839000	4.73671200
8.89999965	-5.25652100	18.59621000	4.73671200
9.09999964	-4.45989200	18.22711000	4.73671200
9.29999962	-2.86724900	18.59621000	4.73671200
9.49999961	-0.79601380	18.92839000	4.73671200
9.69999960	0.95533960	18.97145000	4.73671200
9.89999959	2.07062000	18.97145000	4.73671200
10.09999958	2.54859700	18.97145000	4.73671200
10.29999956	2.22994600	18.97145000	4.73671200
10.49999955	1.43331700	18.92839000	4.73671200
10.69999954	0.63668800	18.59621000	4.73671200
10.89999953	-0.15871060	18.22711000	4.73671200
11.09999952	-0.63668800	18.59621000	4.73671200
11.29999951	-0.95533960	18.92839000	4.73671200
11.49999949	-0.95533960	18.97145000	4.73671200
11.69999948	-0.79601380	18.97145000	4.73671200
11.89999947	-0.47736220	18.92839000	4.73671200
12.09999946	-0.15871060	18.59621000	4.73671200
12.29999945	-0.15871060	18.22711000	4.73671200
12.49999943	-0.15871060	18.59621000	4.73671200
12.69999942	0.00000000	18.92839000	4.73671200
12.89999941	0.00000000	18.97145000	4.73671200
13.09999940	0.00000000	18.97145000	4.73671200
13.29999939	0.00000000	18.97145000	4.73671200
13.49999937	0.00000000	18.97145000	4.73671200
13.69999936	0.00000000	18.97145000	4.73671200
13.89999935	0.00000000	18.97145000	4.73671200
14.09999934	-0.15871060	18.97145000	4.73671200
14.29999933	-0.15871060	18.97145000	4.73671200
14.49999932	-0.15871060	18.92839000	4.73671200
14.69999930	-0.15871060	18.59621000	4.73671200
14.89999929	0.00000000	18.22711000	4.73671200
15.09999928	0.00000000	18.55315000	4.73671200
15.29999927	0.00000000	18.55315000	4.73671200
15.49999926	0.00000000	18.18405000	4.73671200
15.69999924	0.00000000	18.22096000	4.73671200
15.89999923	0.00000000	18.18405000	4.73671200
16.09999922	0.00000000	18.55315000	4.73671200
16.29999921	0.00000000	18.55315000	4.73671200
16.49999920	-0.15871060	18.22711000	4.73671200
16.69999919	0.00000000	18.59621000	4.73671200
16.89999917	-0.15871060	18.92839000	4.73671200
17.09999916	0.00000000	19.01451000	4.73671200
17.29999915	0.00000000	19.38976000	4.73671200
17.49999914	0.00000000	20.13410000	4.73671200
17.69999913	0.00000000	20.46014000	4.73671200
17.89999911	0.00000000	20.08489000	4.73671200
18.09999910	0.00000000	18.97145000	4.73671200
18.29999909	0.00000000	17.76575000	4.73671200
18.49999908	0.00000000	16.55389000	4.73671200
18.69999907	0.00000000	14.64690000	4.73671200
18.89999905	0.00000000	13.20128000	4.73671200
19.09999904	0.00000000	13.15822000	4.73671200
19.29999903	0.00000000	14.36393000	4.73671200
19.49999902	0.00000000	16.69537000	4.73671200
19.69999901	0.00000000	20.22022000	4.73671200
19.89999900	0.00000000	24.04650000	4.73671200
20.09999898	0.00000000	27.52830000	4.73671200
20.29999897	0.00000000	29.39222000	4.73671200
20.49999896	0.00000000	29.01698000	4.73671200
20.69999895	0.00000000	26.23031000	4.73671200
20.89999894	0.00000000	21.16142000	4.73671200
21.09999892	0.00000000	14.18553000	4.73671200
21.29999891	0.00000000	6.87746000	4.73671200
21.49999890	0.00000000	1.10728300	4.73671200
21.69999889	0.00000000	-1.54404500	4.73671200
21.89999888	0.00000000	0.12918310	4.73671200
22.09999886	0.00000000	6.73597400	4.69365100
22.29999885	0.00000000	17.56890000	4.36146600
22.49999884	0.00000000	29.90280000	3.99237200
22.69999883	0.00000000	41.11712000	4.36146600
22.89999882	0.00000000	48.37598000	4.69365100
23.09999881	0.00000000	49.45251000	4.73671200
23.29999879	0.00000000	43.17175000	4.77977300
23.49999878	0.00000000	30.00123000	5.15501900
23.69999877	0.00000000	12.64764000	5.93626900
23.89999876	0.00000000	-4.70595500	6.64370100
24.09999875	0.00000000	-17.82726000	7.00664300
24.29999873	0.00000000	-23.59129000	6.26845500
24.49999872	0.00000000	-20.38632000	5.15501900
24.69999871	0.00000000	-7.91707600	4.26919300
24.89999870	0.00000000	12.13091000	2.73745100
25.09999869	0.00000000	34.88558000	0.83661410
25.29999867	0.00000000	54.57061000	-0.28297240
25.49999866	0.00000000	66.89837000	-0.69512790
25.69999865	0.00000000	68.38705000	0.13533460
25.89999864	0.00000000	58.33538000	2.08538400
26.09999863	0.00000000	38.98253000	5.24729300
26.29999862	0.00000000	14.27780000	9.47342500
26.49999860	0.00000000	-10.00861000	13.65650000
26.69999859	0.00000000	-27.78666000	16.30167000
26.89999858	0.00000000	-35.13779000	16.30167000
27.09999857	0.00000000	-30.48105000	13.56422000
27.29999856	0.00000000	-14.66535000	8.50147600
27.49999854	0.00000000	8.45841400	1.53174200
27.69999853	0.00000000	33.21235000	-5.80708600
27.89999852	0.00000000	54.10310000	-11.98327000
28.09999851	0.00000000	66.94144000	-15.74803000
28.29999850	0.00000000	69.18060000	-15.28666000
28.49999848	0.00000000	60.32849000	-9.84867000
28.69999847	0.00000000	41.81841000	-0.55979330
28.89999846	0.00000000	19.10679000	11.09744000
29.09999845	0.00000000	-2.61441900	22.99459000
29.29999844	0.00000000	-18.89764000	32.19119000
29.49999843	0.00000000	-26.62401000	35.58686000
29.69999841	0.00000000	-24.37869000	32.10507000
29.89999840	0.00000000	-12.85064000	22.02264000
30.09999839	0.00000000	4.09079700	7.38188900
30.29999838	0.00000000	22.74237000	-8.50147600
30.49999837	0.00000000	39.40084000	-22.39788000
30.69999835	0.00000000	51.03346000	-31.59449000
30.89999834	0.00000000	55.26574000	-33.08317000
31.09999833	0.00000000	51.11958000	-26.11343000
31.29999832	0.00000000	40.32972000	-12.22318000
31.49999831	0.00000000	25.99655000	5.89320800
31.69999829	0.00000000	10.50689000	23.68971000
31.89999828	0.00000000	-2.57135800	37.63533000
32.09999827	0.00000000	-10.00861000	45.33710000
32.29999826	0.00000000	-10.85138000	44.50664000
32.49999825	0.00000000	-5.81938900	35.26082000
32.69999824	0.00000000	4.22613100	19.42052000
32.89999822	0.00000000	16.92298000	0.51058070
33.09999821	0.00000000	28.88779000	-17.28592000
33.29999820	0.00000000	37.44463000	-30.43184000
33.49999819	0.00000000	40.98179000	-36.19587000
33.69999818	0.00000000	39.45005000	-33.12623000
33.89999816	0.00000000	33.25541000	-21.97342000
34.09999815	0.00000000	23.67126000	-5.75787400
34.29999814	0.00000000	13.66880000	12.03248000
34.49999813	0.00000000	5.94242000	27.87278000
34.69999812	0.00000000	2.03617100	38.28740000
34.89999810	0.00000000	2.78051200	41.02485000
35.09999809	0.00000000	7.34498000	35.67913000
35.29999808	0.00000000	14.27165000	24.10802000
35.49999807	0.00000000	21.57972000	9.05511800
35.69999806	0.00000000	27.34990000	-6.36687900
35.89999805	0.00000000	30.08735000	-18.35630000
36.09999803	0.00000000	29.30610000	-24.53248000
36.29999802	0.00000000	25.47982000	-23.78814000
36.49999801	0.00000000	19.34670000	-16.12328000
36.69999800	0.00000000	13.24434000	-4.22613100
36.89999799	0.00000000	8.96899500	8.87672100
37.09999797	0.00000000	7.38804100	20.02337000
37.29999796	0.00000000	8.55068800	26.16265000
37.49999795	0.00000000	11.99557000	25.83046000
37.69999794	0.00000000	17.01525000	19.37131000
37.89999793	0.00000000	21.99803000	9.43036400
38.09999791	0.00000000	25.90428000	-0.93503930
38.29999790	0.00000000	27.81127000	-8.96899500
38.49999789	0.00000000	27.43602000	-12.08169000
38.69999788	0.00000000	24.74163000	-9.80561000
38.89999787	0.00000000	20.55241000	-3.29724400
39.09999786	0.00000000	16.27707000	5.89320800
39.29999784	0.00000000	12.73991000	14.67766000
39.49999783	0.00000000	10.03937000	20.44168000
39.69999782	0.00000000	8.92593500	21.55512000
39.89999781	0.00000000	10.03937000	17.32899000
40.09999780	0.00000000	12.69070000	8.91978400
40.29999778	0.00000000	15.80955000	-1.06422200
40.49999777	0.00000000	18.92839000	-9.84867000
40.69999776	0.00000000	21.66585000	-14.81914000
40.89999775	0.00000000	23.67126000	-14.08095000
41.09999774	0.00000000	25.20300000	-8.31692900
41.29999772	0.00000000	25.90428000	0.92888770
41.49999771	0.00000000	24.78469000	11.65723000
41.69999770	0.00000000	22.50861000	20.44168000
41.89999769	0.00000000	20.13410000	24.71703000
42.09999768	0.00000000	17.39050000	23.60359000
42.29999767	0.00000000	14.69611000	17.88263000
42.49999765	0.00000000	12.73991000	9.38115100
42.69999764	0.00000000	11.57726000	0.13533460
42.89999763	0.00000000	11.57726000	-7.94783400
43.09999762	0.00000000	12.69070000	-12.54921000
43.29999761	0.00000000	14.27165000	-12.59227000
43.49999759	0.00000000	16.22785000	-8.40920300
43.69999758	0.00000000	18.55315000	-1.53174200
43.89999757	0.00000000	20.46014000	5.80708600
44.09999756	0.00000000	21.71506000	12.03248000
44.29999755	0.00000000	22.46555000	16.25861000
44.49999753	0.00000000	22.87770000	17.42126000
44.69999752	0.00000000	22.50861000	15.18824000
44.89999751	0.00000000	22.13336000	11.00517000
45.09999750	0.00000000	21.66585000	6.35457700
45.29999749	0.00000000	20.50935000	2.08538400
45.49999748	0.00000000	18.92839000	-1.02116100
45.69999746	0.00000000	16.87992000	-2.60211600
45.89999745	0.00000000	13.81028000	-2.60211600
46.09999744	0.00000000	10.37155000	-1.07037400
46.29999743	0.00000000	8.08316900	1.62401600
46.49999742	0.00000000	7.29576700	4.68750000
46.69999740	0.00000000	8.55068800	7.43110200
46.89999739	0.00000000	12.03863000	9.33809000
47.09999738	0.00000000	17.48277000	10.11934000
47.29999737	0.00000000	23.67126000	9.38115100
47.49999736	0.00000000	29.44143000	7.84940900
47.69999734	0.00000000	33.25541000	5.85014700
47.89999733	0.00000000	33.63066000	3.15575800
48.09999732	0.00000000	30.51181000	0.46751960
48.29999731	0.00000000	24.27411000	-1.43946800
48.49999730	0.00000000	15.80955000	-2.18380900
48.69999729	0.00000000	7.34498000	-1.02116100
48.89999727	0.00000000	1.15649600	1.62401600
49.09999726	0.00000000	-1.54404500	4.73671200
49.29999725	0.00000000	0.03690945	7.84940900
49.49999724	0.00000000	5.85014700	10.53765000
49.69999723	0.00000000	14.73917000	12.03248000
49.89999721	0.00000000	24.69857000	11.61417000
50.09999720	0.00000000	32.79404000	8.96284400
50.29999719	0.00000000	36.70644000	5.11195900
50.49999718	0.00000000	36.33120000	1.24877000
50.69999717	0.00000000	31.62524000	-2.22687000
50.89999715	0.00000000	23.20374000	-4.14000900
51.09999714	0.00000000	13.61959000	-4.14000900
51.29999713	0.00000000	5.94242000	-2.18380900
51.49999712	0.00000000	1.95004900	1.66707700
51.69999711	0.00000000	1.98695800	6.26845500
51.89999710	0.00000000	5.48720400	10.49459000
52.09999708	0.00000000	12.82603000	13.18898000
52.29999707	0.00000000	21.53666000	13.56422000
52.49999706	0.00000000	28.46333000	11.70029000
52.69999705	0.00000000	31.53912000	8.22465500
52.89999704	0.00000000	30.13656000	4.40452700
53.09999702	0.00000000	25.53518000	0.88582670
53.29999701	0.00000000	19.71580000	-1.39640700
53.49999700	0.00000000	13.15822000	-2.18380900
53.69999699	0.00000000	7.85556000	-1.02116100
53.89999698	0.00000000	5.94242000	1.62401600
54.09999696	0.00000000	7.76328700	4.64443900
54.29999695	0.00000000	12.40773000	6.96358300
54.49999694	0.00000000	18.14099000	7.75713500
54.69999693	0.00000000	23.94808000	7.38188900
54.89999692	0.00000000	27.72515000	5.85014700
55.09999691	0.00000000	28.50640000	3.57406500
55.29999689	0.00000000	25.81201000	1.71013800
55.49999688	0.00000000	20.50935000	0.92888770
55.69999687	0.00000000	14.73917000	1.71013800
55.89999686	0.00000000	10.08243000	3.61712600
56.09999685	0.00000000	7.38804100	6.31151500
56.29999683	0.00000000	7.38804100	8.96284400
56.49999682	0.00000000	10.08243000	10.45152000
56.69999681	0.00000000	14.69611000	10.03322000
56.89999680	0.00000000	20.04183000	7.33882900
57.09999679	0.00000000	24.27411000	3.15575800
57.29999677	0.00000000	26.23031000	-1.07037400
57.49999676	0.00000000	25.90428000	-4.13385800
57.69999675	0.00000000	23.57899000	-5.25344500
57.89999674	0.00000000	20.13410000	-3.67249000
58.09999673	0.00000000	16.27707000	0.55364170
58.29999672	0.00000000	13.20128000	6.31151500
58.49999670	0.00000000	11.62032000	12.07554000
58.69999669	0.00000000	11.62032000	16.30167000
58.89999668	0.00000000	13.15822000	17.83957000
59.09999667	0.00000000	15.80955000	16.25861000
59.29999666	0.00000000	18.50394000	11.61417000
59.49999664	0.00000000	20.41708000	4.69365100
59.69999663	0.00000000	21.24754000	-2.60211600
59.89999662	0.00000000	20.88459000	-8.36614100
60.09999661	0.00000000	20.13410000	-11.01132000
60.29999660	0.00000000	18.87918000	-9.52263600
60.49999658	0.00000000	17.05832000	-4.51525500
60.69999657	0.00000000	15.57579000	2.46063000
60.89999656	0.00000000	15.90182000	10.53765000
61.09999655	0.00000000	16.97219000	17.37205000
61.29999654	0.00000000	17.80881000	20.48474000
61.49999653	0.00000000	18.97145000	19.37131000
61.69999651	0.00000000	20.08489000	14.76993000
61.89999650	0.00000000	20.41708000	7.80019600
62.09999649	0.00000000	19.66658000	0.09227362
62.29999648	0.00000000	17.76575000	-6.82824800
62.49999647	0.00000000	15.85261000	-11.06053000
62.69999645	0.00000000	14.27165000	-11.42962000
62.89999644	0.00000000	13.20128000	-7.99089500
63.09999643	0.00000000	13.57652000	-1.44562000
63.29999642	0.00000000	15.43430000	6.22539300
63.49999641	0.00000000	17.39050000	13.18898000
63.69999639	0.00000000	19.38976000	17.79650000
63.89999638	0.00000000	21.62278000	19.00221000
64.09999637	0.00000000	22.74237000	16.72613000
64.29999636	0.00000000	22.04109000	12.11860000
64.49999635	0.00000000	20.50935000	6.31151500
64.69999634	0.00000000	18.55315000	0.51058070
64.89999632	0.00000000	16.22785000	-4.14000900
65.09999631	0.00000000	14.32087000	-6.82824800
65.29999630	0.00000000	13.15822000	-6.87746000
65.49999629	0.00000000	13.20128000	-4.60137700
65.69999628	0.00000000	14.69611000	-1.15649600
65.89999626	0.00000000	16.97219000	2.73745100
66.09999625	0.00000000	18.87918000	6.26845500
66.29999624	0.00000000	20.08489000	9.38115100
66.49999623	0.00000000	20.41708000	11.70029000
66.69999622	0.00000000	19.66658000	12.49385000
66.89999620	0.00000000	17.76575000	12.16166000
67.09999619	0.00000000	15.85261000	10.96211000
67.29999618	0.00000000	14.32087000	9.05511800
67.49999617	0.00000000	13.61959000	6.64370100
67.69999616	0.00000000	14.78223000	3.94315900
67.89999615	0.00000000	17.39050000	0.79355310
68.09999613	0.00000000	20.08489000	-1.90698800
68.29999612	0.00000000	22.04109000	-4.22613100
68.49999611	0.00000000	23.16068000	-5.33956700
68.69999610	0.00000000	22.74237000	-4.55831700
68.89999609	0.00000000	20.41708000	-2.18380900
69.09999607	0.00000000	16.92298000	2.08538400
69.29999606	0.00000000	12.69070000	7.42495000
69.49999605	0.00000000	8.87672100	12.07554000
69.69999604	0.00000000	6.96973400	15.18824000
69.89999603	0.00000000	7.38804100	16.34473000
70.09999601	0.00000000	10.54995000	15.14518000
70.29999600	0.00000000	16.22785000	11.65723000
70.49999599	0.00000000	22.36712000	6.31151500
70.69999598	0.00000000	26.69783000	0.87967510
70.89999597	0.00000000	29.44143000	-3.39566900
71.09999596	0.00000000	30.13656000	-6.45300100
71.29999594	0.00000000	27.76821000	-6.78518600
71.49999593	0.00000000	22.74237000	-4.18307100
71.69999592	0.00000000	15.80955000	0.04306102
71.89999591	0.00000000	8.92593500	4.69365100
72.09999590	0.00000000	4.26919300	8.96284400
72.29999588	0.00000000	2.68823800	12.03248000
72.49999587	0.00000000	4.26919300	13.18898000
72.69999586	0.00000000	8.87672100	12.03248000
72.89999585	0.00000000	15.43430000	9.00590400
73.09999584	0.00000000	21.99803000	5.19808000
73.29999582	0.00000000	27.43602000	2.12844500
73.49999581	0.00000000	30.51181000	0.55364170
73.69999580	0.00000000	30.51181000	0.51058070
73.89999579	0.00000000	27.43602000	1.62401600
74.09999578	0.00000000	22.09030000	3.15575800
74.29999577	0.00000000	16.27707000	4.64443900
74.49999575	0.00000000	11.24508000	5.38262700
74.69999574	0.00000000	7.72022600	4.64443900
74.89999573	0.00000000	6.59448800	3.15575800
75.09999572	0.00000000	7.72022600	1.57480300
75.29999571	0.00000000	11.20202000	0.09227362
75.49999569	0.00000000	15.76649000	-0.60285430
75.69999568	0.00000000	20.04183000	0.59670270
75.89999567	0.00000000	23.16068000	3.62327700
76.09999566	0.00000000	24.69857000	7.47416300
76.29999565	0.00000000	24.32333000	10.91289000
76.49999563	0.00000000	22.09030000	13.23819000
76.69999562	0.00000000	19.38976000	13.52116000
76.89999561	0.00000000	17.05832000	11.23893000
77.09999560	0.00000000	15.11442000	6.59448800
77.29999559	0.00000000	14.36393000	1.19955700
77.49999558	0.00000000	14.64690000	-4.18307100
77.69999556	0.00000000	15.43430000	-7.99089500
77.89999555	0.00000000	16.14173000	-8.78444900
78.09999554	0.00000000	16.55389000	-6.82824800
78.29999553	0.00000000	16.18479000	-2.18380900
78.49999552	0.00000000	15.80955000	4.31840500
78.69999550	0.00000000	15.43430000	10.49459000
78.89999549	0.00000000	15.11442000	15.14518000
79.09999548	0.00000000	15.90182000	17.46432000
79.29999547	0.00000000	17.39050000	16.67692000
79.49999546	0.00000000	18.97145000	13.23819000
79.69999544	0.00000000	20.50935000	7.84940900
79.89999543	0.00000000	21.66585000	2.08538400
80.09999542	0.00000000	21.99803000	-2.60211600
80.29999541	0.00000000	21.20448000	-5.71481200
80.49999540	0.00000000	18.87918000	-6.87130900
80.69999539	0.00000000	15.85261000	-5.71481200
80.89999537	0.00000000	13.15822000	-2.69439000
81.09999536	0.00000000	11.62032000	1.20570900
81.29999535	0.00000000	11.57726000	5.06274600
81.49999534	0.00000000	12.73991000	8.58759800
81.69999533	0.00000000	14.69611000	10.91289000
81.89999531	0.00000000	17.43356000	12.11860000
82.09999530	0.00000000	20.46014000	12.11860000
82.29999529	0.00000000	22.74237000	10.96211000
82.49999528	0.00000000	23.16068000	9.00590400
82.69999527	0.00000000	22.04109000	6.26845500
82.89999525	0.00000000	20.13410000	3.15575800
83.09999524	0.00000000	17.80881000	0.04306102
83.29999523	0.00000000	15.90182000	-2.64517700
83.49999522	0.00000000	14.64690000	-4.22613100
83.69999521	0.00000000	13.89641000	-4.60137700
83.89999520	0.00000000	13.57652000	-3.76476400
84.09999518	0.00000000	14.69611000	-1.02116100
84.29999517	0.00000000	16.50467000	3.15575800
84.49999516	0.00000000	17.34744000	7.43110200
84.69999515	0.00000000	17.80881000	10.96211000
84.89999514	0.00000000	18.50394000	13.65650000
85.09999512	0.00000000	18.50394000	14.76993000
85.29999511	0.00000000	17.80881000	13.60728000
85.49999510	0.00000000	17.43356000	10.49459000
85.69999509	0.00000000	17.39050000	5.85014700
85.89999508	0.00000000	17.43356000	0.51058070
86.09999506	0.00000000	17.76575000	-3.76476400
86.29999505	0.00000000	18.13484000	-6.09005900
86.49999504	0.00000000	17.72268000	-6.45300100
86.69999503	0.00000000	16.97219000	-4.14000900
86.89999502	0.00000000	15.80955000	0.09227362
87.09999501	0.00000000	14.64690000	5.11195900
87.29999499	0.00000000	13.89641000	10.11934000
87.49999498	0.00000000	13.53346000	13.52116000
87.69999497	0.00000000	14.32087000	14.35162000
87.89999496	0.00000000	15.80955000	12.45079000
88.09999495	0.00000000	17.39050000	9.00590400
88.29999493	0.00000000	18.92839000	4.69365100
88.49999492	0.00000000	20.08489000	0.09227362
88.69999491	0.00000000	20.46014000	-3.71555100
88.89999490	0.00000000	20.08489000	-5.20423200
89.09999489	0.00000000	18.92839000	-3.76476400
89.29999487	0.00000000	17.39050000	-0.28297240
89.49999486	0.00000000	15.80955000	3.94931100
89.69999485	0.00000000	14.27165000	8.54453700
89.89999484	0.00000000	13.15822000	11.61417000
90.09999483	0.00000000	13.15822000	12.40773000
90.29999482	0.00000000	14.27165000	11.23893000
90.49999480	0.00000000	15.80955000	7.80019600
90.69999479	0.00000000	17.34744000	3.62327700
90.89999478	0.00000000	18.50394000	0.09227362
91.09999477	0.00000000	18.92839000	-2.55905500
91.29999476	0.00000000	18.92839000	-3.29724400
91.49999474	0.00000000	18.55315000	-1.39640700
91.69999473	0.00000000	17.80881000	2.04232300
91.89999472	0.00000000	17.43356000	6.26845500
92.09999471	0.00000000	17.39050000	10.07628000
92.29999470	0.00000000	17.34744000	11.98327000
92.49999468	0.00000000	17.01525000	11.65723000
92.69999467	0.00000000	16.60310000	9.33809000
92.89999466	0.00000000	16.59695000	5.85014700
93.09999465	0.00000000	16.14173000	1.62401600
93.29999464	0.00000000	15.43430000	-2.18380900
93.49999463	0.00000000	14.64690000	-4.09079700
93.69999461	0.00000000	14.32087000	-3.71555100
93.89999460	0.00000000	14.69611000	-1.02116100
94.09999459	0.00000000	15.85261000	3.15575800
94.29999458	0.00000000	17.43356000	7.38188900
94.49999457	0.00000000	19.38976000	10.45152000
94.69999455	0.00000000	21.62278000	11.60802000
94.89999454	0.00000000	22.74237000	10.49459000
95.09999453	0.00000000	22.04109000	7.80019600
95.29999452	0.00000000	20.50935000	4.31840500
95.49999451	0.00000000	18.50394000	0.51058070
95.69999449	0.00000000	15.76649000	-2.18380900
95.89999448	0.00000000	12.73991000	-2.97736200
96.09999447	0.00000000	10.41462000	-2.18380900
96.29999446	0.00000000	9.66412400	0.51058070
96.49999445	0.00000000	10.45768000	4.31840500
96.69999444	0.00000000	13.15822000	7.75713500
96.89999442	0.00000000	16.97219000	10.07628000
97.09999441	0.00000000	20.46014000	10.45152000
97.29999440	0.00000000	23.24680000	9.00590400
97.49999439	0.00000000	25.11688000	6.68676100
97.69999438	0.00000000	25.47982000	4.36146600
97.89999436	0.00000000	23.53592000	2.04232300
98.09999435	0.00000000	20.13410000	0.51058070
98.29999434	0.00000000	16.22785000	0.09227362
98.49999433	0.00000000	12.73991000	0.46136810
98.69999432	0.00000000	9.99630800	1.62401600
98.89999430	0.00000000	8.50147600	3.15575800
99.09999429	0.00000000	8.92593500	4.68750000
99.29999428	0.00000000	11.57726000	5.85014700
99.49999427	0.00000000	15.39124000	6.21924200
99.69999426	0.00000000	18.92839000	5.89320800
99.89999425	0.00000000	22.04109000	5.15501900
100.09999423	0.00000000	24.32333000	4.82898600
100.29999422	0.00000000	24.74163000	5.15501900
100.49999421	0.00000000	23.62205000	5.89320800
100.69999420	0.00000000	21.66585000	6.21924200
100.89999419	0.00000000	18.92839000	5.85014700
101.09999417	0.00000000	15.85261000	4.68750000
101.29999416	0.00000000	13.11516000	3.15575800
101.49999415	0.00000000	11.20202000	1.62401600
101.69999414	0.00000000	10.41462000	0.46136810
101.89999413	0.00000000	11.15896000	0.09227362
102.09999411	0.00000000	12.69070000	0.46136810
102.29999410	0.00000000	14.64690000	1.66707700
102.49999409	0.00000000	16.97219000	3.61712600
102.69999408	0.00000000	18.92839000	6.31151500
102.89999407	0.00000000	20.50935000	8.96284400
103.09999406	0.00000000	21.62278000	10.49459000
103.29999404	0.00000000	21.62278000	10.49459000
103.49999403	0.00000000	20.50935000	8.96284400
103.69999402	0.00000000	18.92839000	6.26845500
103.89999401	0.00000000	16.97219000	3.19881900
104.09999400	0.00000000	14.69611000	0.46751960
104.29999398	0.00000000	13.15822000	-1.43946800
104.49999397	0.00000000	12.73991000	-2.18380900
104.69999396	0.00000000	13.11516000	-1.02116100
104.89999395	0.00000000	14.27165000	1.58095500
105.09999394	0.00000000	15.80955000	4.31840500
105.29999392	0.00000000	17.34744000	6.64370100
105.49999391	0.00000000	18.50394000	8.54453700
105.69999390	0.00000000	18.92839000	8.91978400
105.89999389	0.00000000	18.92839000	7.84940900
106.09999388	0.00000000	18.50394000	6.26845500
106.29999387	0.00000000	17.43356000	4.31840500
106.49999385	0.00000000	16.64616000	2.04232300
106.69999384	0.00000000	16.59695000	0.55364170
106.89999383	0.00000000	16.18479000	0.51058070
107.09999382	0.00000000	15.90182000	1.62401600
107.29999381	0.00000000	16.27707000	3.15575800
107.49999379	0.00000000	17.39050000	4.68750000
107.69999378	0.00000000	18.46087000	5.85014700
107.89999377	0.00000000	18.50394000	6.21924200
108.09999376	0.00000000	17.76575000	5.85014700
108.29999375	0.00000000	16.97219000	4.68750000
108.49999374	0.00000000	15.80955000	3.19881900
108.69999372	0.00000000	14.69611000	2.04232300
108.89999371	0.00000000	14.27165000	1.61786400
109.09999370	0.00000000	14.32087000	1.61786400
109.29999369	0.00000000	15.06521000	2.08538400
109.49999368	0.00000000	16.59695000	3.57406500
109.69999366	0.00000000	17.76575000	5.47490100
109.89999365	0.00000000	18.92839000	6.64370100
110.09999364	0.00000000	19.66658000	7.42495000
110.29999363	0.00000000	19.30364000	7.38188900
110.49999362	0.00000000	18.55315000	6.26845500
110.69999360	0.00000000	17.34744000	4.73671200
110.89999359	0.00000000	15.85261000	3.19881900
111.09999358	0.00000000	14.69611000	2.04232300
111.29999357	0.00000000	14.27165000	1.61786400
111.49999356	0.00000000	14.27165000	1.61786400
111.69999355	0.00000000	14.69611000	1.99311000
111.89999353	0.00000000	15.80955000	2.78051200
112.09999352	0.00000000	16.97219000	3.53100400
112.29999351	0.00000000	17.72268000	4.31840500
112.49999350	0.00000000	18.17790000	4.69365100
112.69999349	0.00000000	18.14099000	4.73671200
112.89999347	0.00000000	18.17790000	4.73671200
113.09999346	0.00000000	17.72268000	4.73671200
113.29999345	0.00000000	17.01525000	4.73671200
113.49999344	0.00000000	16.22785000	4.73671200
113.69999343	0.00000000	15.80955000	4.73671200
113.89999341	0.00000000	15.43430000	4.73671200
114.09999340	0.00000000	15.06521000	4.73671200
114.29999339	0.00000000	15.47736000	4.69365100
114.49999338	0.00000000	16.18479000	4.31840500
114.69999337	0.00000000	16.97219000	3.57406500
114.89999336	0.00000000	17.39050000	3.19881900
115.09999334	0.00000000	17.76575000	3.11269700
115.29999333	0.00000000	18.13484000	2.78051200
115.49999332	0.00000000	17.72268000	2.41141700
115.69999331	0.00000000	17.01525000	2.82357300
115.89999330	0.00000000	16.27707000	3.53100400
116.09999328	0.00000000	16.22785000	4.31840500
116.29999327	0.00000000	16.50467000	4.73671200
116.49999326	0.00000000	15.80955000	5.15501900
116.69999325	0.00000000	15.11442000	5.85014700
116.89999324	0.00000000	15.43430000	5.85014700
117.09999322	0.00000000	15.80955000	5.11195900
117.29999321	0.00000000	16.22785000	4.36146600
117.49999320	0.00000000	17.01525000	3.53100400
117.69999319	0.00000000	17.76575000	2.78051200
117.89999318	0.00000000	18.55315000	1.99311000
118.09999317	0.00000000	18.87918000	1.66707700
118.29999315	0.00000000	18.55315000	1.99311000
118.49999314	0.00000000	17.76575000	2.78051200
118.69999313	0.00000000	16.97219000	3.53100400
118.89999312	0.00000000	15.80955000	4.31840500
119.09999311	0.00000000	14.69611000	4.69365100
119.29999309	0.00000000	14.27165000	4.73671200
119.49999308	0.00000000	14.22859000	4.77977300
119.69999307	0.00000000	14.27165000	5.11195900
119.89999306	0.00000000	14.69611000	5.47490100
120.09999305	0.00000000	15.85261000	5.06274600
120.29999303	0.00000000	17.34744000	4.36146600
120.49999302	0.00000000	18.50394000	3.57406500
120.69999301	0.00000000	18.92839000	3.19881900
120.89999300	0.00000000	18.97145000	3.15575800
121.09999299	0.00000000	18.87918000	3.15575800
121.29999298	0.00000000	18.13484000	3.15575800
121.49999296	0.00000000	16.60310000	3.15575800
121.69999295	0.00000000	15.47736000	3.15575800
121.89999294	0.00000000	14.64690000	3.19881900
122.09999293	0.00000000	14.27165000	3.57406500
122.29999292	0.00000000	14.27165000	4.31840500
122.49999290	0.00000000	14.64690000	4.69365100
122.69999289	0.00000000	15.43430000	4.73671200
122.89999288	0.00000000	16.18479000	4.73671200
123.09999287	0.00000000	17.01525000	4.73671200
123.29999286	0.00000000	17.76575000	4.73671200
123.49999284	0.00000000	18.55315000	4.69365100
123.69999283	0.00000000	18.87918000	4.31840500
123.89999282	0.00000000	18.55315000	3.57406500
124.09999281	0.00000000	17.80881000	3.15575800
124.29999280	0.00000000	17.34744000	2.73745100
124.49999279	0.00000000	16.55389000	2.04232300
124.69999277	0.00000000	15.11442000	2.04232300
124.89999276	0.00000000	14.69611000	2.73745100
125.09999275	0.00000000	14.97293000	3.15575800
125.29999274	0.00000000	14.60384000	3.57406500
125.49999273	0.00000000	14.32087000	4.31840500
125.69999271	0.00000000	14.69611000	4.69365100
125.89999270	0.00000000	15.80955000	4.73671200
126.09999269	0.00000000	16.92298000	4.73671200
126.29999268	0.00000000	17.39050000	4.73671200
126.49999267	0.00000000	17.80881000	4.73671200
126.69999265	0.00000000	18.50394000	4.69365100
126.89999264	0.00000000	18.50394000	4.31840500
127.09999263	0.00000000	17.76575000	3.57406500
127.29999262	0.00000000	16.97219000	3.19881900
127.49999261	0.00000000	15.80955000	3.15575800
127.69999260	0.00000000	14.69611000	3.15575800
127.89999258	0.00000000	14.27165000	3.15575800
128.09999257	0.00000000	14.27165000	3.19881900
128.29999256	0.00000000	14.69611000	3.57406500
128.49999255	0.00000000	15.80955000	4.31840500
128.69999254	0.00000000	16.97219000	4.69365100
128.89999252	0.00000000	17.76575000	4.73671200
129.09999251	0.00000000	18.55315000	4.69365100
129.29999250	0.00000000	18.87918000	4.31840500
129.49999249	0.00000000	18.50394000	3.57406500
129.69999248	0.00000000	17.39050000	3.19881900
129.89999246	0.00000000	16.22785000	3.15575800
130.09999245	0.00000000	15.43430000	3.15575800
130.29999244	0.00000000	14.64690000	3.19881900
130.49999243	0.00000000	14.32087000	3.57406500
130.69999242	0.00000000	14.69611000	4.31840500
130.89999241	0.00000000	15.80955000	4.69365100
131.09999239	0.00000000	16.97219000	4.73671200
131.29999238	0.00000000	17.76575000	4.69365100
131.49999237	0.00000000	18.50394000	4.31840500
131.69999236	0.00000000	18.50394000	3.57406500
131.89999235	0.00000000	17.76575000	3.15575800
132.09999233	0.00000000	17.01525000	2.73745100
132.29999232	0.00000000	16.18479000	2.04232300
132.49999231	0.00000000	15.47736000	2.04232300
132.69999230	0.00000000	15.06521000	2.78051200
132.89999229	0.00000000	15.43430000	3.53100400
133.09999227	0.00000000	15.76649000	4.36146600
133.29999226	0.00000000	15.85261000	5.11195900
133.49999225	0.00000000	16.22785000	5.89320800
133.69999224	0.00000000	16.97219000	6.21924200
133.89999223	0.00000000	17.34744000	5.89320800
134.09999222	0.00000000	17.34744000	5.11195900
134.29999220	0.00000000	16.97219000	4.31840500
134.49999219	0.00000000	16.22785000	3.15575800
134.69999218	0.00000000	15.85261000	2.04232300
134.89999217	0.00000000	15.80955000	1.61786400
135.09999216	0.00000000	15.85261000	1.61786400
135.29999214	0.00000000	16.22785000	1.99311000
135.49999213	0.00000000	16.97219000	2.73745100
135.69999212	0.00000000	17.34744000	3.15575800
135.89999211	0.00000000	17.34744000	3.57406500
136.09999210	0.00000000	16.97219000	4.36146600
136.29999208	0.00000000	16.18479000	5.06274600
136.49999207	0.00000000	15.47736000	5.47490100
136.69999206	0.00000000	15.02214000	5.11195900
136.89999205	0.00000000	15.05905000	4.73671200
137.09999204	0.00000000	15.02214000	4.31840500
137.29999203	0.00000000	15.47736000	3.57406500
137.49999201	0.00000000	16.18479000	3.19881900
137.69999200	0.00000000	16.97219000	3.15575800
137.89999199	0.00000000	17.34744000	3.15575800
138.09999198	0.00000000	17.39050000	3.15575800
138.29999197	0.00000000	17.34744000	3.15575800
138.49999195	0.00000000	16.97219000	3.15575800
138.69999194	0.00000000	16.18479000	3.15575800
138.89999193	0.00000000	15.43430000	3.15575800
139.09999192	0.00000000	14.64690000	3.19881900
139.29999191	0.00000000	14.32087000	3.57406500
139.49999189	0.00000000	14.64690000	4.31840500
139.69999188	0.00000000	15.43430000	4.69365100
139.89999187	0.00000000	16.18479000	4.73671200
140.09999186	0.00000000	16.97219000	4.73671200
140.29999185	0.00000000	17.34744000	4.69365100
140.49999184	0.00000000	17.39050000	4.26919300
140.69999182	0.00000000	17.34744000	3.15575800
140.89999181	0.00000000	16.97219000	2.04232300
141.09999180	0.00000000	16.22785000	1.61786400
141.29999179	0.00000000	15.80955000	1.61786400
141.49999178	0.00000000	15.39124000	1.99311000
141.69999176	0.00000000	14.69611000	2.78051200
141.89999175	0.00000000	14.69611000	3.53100400
142.09999174	0.00000000	15.39124000	4.36146600
142.29999173	0.00000000	15.80955000	5.11195900
142.49999172	0.00000000	16.22785000	5.85014700
142.69999170	0.00000000	16.97219000	5.85014700
142.89999169	0.00000000	17.34744000	5.11195900
143.09999168	0.00000000	17.34744000	4.36146600
143.29999167	0.00000000	16.97219000	3.53100400
143.49999166	0.00000000	16.22785000	2.78051200
143.69999165	0.00000000	15.85261000	1.99311000
143.89999163	0.00000000	15.80955000	1.66707700
144.09999162	0.00000000	15.80955000	1.99311000
144.29999161	0.00000000	15.85261000	2.78051200
144.49999160	0.00000000	16.22785000	3.53100400
144.69999159	0.00000000	16.97219000	4.31840500
144.89999157	0.00000000	17.34744000	4.69365100
145.09999156	0.00000000	17.39050000	4.73671200
145.29999155	0.00000000	17.34744000	4.73671200
145.49999154	0.00000000	16.97219000	4.69365100
145.69999153	0.00000000	16.18479000	4.31840500
145.89999151	0.00000000	15.47736000	3.57406500
146.09999150	0.00000000	15.02214000	3.19881900
146.29999149	0.00000000	15.05905000	3.15575800
146.49999148	0.00000000	15.02214000	3.15575800
146.69999147	0.00000000	15.47736000	3.15575800
146.89999146	0.00000000	16.18479000	3.15575800
147.09999144	0.00000000	16.97219000	3.15575800
147.29999143	0.00000000	17.29823000	3.19881900
147.49999142	0.00000000	16.97219000	3.53100400
147.69999141	0.00000000	16.27707000	3.94315900
147.89999140	0.00000000	16.22785000	3.94931100
148.09999138	0.00000000	16.50467000	4.36146600
148.29999137	0.00000000	15.80955000	4.69365100
148.49999136	0.00000000	15.11442000	4.69365100
148.69999135	0.00000000	15.43430000	4.31840500
148.89999134	0.00000000	15.76649000	3.57406500
149.09999132	0.00000000	15.80955000	3.19881900
149.29999131	0.00000000	15.85261000	3.15575800
149.49999130	0.00000000	16.22785000	3.15575800
149.69999129	0.00000000	16.97219000	3.15575800
149.89999128	0.00000000	17.34744000	3.15575800
150.09999127	0.00000000	17.34744000	3.15575800
150.29999125	0.00000000	16.97219000	3.19881900
150.49999124	0.00000000	16.22785000	3.57406500
150.69999123	0.00000000	15.80955000	4.31840500
150.89999122	0.00000000	15.39124000	4.69365100
151.09999121	0.00000000	14.69611000	4.73671200
151.29999119	0.00000000	14.69611000	4.73671200
151.49999118	0.00000000	15.39124000	4.69365100
151.69999117	0.00000000	15.76649000	4.31840500
151.89999116	0.00000000	15.85261000	3.57406500
152.09999115	0.00000000	16.22785000	3.19881900
152.29999113	0.00000000	16.97219000	3.15575800
152.49999112	0.00000000	17.34744000	3.15575800
152.69999111	0.00000000	17.39050000	3.15575800
152.89999110	0.00000000	17.34744000	3.15575800
153.09999109	0.00000000	16.97219000	3.19881900
153.29999108	0.00000000	16.22785000	3.57406500
153.49999106	0.00000000	15.85261000	4.31840500
153.69999105	0.00000000	15.76649000	4.69365100
153.89999104	0.00000000	15.39124000	4.73671200
154.09999103	0.00000000	14.64690000	4.73671200
154.29999102	0.00000000	14.27165000	4.69365100
154.49999100	0.00000000	14.27165000	4.31840500
154.69999099	0.00000000	14.64690000	3.57406500
154.89999098	0.00000000	15.39124000	3.19881900
155.09999097	0.00000000	15.80955000	3.15575800
155.29999096	0.00000000	16.22785000	3.15575800
155.49999094	0.00000000	16.97219000	3.15575800
155.69999093	0.00000000	17.29823000	3.15575800
155.89999092	0.00000000	16.97219000	3.15575800
156.09999091	0.00000000	16.22785000	3.15575800
156.29999090	0.00000000	15.85261000	3.19881900
156.49999089	0.00000000	15.80955000	3.57406500
156.69999087	0.00000000	15.76649000	4.31840500
156.89999086	0.00000000	15.43430000	4.69365100
157.09999085	0.00000000	15.02214000	4.73671200
157.29999084	0.00000000	15.05905000	4.73671200
157.49999083	0.00000000	15.02214000	4.73671200
157.69999081	0.00000000	15.43430000	4.69365100
157.89999080	0.00000000	15.76649000	4.31840500
158.09999079	0.00000000	15.85261000	3.57406500
158.29999078	0.00000000	16.22785000	3.19881900
158.49999077	0.00000000	16.97219000	3.15575800
158.69999075	0.00000000	17.29823000	3.15575800
158.89999074	0.00000000	16.97219000	3.15575800
159.09999073	0.00000000	16.22785000	3.15575800
159.29999072	0.00000000	15.85261000	3.19881900
159.49999071	0.00000000	15.80955000	3.57406500
159.69999070	0.00000000	15.76649000	4.31840500
159.89999068	0.00000000	15.39124000	4.69365100
160.09999067	0.00000000	14.69611000	4.73671200
160.29999066	0.00000000	14.69611000	4.73671200
160.49999065	0.00000000	15.39124000	4.69365100
160.69999064	0.00000000	15.76649000	4.31840500
160.89999062	0.00000000	15.80955000	3.57406500
161.09999061	0.00000000	15.80955000	3.19881900
161.29999060	0.00000000	15.80955000	3.15575800
161.49999059	0.00000000	15.80955000	3.15575800
161.69999058	0.00000000	15.80955000	3.15575800
161.89999056	0.00000000	15.80955000	3.15575800
162.09999055	0.00000000	15.80955000	3.15575800
162.29999054	0.00000000	15.80955000	3.15575800
162.49999053	0.00000000	15.80955000	3.19881900
162.69999052	0.00000000	15.80955000	3.57406500
162.89999051	0.00000000	15.80955000	4.26919300
163.09999049	0.00000000	15.80955000	4.31840500
163.29999048	0.00000000	15.80955000	3.94931100
163.49999047	0.00000000	15.80955000	3.94315900
163.69999046	0.00000000	15.76649000	3.53100400
163.89999045	0.00000000	15.43430000	3.19881900
164.09999043	0.00000000	15.06521000	3.15575800
164.29999042	0.00000000	15.43430000	3.15575800
164.49999041	0.00000000	15.76649000	3.15575800
164.69999040	0.00000000	15.85261000	3.15575800
164.89999039	0.00000000	16.18479000	3.15575800
165.09999037	0.00000000	16.55389000	3.15575800
165.29999036	0.00000000	16.18479000	3.15575800
165.49999035	0.00000000	15.85261000	3.15575800
165.69999034	0.00000000	15.80955000	3.15575800
165.89999033	0.00000000	15.80955000	3.15575800
166.09999032	0.00000000	15.80955000	3.19881900
166.29999030	0.00000000	15.76649000	3.53100400
166.49999029	0.00000000	15.43430000	3.90009800
166.69999028	0.00000000	15.06521000	3.53100400
166.89999027	0.00000000	15.43430000	3.19881900
167.09999026	0.00000000	15.76649000	3.15575800
167.29999024	0.00000000	15.80955000	3.15575800
167.49999023	0.00000000	15.80955000	3.15575800
167.69999022	0.00000000	15.80955000	3.15575800
167.89999021	0.00000000	15.80955000	3.15575800
168.09999020	0.00000000	15.80955000	3.15575800
168.29999018	0.00000000	15.80955000	3.15575800
168.49999017	0.00000000	15.80955000	3.15575800
168.69999016	0.00000000	15.80955000	3.15575800
168.89999015	0.00000000	15.80955000	3.15575800
169.09999014	0.00000000	15.80955000	3.15575800
169.29999013	0.00000000	15.80955000	3.19881900
169.49999011	0.00000000	15.76649000	3.57406500
169.69999010	0.00000000	15.43430000	4.26919300
169.89999009	0.00000000	15.06521000	4.26919300
170.09999008	0.00000000	15.43430000	3.57406500
170.29999007	0.00000000	15.76649000	3.19881900
170.49999005	0.00000000	15.80955000	3.15575800
170.69999004	0.00000000	15.80955000	3.15575800
170.89999003	0.00000000	15.85261000	3.19881900
171.09999002	0.00000000	16.18479000	3.53100400
171.29999001	0.00000000	16.55389000	3.90009800
171.49998999	0.00000000	16.18479000	3.53100400
171.69998998	0.00000000	15.85261000	3.19881900
171.89998997	0.00000000	15.80955000	3.15575800
172.09998996	0.00000000	15.80955000	3.15575800
172.29998995	0.00000000	15.80955000	3.15575800
172.49998994	0.00000000	15.80955000	3.15575800
172.69998992	0.00000000	15.76649000	3.15575800
172.89998991	0.00000000	15.43430000	3.15575800
173.09998990	0.00000000	15.02214000	3.15575800
173.29998989	0.00000000	15.05905000	3.19881900
173.49998988	0.00000000	15.02214000	3.53100400
173.69998986	0.00000000	15.43430000	3.90009800
173.89998985	0.00000000	15.76649000	3.53100400
174.09998984	0.00000000	15.80955000	3.19881900
174.29998983	0.00000000	15.80955000	3.15575800
174.49998982	0.00000000	15.80955000	3.15575800
174.69998980	0.00000000	15.80955000	3.15575800
174.89998979	0.00000000	15.80955000	3.15575800
175.09998978	0.00000000	15.80955000	3.15575800
175.29998977	0.00000000	15.80955000	3.15575800
175.49998976	0.00000000	15.80955000	3.15575800
175.69998975	0.00000000	15.80955000	3.15575800
175.89998973	0.00000000	15.80955000	3.15575800
176.09998972	0.00000000	15.80955000	3.15575800
176.29998971	0.00000000	15.80955000	3.15575800
176.49998970	0.00000000	15.80955000	3.15575800
176.69998969	0.00000000	15.80955000	3.15575800
176.89998967	0.00000000	15.80955000	3.15575800
177.09998966	0.00000000	15.80955000	3.15575800
177.29998965	0.00000000	15.80955000	3.15575800
177.49998964	0.00000000	15.76649000	3.15575800
177.69998963	0.00000000	15.43430000	3.15575800
177.89998961	0.00000000	15.06521000	3.15575800
178.09998960	0.00000000	15.43430000	3.15575800
178.29998959	0.00000000	15.76649000	3.15575800
178.49998958	0.00000000	15.80955000	3.15575800
178.69998957	0.00000000	15.80955000	3.15575800
178.89998956	0.00000000	15.80955000	3.19881900
179.09998954	0.00000000	15.80955000	3.57406500
179.29998953	0.00000000	15.80955000	4.26919300
179.49998952	0.00000000	15.85261000	4.31840500
179.69998951	0.00000000	16.18479000	3.99237200
179.89998950	0.00000000	16.55389000	4.31840500
180.09998948	0.00000000	16.18479000	4.26919300
180.29998947	0.00000000	15.85261000	3.57406500
180.49998946	0.00000000	15.80955000	3.19881900
180.69998945	0.00000000	15.80955000	3.15575800
180.89998944	0.00000000	15.80955000	3.15575800
181.09998942	0.00000000	15.80955000	3.15575800
181.29998941	0.00000000	15.80955000	3.15575800
181.49998940	0.00000000	15.80955000	3.15575800
181.69998939	0.00000000	15.80955000	3.19881900
181.89998938	0.00000000	15.80955000	3.53100400
182.09998937	0.00000000	15.80955000	3.90009800
182.29998935	0.00000000	15.80955000	3.53100400
182.49998934	0.00000000	15.80955000	3.19881900
182.69998933	0.00000000	15.80955000	3.15575800
182.89998932	0.00000000	15.80955000	3.15575800
183.09998931	0.00000000	15.80955000	3.15575800
183.29998929	0.00000000	15.76649000	3.15575800
183.49998928	0.00000000	15.43430000	3.15575800
183.69998927	0.00000000	15.06521000	3.15575800
183.89998926	0.00000000	15.43430000	3.15575800
184.09998925	0.00000000	15.76649000	3.15575800
184.29998923	0.00000000	15.76649000	3.15575800
184.49998922	0.00000000	15.43430000	3.19881900
184.69998921	0.00000000	15.06521000	3.57406500
184.89998920	0.00000000	15.43430000	4.31840500
185.09998919	0.00000000	15.76649000	4.69365100
185.29998918	0.00000000	15.80955000	4.69365100
185.49998916	0.00000000	15.80955000	4.31840500
185.69998915	0.00000000	15.80955000	3.57406500
185.89998914	0.00000000	15.80955000	3.19881900
186.09998913	0.00000000	15.80955000	3.11269700
186.29998912	0.00000000	15.80955000	2.78051200
186.49998910	0.00000000	15.80955000	2.41141700
186.69998909	0.00000000	15.80955000	2.78051200
186.89998908	0.00000000	15.76649000	3.11269700
187.09998907	0.00000000	15.43430000	3.19881900
187.29998906	0.00000000	15.02214000	3.57406500
187.49998904	0.00000000	15.01599000	4.31840500
187.69998903	0.00000000	14.60384000	4.69365100
187.89998902	0.00000000	14.32087000	4.73671200
188.09998901	0.00000000	14.64690000	4.73671200
188.29998900	0.00000000	15.39124000	4.69365100
188.49998899	0.00000000	15.71727000	4.31840500
188.69998897	0.00000000	15.43430000	3.57406500
188.89998896	0.00000000	15.06521000	3.19881900
189.09998895	0.00000000	15.43430000	3.11269700
189.29998894	0.00000000	15.76649000	2.73745100
189.49998893	0.00000000	15.80955000	2.04232300
189.69998891	0.00000000	15.76649000	2.04232300
189.89998890	0.00000000	15.39124000	2.73745100
190.09998889	0.00000000	14.64690000	3.11269700
190.29998888	0.00000000	14.27165000	3.19881900
190.49998887	0.00000000	14.27165000	3.57406500
190.69998885	0.00000000	14.60384000	4.26919300
190.89998884	0.00000000	14.97293000	4.31840500
191.09998883	0.00000000	14.64690000	3.94931100
191.29998882	0.00000000	14.69611000	3.94315900
191.49998881	0.00000000	15.39124000	3.53100400
191.69998880	0.00000000	15.76649000	3.19881900
191.89998878	0.00000000	15.76649000	3.15575800
192.09998877	0.00000000	15.43430000	3.15575800
192.29998876	0.00000000	15.06521000	3.15575800
192.49998875	0.00000000	15.43430000	3.15575800
192.69998874	0.00000000	15.76649000	3.15575800
192.89998872	0.00000000	15.76649000	3.15575800
193.09998871	0.00000000	15.39124000	3.15575800
193.29998870	0.00000000	14.64690000	3.15575800
193.49998869	0.00000000	14.27165000	3.15575800
193.69998868	0.00000000	14.22859000	3.15575800
193.89998866	0.00000000	14.27165000	3.15575800
194.09998865	0.00000000	14.64690000	3.19881900
194.29998864	0.00000000	15.39124000	3.57406500
194.49998863	0.00000000	15.76649000	4.26919300
194.69998862	0.00000000	15.80955000	4.26919300
194.89998861	0.00000000	15.80955000	3.57406500
195.09998859	0.00000000	15.76649000	3.19881900
195.29998858	0.00000000	15.43430000	3.15575800
195.49998857	0.00000000	15.02214000	3.15575800
195.69998856	0.00000000	15.01599000	3.15575800
195.89998855	0.00000000	14.60384000	3.15575800
196.09998853	0.00000000	14.27165000	3.15575800
