Time	Channel A	Channel B	Channel C
(us)	(V)	(mV)	(mV)

-4.49999956	0.00000000	3.53715500	5.11195900
-4.29999957	0.00000000	3.20497000	4.77977300
-4.09999958	0.00000000	3.16190900	4.73671200
-3.89999959	0.00000000	3.16190900	4.73671200
-3.69999960	0.00000000	3.16190900	4.73671200
-3.49999962	0.00000000	3.16190900	4.73671200
-3.29999963	0.00000000	3.16190900	4.73671200
-3.09999964	0.00000000	3.16190900	4.73671200
-2.89999965	0.00000000	3.16190900	4.73671200
-2.69999966	0.00000000	3.16190900	4.73671200
-2.49999968	0.00000000	3.16190900	4.73671200
-2.29999969	0.00000000	3.16190900	4.73671200
-2.09999970	0.00000000	3.20497000	4.73671200
-1.89999971	0.00000000	3.53715500	4.73671200
-1.69999972	0.00000000	3.90625000	4.73671200
-1.49999973	0.00000000	3.53715500	4.73671200
-1.29999975	0.00000000	3.20497000	4.73671200
-1.09999976	0.00000000	3.16190900	4.73671200
-0.89999977	0.00000000	3.16190900	4.73671200
-0.69999978	0.00000000	3.16190900	4.73671200
-0.49999979	0.00000000	3.16190900	4.73671200
-0.29999981	0.15871060	3.16190900	4.73671200
-0.09999982	0.63668800	3.20497000	4.73671200
0.10000017	0.95533960	3.53715500	4.73671200
0.30000016	1.11466500	3.90625000	4.73671200
0.50000015	0.95533960	3.53715500	4.73671200
0.70000013	0.47736220	3.20497000	4.73671200
0.90000012	-0.31803640	3.16190900	4.73671200
1.10000011	-1.27399100	3.16190900	4.73671200
1.30000010	-2.22994600	3.16190900	4.73671200
1.50000009	-2.70792300	3.16190900	4.73671200
1.70000008	-2.54859700	3.16190900	4.77977300
1.90000006	-1.43331700	3.16190900	5.15501900
2.10000005	0.15871060	3.20497000	5.85014700
2.30000004	2.22994600	3.53715500	5.85014700
2.50000003	4.14124000	3.90625000	5.15501900
2.70000002	5.25652100	3.53715500	4.73671200
2.90000000	5.09719500	3.20497000	4.36146600
3.09999999	3.34522600	3.11884800	3.99237200
3.29999998	0.47736220	2.78666300	4.36146600
3.49999997	-3.02657500	2.41756900	4.69365100
3.69999996	-6.05315000	2.78666300	4.73671200
3.89999994	-7.80511800	3.11884800	4.77977300
4.09999993	-7.64579200	3.20497000	5.15501900
4.29999992	-5.57517200	3.53715500	5.89320800
4.49999991	-1.75196900	3.90625000	6.26845500
4.69999990	2.70792300	3.53715500	6.26845500
4.89999989	6.69045300	3.20497000	5.89320800
5.09999987	9.07972400	3.16190900	5.15501900
5.29999986	9.23905000	3.16190900	4.77977300
5.49999985	7.16781500	3.16190900	4.73671200
5.69999984	3.02657500	3.16190900	4.73671200
5.89999983	-1.59264300	3.16190900	4.73671200
6.09999981	-6.05315000	3.20497000	4.73671200
6.29999980	-8.76107300	3.58021600	4.77977300
6.49999979	-9.39837600	4.32455700	5.15501900
6.69999978	-7.64579200	4.65059000	5.89320800
6.89999977	-3.98191400	4.32455700	6.26845500
7.09999975	0.31803640	3.62942900	6.31151500
7.29999974	4.30056600	3.58021600	6.26845500
7.49999973	7.00848900	3.90625000	5.89320800
7.69999972	7.80511800	3.53715500	5.15501900
7.89999971	6.53112700	3.20497000	4.77977300
8.09999970	3.98191400	3.16190900	4.73671200
8.29999968	0.63668800	3.16190900	4.73671200
8.49999967	-2.38927200	3.16190900	4.73671200
8.69999966	-4.45989200	3.16190900	4.73671200
8.89999965	-5.25652100	3.16190900	4.73671200
9.09999964	-4.61921700	3.16190900	4.73671200
9.29999962	-3.02657500	3.20497000	4.73671200
9.49999961	-0.95533960	3.53715500	4.73671200
9.69999960	0.79601380	3.90625000	4.73671200
9.89999959	2.07062000	3.53715500	4.73671200
10.09999958	2.54859700	3.20497000	4.73671200
10.29999956	2.38927200	3.16190900	4.73671200
10.49999955	1.59264300	3.16190900	4.73671200
10.69999954	0.63668800	3.16190900	4.73671200
10.89999953	-0.15871060	3.16190900	4.73671200
11.09999952	-0.63668800	3.16190900	4.73671200
11.29999951	-0.95533960	3.16190900	4.73671200
11.49999949	-0.95533960	3.16190900	4.73671200
11.69999948	-0.79601380	3.16190900	4.73671200
11.89999947	-0.47736220	3.16190900	4.73671200
12.09999946	-0.15871060	3.16190900	4.73671200
12.29999945	-0.15871060	3.16190900	4.73671200
12.49999943	-0.15871060	3.16190900	4.73671200
12.69999942	0.00000000	3.16190900	4.73671200
12.89999941	0.00000000	3.16190900	4.73671200
13.09999940	0.15871060	3.16190900	4.73671200
13.29999939	0.00000000	3.20497000	4.73671200
13.49999937	0.00000000	3.53715500	4.73671200
13.69999936	0.00000000	3.90625000	4.73671200
13.89999935	0.00000000	3.53715500	4.73671200
14.09999934	-0.15871060	3.20497000	4.73671200
14.29999933	-0.15871060	3.16190900	4.73671200
14.49999932	-0.15871060	3.16190900	4.73671200
14.69999930	0.00000000	3.16190900	4.73671200
14.89999929	0.00000000	3.16190900	4.73671200
15.09999928	0.00000000	3.16190900	4.73671200
15.29999927	0.00000000	3.16190900	4.73671200
15.49999926	0.00000000	3.16190900	4.73671200
15.69999924	0.00000000	3.16190900	4.73671200
15.89999923	0.00000000	3.16190900	4.73671200
16.09999922	0.00000000	3.16190900	4.73671200
16.29999921	0.00000000	3.16190900	4.73671200
16.49999920	0.00000000	3.16190900	4.73671200
16.69999919	-0.15871060	3.20497000	4.73671200
16.89999917	-0.15871060	3.58021600	4.73671200
17.09999916	0.00000000	4.32455700	4.73671200
17.29999915	0.00000000	4.74286400	4.73671200
17.49999914	0.00000000	5.11811000	4.73671200
17.69999913	0.00000000	5.48720400	4.73671200
17.89999911	0.00000000	5.07504900	4.73671200
18.09999910	0.00000000	4.32455700	4.73671200
18.29999909	0.00000000	3.11884800	4.73671200
18.49999908	0.00000000	1.58095500	4.73671200
18.69999907	0.00000000	0.04306102	4.73671200
18.89999905	0.00000000	-1.11343500	4.73671200
19.09999904	0.00000000	-1.44562000	4.73671200
19.29999903	0.00000000	-0.65206690	4.77977300
19.49999902	0.00000000	1.71628900	5.11195900
19.69999901	0.00000000	5.16117100	5.47490100
19.89999900	0.00000000	9.06742000	5.11195900
20.09999898	0.00000000	12.51230000	4.77977300
20.29999897	0.00000000	14.78838000	4.73671200
20.49999896	0.00000000	14.74532000	4.73671200
20.69999895	0.00000000	12.00172000	4.73671200
20.89999894	0.00000000	6.88361200	4.73671200
21.09999892	0.00000000	-0.46751960	4.73671200
21.29999891	0.00000000	-8.51377900	4.73671200
21.49999890	0.00000000	-14.65305000	4.73671200
21.69999889	0.00000000	-17.31053000	4.73671200
21.89999888	0.00000000	-15.30512000	4.73671200
22.09999886	0.00000000	-8.32923100	4.73671200
22.29999885	0.00000000	2.13459600	4.73671200
22.49999884	0.00000000	14.18553000	4.73671200
22.69999883	0.00000000	25.72589000	4.73671200
22.89999882	0.00000000	33.72908000	4.73671200
23.09999881	0.00000000	35.21776000	4.77977300
23.29999879	0.00000000	29.35531000	5.15501900
23.49999878	0.00000000	16.93528000	5.93626900
23.69999877	0.00000000	-0.09227362	6.68676100
23.89999876	0.00000000	-17.82111000	7.42495000
24.09999875	0.00000000	-32.05585000	7.42495000
24.29999873	0.00000000	-38.90256000	6.68676100
24.49999872	0.00000000	-35.78371000	5.89320800
24.69999871	0.00000000	-23.03149000	4.68750000
24.89999870	0.00000000	-3.67864200	3.15575800
25.09999869	0.00000000	18.37475000	1.57480300
25.29999867	0.00000000	38.42889000	0.09227362
25.49999866	0.00000000	51.50098000	-0.65206690
25.69999865	0.00000000	54.10925000	0.17839570
25.89999864	0.00000000	44.84498000	2.46063000
26.09999863	0.00000000	25.54134000	5.98548200
26.29999862	0.00000000	1.24877000	9.84867000
26.49999860	0.00000000	-22.74852000	13.74262000
26.69999859	0.00000000	-40.85260000	16.72613000
26.89999858	0.00000000	-49.04035000	17.42126000
27.09999857	0.00000000	-45.50935000	14.72687000
27.29999856	0.00000000	-31.21924000	9.29502900
27.49999854	0.00000000	-8.79675100	2.31914400
27.69999853	0.00000000	16.24016000	-5.43184000
27.89999852	0.00000000	37.91830000	-11.94021000
28.09999851	0.00000000	51.45792000	-15.74803000
28.29999850	0.00000000	54.20152000	-15.28666000
28.49999848	0.00000000	45.73080000	-9.84867000
28.69999847	0.00000000	28.37721000	-0.55979330
28.89999846	0.00000000	6.36687900	11.09744000
29.09999845	0.00000000	-15.31127000	22.99459000
29.29999844	0.00000000	-31.96973000	32.19119000
29.49999843	0.00000000	-40.52657000	35.63607000
29.69999841	0.00000000	-39.36393000	32.52337000
29.89999840	0.00000000	-28.93701000	23.18528000
30.09999839	0.00000000	-11.62648000	8.87672100
30.29999838	0.00000000	8.04626000	-7.29576700
30.49999837	0.00000000	25.12303000	-21.60433000
30.69999835	0.00000000	36.79872000	-30.80709000
30.89999834	0.00000000	41.08022000	-32.70792000
31.09999833	0.00000000	37.26624000	-26.11343000
31.29999832	0.00000000	26.83932000	-12.63533000
31.49999831	0.00000000	12.18012000	4.77977300
31.69999829	0.00000000	-3.26033400	22.57628000
31.89999828	0.00000000	-15.72958000	37.26009000
32.09999827	0.00000000	-23.49901000	45.71235000
32.29999826	0.00000000	-25.44291000	45.66929000
32.49999825	0.00000000	-20.84153000	36.79257000
32.69999824	0.00000000	-11.58341000	20.99532000
32.89999822	0.00000000	0.41830710	2.08538400
33.09999821	0.00000000	12.74606000	-15.70497000
33.29999820	0.00000000	22.00418000	-28.90010000
33.49999819	0.00000000	26.32874000	-35.07628000
33.69999818	0.00000000	25.16609000	-33.12623000
33.89999816	0.00000000	19.06988000	-23.09301000
34.09999815	0.00000000	9.81791200	-7.29576700
34.29999814	0.00000000	0.17839570	10.49459000
34.49999813	0.00000000	-7.95398600	26.71629000
34.69999812	0.00000000	-12.56767000	37.91216000
34.89999810	0.00000000	-12.61073000	41.40009000
35.09999809	0.00000000	-8.42150500	36.84178000
35.29999808	0.00000000	-1.48868100	25.63976000
35.49999807	0.00000000	6.18848400	10.62992000
35.69999806	0.00000000	12.74606000	-4.83513700
35.89999805	0.00000000	16.19094000	-17.15059000
36.09999803	0.00000000	15.85876000	-23.74508000
36.29999802	0.00000000	12.05093000	-23.00074000
36.49999801	0.00000000	6.28075700	-15.74803000
36.69999800	0.00000000	0.13533460	-4.22613100
36.89999799	0.00000000	-4.84128900	8.50147600
37.09999797	0.00000000	-6.79749000	19.28519000
37.29999796	0.00000000	-5.67790300	25.83046000
37.49999795	0.00000000	-2.23302100	26.20571000
37.69999794	0.00000000	2.78666300	20.53395000
37.89999793	0.00000000	7.76943800	10.96211000
38.09999791	0.00000000	11.67569000	0.59670270
38.29999790	0.00000000	13.53962000	-7.81250000
38.49999789	0.00000000	12.83218000	-11.66339000
38.69999788	0.00000000	9.76870100	-9.80561000
38.89999787	0.00000000	5.94857300	-3.67249000
39.09999786	0.00000000	1.99926200	5.15501900
39.29999784	0.00000000	-1.44562000	14.30241000
39.49999783	0.00000000	-3.81397600	20.44168000
39.69999782	0.00000000	-4.56446800	21.97957000
39.89999781	0.00000000	-3.81397600	18.49163000
40.09999780	0.00000000	-1.48868100	10.40846000
40.29999778	0.00000000	1.58095500	0.13533460
40.49999777	0.00000000	4.74286400	-9.06126900
40.69999776	0.00000000	7.81250000	-14.03174000
40.89999775	0.00000000	10.18086000	-13.70571000
41.09999774	0.00000000	11.34966000	-8.27386800
41.29999772	0.00000000	11.76181000	0.92888770
41.49999771	0.00000000	10.93135000	11.65723000
41.69999770	0.00000000	9.01820900	20.48474000
41.89999769	0.00000000	6.28075700	25.13533000
42.09999768	0.00000000	3.20497000	24.76009000
42.29999767	0.00000000	0.46751960	19.37131000
42.49999765	0.00000000	-1.48868100	10.58686000
42.69999764	0.00000000	-2.69439000	0.92888770
42.89999763	0.00000000	-3.02657500	-7.16043300
43.09999762	0.00000000	-2.27608300	-12.17397000
43.29999761	0.00000000	-0.33218500	-12.59227000
43.49999759	0.00000000	1.95620100	-8.78444900
43.69999758	0.00000000	4.32455700	-2.27608300
43.89999757	0.00000000	6.23154500	5.43184000
44.09999756	0.00000000	7.48646600	11.98327000
44.29999755	0.00000000	8.23695900	16.30167000
44.49999753	0.00000000	8.64911400	17.83957000
44.69999752	0.00000000	8.28001900	16.35089000
44.89999751	0.00000000	7.90477300	12.49385000
45.09999750	0.00000000	7.43725300	7.51722400
45.29999749	0.00000000	6.28075700	2.50369100
45.49999748	0.00000000	4.69980300	-0.97810030
45.69999746	0.00000000	2.69439000	-2.60211600
45.89999745	0.00000000	-0.04306102	-2.60211600
46.09999744	0.00000000	-3.11884800	-1.07037400
46.29999743	0.00000000	-5.77017700	1.62401600
46.49999742	0.00000000	-6.88361200	4.73671200
46.69999740	0.00000000	-5.67790300	7.80019600
46.89999739	0.00000000	-2.18996000	10.11934000
47.09999738	0.00000000	3.25418300	10.91289000
47.29999737	0.00000000	9.44266700	10.53765000
47.49999736	0.00000000	15.25591000	8.96284400
47.69999734	0.00000000	19.44513000	6.31151500
47.89999733	0.00000000	20.55856000	3.57406500
48.09999732	0.00000000	17.81496000	1.24877000
48.29999731	0.00000000	11.62648000	-0.69512790
48.49999730	0.00000000	3.11884800	-1.39640700
48.69999729	0.00000000	-5.72711600	-0.64591530
48.89999727	0.00000000	-12.65379000	1.66707700
49.09999726	0.00000000	-15.72958000	4.73671200
49.29999725	0.00000000	-14.19168000	7.84940900
49.49999724	0.00000000	-8.37844500	10.53765000
49.69999723	0.00000000	0.46751960	12.07554000
49.89999721	0.00000000	10.09473000	12.03248000
50.09999720	0.00000000	17.86417000	10.11934000
50.29999719	0.00000000	22.47170000	6.64370100
50.49999718	0.00000000	22.83464000	2.82972400
50.69999717	0.00000000	18.19021000	-0.69512790
50.89999715	0.00000000	10.18086000	-2.93430100
51.09999714	0.00000000	0.88582670	-3.34030500
51.29999713	0.00000000	-7.17273600	-1.39640700
51.49999712	0.00000000	-12.19242000	2.04232300
51.69999711	0.00000000	-12.56767000	6.31151500
51.89999710	0.00000000	-8.37844500	10.49459000
52.09999708	0.00000000	-1.11343500	13.18898000
52.29999707	0.00000000	6.97588500	13.61343000
52.49999706	0.00000000	13.53962000	12.07554000
52.69999705	0.00000000	17.39665000	9.00590400
52.89999704	0.00000000	17.35359000	5.15501900
53.09999702	0.00000000	13.20743000	1.71013800
53.29999701	0.00000000	6.69906400	-0.60285430
53.49999700	0.00000000	0.13533460	-1.02116100
53.69999699	0.00000000	-5.25959600	0.09227362
53.89999698	0.00000000	-7.91092400	2.04232300
54.09999696	0.00000000	-6.74827700	4.73671200
54.29999695	0.00000000	-2.18996000	7.33882900
54.49999694	0.00000000	4.27534400	8.50147600
54.69999693	0.00000000	10.04552000	7.80019600
54.89999692	0.00000000	13.53962000	6.26845500
55.09999691	0.00000000	14.32702000	4.36146600
55.29999689	0.00000000	12.00172000	2.50369100
55.49999688	0.00000000	7.43725300	2.12844500
55.69999687	0.00000000	2.04847400	3.24803100
55.89999686	0.00000000	-2.56520700	5.19808000
56.09999685	0.00000000	-5.25959600	7.84940900
56.29999683	0.00000000	-5.30265700	10.11934000
56.49999682	0.00000000	-2.98351400	10.86983000
56.69999681	0.00000000	0.88582670	10.11934000
56.89999680	0.00000000	5.85629900	7.75713500
57.09999679	0.00000000	10.04552000	4.26919300
57.29999677	0.00000000	12.05093000	0.04306102
57.49999676	0.00000000	12.09400000	-3.71555100
57.69999675	0.00000000	10.51304000	-5.20423200
57.89999674	0.00000000	7.43725300	-3.67249000
58.09999673	0.00000000	3.58021600	0.55364170
58.29999672	0.00000000	0.13533460	6.31151500
58.49999670	0.00000000	-2.14074800	12.11860000
58.69999669	0.00000000	-2.14074800	16.72613000
58.89999668	0.00000000	0.04306102	19.00221000
59.09999667	0.00000000	2.69439000	17.79650000
59.29999666	0.00000000	4.69980300	13.14591000
59.49999664	0.00000000	6.28075700	5.89320800
59.69999663	0.00000000	7.39419200	-1.76550200
59.89999662	0.00000000	7.39419200	-7.20349400
60.09999661	0.00000000	6.28075700	-9.89788300
60.29999660	0.00000000	4.74286400	-9.06126900
60.49999658	0.00000000	3.20497000	-4.09079700
60.69999657	0.00000000	2.09153500	3.19881900
60.89999656	0.00000000	2.09153500	10.91289000
61.09999655	0.00000000	3.16190900	17.46432000
61.29999654	0.00000000	4.32455700	20.90305000
61.49999653	0.00000000	5.11811000	20.53395000
61.69999651	0.00000000	5.90551100	16.25861000
61.89999650	0.00000000	6.23154500	8.96284400
62.09999649	0.00000000	5.81323800	0.51058070
62.29999648	0.00000000	4.27534400	-6.78518600
62.49999647	0.00000000	2.04847400	-11.06053000
62.69999645	0.00000000	0.51058070	-11.42962000
62.89999644	0.00000000	0.09227362	-7.99089500
63.09999643	0.00000000	0.46751960	-1.44562000
63.29999642	0.00000000	1.67322800	6.26845500
63.49999641	0.00000000	3.58021600	13.56422000
63.69999639	0.00000000	5.90551100	18.58391000
63.89999638	0.00000000	7.81250000	19.79577000
64.09999637	0.00000000	8.97514600	17.93184000
64.29999636	0.00000000	8.93208600	13.65650000
64.49999635	0.00000000	7.39419200	7.89247000
64.69999634	0.00000000	4.74286400	2.08538400
64.89999632	0.00000000	2.04847400	-2.55905500
65.09999631	0.00000000	0.13533460	-5.29650500
65.29999630	0.00000000	-0.65206690	-5.67175200
65.49999629	0.00000000	0.09227362	-3.80782500
65.69999628	0.00000000	1.62401600	-0.33218500
65.89999626	0.00000000	3.58021600	3.53100400
66.09999625	0.00000000	5.85629900	7.42495000
66.29999624	0.00000000	7.35113100	10.49459000
66.49999623	0.00000000	7.39419200	12.11860000
66.69999622	0.00000000	6.28075700	12.58612000
66.89999620	0.00000000	4.74286400	12.58612000
67.09999619	0.00000000	3.16190900	12.11860000
67.29999618	0.00000000	1.67322800	10.53765000
67.49999617	0.00000000	0.92888770	7.84940900
67.69999616	0.00000000	1.71628900	4.73671200
67.89999615	0.00000000	3.58021600	1.62401600
68.09999613	0.00000000	5.94857300	-1.11343500
68.29999612	0.00000000	8.23695900	-3.06348400
68.49999611	0.00000000	10.09473000	-4.18307100
68.69999610	0.00000000	10.04552000	-3.76476400
68.89999609	0.00000000	7.76943800	-1.39640700
69.09999607	0.00000000	4.27534400	2.46063000
69.29999606	0.00000000	0.04306102	7.51722400
69.49999605	0.00000000	-3.77091500	12.49385000
69.69999604	0.00000000	-5.67790300	16.35089000
69.89999603	0.00000000	-5.30265700	17.88263000
70.09999601	0.00000000	-2.56520700	16.72613000
70.29999600	0.00000000	2.09153500	13.23819000
70.49999599	0.00000000	7.90477300	7.80019600
70.69999598	0.00000000	13.63189000	1.71013800
70.89999597	0.00000000	17.39665000	-3.34645700
71.09999596	0.00000000	17.43971000	-6.04699800
71.29999594	0.00000000	14.05020000	-6.45300100
71.49999593	0.00000000	8.97514600	-4.14000900
71.69999592	0.00000000	2.74360200	0.09227362
71.89999591	0.00000000	-3.81397600	5.11195900
72.09999590	0.00000000	-8.75369100	10.07628000
72.29999588	0.00000000	-10.69759000	13.14591000
72.49999587	0.00000000	-8.79675100	13.61343000
72.69999586	0.00000000	-4.23228400	12.11860000
72.89999585	0.00000000	1.62401600	9.42421200
73.09999584	0.00000000	7.86171200	6.36072800
73.29999582	0.00000000	13.63189000	3.66633800
73.49999581	0.00000000	17.39665000	2.12844500
73.69999580	0.00000000	17.43971000	2.08538400
73.89999579	0.00000000	14.05020000	3.19881900
74.09999578	0.00000000	9.01820900	4.68750000
74.29999577	0.00000000	3.20497000	5.85014700
74.49999575	0.00000000	-2.18996000	6.21924200
74.69999574	0.00000000	-5.67790300	5.80093500
74.89999573	0.00000000	-6.88361200	4.26919300
75.09999572	0.00000000	-5.72711600	2.04232300
75.29999571	0.00000000	-2.65132900	0.55364170
75.49999569	0.00000000	1.58095500	0.55364170
75.69999568	0.00000000	5.81323800	2.08538400
75.89999567	0.00000000	8.93208600	4.82283400
76.09999566	0.00000000	10.51304000	8.31077700
76.29999565	0.00000000	10.51304000	12.11860000
76.49999563	0.00000000	8.97514600	14.72072000
76.69999562	0.00000000	6.36687900	14.72072000
76.89999561	0.00000000	4.04773600	12.07554000
77.09999560	0.00000000	2.82972400	7.80019600
77.29999559	0.00000000	2.04847400	2.73745100
77.49999558	0.00000000	2.04847400	-2.64517700
77.69999556	0.00000000	2.74360200	-6.78518600
77.89999555	0.00000000	3.11884800	-7.94783400
78.09999554	0.00000000	3.16190900	-5.67175200
78.29999553	0.00000000	3.11884800	-1.06422200
78.49999552	0.00000000	2.74360200	4.77977300
78.69999550	0.00000000	2.04847400	10.96211000
78.89999549	0.00000000	2.09153500	16.30167000
79.09999548	0.00000000	3.20497000	19.00221000
79.29999547	0.00000000	4.74286400	18.30093000
79.49999546	0.00000000	6.32381900	15.23130000
79.69999544	0.00000000	7.86171200	10.53765000
79.89999543	0.00000000	9.01820900	4.77977300
80.09999542	0.00000000	9.35039300	-0.64591530
80.29999541	0.00000000	8.55684000	-4.50910400
80.49999540	0.00000000	6.23154500	-6.45300100
80.69999539	0.00000000	3.20497000	-5.67175200
80.89999537	0.00000000	0.46751960	-2.64517700
81.09999536	0.00000000	-1.44562000	1.57480300
81.29999535	0.00000000	-2.18996000	5.85014700
81.49999534	0.00000000	-1.02731300	9.38115100
81.69999533	0.00000000	1.62401600	12.11860000
81.89999531	0.00000000	4.69980300	13.65650000
82.09999530	0.00000000	7.39419200	13.69956000
82.29999529	0.00000000	8.97514600	12.53691000
82.49999528	0.00000000	9.35039300	10.58686000
82.69999527	0.00000000	8.59990100	7.84940900
82.89999525	0.00000000	6.65600300	4.73671200
83.09999524	0.00000000	4.36761800	1.62401600
83.29999523	0.00000000	2.04847400	-1.11343500
83.49999522	0.00000000	0.51058070	-3.02042300
83.69999521	0.00000000	0.09227362	-3.76476400
83.89999520	0.00000000	0.46751960	-2.60211600
84.09999518	0.00000000	1.62401600	0.09227362
84.29999517	0.00000000	3.11884800	3.62327700
84.49999516	0.00000000	4.27534400	7.84940900
84.69999515	0.00000000	4.69980300	11.70029000
84.89999514	0.00000000	4.74286400	14.03174000
85.09999512	0.00000000	4.74286400	14.85605000
85.29999511	0.00000000	4.74286400	13.98253000
85.49999510	0.00000000	4.74286400	11.28199000
85.69999509	0.00000000	4.74286400	6.64370100
85.89999508	0.00000000	4.78592500	1.66707700
86.09999506	0.00000000	5.16117100	-2.60211600
86.29999505	0.00000000	5.85629900	-5.29650500
86.49999504	0.00000000	5.81323800	-5.67175200
86.69999503	0.00000000	4.69980300	-3.71555100
86.89999502	0.00000000	3.20497000	0.51058070
87.09999501	0.00000000	1.99926200	5.89320800
87.29999499	0.00000000	1.24877000	10.86983000
87.49999498	0.00000000	0.88582670	14.34547000
87.69999497	0.00000000	1.62401600	15.14518000
87.89999496	0.00000000	2.78666300	13.60728000
88.09999495	0.00000000	3.99852300	10.16855000
88.29999493	0.00000000	5.90551100	5.53026500
88.49999492	0.00000000	7.39419200	1.29183100
88.69999491	0.00000000	7.81250000	-2.18380900
88.89999490	0.00000000	7.43725300	-3.67249000
89.09999489	0.00000000	6.28075700	-2.55905500
89.29999487	0.00000000	4.69980300	0.51058070
89.49999486	0.00000000	2.78666300	4.73671200
89.69999485	0.00000000	0.88582670	8.96284400
89.89999484	0.00000000	0.13533460	12.03248000
90.09999483	0.00000000	0.46751960	13.18898000
90.29999482	0.00000000	1.62401600	12.03248000
90.49999480	0.00000000	3.16190900	8.96284400
90.69999479	0.00000000	4.69980300	4.73671200
90.89999478	0.00000000	5.85629900	0.55364170
91.09999477	0.00000000	6.28075700	-2.14074800
91.29999476	0.00000000	6.32381900	-2.55905500
91.49999474	0.00000000	6.28075700	-0.97810030
91.69999473	0.00000000	5.90551100	2.46063000
91.89999472	0.00000000	5.11811000	7.00664300
92.09999471	0.00000000	4.41067900	10.49459000
92.29999470	0.00000000	3.95546200	12.45079000
92.49999468	0.00000000	3.94931100	12.81373000
92.69999467	0.00000000	3.53715500	10.82677000
92.89999466	0.00000000	3.16190900	7.05585600
93.09999465	0.00000000	2.74360200	2.41756900
93.29999464	0.00000000	1.99926200	-1.35334600
93.49999463	0.00000000	1.67322800	-3.29724400
93.69999461	0.00000000	1.99926200	-2.55905500
93.89999460	0.00000000	2.74360200	0.09227362
94.09999459	0.00000000	3.20497000	3.62327700
94.29999458	0.00000000	4.04773600	7.84940900
94.49999457	0.00000000	5.94857300	11.61417000
94.69999455	0.00000000	7.81250000	13.14591000
94.89999454	0.00000000	8.97514600	12.03248000
95.09999453	0.00000000	8.93208600	8.96284400
95.29999452	0.00000000	7.43725300	4.77977300
95.49999451	0.00000000	5.11811000	0.92888770
95.69999449	0.00000000	2.74360200	-1.39640700
95.89999448	0.00000000	0.04306102	-2.18380900
96.09999447	0.00000000	-2.23302100	-1.02116100
96.29999446	0.00000000	-2.98351400	1.62401600
96.49999445	0.00000000	-2.23302100	4.73671200
96.69999444	0.00000000	0.13533460	7.84940900
96.89999442	0.00000000	3.58021600	10.49459000
97.09999441	0.00000000	7.48646600	11.60802000
97.29999440	0.00000000	10.88829000	10.49459000
97.49999439	0.00000000	12.83218000	7.89247000
97.69999438	0.00000000	12.46924000	5.19808000
97.89999436	0.00000000	10.55610000	3.19881900
98.09999435	0.00000000	7.43725300	1.66707700
98.29999434	0.00000000	3.58021600	0.92888770
98.49999433	0.00000000	0.09227362	1.66707700
98.69999432	0.00000000	-2.65132900	3.15575800
98.89999430	0.00000000	-4.14616100	4.68750000
99.09999429	0.00000000	-3.77091500	5.85014700
99.29999428	0.00000000	-1.48868100	6.26845500
99.49999427	0.00000000	1.62401600	6.31151500
99.69999426	0.00000000	5.11811000	6.31151500
99.89999425	0.00000000	8.59990100	6.31151500
100.09999423	0.00000000	10.88829000	6.35457700
100.29999422	0.00000000	11.71875000	6.72982200
100.49999421	0.00000000	10.93135000	7.47416300
100.69999420	0.00000000	9.01820900	7.80019600
100.89999419	0.00000000	6.28075700	7.42495000
101.09999417	0.00000000	3.20497000	6.26845500
101.29999416	0.00000000	0.46751960	4.73671200
101.49999415	0.00000000	-1.44562000	3.15575800
101.69999414	0.00000000	-2.23302100	1.66707700
101.89999413	0.00000000	-1.48868100	0.87967510
102.09999411	0.00000000	0.04306102	1.29183100
102.29999410	0.00000000	1.99926200	2.46063000
102.49999409	0.00000000	4.36761800	4.82283400
102.69999408	0.00000000	6.65600300	7.80019600
102.89999407	0.00000000	8.59990100	10.16855000
103.09999406	0.00000000	9.35039300	11.33120000
103.29999404	0.00000000	9.01820900	11.70029000
103.49999403	0.00000000	7.81250000	10.45152000
103.69999402	0.00000000	5.90551100	7.42495000
103.89999401	0.00000000	3.58021600	3.62327700
104.09999400	0.00000000	1.67322800	0.55364170
104.29999398	0.00000000	0.46751960	-1.02116100
104.49999397	0.00000000	0.09227362	-1.06422200
104.69999396	0.00000000	0.46751960	0.09227362
104.89999395	0.00000000	1.62401600	2.04232300
105.09999394	0.00000000	3.11884800	4.73671200
105.29999392	0.00000000	4.32455700	7.43110200
105.49999391	0.00000000	5.11811000	9.33809000
105.69999390	0.00000000	5.90551100	10.11934000
105.89999389	0.00000000	6.23154500	9.33809000
106.09999388	0.00000000	5.85629900	7.47416300
106.29999387	0.00000000	4.74286400	5.15501900
106.49999385	0.00000000	3.62942900	3.24803100
106.69999384	0.00000000	3.20497000	2.08538400
106.89999383	0.00000000	3.20497000	2.08538400
107.09999382	0.00000000	3.58021600	3.19881900
107.29999381	0.00000000	4.36761800	4.73671200
107.49999379	0.00000000	5.11811000	6.26845500
107.69999378	0.00000000	5.85629900	7.42495000
107.89999377	0.00000000	5.85629900	7.80019600
108.09999376	0.00000000	5.11811000	7.42495000
108.29999375	0.00000000	4.36761800	6.26845500
108.49999374	0.00000000	3.53715500	4.77977300
108.69999372	0.00000000	2.78666300	3.57406500
108.89999371	0.00000000	2.04847400	2.82357300
109.09999370	0.00000000	2.04847400	2.46063000
109.29999369	0.00000000	2.78666300	3.24803100
109.49999368	0.00000000	3.58021600	4.73671200
109.69999366	0.00000000	4.78592500	6.26845500
109.89999365	0.00000000	6.23154500	7.42495000
110.09999364	0.00000000	7.01894700	7.84940900
110.29999363	0.00000000	6.69906400	7.84940900
110.49999362	0.00000000	6.28075700	7.42495000
110.69999360	0.00000000	5.48720400	6.26845500
110.89999359	0.00000000	3.91240100	4.77977300
111.09999358	0.00000000	2.45447800	3.62327700
111.29999357	0.00000000	1.26107300	3.19881900
111.49999356	0.00000000	1.29798200	3.15575800
111.69999355	0.00000000	1.95620100	3.19881900
111.89999353	0.00000000	2.78666300	3.62327700
112.09999352	0.00000000	3.58021600	4.73671200
112.29999351	0.00000000	4.74286400	5.85014700
112.49999350	0.00000000	5.85629900	6.26845500
112.69999349	0.00000000	6.28075700	6.31151500
112.89999347	0.00000000	6.28075700	6.31151500
113.09999346	0.00000000	5.90551100	6.31151500
113.29999345	0.00000000	5.11811000	6.31151500
113.49999344	0.00000000	4.36761800	6.26845500
113.69999343	0.00000000	3.58021600	5.89320800
113.89999341	0.00000000	3.20497000	5.15501900
114.09999340	0.00000000	3.16190900	4.77977300
114.29999339	0.00000000	3.20497000	4.73671200
114.49999338	0.00000000	3.58021600	4.69365100
114.69999337	0.00000000	4.32455700	4.31840500
114.89999336	0.00000000	4.69980300	3.57406500
115.09999334	0.00000000	4.74286400	3.19881900
115.29999333	0.00000000	4.74286400	3.19881900
115.49999332	0.00000000	4.74286400	3.57406500
115.69999331	0.00000000	4.74286400	4.36146600
115.89999330	0.00000000	4.69980300	5.11195900
116.09999328	0.00000000	4.32455700	5.93626900
116.29999327	0.00000000	3.58021600	6.68676100
116.49999326	0.00000000	3.20497000	7.47416300
116.69999325	0.00000000	3.16190900	7.80019600
116.89999324	0.00000000	3.20497000	7.42495000
117.09999322	0.00000000	3.58021600	6.31151500
117.29999321	0.00000000	4.36761800	5.15501900
117.49999320	0.00000000	5.11811000	4.36146600
117.69999319	0.00000000	5.94857300	3.57406500
117.89999318	0.00000000	6.65600300	3.19881900
118.09999317	0.00000000	7.06815900	3.15575800
118.29999315	0.00000000	6.65600300	3.19881900
118.49999314	0.00000000	5.90551100	3.62327700
118.69999313	0.00000000	4.74286400	4.73671200
118.89999312	0.00000000	3.58021600	5.85014700
119.09999311	0.00000000	2.78666300	6.31151500
119.29999309	0.00000000	1.99926200	6.72982200
119.49999308	0.00000000	1.67322800	7.42495000
119.69999307	0.00000000	2.04847400	7.42495000
119.89999306	0.00000000	3.20497000	6.72982200
120.09999305	0.00000000	4.69980300	6.31151500
120.29999303	0.00000000	5.90551100	5.89320800
120.49999302	0.00000000	6.69906400	5.15501900
120.69999301	0.00000000	7.43725300	4.77977300
120.89999300	0.00000000	7.43725300	4.73671200
121.09999299	0.00000000	6.69906400	4.73671200
121.29999298	0.00000000	5.90551100	4.73671200
121.49999296	0.00000000	4.74286400	4.73671200
121.69999295	0.00000000	3.58021600	4.73671200
121.89999294	0.00000000	2.78666300	4.73671200
122.09999293	0.00000000	1.99926200	4.77977300
122.29999292	0.00000000	1.67322800	5.15501900
122.49999290	0.00000000	2.04847400	5.89320800
122.69999289	0.00000000	3.16190900	6.26845500
122.89999288	0.00000000	4.32455700	6.31151500
123.09999287	0.00000000	5.11811000	6.31151500
123.29999286	0.00000000	5.90551100	6.31151500
123.49999284	0.00000000	6.28075700	6.26845500
123.69999283	0.00000000	6.32381900	5.89320800
123.89999282	0.00000000	6.28075700	5.11195900
124.09999281	0.00000000	5.90551100	4.36146600
124.29999280	0.00000000	5.16117100	3.57406500
124.49999279	0.00000000	4.74286400	3.24803100
124.69999277	0.00000000	4.32455700	3.57406500
124.89999276	0.00000000	3.58021600	4.31840500
125.09999275	0.00000000	3.20497000	4.73671200
125.29999274	0.00000000	3.16190900	5.15501900
125.49999273	0.00000000	3.16190900	5.89320800
125.69999271	0.00000000	3.20497000	6.26845500
125.89999270	0.00000000	3.62942900	6.31151500
126.09999269	0.00000000	4.74286400	6.31151500
126.29999268	0.00000000	5.85629900	6.31151500
126.49999267	0.00000000	6.28075700	6.26845500
126.69999265	0.00000000	6.32381900	5.93626900
126.89999264	0.00000000	6.28075700	5.53026500
127.09999263	0.00000000	5.90551100	5.56717500
127.29999262	0.00000000	5.11811000	5.48105300
127.49999261	0.00000000	4.36761800	5.51796200
127.69999260	0.00000000	3.53715500	5.11195900
127.89999258	0.00000000	2.82972400	4.77977300
128.09999257	0.00000000	2.41756900	4.73671200
128.29999256	0.00000000	2.82972400	4.73671200
128.49999255	0.00000000	3.53715500	4.77977300
128.69999254	0.00000000	4.36761800	5.15501900
128.89999252	0.00000000	5.11811000	5.85014700
129.09999251	0.00000000	5.90551100	5.85014700
129.29999250	0.00000000	6.23154500	5.15501900
129.49999249	0.00000000	5.90551100	4.77977300
129.69999248	0.00000000	5.16117100	4.73671200
129.89999246	0.00000000	4.74286400	4.73671200
130.09999245	0.00000000	4.27534400	4.73671200
130.29999244	0.00000000	3.20497000	4.73671200
130.49999243	0.00000000	2.46678100	4.77977300
130.69999242	0.00000000	2.82972400	5.15501900
130.89999241	0.00000000	3.58021600	5.89320800
131.09999239	0.00000000	4.74286400	6.26845500
131.29999238	0.00000000	5.85629900	6.26845500
131.49999237	0.00000000	6.28075700	5.89320800
131.69999236	0.00000000	6.28075700	5.11195900
131.89999235	0.00000000	5.90551100	4.36146600
132.09999233	0.00000000	5.11811000	3.57406500
132.29999232	0.00000000	4.36761800	3.19881900
132.49999231	0.00000000	3.58021600	3.19881900
132.69999230	0.00000000	3.20497000	3.57406500
132.89999229	0.00000000	3.20497000	4.36146600
133.09999227	0.00000000	3.58021600	5.11195900
133.29999226	0.00000000	4.32455700	5.93626900
133.49999225	0.00000000	4.69980300	6.68676100
133.69999224	0.00000000	4.74286400	7.42495000
133.89999223	0.00000000	4.74286400	7.42495000
134.09999222	0.00000000	4.74286400	6.68676100
134.29999220	0.00000000	4.74286400	5.93626900
134.49999219	0.00000000	4.74286400	5.11195900
134.69999218	0.00000000	4.74286400	4.36146600
134.89999217	0.00000000	4.78592500	3.57406500
135.09999216	0.00000000	5.11811000	3.24803100
135.29999214	0.00000000	5.48720400	3.57406500
135.49999213	0.00000000	5.16117100	4.36146600
135.69999212	0.00000000	5.16117100	5.11195900
135.89999211	0.00000000	5.48720400	5.89320800
136.09999210	0.00000000	5.07504900	6.26845500
136.29999208	0.00000000	4.36761800	6.31151500
136.49999207	0.00000000	3.58021600	6.31151500
136.69999206	0.00000000	3.20497000	6.31151500
136.89999205	0.00000000	3.16190900	6.26845500
137.09999204	0.00000000	3.20497000	5.89320800
137.29999203	0.00000000	3.58021600	5.15501900
137.49999201	0.00000000	4.36761800	4.77977300
137.69999200	0.00000000	5.11811000	4.73671200
137.89999199	0.00000000	5.90551100	4.69365100
138.09999198	0.00000000	6.23154500	4.31840500
138.29999197	0.00000000	5.90551100	3.62327700
138.49999195	0.00000000	5.16117100	3.62327700
138.69999194	0.00000000	4.78592500	4.31840500
138.89999193	0.00000000	4.69980300	4.73671200
139.09999192	0.00000000	4.32455700	5.15501900
139.29999191	0.00000000	3.58021600	5.89320800
139.49999189	0.00000000	3.25418300	6.26845500
139.69999188	0.00000000	3.58021600	6.31151500
139.89999187	0.00000000	4.32455700	6.31151500
140.09999186	0.00000000	4.74286400	6.31151500
140.29999185	0.00000000	5.11811000	6.26845500
140.49999184	0.00000000	5.48720400	5.85014700
140.69999182	0.00000000	5.11811000	4.73671200
140.89999181	0.00000000	4.78592500	3.62327700
141.09999180	0.00000000	4.69980300	3.19881900
141.29999179	0.00000000	4.32455700	3.19881900
141.49999178	0.00000000	3.58021600	3.57406500
141.69999176	0.00000000	3.25418300	4.36146600
141.89999175	0.00000000	3.58021600	5.15501900
142.09999174	0.00000000	4.32455700	6.31151500
142.29999173	0.00000000	4.69980300	7.42495000
142.49999172	0.00000000	4.74286400	7.80019600
142.69999170	0.00000000	4.74286400	7.47416300
142.89999169	0.00000000	4.74286400	6.68676100
143.09999168	0.00000000	4.74286400	5.93626900
143.29999167	0.00000000	4.69980300	5.11195900
143.49999166	0.00000000	4.36761800	4.36146600
143.69999165	0.00000000	3.99852300	3.57406500
143.89999163	0.00000000	4.36761800	3.19881900
144.09999162	0.00000000	4.69980300	3.19881900
144.29999161	0.00000000	4.69980300	3.62327700
144.49999160	0.00000000	4.36761800	4.73671200
144.69999159	0.00000000	3.99852300	5.85014700
144.89999157	0.00000000	4.36761800	6.26845500
145.09999156	0.00000000	4.69980300	6.31151500
145.29999155	0.00000000	4.74286400	6.31151500
145.49999154	0.00000000	4.69980300	6.26845500
145.69999153	0.00000000	4.36761800	5.89320800
145.89999151	0.00000000	3.95546200	5.15501900
146.09999150	0.00000000	3.99237200	4.77977300
146.29999149	0.00000000	3.95546200	4.73671200
146.49999148	0.00000000	4.36761800	4.73671200
146.69999147	0.00000000	4.69980300	4.73671200
146.89999146	0.00000000	4.74286400	4.73671200
147.09999144	0.00000000	4.78592500	4.73671200
147.29999143	0.00000000	5.11811000	4.77977300
147.49999142	0.00000000	5.48720400	5.15501900
147.69999141	0.00000000	5.11811000	5.89320800
147.89999140	0.00000000	4.78592500	6.26845500
148.09999138	0.00000000	4.69980300	6.31151500
148.29999137	0.00000000	4.32455700	6.31151500
148.49999136	0.00000000	3.58021600	6.26845500
148.69999135	0.00000000	3.20497000	5.89320800
148.89999134	0.00000000	3.20497000	5.15501900
149.09999132	0.00000000	3.58021600	4.77977300
149.29999131	0.00000000	4.36761800	4.73671200
149.49999130	0.00000000	5.07504900	4.73671200
149.69999129	0.00000000	5.53026500	4.73671200
149.89999128	0.00000000	5.49335600	4.73671200
150.09999127	0.00000000	5.53026500	4.77977300
150.29999125	0.00000000	5.11811000	5.15501900
150.49999124	0.00000000	4.78592500	5.89320800
150.69999123	0.00000000	4.69980300	6.26845500
150.89999122	0.00000000	4.32455700	6.31151500
151.09999121	0.00000000	3.58021600	6.31151500
151.29999119	0.00000000	3.20497000	6.26845500
151.49999118	0.00000000	3.20497000	5.89320800
151.69999117	0.00000000	3.58021600	5.15501900
151.89999116	0.00000000	4.32455700	4.77977300
152.09999115	0.00000000	4.69980300	4.73671200
152.29999113	0.00000000	4.78592500	4.73671200
152.49999112	0.00000000	5.11811000	4.73671200
152.69999111	0.00000000	5.53026500	4.73671200
152.89999110	0.00000000	5.49335600	4.73671200
153.09999109	0.00000000	5.53026500	4.77977300
153.29999108	0.00000000	5.11811000	5.15501900
153.49999106	0.00000000	4.74286400	5.89320800
153.69999105	0.00000000	4.32455700	6.26845500
153.89999104	0.00000000	3.58021600	6.31151500
154.09999103	0.00000000	3.20497000	6.31151500
154.29999102	0.00000000	3.16190900	6.26845500
154.49999100	0.00000000	3.16190900	5.93626900
154.69999099	0.00000000	3.20497000	5.53026500
154.89999098	0.00000000	3.58021600	5.51796200
155.09999097	0.00000000	4.32455700	5.11195900
155.29999096	0.00000000	4.69980300	4.77977300
155.49999094	0.00000000	4.78592500	4.73671200
155.69999093	0.00000000	5.16117100	4.73671200
155.89999092	0.00000000	5.85629900	4.73671200
156.09999091	0.00000000	5.85629900	4.73671200
156.29999090	0.00000000	5.16117100	4.77977300
156.49999089	0.00000000	4.78592500	5.15501900
156.69999087	0.00000000	4.69980300	5.89320800
156.89999086	0.00000000	4.32455700	6.26845500
157.09999085	0.00000000	3.62942900	6.31151500
157.29999084	0.00000000	3.58021600	6.31151500
157.49999083	0.00000000	3.90625000	6.26845500
157.69999081	0.00000000	3.58021600	5.89320800
157.89999080	0.00000000	3.62942900	5.15501900
158.09999079	0.00000000	4.36761800	4.77977300
158.29999078	0.00000000	5.07504900	4.73671200
158.49999077	0.00000000	5.48720400	4.73671200
158.69999075	0.00000000	5.16117100	4.73671200
158.89999074	0.00000000	5.16117100	4.73671200
159.09999073	0.00000000	5.48720400	4.73671200
159.29999072	0.00000000	5.11811000	4.77977300
159.49999071	0.00000000	4.74286400	5.15501900
159.69999070	0.00000000	4.32455700	5.89320800
159.89999068	0.00000000	3.62942900	6.26845500
160.09999067	0.00000000	3.62942900	6.31151500
160.29999066	0.00000000	4.32455700	6.31151500
160.49999065	0.00000000	4.69980300	6.31151500
160.69999064	0.00000000	4.74286400	6.26845500
160.89999062	0.00000000	4.74286400	5.89320800
161.09999061	0.00000000	4.74286400	5.15501900
161.29999060	0.00000000	4.74286400	4.77977300
161.49999059	0.00000000	4.74286400	4.73671200
161.69999058	0.00000000	4.74286400	4.73671200
161.89999056	0.00000000	4.74286400	4.73671200
162.09999055	0.00000000	4.74286400	4.77977300
162.29999054	0.00000000	4.74286400	5.15501900
162.49999053	0.00000000	4.74286400	5.89320800
162.69999052	0.00000000	4.74286400	6.26845500
162.89999051	0.00000000	4.74286400	6.31151500
163.09999049	0.00000000	4.74286400	6.31151500
163.29999048	0.00000000	4.69980300	6.26845500
163.49999047	0.00000000	4.36761800	5.89320800
163.69999046	0.00000000	3.95546200	5.15501900
163.89999045	0.00000000	3.99237200	4.77977300
164.09999043	0.00000000	3.95546200	4.73671200
164.29999042	0.00000000	4.36761800	4.73671200
164.49999041	0.00000000	4.69980300	4.73671200
164.69999040	0.00000000	4.74286400	4.73671200
164.89999039	0.00000000	4.78592500	4.73671200
165.09999037	0.00000000	5.11811000	4.73671200
165.29999036	0.00000000	5.48720400	4.73671200
165.49999035	0.00000000	5.11811000	4.73671200
165.69999034	0.00000000	4.78592500	4.73671200
165.89999033	0.00000000	4.74286400	4.73671200
166.09999032	0.00000000	4.74286400	4.73671200
166.29999030	0.00000000	4.74286400	4.77977300
166.49999029	0.00000000	4.74286400	5.11195900
166.69999028	0.00000000	4.74286400	5.51796200
166.89999027	0.00000000	4.74286400	5.53026500
167.09999026	0.00000000	4.74286400	5.89320800
167.29999024	0.00000000	4.74286400	5.85014700
167.49999023	0.00000000	4.74286400	5.15501900
167.69999022	0.00000000	4.74286400	4.77977300
167.89999021	0.00000000	4.74286400	4.73671200
168.09999020	0.00000000	4.74286400	4.73671200
168.29999018	0.00000000	4.74286400	4.77977300
168.49999017	0.00000000	4.78592500	5.11195900
168.69999016	0.00000000	5.11811000	5.47490100
168.89999015	0.00000000	5.48720400	5.11195900
169.09999014	0.00000000	5.11811000	4.77977300
169.29999013	0.00000000	4.78592500	4.73671200
169.49999011	0.00000000	4.69980300	4.73671200
169.69999010	0.00000000	4.36761800	4.73671200
169.89999009	0.00000000	3.99852300	4.73671200
170.09999008	0.00000000	4.36761800	4.77977300
170.29999007	0.00000000	4.69980300	5.11195900
170.49999005	0.00000000	4.74286400	5.47490100
170.69999004	0.00000000	4.74286400	5.11195900
170.89999003	0.00000000	4.74286400	4.77977300
171.09999002	0.00000000	4.74286400	4.73671200
171.29999001	0.00000000	4.74286400	4.73671200
171.49998999	0.00000000	4.74286400	4.73671200
171.69998998	0.00000000	4.74286400	4.73671200
171.89998997	0.00000000	4.78592500	4.73671200
172.09998996	0.00000000	5.11811000	4.73671200
172.29998995	0.00000000	5.48720400	4.73671200
172.49998994	0.00000000	5.11811000	4.73671200
172.69998992	0.00000000	4.78592500	4.77977300
172.89998991	0.00000000	4.74286400	5.15501900
173.09998990	0.00000000	4.74286400	5.85014700
173.29998989	0.00000000	4.74286400	5.89320800
173.49998988	0.00000000	4.74286400	5.57332700
173.69998986	0.00000000	4.78592500	5.93626900
173.89998985	0.00000000	5.11811000	6.21924200
174.09998984	0.00000000	5.48720400	5.89320800
174.29998983	0.00000000	5.11811000	5.15501900
174.49998982	0.00000000	4.78592500	4.77977300
174.69998980	0.00000000	4.74286400	4.73671200
174.89998979	0.00000000	4.74286400	4.77977300
175.09998978	0.00000000	4.74286400	5.15501900
175.29998977	0.00000000	4.74286400	5.89320800
175.49998976	0.00000000	4.74286400	6.26845500
175.69998975	0.00000000	4.74286400	6.31151500
175.89998973	0.00000000	4.74286400	6.31151500
176.09998972	0.00000000	4.74286400	6.26845500
176.29998971	0.00000000	4.74286400	5.89320800
176.49998970	0.00000000	4.74286400	5.15501900
176.69998969	0.00000000	4.74286400	4.77977300
176.89998967	0.00000000	4.74286400	4.73671200
177.09998966	0.00000000	4.74286400	4.73671200
177.29998965	0.00000000	4.74286400	4.73671200
177.49998964	0.00000000	4.74286400	4.73671200
177.69998963	0.00000000	4.74286400	4.73671200
177.89998961	0.00000000	4.74286400	4.73671200
178.09998960	0.00000000	4.74286400	4.73671200
178.29998959	0.00000000	4.74286400	4.73671200
178.49998958	0.00000000	4.74286400	4.77977300
178.69998957	0.00000000	4.74286400	5.15501900
178.89998956	0.00000000	4.74286400	5.89320800
179.09998954	0.00000000	4.74286400	6.21924200
179.29998953	0.00000000	4.74286400	5.89320800
179.49998952	0.00000000	4.74286400	5.15501900
179.69998951	0.00000000	4.74286400	4.77977300
179.89998950	0.00000000	4.74286400	4.73671200
180.09998948	0.00000000	4.74286400	4.73671200
180.29998947	0.00000000	4.74286400	4.73671200
180.49998946	0.00000000	4.74286400	4.73671200
180.69998945	0.00000000	4.74286400	4.73671200
180.89998944	0.00000000	4.74286400	4.73671200
181.09998942	0.00000000	4.74286400	4.77977300
181.29998941	0.00000000	4.74286400	5.15501900
181.49998940	0.00000000	4.74286400	5.89320800
181.69998939	0.00000000	4.74286400	6.26845500
181.89998938	0.00000000	4.74286400	6.31151500
182.09998937	0.00000000	4.74286400	6.31151500
182.29998935	0.00000000	4.74286400	6.31151500
182.49998934	0.00000000	4.74286400	6.26845500
182.69998933	0.00000000	4.74286400	5.89320800
182.89998932	0.00000000	4.74286400	5.15501900
183.09998931	0.00000000	4.74286400	4.73671200
183.29998929	0.00000000	4.78592500	4.36146600
183.49998928	0.00000000	5.11811000	3.99237200
183.69998927	0.00000000	5.48720400	4.36146600
183.89998926	0.00000000	5.11811000	4.69365100
184.09998925	0.00000000	4.78592500	4.73671200
184.29998923	0.00000000	4.74286400	4.77977300
184.49998922	0.00000000	4.74286400	5.15501900
184.69998921	0.00000000	4.74286400	5.89320800
184.89998920	0.00000000	4.74286400	6.26845500
185.09998919	0.00000000	4.74286400	6.31151500
185.29998918	0.00000000	4.74286400	6.31151500
185.49998916	0.00000000	4.74286400	6.26845500
185.69998915	0.00000000	4.74286400	5.89320800
185.89998914	0.00000000	4.74286400	5.15501900
186.09998913	0.00000000	4.74286400	4.77977300
186.29998912	0.00000000	4.74286400	4.73671200
186.49998910	0.00000000	4.74286400	4.73671200
186.69998909	0.00000000	4.74286400	4.73671200
186.89998908	0.00000000	4.74286400	4.73671200
187.09998907	0.00000000	4.74286400	4.77977300
187.29998906	0.00000000	4.74286400	5.15501900
187.49998904	0.00000000	4.74286400	5.89320800
187.69998903	0.00000000	4.74286400	6.26845500
187.89998902	0.00000000	4.74286400	6.31151500
188.09998901	0.00000000	4.74286400	6.31151500
188.29998900	0.00000000	4.74286400	6.26845500
188.49998899	0.00000000	4.74286400	5.89320800
188.69998897	0.00000000	4.74286400	5.15501900
188.89998896	0.00000000	4.78592500	4.77977300
189.09998895	0.00000000	5.11811000	4.73671200
189.29998894	0.00000000	5.48720400	4.73671200
189.49998893	0.00000000	5.11811000	4.73671200
189.69998891	0.00000000	4.78592500	4.73671200
189.89998890	0.00000000	4.74286400	4.73671200
190.09998889	0.00000000	4.74286400	4.77977300
190.29998888	0.00000000	4.74286400	5.15501900
190.49998887	0.00000000	4.74286400	5.89320800
190.69998885	0.00000000	4.74286400	6.26845500
190.89998884	0.00000000	4.74286400	6.31151500
191.09998883	0.00000000	4.74286400	6.26845500
191.29998882	0.00000000	4.74286400	5.93626900
191.49998881	0.00000000	4.74286400	5.57332700
191.69998880	0.00000000	4.78592500	5.89320800
191.89998878	0.00000000	5.11811000	5.85014700
192.09998877	0.00000000	5.48720400	5.15501900
192.29998876	0.00000000	5.11811000	4.77977300
192.49998875	0.00000000	4.78592500	4.73671200
192.69998874	0.00000000	4.74286400	4.73671200
192.89998872	0.00000000	4.74286400	4.73671200
193.09998871	0.00000000	4.74286400	4.73671200
193.29998870	0.00000000	4.74286400	4.73671200
193.49998869	0.00000000	4.74286400	4.77977300
193.69998868	0.00000000	4.74286400	5.15501900
193.89998866	0.00000000	4.74286400	5.89320800
194.09998865	0.00000000	4.74286400	6.26845500
194.29998864	0.00000000	4.74286400	6.31151500
194.49998863	0.00000000	4.78592500	6.31151500
194.69998862	0.00000000	5.11811000	6.31151500
194.89998861	0.00000000	5.53026500	6.26845500
195.09998859	0.00000000	5.49335600	5.89320800
195.29998858	0.00000000	5.53026500	5.15501900
195.49998857	0.00000000	5.11811000	4.77977300
195.69998856	0.00000000	4.78592500	4.73671200
195.89998855	0.00000000	4.74286400	4.73671200
196.09998853	0.00000000	4.69980300	4.73671200
