Time	Channel A	Channel B	Channel C
(us)	(V)	(mV)	(mV)

-4.49999956	0.00000000	-32.82480000	-11.04823000
-4.29999957	0.00000000	-32.45571000	-11.04823000
-4.09999958	0.00000000	-32.82480000	-11.04823000
-3.89999959	0.00000000	-33.15699000	-11.04823000
-3.69999960	0.00000000	-33.20005000	-11.04823000
-3.49999962	0.00000000	-33.20005000	-11.04823000
-3.29999963	0.00000000	-33.20005000	-11.04823000
-3.09999964	0.00000000	-33.20005000	-11.04823000
-2.89999965	0.00000000	-33.20005000	-11.04823000
-2.69999966	0.00000000	-33.20005000	-11.04823000
-2.49999968	0.00000000	-33.20005000	-11.04823000
-2.29999969	0.00000000	-33.20005000	-11.04823000
-2.09999970	0.00000000	-33.20005000	-11.04823000
-1.89999971	0.00000000	-33.20005000	-11.04823000
-1.69999972	0.00000000	-33.20005000	-11.04823000
-1.49999973	0.00000000	-33.20005000	-11.04823000
-1.29999975	0.00000000	-33.20005000	-11.04823000
-1.09999976	0.00000000	-33.20005000	-11.04823000
-0.89999977	0.00000000	-33.20005000	-11.04823000
-0.69999978	0.00000000	-33.20005000	-11.04823000
-0.49999979	0.00000000	-33.15699000	-11.04823000
-0.29999981	0.31803640	-32.82480000	-11.04823000
-0.09999982	0.63668800	-32.45571000	-11.04823000
0.10000017	0.95533960	-32.82480000	-11.04823000
0.30000016	0.95533960	-33.15699000	-11.04823000
0.50000015	0.79601380	-33.20005000	-11.04823000
0.70000013	0.15871060	-33.20005000	-11.04823000
0.90000012	-0.63668800	-33.20005000	-11.04823000
1.10000011	-1.59264300	-33.20005000	-11.04823000
1.30000010	-2.38927200	-33.20005000	-11.04823000
1.50000009	-2.86724900	-33.15699000	-11.04823000
1.70000008	-2.22994600	-32.82480000	-11.00517000
1.90000006	-0.95533960	-32.45571000	-10.67298000
2.10000005	0.95533960	-32.82480000	-10.31004000
2.30000004	3.02657500	-33.15699000	-10.67298000
2.50000003	4.61921700	-33.20005000	-11.00517000
2.70000002	5.41584600	-33.20005000	-11.04823000
2.90000000	4.61921700	-33.20005000	-11.04823000
3.09999999	2.54859700	-33.20005000	-11.04823000
3.29999998	-0.63668800	-33.20005000	-11.04823000
3.49999997	-3.98191400	-33.20005000	-11.04823000
3.69999996	-6.84916400	-33.20005000	-11.04823000
3.89999994	-7.96444400	-33.20005000	-11.04823000
4.09999993	-7.16781500	-33.15699000	-11.04823000
4.29999992	-4.45989200	-32.82480000	-11.00517000
4.49999991	-0.47736220	-32.45571000	-10.67298000
4.69999990	4.14124000	-32.82480000	-10.31004000
4.89999989	7.64579200	-33.15699000	-10.67298000
5.09999987	9.39837600	-33.20005000	-11.00517000
5.29999986	8.92039900	-33.20005000	-11.09129000
5.49999985	6.05315000	-33.20005000	-11.46653000
5.69999984	1.59264300	-33.20005000	-12.16166000
5.89999983	-3.18590100	-33.20005000	-12.16166000
6.09999981	-7.16781500	-33.15699000	-11.46653000
6.29999980	-9.23905000	-32.82480000	-11.04823000
6.49999979	-9.07972400	-32.45571000	-10.67298000
6.69999978	-6.69045300	-32.78174000	-10.31004000
6.89999977	-2.70792300	-32.78174000	-10.67298000
7.09999975	1.59264300	-32.45571000	-11.00517000
7.29999974	5.25652100	-32.82480000	-11.04823000
7.49999973	7.48646600	-33.15699000	-11.04823000
7.69999972	7.64579200	-33.20005000	-11.04823000
7.89999971	5.89382400	-33.20005000	-11.04823000
8.09999970	2.86724900	-33.20005000	-11.04823000
8.29999968	-0.31803640	-33.20005000	-11.04823000
8.49999967	-3.18590100	-33.15699000	-11.04823000
8.69999966	-4.93786900	-32.82480000	-11.04823000
8.89999965	-5.09719500	-32.45571000	-11.04823000
9.09999964	-4.14124000	-32.78174000	-11.04823000
9.29999962	-2.38927200	-32.78174000	-11.04823000
9.49999961	-0.31803640	-32.45571000	-11.04823000
9.69999960	1.27399100	-32.82480000	-11.04823000
9.89999959	2.38927200	-33.10777000	-11.04823000
10.09999958	2.54859700	-32.82480000	-11.00517000
10.29999956	2.07062000	-32.45571000	-10.67298000
10.49999955	1.27399100	-32.78174000	-10.31004000
10.69999954	0.31803640	-32.73252000	-10.67298000
10.89999953	-0.31803640	-32.03740000	-11.00517000
11.09999952	-0.79601380	-31.66215000	-11.04823000
11.29999951	-0.95533960	-31.66215000	-11.04823000
11.49999949	-0.95533960	-32.03740000	-11.04823000
11.69999948	-0.63668800	-32.78174000	-11.04823000
11.89999947	-0.31803640	-33.15699000	-11.04823000
12.09999946	-0.15871060	-33.20005000	-11.04823000
12.29999945	-0.15871060	-33.20005000	-11.04823000
12.49999943	0.00000000	-33.20005000	-11.04823000
12.69999942	0.00000000	-33.20005000	-11.04823000
12.89999941	0.00000000	-33.15699000	-11.00517000
13.09999940	0.00000000	-32.78174000	-10.67298000
13.29999939	0.15871060	-32.08661000	-10.31004000
13.49999937	0.00000000	-32.08661000	-10.67298000
13.69999936	0.00000000	-32.78174000	-11.00517000
13.89999935	-0.15871060	-33.15699000	-11.04823000
14.09999934	-0.15871060	-33.20005000	-11.04823000
14.29999933	-0.15871060	-33.15699000	-11.04823000
14.49999932	-0.15871060	-32.82480000	-11.00517000
14.69999930	-0.15871060	-32.45571000	-10.67298000
14.89999929	0.00000000	-32.82480000	-10.31004000
15.09999928	0.00000000	-33.15699000	-10.67298000
15.29999927	0.00000000	-33.20005000	-11.00517000
15.49999926	0.00000000	-33.20005000	-11.00517000
15.69999924	0.00000000	-33.20005000	-10.67298000
15.89999923	0.00000000	-33.15699000	-10.26698000
16.09999922	0.00000000	-32.78174000	-10.25467000
16.29999921	0.00000000	-32.03740000	-9.89173200
16.49999920	-0.15871060	-31.66215000	-9.93479300
16.69999919	-0.15871060	-31.61909000	-10.62992000
16.89999917	0.00000000	-31.57603000	-11.00517000
17.09999916	0.00000000	-31.20078000	-11.00517000
17.29999915	0.00000000	-30.45644000	-10.67298000
17.49999914	0.00000000	-30.13041000	-10.26698000
17.69999913	0.00000000	-30.45644000	-10.30389000
17.89999911	0.00000000	-31.24384000	-10.26698000
18.09999910	0.00000000	-32.03740000	-10.67298000
18.29999909	0.00000000	-33.24926000	-10.95595000
18.49999908	0.00000000	-34.78716000	-10.67298000
18.69999907	0.00000000	-36.32505000	-10.26698000
18.89999905	0.00000000	-37.43848000	-10.30389000
19.09999904	0.00000000	-37.39542000	-10.26698000
19.29999903	0.00000000	-35.85752000	-10.67298000
19.49999902	0.00000000	-33.11393000	-11.00517000
19.69999901	0.00000000	-29.61983000	-11.04823000
19.89999900	0.00000000	-25.76279000	-11.04823000
20.09999898	0.00000000	-22.68701000	-11.04823000
20.29999897	0.00000000	-21.14911000	-11.04823000
20.49999896	0.00000000	-21.61663000	-11.04823000
20.69999895	0.00000000	-24.82160000	-11.04823000
20.89999894	0.00000000	-31.01624000	-11.04823000
21.09999892	0.00000000	-39.06250000	-11.04823000
21.29999891	0.00000000	-46.37057000	-11.04823000
21.49999890	0.00000000	-51.07037000	-11.04823000
21.69999889	0.00000000	-52.51599000	-11.04823000
21.89999888	0.00000000	-49.71703000	-11.04823000
22.09999886	0.00000000	-41.91068000	-11.04823000
22.29999885	0.00000000	-30.73942000	-11.04823000
22.49999884	0.00000000	-18.31939000	-11.04823000
22.69999883	0.00000000	-7.56643700	-11.04823000
22.89999882	0.00000000	-1.10113200	-11.04823000
23.09999881	0.00000000	-1.61171300	-11.00517000
23.29999879	0.00000000	-10.12549000	-10.62992000
23.49999878	0.00000000	-24.82775000	-9.89173200
23.69999877	0.00000000	-42.55659000	-9.47342500
23.89999876	0.00000000	-59.20890000	-9.09817800
24.09999875	0.00000000	-70.75541000	-8.77829600
24.29999873	0.00000000	-74.93848000	-9.51648500
24.49999872	0.00000000	-69.40821000	-10.62992000
24.69999871	0.00000000	-54.70595000	-11.51575000
24.89999870	0.00000000	-33.80905000	-13.04749000
25.09999869	0.00000000	-11.06053000	-14.90526000
25.29999867	0.00000000	7.78174200	-15.69267000
25.49999866	0.00000000	17.78420000	-15.69267000
25.69999865	0.00000000	16.25246000	-14.81299000
25.89999864	0.00000000	3.50639700	-12.11860000
26.09999863	0.00000000	-17.38435000	-8.26771600
26.29999862	0.00000000	-42.13828000	-4.40452700
26.49999860	0.00000000	-65.26205000	-0.92888770
26.69999859	0.00000000	-81.08390000	0.97810030
26.89999858	0.00000000	-85.69143000	0.88582670
27.09999857	0.00000000	-78.00812000	-1.90083600
27.29999856	0.00000000	-59.86712000	-8.07086500
27.49999854	0.00000000	-35.94980000	-15.74188000
27.69999853	0.00000000	-11.57111000	-23.12992000
27.89999852	0.00000000	7.73868000	-28.89395000
28.09999851	0.00000000	17.83341000	-31.49606000
28.29999850	0.00000000	16.71383000	-29.49680000
28.49999848	0.00000000	5.13041300	-22.52707000
28.69999847	0.00000000	-14.17938000	-12.07554000
28.89999846	0.00000000	-36.97096000	-0.09227362
29.09999845	0.00000000	-57.81865000	11.10359000
29.29999844	0.00000000	-72.19488000	18.73154000
29.49999843	0.00000000	-77.22071000	20.63238000
29.69999841	0.00000000	-72.33021000	15.52657000
29.89999840	0.00000000	-59.17199000	4.32455700
30.09999839	0.00000000	-41.43085000	-11.14050000
30.29999838	0.00000000	-22.41018000	-27.31299000
30.49999837	0.00000000	-6.58833600	-40.45890000
30.69999835	0.00000000	3.17421200	-47.76082000
30.89999834	0.00000000	5.08735200	-47.34252000
31.09999833	0.00000000	-1.01501000	-38.79183000
31.29999832	0.00000000	-13.33661000	-23.73892000
31.49999831	0.00000000	-28.41412000	-5.20423200
31.69999829	0.00000000	-43.15945000	12.54921000
31.89999828	0.00000000	-54.79207000	25.69513000
32.09999827	0.00000000	-60.98056000	31.45915000
32.29999826	0.00000000	-60.64837000	28.34645000
32.49999825	0.00000000	-54.09695000	16.77534000
32.69999824	0.00000000	-43.29478000	-0.55364170
32.89999822	0.00000000	-30.54872000	-19.50664000
33.09999821	0.00000000	-19.00837000	-36.18971000
33.29999820	0.00000000	-11.61417000	-47.76082000
33.49999819	0.00000000	-9.61491000	-51.61171000
33.69999818	0.00000000	-12.64149000	-46.59818000
33.89999816	0.00000000	-19.61737000	-34.27657000
34.09999815	0.00000000	-28.87549000	-17.27977000
34.29999814	0.00000000	-38.50886000	0.46751960
34.49999813	0.00000000	-45.81693000	15.15133000
34.69999812	0.00000000	-48.93578000	23.69586000
34.89999810	0.00000000	-47.44094000	24.48942000
35.09999809	0.00000000	-42.09522000	17.93799000
35.29999808	0.00000000	-34.78716000	5.21038300
35.49999807	0.00000000	-27.47908000	-10.54380000
35.69999806	0.00000000	-22.03494000	-25.22145000
35.89999805	0.00000000	-19.75271000	-35.67913000
36.09999803	0.00000000	-20.87229000	-39.95448000
36.29999802	0.00000000	-25.47367000	-37.26009000
36.49999801	0.00000000	-31.57603000	-28.47564000
36.69999800	0.00000000	-37.39542000	-16.16018000
36.89999799	0.00000000	-41.62770000	-3.84473400
37.09999797	0.00000000	-43.16560000	5.81323800
37.29999796	0.00000000	-41.62770000	10.41462000
37.49999795	0.00000000	-37.39542000	8.92593500
37.69999794	0.00000000	-31.66830000	2.04847400
37.89999793	0.00000000	-26.26722000	-7.89247000
38.09999791	0.00000000	-22.82234000	-17.88263000
38.29999790	0.00000000	-21.99188000	-25.17839000
38.49999789	0.00000000	-23.84965000	-27.82972000
38.69999788	0.00000000	-26.96850000	-24.76009000
38.89999787	0.00000000	-30.88090000	-16.76919000
39.09999786	0.00000000	-35.48228000	-6.86515700
39.29999784	0.00000000	-38.93332000	1.58710600
39.49999783	0.00000000	-40.55733000	6.18848400
39.69999782	0.00000000	-40.60039000	5.81323800
39.89999781	0.00000000	-39.39468000	0.42445860
40.09999780	0.00000000	-37.06324000	-8.40305000
40.29999778	0.00000000	-33.57529000	-18.35015000
40.49999777	0.00000000	-30.13041000	-26.38410000
40.69999776	0.00000000	-27.34375000	-29.82899000
40.89999775	0.00000000	-25.38755000	-27.91584000
41.09999774	0.00000000	-24.22490000	-20.99532000
41.29999772	0.00000000	-24.22490000	-11.00517000
41.49999771	0.00000000	-25.38755000	-0.63976370
41.69999770	0.00000000	-27.34375000	7.43725300
41.89999769	0.00000000	-30.08120000	10.87598000
42.09999768	0.00000000	-33.15699000	8.96899500
42.29999767	0.00000000	-35.85752000	2.09153500
42.49999765	0.00000000	-37.43848000	-7.47416300
42.69999764	0.00000000	-37.85679000	-16.72613000
42.89999763	0.00000000	-37.48154000	-23.73892000
43.09999762	0.00000000	-36.27584000	-27.17766000
43.29999761	0.00000000	-34.36884000	-26.47638000
43.49999759	0.00000000	-32.03740000	-21.83194000
43.69999758	0.00000000	-30.13041000	-14.94833000
43.89999757	0.00000000	-28.87549000	-7.24040300
44.09999756	0.00000000	-28.08194000	-1.10728300
44.29999755	0.00000000	-27.29453000	2.04847400
44.49999753	0.00000000	-26.91929000	2.09153500
44.69999752	0.00000000	-26.87623000	-0.55364170
44.89999751	0.00000000	-26.91929000	-4.77977300
45.09999750	0.00000000	-27.38681000	-9.43036400
45.29999749	0.00000000	-28.92470000	-13.69956000
45.49999748	0.00000000	-31.24384000	-16.76919000
45.69999746	0.00000000	-33.61835000	-17.97490000
45.89999745	0.00000000	-36.41117000	-17.23056000
46.09999744	0.00000000	-39.48696000	-15.32357000
46.29999743	0.00000000	-42.09522000	-12.58612000
46.49999742	0.00000000	-42.79035000	-9.51648500
46.69999740	0.00000000	-40.46506000	-6.82209600
46.89999739	0.00000000	-35.85752000	-5.24729300
47.09999738	0.00000000	-29.99508000	-4.82898600
47.29999737	0.00000000	-23.75738000	-5.24729300
47.49999736	0.00000000	-18.03642000	-6.82209600
47.69999734	0.00000000	-14.64075000	-9.47342500
47.89999733	0.00000000	-15.42815000	-12.21087000
48.09999732	0.00000000	-20.03568000	-14.53617000
48.29999731	0.00000000	-27.38681000	-16.43701000
48.49999730	0.00000000	-35.90059000	-16.76919000
48.69999729	0.00000000	-43.67618000	-15.27436000
48.89999727	0.00000000	-49.44020000	-12.58612000
49.09999726	0.00000000	-51.67323000	-9.47342500
49.29999725	0.00000000	-48.93578000	-6.36072800
49.49999724	0.00000000	-41.67076000	-3.70939900
49.69999723	0.00000000	-32.03740000	-2.59596400
49.89999721	0.00000000	-22.73007000	-3.75246000
50.09999720	0.00000000	-15.42815000	-6.82209600
50.29999719	0.00000000	-11.98942000	-11.00517000
50.49999718	0.00000000	-13.89025000	-14.90526000
50.69999717	0.00000000	-20.03568000	-17.60581000
50.89999715	0.00000000	-28.92470000	-19.18061000
51.09999714	0.00000000	-38.50886000	-18.71924000
51.29999713	0.00000000	-45.81693000	-16.43701000
51.49999712	0.00000000	-48.93578000	-12.53691000
51.69999711	0.00000000	-47.44094000	-7.98474400
51.89999710	0.00000000	-42.04601000	-4.12770700
52.09999708	0.00000000	-34.36884000	-2.17150600
52.29999707	0.00000000	-26.27337000	-2.17150600
52.49999706	0.00000000	-20.17101000	-4.12770700
52.69999705	0.00000000	-17.80266000	-7.93553100
52.89999704	0.00000000	-19.70349000	-12.11860000
53.09999702	0.00000000	-24.64321000	-15.23130000
53.29999701	0.00000000	-31.20078000	-16.81225000
53.49999700	0.00000000	-37.34621000	-16.81225000
53.69999699	0.00000000	-41.62770000	-15.27436000
53.89999698	0.00000000	-43.11638000	-12.58612000
54.09999696	0.00000000	-41.16019000	-9.55954600
54.29999695	0.00000000	-35.85752000	-7.24040300
54.49999694	0.00000000	-29.38607000	-6.48991100
54.69999693	0.00000000	-24.36024000	-7.19734200
54.89999692	0.00000000	-21.61663000	-9.09817800
55.09999691	0.00000000	-21.61663000	-11.00517000
55.29999689	0.00000000	-24.31102000	-12.53691000
55.49999688	0.00000000	-28.92470000	-13.23819000
55.69999687	0.00000000	-34.27657000	-12.07554000
55.89999686	0.00000000	-38.55807000	-9.47342500
56.09999685	0.00000000	-40.79724000	-6.77903500
56.29999683	0.00000000	-40.45890000	-4.87204700
56.49999682	0.00000000	-36.98326000	-4.12770700
56.69999681	0.00000000	-32.44956000	-5.33341500
56.89999680	0.00000000	-27.76206000	-8.40305000
57.09999679	0.00000000	-24.31102000	-12.62918000
57.29999677	0.00000000	-22.73007000	-16.81225000
57.49999676	0.00000000	-23.15453000	-19.50664000
57.69999675	0.00000000	-25.80585000	-19.88189000
57.89999674	0.00000000	-29.61983000	-17.93184000
58.09999673	0.00000000	-33.11393000	-13.61343000
58.29999672	0.00000000	-35.85752000	-7.51722400
58.49999670	0.00000000	-37.35236000	-1.39025600
58.69999669	0.00000000	-37.02018000	2.42372000
58.89999668	0.00000000	-35.11319000	3.21112200
59.09999667	0.00000000	-32.82480000	0.46751960
59.29999666	0.00000000	-30.45644000	-5.24729300
59.49999664	0.00000000	-28.59252000	-12.21087000
59.69999663	0.00000000	-27.80512000	-18.76845000
59.89999662	0.00000000	-28.54946000	-23.73892000
60.09999661	0.00000000	-30.03814000	-25.22145000
60.29999660	0.00000000	-31.57603000	-22.57628000
60.49999658	0.00000000	-32.73252000	-16.81225000
60.69999657	0.00000000	-33.10777000	-9.47342500
60.89999656	0.00000000	-32.73252000	-2.12844500
61.09999655	0.00000000	-31.61909000	3.62942900
61.29999654	0.00000000	-30.45644000	6.23154500
61.49999653	0.00000000	-29.66289000	4.36761800
61.69999651	0.00000000	-28.92470000	-1.38410400
61.89999650	0.00000000	-28.96776000	-8.68602300
62.09999649	0.00000000	-30.08120000	-16.43701000
62.29999648	0.00000000	-31.61909000	-22.57628000
62.49999647	0.00000000	-33.20005000	-25.68897000
62.69999645	0.00000000	-34.69488000	-25.27067000
62.89999644	0.00000000	-35.43922000	-21.03838000
63.09999643	0.00000000	-34.69488000	-14.16092000
63.29999642	0.00000000	-33.15699000	-6.82209600
63.49999641	0.00000000	-31.20078000	-0.59670270
63.69999639	0.00000000	-28.87549000	3.58021600
63.89999638	0.00000000	-27.01156000	4.36761800
64.09999637	0.00000000	-26.22416000	1.35334600
64.29999636	0.00000000	-27.01156000	-3.62327700
64.49999635	0.00000000	-28.87549000	-9.47342500
64.69999634	0.00000000	-31.24384000	-15.23130000
64.89999632	0.00000000	-33.53223000	-19.50664000
65.09999631	0.00000000	-35.48228000	-21.46284000
65.29999630	0.00000000	-36.18971000	-21.13066000
65.49999629	0.00000000	-35.43922000	-18.81152000
65.69999628	0.00000000	-33.15699000	-15.32357000
65.89999626	0.00000000	-30.54872000	-11.09129000
66.09999625	0.00000000	-28.92470000	-7.19734200
66.29999624	0.00000000	-28.12500000	-4.44758800
66.49999623	0.00000000	-27.80512000	-2.50369100
66.69999622	0.00000000	-28.96776000	-2.08538400
66.89999620	0.00000000	-31.20078000	-2.82357300
67.09999619	0.00000000	-33.11393000	-3.99237200
67.29999618	0.00000000	-34.27657000	-5.98548200
67.49999617	0.00000000	-34.23351000	-8.31077700
67.69999616	0.00000000	-32.68946000	-11.09744000
67.89999615	0.00000000	-30.03814000	-14.16092000
68.09999613	0.00000000	-27.34375000	-16.90453000
68.29999612	0.00000000	-25.43061000	-18.81152000
68.49999611	0.00000000	-24.68627000	-19.55585000
68.69999610	0.00000000	-25.89198000	-18.35015000
68.89999609	0.00000000	-28.96776000	-15.27436000
69.09999607	0.00000000	-33.20005000	-10.95595000
69.29999606	0.00000000	-37.43848000	-5.93626900
69.49999605	0.00000000	-40.51427000	-0.97194880
69.69999604	0.00000000	-41.62770000	2.09153500
69.89999603	0.00000000	-40.08981000	2.50984200
70.09999601	0.00000000	-36.23277000	0.55979330
70.29999600	0.00000000	-31.15772000	-3.70939900
70.49999599	0.00000000	-25.38755000	-9.47342500
70.69999598	0.00000000	-20.41092000	-15.28051000
70.89999597	0.00000000	-18.12254000	-19.88189000
71.09999596	0.00000000	-18.82997000	-22.20103000
71.29999594	0.00000000	-22.36097000	-21.46284000
71.49999593	0.00000000	-27.76206000	-18.39321000
71.69999592	0.00000000	-34.36884000	-13.74262000
71.89999591	0.00000000	-40.51427000	-8.35998900
72.09999590	0.00000000	-44.74655000	-3.75246000
72.29999588	0.00000000	-45.85999000	-1.06422200
72.49999587	0.00000000	-43.16560000	-0.97194880
72.69999586	0.00000000	-37.43848000	-2.87278500
72.89999585	0.00000000	-30.50566000	-5.57332700
73.09999584	0.00000000	-24.26796000	-9.05511800
73.29999582	0.00000000	-19.61737000	-12.03248000
73.49999581	0.00000000	-17.34129000	-13.28125000
73.69999580	0.00000000	-18.45472000	-12.91215000
73.89999579	0.00000000	-22.26870000	-11.83563000
74.09999578	0.00000000	-27.34375000	-10.31004000
74.29999577	0.00000000	-33.15699000	-9.56569900
74.49999575	0.00000000	-38.50886000	-9.51648500
74.69999574	0.00000000	-41.62770000	-9.98400600
74.89999573	0.00000000	-42.04601000	-11.51575000
75.09999572	0.00000000	-40.13902000	-13.74262000
75.29999571	0.00000000	-36.27584000	-15.18824000
75.49999569	0.00000000	-31.66830000	-14.81299000
75.69999568	0.00000000	-27.42987000	-12.53691000
75.89999567	0.00000000	-24.68627000	-9.42421200
76.09999566	0.00000000	-23.89271000	-5.93626900
76.29999565	0.00000000	-24.60015000	-2.50369100
76.49999563	0.00000000	-26.54404000	-0.63976370
76.69999562	0.00000000	-28.83243000	-1.01501000
76.89999561	0.00000000	-31.15157000	-3.75246000
77.09999560	0.00000000	-32.68946000	-8.40305000
77.29999559	0.00000000	-33.10777000	-14.16708000
77.49999558	0.00000000	-32.78174000	-19.50664000
77.69999556	0.00000000	-32.03740000	-22.57628000
77.89999555	0.00000000	-31.66215000	-22.61934000
78.09999554	0.00000000	-31.61909000	-19.88189000
78.29999553	0.00000000	-31.66215000	-14.85605000
78.49999552	0.00000000	-32.03740000	-8.31077700
78.69999550	0.00000000	-32.73252000	-2.17765700
78.89999549	0.00000000	-32.68946000	2.09768700
79.09999548	0.00000000	-31.61909000	3.62942900
79.29999547	0.00000000	-30.37032000	2.14074800
79.49999546	0.00000000	-28.82628000	-1.71013800
79.69999544	0.00000000	-26.55635000	-6.77903500
79.89999543	0.00000000	-25.47367000	-12.58612000
80.09999542	0.00000000	-25.80585000	-17.92569000
80.29999541	0.00000000	-27.34375000	-21.03838000
80.49999540	0.00000000	-29.70595000	-21.46284000
80.69999539	0.00000000	-32.36959000	-19.59892000
80.89999537	0.00000000	-35.10704000	-16.11712000
81.09999536	0.00000000	-36.56496000	-12.25394000
81.29999535	0.00000000	-36.64493000	-8.31077700
81.49999534	0.00000000	-35.07013000	-4.82283400
81.69999533	0.00000000	-32.78174000	-2.12844500
81.89999531	0.00000000	-30.03814000	-0.97194880
82.09999530	0.00000000	-27.38681000	-1.66707700
82.29999529	0.00000000	-25.80585000	-3.24803100
82.49999528	0.00000000	-25.43061000	-5.57332700
82.69999527	0.00000000	-26.22416000	-8.72293300
82.89999525	0.00000000	-28.50024000	-11.79872000
83.09999524	0.00000000	-31.15157000	-14.94833000
83.29999523	0.00000000	-33.11393000	-17.23056000
83.49999522	0.00000000	-34.31963000	-18.43627000
83.69999521	0.00000000	-34.65182000	-18.39321000
83.89999520	0.00000000	-33.94439000	-16.85531000
84.09999518	0.00000000	-32.41265000	-14.11786000
84.29999517	0.00000000	-31.28691000	-10.58686000
84.49999516	0.00000000	-30.45644000	-6.35457700
84.69999515	0.00000000	-30.08120000	-2.50369100
84.89999514	0.00000000	-30.03814000	-0.17839570
85.09999512	0.00000000	-30.03814000	0.60285430
85.29999511	0.00000000	-30.03814000	-0.64591530
85.49999510	0.00000000	-30.03814000	-4.12770700
85.69999509	0.00000000	-29.99508000	-9.47342500
85.89999508	0.00000000	-29.61983000	-14.85605000
86.09999506	0.00000000	-28.87549000	-18.71924000
86.29999505	0.00000000	-28.59252000	-20.66929000
86.49999504	0.00000000	-29.29380000	-19.88189000
86.69999503	0.00000000	-30.82554000	-16.85531000
86.89999502	0.00000000	-31.95128000	-12.58612000
87.09999501	0.00000000	-32.78174000	-7.93553100
87.29999499	0.00000000	-33.15699000	-3.66633800
87.49999498	0.00000000	-33.15699000	-0.64591530
87.69999497	0.00000000	-32.73252000	0.14148620
87.89999496	0.00000000	-31.52682000	-1.75935000
88.09999495	0.00000000	-29.66289000	-5.24729300
88.29999493	0.00000000	-27.76206000	-9.89173200
88.49999492	0.00000000	-26.96850000	-14.81299000
88.69999491	0.00000000	-26.91929000	-17.88263000
88.89999490	0.00000000	-27.34375000	-18.35015000
89.09999489	0.00000000	-28.50024000	-16.76919000
89.29999487	0.00000000	-30.08120000	-13.28125000
89.49999486	0.00000000	-31.99434000	-8.35998900
89.69999485	0.00000000	-33.90133000	-4.12770700
89.89999484	0.00000000	-34.65182000	-1.80241100
90.09999483	0.00000000	-34.27657000	-1.39025600
90.29999482	0.00000000	-32.78174000	-3.33415300
90.49999480	0.00000000	-30.87475000	-6.77903500
90.69999479	0.00000000	-29.66289000	-11.04823000
90.89999478	0.00000000	-28.50024000	-15.23130000
91.09999477	0.00000000	-27.76206000	-17.88263000
91.29999476	0.00000000	-28.12500000	-17.88263000
91.49999474	0.00000000	-28.83243000	-15.23130000
91.69999473	0.00000000	-29.61983000	-11.04823000
91.89999472	0.00000000	-29.99508000	-6.77903500
92.09999471	0.00000000	-30.03814000	-3.33415300
92.29999470	0.00000000	-30.03814000	-1.43331700
92.49999468	0.00000000	-30.03814000	-2.22071800
92.69999467	0.00000000	-30.08120000	-5.24729300
92.89999466	0.00000000	-30.45644000	-9.47342500
93.09999465	0.00000000	-31.28691000	-13.69956000
93.29999464	0.00000000	-32.36959000	-16.81225000
93.49999463	0.00000000	-33.47687000	-18.30093000
93.69999461	0.00000000	-33.11393000	-17.50738000
93.89999460	0.00000000	-31.99434000	-14.07480000
94.09999459	0.00000000	-30.78248000	-9.51648500
94.29999458	0.00000000	-28.83243000	-5.29035400
94.49999457	0.00000000	-26.96850000	-2.59596400
94.69999455	0.00000000	-25.76279000	-2.17150600
94.89999454	0.00000000	-25.38755000	-3.70939900
95.09999453	0.00000000	-25.80585000	-6.77903500
95.29999452	0.00000000	-27.38681000	-10.62992000
95.49999451	0.00000000	-30.08120000	-14.07480000
95.69999449	0.00000000	-33.15699000	-16.39395000
95.89999448	0.00000000	-35.85752000	-16.76919000
96.09999447	0.00000000	-37.39542000	-15.23130000
96.29999446	0.00000000	-37.39542000	-12.16166000
96.49999445	0.00000000	-35.85752000	-8.35998900
96.69999444	0.00000000	-33.11393000	-5.29035400
96.89999442	0.00000000	-29.61983000	-3.70939900
97.09999441	0.00000000	-25.76279000	-3.70939900
97.29999440	0.00000000	-22.73007000	-5.24729300
97.49999439	0.00000000	-21.57357000	-7.89247000
97.69999438	0.00000000	-22.68701000	-10.58686000
97.89999436	0.00000000	-25.38755000	-12.53691000
98.09999435	0.00000000	-28.87549000	-13.69956000
98.29999434	0.00000000	-32.73868000	-13.69956000
98.49999433	0.00000000	-35.85752000	-12.58612000
98.69999432	0.00000000	-37.81373000	-11.04823000
98.89999430	0.00000000	-38.55807000	-9.51648500
99.09999429	0.00000000	-37.39542000	-8.35998900
99.29999428	0.00000000	-34.69488000	-7.93553100
99.49999427	0.00000000	-31.24384000	-7.89247000
99.69999426	0.00000000	-27.76206000	-7.93553100
99.89999425	0.00000000	-25.38755000	-8.26771600
100.09999423	0.00000000	-23.80659000	-8.63681000
100.29999422	0.00000000	-23.06225000	-8.26771600
100.49999421	0.00000000	-23.84965000	-7.93553100
100.69999420	0.00000000	-25.80585000	-7.89247000
100.89999419	0.00000000	-28.87549000	-7.93553100
101.09999417	0.00000000	-32.32037000	-8.40305000
101.29999416	0.00000000	-34.69488000	-9.89173200
101.49999415	0.00000000	-36.27584000	-11.79257000
101.69999414	0.00000000	-36.97712000	-12.96137000
101.89999413	0.00000000	-35.85752000	-13.74262000
102.09999411	0.00000000	-33.57529000	-13.65650000
102.29999410	0.00000000	-31.24384000	-12.11860000
102.49999409	0.00000000	-28.87549000	-9.42421200
102.69999408	0.00000000	-26.96850000	-6.40378900
102.89999407	0.00000000	-25.76279000	-4.08464600
103.09999406	0.00000000	-25.38755000	-3.29109200
103.29999404	0.00000000	-25.76279000	-3.66633800
103.49999403	0.00000000	-26.91929000	-5.24729300
103.69999402	0.00000000	-28.50024000	-7.93553100
103.89999401	0.00000000	-30.45644000	-11.00517000
104.09999400	0.00000000	-32.73868000	-13.69956000
104.29999398	0.00000000	-34.23351000	-15.23130000
104.49999397	0.00000000	-34.27657000	-15.23130000
104.69999396	0.00000000	-33.15699000	-13.69956000
104.89999395	0.00000000	-31.66215000	-11.04823000
105.09999394	0.00000000	-30.41338000	-8.35383800
105.29999392	0.00000000	-29.28765000	-6.40378900
105.49999391	0.00000000	-28.08809000	-5.24729300
105.69999390	0.00000000	-27.74975000	-5.24729300
105.89999389	0.00000000	-27.71284000	-6.36072800
106.09999388	0.00000000	-28.54946000	-7.93553100
106.29999387	0.00000000	-29.99508000	-9.84867000
106.49999385	0.00000000	-31.15157000	-11.74951000
106.69999384	0.00000000	-31.57603000	-12.53691000
106.89999383	0.00000000	-31.57603000	-12.58612000
107.09999382	0.00000000	-31.15157000	-12.11860000
107.29999381	0.00000000	-30.03814000	-10.58686000
107.49999379	0.00000000	-28.92470000	-8.35383800
107.69999378	0.00000000	-28.50024000	-6.86515700
107.89999377	0.00000000	-28.50024000	-6.82209600
108.09999376	0.00000000	-28.92470000	-7.93553100
108.29999375	0.00000000	-30.03814000	-9.47342500
108.49999374	0.00000000	-31.20078000	-11.00517000
108.69999372	0.00000000	-31.99434000	-12.16166000
108.89999371	0.00000000	-32.73252000	-12.53691000
109.09999370	0.00000000	-32.68946000	-12.16166000
109.29999369	0.00000000	-31.61909000	-11.00517000
109.49999368	0.00000000	-30.41338000	-9.47342500
109.69999366	0.00000000	-29.24459000	-7.93553100
109.89999365	0.00000000	-27.71284000	-6.77903500
110.09999364	0.00000000	-27.01156000	-6.40378900
110.29999363	0.00000000	-27.34375000	-6.77903500
110.49999362	0.00000000	-28.45718000	-7.93553100
110.69999360	0.00000000	-29.61983000	-9.47342500
110.89999359	0.00000000	-30.45644000	-11.00517000
111.09999358	0.00000000	-31.57603000	-12.16166000
111.29999357	0.00000000	-32.31422000	-12.53691000
111.49999356	0.00000000	-31.99434000	-12.21087000
111.69999355	0.00000000	-31.61909000	-11.42347000
111.89999353	0.00000000	-31.15157000	-10.67298000
112.09999352	0.00000000	-30.03814000	-9.84867000
112.29999351	0.00000000	-28.92470000	-9.09817800
112.49999350	0.00000000	-28.50024000	-8.31077700
112.69999349	0.00000000	-28.45718000	-7.93553100
112.89999347	0.00000000	-28.50024000	-7.93553100
113.09999346	0.00000000	-28.87549000	-8.31077700
113.29999345	0.00000000	-29.66289000	-9.05511800
113.49999344	0.00000000	-30.41338000	-9.43036400
113.69999343	0.00000000	-31.20078000	-9.47342500
113.89999341	0.00000000	-31.52682000	-9.47342500
114.09999340	0.00000000	-31.20078000	-9.47342500
114.29999339	0.00000000	-30.45644000	-9.51648500
114.49999338	0.00000000	-30.08120000	-9.89173200
114.69999337	0.00000000	-29.99508000	-10.62992000
114.89999336	0.00000000	-29.61983000	-11.00517000
115.09999334	0.00000000	-28.87549000	-11.04823000
115.29999333	0.00000000	-28.54946000	-11.00517000
115.49999332	0.00000000	-28.87549000	-10.62992000
115.69999331	0.00000000	-29.61983000	-9.84867000
115.89999330	0.00000000	-29.99508000	-9.09817800
116.09999328	0.00000000	-30.08120000	-8.31077700
116.29999327	0.00000000	-30.45644000	-7.93553100
116.49999326	0.00000000	-31.20078000	-7.89247000
116.69999325	0.00000000	-31.52682000	-7.89247000
116.89999324	0.00000000	-31.20078000	-7.93553100
117.09999322	0.00000000	-30.41338000	-8.31077700
117.29999321	0.00000000	-29.66289000	-9.09817800
117.49999320	0.00000000	-28.87549000	-9.84867000
117.69999319	0.00000000	-28.45718000	-10.62992000
117.89999318	0.00000000	-28.03888000	-11.00517000
118.09999317	0.00000000	-27.34375000	-11.04823000
118.29999315	0.00000000	-27.38681000	-11.00517000
118.49999314	0.00000000	-28.50024000	-10.62992000
118.69999313	0.00000000	-29.99508000	-9.84867000
118.89999312	0.00000000	-31.20078000	-9.09817800
119.09999311	0.00000000	-31.95128000	-8.31077700
119.29999309	0.00000000	-32.36343000	-7.93553100
119.49999308	0.00000000	-31.95128000	-7.89247000
119.69999307	0.00000000	-31.24384000	-7.89247000
119.89999306	0.00000000	-30.37032000	-7.93553100
120.09999305	0.00000000	-29.24459000	-8.31077700
120.29999303	0.00000000	-27.71284000	-9.05511800
120.49999302	0.00000000	-26.96850000	-9.43036400
120.69999301	0.00000000	-26.91929000	-9.51648500
120.89999300	0.00000000	-27.29453000	-9.89173200
121.09999299	0.00000000	-28.03888000	-10.62992000
121.29999298	0.00000000	-28.50024000	-10.95595000
121.49999296	0.00000000	-29.34301000	-10.67298000
121.69999295	0.00000000	-31.15157000	-10.26698000
121.89999294	0.00000000	-32.27116000	-10.25467000
122.09999293	0.00000000	-31.99434000	-9.79945900
122.29999292	0.00000000	-31.61909000	-9.09817800
122.49999290	0.00000000	-31.20078000	-8.31077700
122.69999289	0.00000000	-30.41338000	-7.93553100
122.89999288	0.00000000	-29.66289000	-7.89247000
123.09999287	0.00000000	-28.83243000	-7.89247000
123.29999286	0.00000000	-28.08194000	-7.89247000
123.49999284	0.00000000	-27.29453000	-7.93553100
123.69999283	0.00000000	-26.96850000	-8.31077700
123.89999282	0.00000000	-27.29453000	-9.05511800
124.09999281	0.00000000	-28.08194000	-9.47342500
124.29999280	0.00000000	-28.83243000	-9.89173200
124.49999279	0.00000000	-29.61983000	-10.62992000
124.69999277	0.00000000	-30.03814000	-10.95595000
124.89999276	0.00000000	-30.45644000	-10.62992000
125.09999275	0.00000000	-31.15157000	-9.89173200
125.29999274	0.00000000	-31.20078000	-9.51648500
125.49999273	0.00000000	-30.83169000	-9.43036400
125.69999271	0.00000000	-30.82554000	-9.05511800
125.89999270	0.00000000	-30.37032000	-8.31077700
126.09999269	0.00000000	-29.61983000	-7.93553100
126.29999268	0.00000000	-28.45718000	-7.93553100
126.49999267	0.00000000	-27.38681000	-8.31077700
126.69999265	0.00000000	-27.34375000	-9.05511800
126.89999264	0.00000000	-28.08194000	-9.43036400
127.09999263	0.00000000	-28.87549000	-9.47342500
127.29999262	0.00000000	-30.03814000	-9.51648500
127.49999261	0.00000000	-31.15157000	-9.84867000
127.69999260	0.00000000	-31.57603000	-10.21161000
127.89999258	0.00000000	-31.57603000	-9.84867000
128.09999257	0.00000000	-31.20078000	-9.51648500
128.29999256	0.00000000	-30.41338000	-9.43036400
128.49999255	0.00000000	-29.66289000	-9.09817800
128.69999254	0.00000000	-28.83243000	-8.72908400
128.89999252	0.00000000	-28.12500000	-9.05511800
129.09999251	0.00000000	-27.71284000	-9.05511800
129.29999250	0.00000000	-28.08194000	-8.72908400
129.49999249	0.00000000	-28.45718000	-9.09817800
129.69999248	0.00000000	-28.92470000	-9.47342500
129.89999246	0.00000000	-30.03814000	-9.84867000
130.09999245	0.00000000	-31.15157000	-10.21161000
130.29999244	0.00000000	-31.57603000	-9.84867000
130.49999243	0.00000000	-31.57603000	-9.47342500
130.69999242	0.00000000	-31.15157000	-9.05511800
130.89999241	0.00000000	-30.03814000	-8.31077700
131.09999239	0.00000000	-28.87549000	-7.93553100
131.29999238	0.00000000	-28.08194000	-7.93553100
131.49999237	0.00000000	-27.29453000	-8.31077700
131.69999236	0.00000000	-26.96850000	-9.09817800
131.89999235	0.00000000	-27.34375000	-9.84867000
132.09999233	0.00000000	-28.45718000	-10.62992000
132.29999232	0.00000000	-29.57062000	-10.95595000
132.49999231	0.00000000	-30.03814000	-10.62992000
132.69999230	0.00000000	-30.41338000	-9.89173200
132.89999229	0.00000000	-30.78248000	-9.47342500
133.09999227	0.00000000	-30.37032000	-9.05511800
133.29999226	0.00000000	-29.66289000	-8.31077700
133.49999225	0.00000000	-28.87549000	-7.93553100
133.69999224	0.00000000	-28.50024000	-7.89247000
133.89999223	0.00000000	-28.45718000	-7.93553100
134.09999222	0.00000000	-28.50024000	-8.31077700
134.29999220	0.00000000	-28.83243000	-9.09817800
134.49999219	0.00000000	-29.24459000	-9.84867000
134.69999218	0.00000000	-29.25074000	-10.62992000
134.89999217	0.00000000	-29.61983000	-11.00517000
135.09999216	0.00000000	-29.57062000	-11.04823000
135.29999214	0.00000000	-28.87549000	-11.00517000
135.49999213	0.00000000	-28.50024000	-10.58686000
135.69999212	0.00000000	-28.45718000	-9.47342500
135.89999211	0.00000000	-28.50024000	-8.35998900
136.09999210	0.00000000	-28.87549000	-7.93553100
136.29999208	0.00000000	-29.61983000	-7.89247000
136.49999207	0.00000000	-29.99508000	-7.89247000
136.69999206	0.00000000	-30.03814000	-7.89247000
136.89999205	0.00000000	-30.03814000	-7.93553100
137.09999204	0.00000000	-29.99508000	-8.31077700
137.29999203	0.00000000	-29.61983000	-9.05511800
137.49999201	0.00000000	-28.83243000	-9.43036400
137.69999200	0.00000000	-28.08194000	-9.47342500
137.89999199	0.00000000	-27.34375000	-9.47342500
138.09999198	0.00000000	-27.34375000	-9.47342500
138.29999197	0.00000000	-28.08194000	-9.47342500
138.49999195	0.00000000	-28.83243000	-9.47342500
138.69999194	0.00000000	-29.61983000	-9.47342500
138.89999193	0.00000000	-29.99508000	-9.47342500
139.09999192	0.00000000	-30.03814000	-9.43036400
139.29999191	0.00000000	-30.03814000	-9.05511800
139.49999189	0.00000000	-30.03814000	-8.31077700
139.69999188	0.00000000	-29.99508000	-7.93553100
139.89999187	0.00000000	-29.61983000	-7.89247000
140.09999186	0.00000000	-28.87549000	-7.93553100
140.29999185	0.00000000	-28.50024000	-8.31077700
140.49999184	0.00000000	-28.45718000	-9.09817800
140.69999182	0.00000000	-28.45718000	-9.84867000
140.89999181	0.00000000	-28.50024000	-10.62992000
141.09999180	0.00000000	-28.87549000	-10.95595000
141.29999179	0.00000000	-29.61983000	-10.62992000
141.49999178	0.00000000	-29.99508000	-9.89173200
141.69999176	0.00000000	-29.99508000	-9.47342500
141.89999175	0.00000000	-29.61983000	-9.05511800
142.09999174	0.00000000	-28.87549000	-8.26771600
142.29999173	0.00000000	-28.50024000	-7.51722400
142.49999172	0.00000000	-28.45718000	-6.77903500
142.69999170	0.00000000	-28.45718000	-6.82209600
142.89999169	0.00000000	-28.45718000	-7.89247000
143.09999168	0.00000000	-28.50024000	-9.05511800
143.29999167	0.00000000	-28.83243000	-9.84867000
143.49999166	0.00000000	-29.24459000	-10.62992000
143.69999165	0.00000000	-29.25074000	-11.00517000
143.89999163	0.00000000	-29.61983000	-11.00517000
144.09999162	0.00000000	-29.57062000	-10.58686000
144.29999161	0.00000000	-28.87549000	-9.47342500
144.49999160	0.00000000	-28.50024000	-8.35998900
144.69999159	0.00000000	-28.45718000	-7.93553100
144.89999157	0.00000000	-28.45718000	-7.89247000
145.09999156	0.00000000	-28.50024000	-7.89247000
145.29999155	0.00000000	-28.87549000	-7.89247000
145.49999154	0.00000000	-29.61983000	-7.93553100
145.69999153	0.00000000	-29.99508000	-8.31077700
145.89999151	0.00000000	-29.99508000	-9.05511800
146.09999150	0.00000000	-29.66289000	-9.43036400
146.29999149	0.00000000	-29.25074000	-9.51648500
146.49999148	0.00000000	-29.24459000	-9.84867000
146.69999147	0.00000000	-28.83243000	-10.21161000
146.89999146	0.00000000	-28.50024000	-9.84867000
147.09999144	0.00000000	-28.45718000	-9.47342500
147.29999143	0.00000000	-28.45718000	-9.05511800
147.49999142	0.00000000	-28.45718000	-8.31077700
147.69999141	0.00000000	-28.50024000	-7.93553100
147.89999140	0.00000000	-28.87549000	-7.89247000
148.09999138	0.00000000	-29.61983000	-7.89247000
148.29999137	0.00000000	-29.99508000	-7.93553100
148.49999136	0.00000000	-30.03814000	-8.31077700
148.69999135	0.00000000	-30.03814000	-9.05511800
148.89999134	0.00000000	-29.99508000	-9.43036400
149.09999132	0.00000000	-29.61983000	-9.47342500
149.29999131	0.00000000	-28.87549000	-9.47342500
149.49999130	0.00000000	-28.50024000	-9.47342500
149.69999129	0.00000000	-28.45718000	-9.47342500
149.89999128	0.00000000	-28.45718000	-9.47342500
150.09999127	0.00000000	-28.45718000	-9.43036400
150.29999125	0.00000000	-28.45718000	-9.05511800
150.49999124	0.00000000	-28.50024000	-8.31077700
150.69999123	0.00000000	-28.83243000	-7.93553100
150.89999122	0.00000000	-29.24459000	-7.89247000
151.09999121	0.00000000	-29.25074000	-7.89247000
151.29999119	0.00000000	-29.66289000	-7.93553100
151.49999118	0.00000000	-29.94586000	-8.26771600
151.69999117	0.00000000	-29.61983000	-8.67987200
151.89999116	0.00000000	-28.87549000	-8.68602300
152.09999115	0.00000000	-28.54946000	-9.09817800
152.29999113	0.00000000	-28.78937000	-9.43036400
152.49999112	0.00000000	-28.82628000	-9.47342500
152.69999111	0.00000000	-28.08809000	-9.47342500
152.89999110	0.00000000	-28.12500000	-9.47342500
153.09999109	0.00000000	-28.41412000	-9.43036400
153.29999108	0.00000000	-28.45718000	-9.05511800
153.49999106	0.00000000	-28.45718000	-8.31077700
153.69999105	0.00000000	-28.50024000	-7.93553100
153.89999104	0.00000000	-28.87549000	-7.89247000
154.09999103	0.00000000	-29.61983000	-7.89247000
154.29999102	0.00000000	-29.99508000	-7.89247000
154.49999100	0.00000000	-30.03814000	-7.93553100
154.69999099	0.00000000	-29.99508000	-8.26771600
154.89999098	0.00000000	-29.61983000	-8.67987200
155.09999097	0.00000000	-28.87549000	-8.68602300
155.29999096	0.00000000	-28.50024000	-9.09817800
155.49999094	0.00000000	-28.45718000	-9.43036400
155.69999093	0.00000000	-28.45718000	-9.47342500
155.89999092	0.00000000	-28.45718000	-9.47342500
156.09999091	0.00000000	-28.45718000	-9.47342500
156.29999090	0.00000000	-28.50024000	-9.47342500
156.49999089	0.00000000	-28.83243000	-9.43036400
156.69999087	0.00000000	-29.24459000	-9.05511800
156.89999086	0.00000000	-29.25074000	-8.31077700
157.09999085	0.00000000	-29.66289000	-7.93553100
157.29999084	0.00000000	-29.94586000	-7.89247000
157.49999083	0.00000000	-29.61983000	-7.89247000
157.69999081	0.00000000	-28.87549000	-7.93553100
157.89999080	0.00000000	-28.50024000	-8.31077700
158.09999079	0.00000000	-28.45718000	-9.05511800
158.29999078	0.00000000	-28.45718000	-9.43036400
158.49999077	0.00000000	-28.45718000	-9.47342500
158.69999075	0.00000000	-28.45718000	-9.47342500
158.89999074	0.00000000	-28.45718000	-9.47342500
159.09999073	0.00000000	-28.45718000	-9.47342500
159.29999072	0.00000000	-28.45718000	-9.43036400
159.49999071	0.00000000	-28.45718000	-9.05511800
159.69999070	0.00000000	-28.45718000	-8.31077700
159.89999068	0.00000000	-28.50024000	-7.93553100
160.09999067	0.00000000	-28.83243000	-7.89247000
160.29999066	0.00000000	-29.20152000	-7.89247000
160.49999065	0.00000000	-28.83243000	-7.89247000
160.69999064	0.00000000	-28.50024000	-7.89247000
160.89999062	0.00000000	-28.45718000	-7.93553100
161.09999061	0.00000000	-28.45718000	-8.31077700
161.29999060	0.00000000	-28.45718000	-9.05511800
161.49999059	0.00000000	-28.45718000	-9.43036400
161.69999058	0.00000000	-28.45718000	-9.47342500
161.89999056	0.00000000	-28.45718000	-9.47342500
162.09999055	0.00000000	-28.45718000	-9.47342500
162.29999054	0.00000000	-28.45718000	-9.43036400
162.49999053	0.00000000	-28.45718000	-9.05511800
162.69999052	0.00000000	-28.45718000	-8.31077700
162.89999051	0.00000000	-28.45718000	-7.93553100
163.09999049	0.00000000	-28.45718000	-7.89247000
163.29999048	0.00000000	-28.45718000	-7.89247000
163.49999047	0.00000000	-28.50024000	-7.89247000
163.69999046	0.00000000	-28.87549000	-7.93553100
163.89999045	0.00000000	-29.57062000	-8.31077700
164.09999043	0.00000000	-29.57062000	-9.05511800
164.29999042	0.00000000	-28.87549000	-9.43036400
164.49999041	0.00000000	-28.50024000	-9.47342500
164.69999040	0.00000000	-28.45718000	-9.47342500
164.89999039	0.00000000	-28.41412000	-9.47342500
165.09999037	0.00000000	-28.03888000	-9.43036400
165.29999036	0.00000000	-27.34375000	-9.09817800
165.49999035	0.00000000	-27.34375000	-8.68602300
165.69999034	0.00000000	-28.03888000	-8.67987200
165.89999033	0.00000000	-28.41412000	-8.26771600
166.09999032	0.00000000	-28.45718000	-7.93553100
166.29999030	0.00000000	-28.45718000	-7.89247000
166.49999029	0.00000000	-28.45718000	-7.93553100
166.69999028	0.00000000	-28.45718000	-8.26771600
166.89999027	0.00000000	-28.45718000	-8.67987200
167.09999026	0.00000000	-28.45718000	-8.68602300
167.29999024	0.00000000	-28.45718000	-9.09817800
167.49999023	0.00000000	-28.45718000	-9.43036400
167.69999022	0.00000000	-28.45718000	-9.47342500
167.89999021	0.00000000	-28.45718000	-9.43036400
168.09999020	0.00000000	-28.45718000	-9.05511800
168.29999018	0.00000000	-28.45718000	-8.35998900
168.49999017	0.00000000	-28.45718000	-8.31077700
168.69999016	0.00000000	-28.45718000	-8.63681000
168.89999015	0.00000000	-28.45718000	-8.26771600
169.09999014	0.00000000	-28.45718000	-7.93553100
169.29999013	0.00000000	-28.45718000	-7.89247000
169.49999011	0.00000000	-28.45718000	-7.89247000
169.69999010	0.00000000	-28.45718000	-7.89247000
169.89999009	0.00000000	-28.45718000	-7.93553100
170.09999008	0.00000000	-28.45718000	-8.31077700
170.29999007	0.00000000	-28.45718000	-9.05511800
170.49999005	0.00000000	-28.45718000	-9.43036400
170.69999004	0.00000000	-28.45718000	-9.47342500
170.89999003	0.00000000	-28.45718000	-9.47342500
171.09999002	0.00000000	-28.45718000	-9.47342500
171.29999001	0.00000000	-28.41412000	-9.47342500
171.49998999	0.00000000	-28.08194000	-9.47342500
171.69998998	0.00000000	-27.66978000	-9.47342500
171.89998997	0.00000000	-27.70669000	-9.47342500
172.09998996	0.00000000	-27.66978000	-9.47342500
172.29998995	0.00000000	-28.08194000	-9.47342500
172.49998994	0.00000000	-28.41412000	-9.43036400
172.69998992	0.00000000	-28.45718000	-9.05511800
172.89998991	0.00000000	-28.45718000	-8.31077700
173.09998990	0.00000000	-28.45718000	-7.93553100
173.29998989	0.00000000	-28.50024000	-7.93553100
173.49998988	0.00000000	-28.78937000	-8.26771600
173.69998986	0.00000000	-28.82628000	-8.63681000
173.89998985	0.00000000	-28.08809000	-8.31077700
174.09998984	0.00000000	-28.12500000	-8.35998900
174.29998983	0.00000000	-28.41412000	-9.00590400
174.49998982	0.00000000	-28.45718000	-9.05511800
174.69998980	0.00000000	-28.45718000	-8.72908400
174.89998979	0.00000000	-28.45718000	-9.09817800
175.09998978	0.00000000	-28.50024000	-9.43036400
175.29998977	0.00000000	-28.83243000	-9.47342500
175.49998976	0.00000000	-29.15231000	-9.43036400
175.69998975	0.00000000	-28.45718000	-9.05511800
175.89998973	0.00000000	-27.76206000	-8.31077700
176.09998972	0.00000000	-28.08194000	-7.93553100
176.29998971	0.00000000	-28.41412000	-7.89247000
176.49998970	0.00000000	-28.45718000	-7.89247000
176.69998969	0.00000000	-28.41412000	-7.89247000
176.89998967	0.00000000	-28.08194000	-7.89247000
177.09998966	0.00000000	-27.71284000	-7.89247000
177.29998965	0.00000000	-28.08194000	-7.93553100
177.49998964	0.00000000	-28.41412000	-8.31077700
177.69998963	0.00000000	-28.45718000	-9.05511800
177.89998961	0.00000000	-28.45718000	-9.43036400
178.09998960	0.00000000	-28.45718000	-9.47342500
178.29998959	0.00000000	-28.45718000	-9.47342500
178.49998958	0.00000000	-28.45718000	-9.43036400
178.69998957	0.00000000	-28.45718000	-9.05511800
178.89998956	0.00000000	-28.45718000	-8.31077700
179.09998954	0.00000000	-28.45718000	-7.93553100
179.29998953	0.00000000	-28.45718000	-7.89247000
179.49998952	0.00000000	-28.45718000	-7.93553100
179.69998951	0.00000000	-28.45718000	-8.26771600
179.89998950	0.00000000	-28.45718000	-8.67987200
180.09998948	0.00000000	-28.45718000	-8.68602300
180.29998947	0.00000000	-28.41412000	-9.09817800
180.49998946	0.00000000	-28.08194000	-9.43036400
180.69998945	0.00000000	-27.71284000	-9.47342500
180.89998944	0.00000000	-28.08194000	-9.47342500
181.09998942	0.00000000	-28.41412000	-9.43036400
181.29998941	0.00000000	-28.45718000	-9.05511800
181.49998940	0.00000000	-28.45718000	-8.31077700
181.69998939	0.00000000	-28.41412000	-7.93553100
181.89998938	0.00000000	-28.08194000	-7.89247000
182.09998937	0.00000000	-27.71284000	-7.89247000
182.29998935	0.00000000	-28.08194000	-7.89247000
182.49998934	0.00000000	-28.36491000	-7.89247000
182.69998933	0.00000000	-28.03888000	-7.93553100
182.89998932	0.00000000	-27.29453000	-8.31077700
183.09998931	0.00000000	-26.96850000	-9.05511800
183.29998929	0.00000000	-27.25147000	-9.43036400
183.49998928	0.00000000	-27.66363000	-9.47342500
183.69998927	0.00000000	-27.66978000	-9.43036400
183.89998926	0.00000000	-28.08194000	-9.05511800
184.09998925	0.00000000	-28.45718000	-8.35998900
184.29998923	0.00000000	-28.83243000	-8.31077700
184.49998922	0.00000000	-29.20152000	-8.63681000
184.69998921	0.00000000	-28.83243000	-8.26771600
184.89998920	0.00000000	-28.50024000	-7.93553100
185.09998919	0.00000000	-28.41412000	-7.89247000
185.29998918	0.00000000	-28.08194000	-7.89247000
185.49998916	0.00000000	-27.66978000	-7.89247000
185.69998915	0.00000000	-27.66363000	-7.93553100
185.89998914	0.00000000	-27.25147000	-8.31077700
186.09998913	0.00000000	-26.91929000	-9.05511800
186.29998912	0.00000000	-26.91929000	-9.43036400
186.49998910	0.00000000	-27.25147000	-9.47342500
186.69998909	0.00000000	-27.66363000	-9.43036400
186.89998908	0.00000000	-27.66978000	-9.05511800
187.09998907	0.00000000	-28.03888000	-8.31077700
187.29998906	0.00000000	-28.03888000	-7.93553100
187.49998904	0.00000000	-27.71284000	-7.89247000
187.69998903	0.00000000	-28.08194000	-7.89247000
187.89998902	0.00000000	-28.36491000	-7.89247000
188.09998901	0.00000000	-28.08194000	-7.89247000
188.29998900	0.00000000	-27.66978000	-7.89247000
188.49998899	0.00000000	-27.66363000	-7.89247000
188.69998897	0.00000000	-27.25147000	-7.93553100
188.89998896	0.00000000	-26.91929000	-8.31077700
189.09998895	0.00000000	-26.91929000	-9.05511800
189.29998894	0.00000000	-27.29453000	-9.43036400
189.49998893	0.00000000	-28.03888000	-9.47342500
189.69998891	0.00000000	-28.36491000	-9.47342500
189.89998890	0.00000000	-28.08194000	-9.43036400
190.09998889	0.00000000	-27.71284000	-9.05511800
190.29998888	0.00000000	-28.08194000	-8.31077700
190.49998887	0.00000000	-28.41412000	-7.93553100
190.69998885	0.00000000	-28.45718000	-7.89247000
190.89998884	0.00000000	-28.41412000	-7.89247000
191.09998883	0.00000000	-28.03888000	-7.89247000
191.29998882	0.00000000	-27.29453000	-7.89247000
191.49998881	0.00000000	-26.91929000	-7.89247000
191.69998880	0.00000000	-26.87623000	-7.93553100
191.89998878	0.00000000	-26.87623000	-8.26771600
192.09998877	0.00000000	-26.87623000	-8.63681000
192.29998876	0.00000000	-26.87623000	-8.31077700
192.49998875	0.00000000	-26.91929000	-8.35998900
192.69998874	0.00000000	-27.29453000	-9.05511800
192.89998872	0.00000000	-28.03888000	-9.38115100
193.09998871	0.00000000	-28.41412000	-9.05511800
193.29998870	0.00000000	-28.45718000	-8.31077700
193.49998869	0.00000000	-28.45718000	-7.93553100
193.69998868	0.00000000	-28.41412000	-7.89247000
193.89998866	0.00000000	-28.03888000	-7.89247000
194.09998865	0.00000000	-27.29453000	-7.89247000
194.29998864	0.00000000	-26.91929000	-7.89247000
194.49998863	0.00000000	-26.87623000	-7.89247000
194.69998862	0.00000000	-26.87623000	-7.89247000
194.89998861	0.00000000	-26.87623000	-7.89247000
195.09998859	0.00000000	-26.87623000	-7.89247000
195.29998858	0.00000000	-26.91929000	-7.89247000
195.49998857	0.00000000	-27.29453000	-7.93553100
195.69998856	0.00000000	-28.03888000	-8.26771600
195.89998855	0.00000000	-28.41412000	-8.67987200
196.09998853	0.00000000	-28.45718000	-8.64296200
