Time	Channel A	Channel B	Channel C
(us)	(V)	(mV)	(mV)

-4.49999956	0.00000000	-56.92052000	-14.21014000
-4.29999957	0.00000000	-56.92052000	-14.21014000
-4.09999958	0.00000000	-56.92052000	-14.21014000
-3.89999959	0.00000000	-56.92052000	-14.21014000
-3.69999960	0.00000000	-56.92052000	-14.21014000
-3.49999962	0.00000000	-56.96358000	-14.21014000
-3.29999963	0.00000000	-57.29576000	-14.21014000
-3.09999964	0.00000000	-57.66486000	-14.21014000
-2.89999965	0.00000000	-57.29576000	-14.21014000
-2.69999966	0.00000000	-56.96358000	-14.21014000
-2.49999968	0.00000000	-56.92052000	-14.21014000
-2.29999969	0.00000000	-56.92052000	-14.21014000
-2.09999970	0.00000000	-56.92052000	-14.21014000
-1.89999971	0.00000000	-56.92052000	-14.21014000
-1.69999972	0.00000000	-56.92052000	-14.21014000
-1.49999973	0.00000000	-56.92052000	-14.21014000
-1.29999975	0.00000000	-56.92052000	-14.21014000
-1.09999976	0.00000000	-56.92052000	-14.21014000
-0.89999977	0.00000000	-56.92052000	-14.16708000
-0.69999978	0.00000000	-56.92052000	-13.83489000
-0.49999979	0.00000000	-56.92052000	-13.42274000
-0.29999981	0.31803640	-56.92052000	-13.41658000
-0.09999982	0.63668800	-56.92052000	-13.04749000
0.10000017	0.95533960	-56.92052000	-13.04749000
0.30000016	1.11466500	-56.92052000	-13.41658000
0.50000015	0.95533960	-56.92052000	-13.42274000
0.70000013	0.47736220	-56.92052000	-13.83489000
0.90000012	-0.31803640	-56.92052000	-14.16708000
1.10000011	-1.27399100	-56.92052000	-14.21014000
1.30000010	-2.22994600	-56.92052000	-14.21014000
1.50000009	-2.70792300	-56.92052000	-14.16708000
1.70000008	-2.54859700	-56.92052000	-13.79183000
1.90000006	-1.59264300	-56.92052000	-13.04749000
2.10000005	0.15871060	-56.92052000	-12.72146000
2.30000004	2.38927200	-56.92052000	-13.04749000
2.50000003	4.30056600	-56.92052000	-13.74262000
2.70000002	5.25652100	-56.92052000	-13.79183000
2.90000000	5.09719500	-56.92052000	-13.46580000
3.09999999	3.34522600	-56.92052000	-13.83489000
3.29999998	0.47736220	-56.92052000	-14.16708000
3.49999997	-3.02657500	-56.92052000	-14.21014000
3.69999996	-6.05315000	-56.92052000	-14.16708000
3.89999994	-7.80511800	-56.92052000	-13.79183000
4.09999993	-7.64579200	-56.92052000	-13.04749000
4.29999992	-5.57517200	-56.92052000	-12.67224000
4.49999991	-1.75196900	-56.92052000	-12.62918000
4.69999990	2.70792300	-56.92052000	-12.67224000
4.89999989	6.69045300	-56.92052000	-13.04749000
5.09999987	9.07972400	-56.92052000	-13.79183000
5.29999986	9.23905000	-56.92052000	-14.16708000
5.49999985	7.00848900	-56.92052000	-14.21014000
5.69999984	3.02657500	-56.92052000	-14.21014000
5.89999983	-1.59264300	-56.92052000	-14.21014000
6.09999981	-6.05315000	-56.92052000	-14.21014000
6.29999980	-8.92039900	-56.92052000	-14.16708000
6.49999979	-9.39837600	-56.92052000	-13.79183000
6.69999978	-7.64579200	-56.92052000	-13.04749000
6.89999977	-3.98191400	-56.92052000	-12.67224000
7.09999975	0.31803640	-56.92052000	-12.67224000
7.29999974	4.30056600	-56.92052000	-13.04749000
7.49999973	7.00848900	-56.92052000	-13.79183000
7.69999972	7.80511800	-56.92052000	-14.16708000
7.89999971	6.53112700	-56.92052000	-14.21014000
8.09999970	3.98191400	-56.92052000	-14.21014000
8.29999968	0.63668800	-56.92052000	-14.21014000
8.49999967	-2.38927200	-56.92052000	-14.21014000
8.69999966	-4.45989200	-56.92052000	-14.21014000
8.89999965	-5.25652100	-56.92052000	-14.21014000
9.09999964	-4.61921700	-56.92052000	-14.21014000
9.29999962	-3.02657500	-56.92052000	-14.16708000
9.49999961	-0.95533960	-56.92052000	-13.83489000
9.69999960	0.95533960	-56.87746000	-13.42274000
9.89999959	2.07062000	-56.58833000	-13.45964000
10.09999958	2.54859700	-56.55142000	-13.42274000
10.29999956	2.22994600	-57.28961000	-13.83489000
10.49999955	1.59264300	-57.25270000	-14.16708000
10.69999954	0.63668800	-56.96358000	-14.21014000
10.89999953	-0.15871060	-56.92052000	-14.21014000
11.09999952	-0.63668800	-56.92052000	-14.16708000
11.29999951	-0.95533960	-56.92052000	-13.83489000
11.49999949	-0.95533960	-56.92052000	-13.46580000
11.69999948	-0.79601380	-56.92052000	-13.83489000
11.89999947	-0.47736220	-56.92052000	-14.16708000
12.09999946	-0.15871060	-56.92052000	-14.21014000
12.29999945	-0.15871060	-56.92052000	-14.21014000
12.49999943	0.00000000	-56.92052000	-14.21014000
12.69999942	0.00000000	-56.92052000	-14.21014000
12.89999941	0.00000000	-56.92052000	-14.21014000
13.09999940	0.00000000	-56.92052000	-14.21014000
13.29999939	0.15871060	-56.92052000	-14.21014000
13.49999937	0.00000000	-56.92052000	-14.21014000
13.69999936	0.00000000	-56.92052000	-14.21014000
13.89999935	0.00000000	-56.92052000	-14.21014000
14.09999934	-0.15871060	-56.92052000	-14.21014000
14.29999933	-0.15871060	-56.92052000	-14.21014000
14.49999932	0.00000000	-56.92052000	-14.21014000
14.69999930	-0.15871060	-56.92052000	-14.21014000
14.89999929	0.00000000	-56.92052000	-14.21014000
15.09999928	0.00000000	-56.92052000	-14.16708000
15.29999927	0.00000000	-56.92052000	-13.83489000
15.49999926	0.00000000	-56.92052000	-13.46580000
15.69999924	0.00000000	-56.92052000	-13.83489000
15.89999923	0.00000000	-56.92052000	-14.11786000
16.09999922	0.00000000	-56.92052000	-13.83489000
16.29999921	0.00000000	-56.92052000	-13.42274000
16.49999920	-0.15871060	-56.87746000	-13.45964000
16.69999919	-0.15871060	-56.50221000	-13.42274000
16.89999917	0.00000000	-55.75787000	-13.79183000
17.09999916	0.00000000	-55.38263000	-13.79183000
17.29999915	0.00000000	-55.29650000	-13.46580000
17.49999914	0.00000000	-54.96432000	-13.79183000
17.69999913	0.00000000	-54.59522000	-13.74262000
17.89999911	0.00000000	-55.00738000	-13.04749000
18.09999910	0.00000000	-55.75787000	-12.72146000
18.29999909	0.00000000	-56.96358000	-13.04749000
18.49999908	0.00000000	-58.54454000	-13.79183000
18.69999907	0.00000000	-60.41461000	-14.11786000
18.89999905	0.00000000	-61.94020000	-13.83489000
19.09999904	0.00000000	-61.94635000	-13.46580000
19.29999903	0.00000000	-61.15280000	-13.83489000
19.49999902	0.00000000	-59.11048000	-14.16708000
19.69999901	0.00000000	-55.29650000	-14.21014000
19.89999900	0.00000000	-51.06422000	-14.21014000
20.09999898	0.00000000	-47.57013000	-14.21014000
20.29999897	0.00000000	-45.29404000	-14.21014000
20.49999896	0.00000000	-45.38017000	-14.21014000
20.69999895	0.00000000	-48.49901000	-14.21014000
20.89999894	0.00000000	-54.31225000	-14.21014000
21.09999892	0.00000000	-61.66338000	-14.21014000
21.29999891	0.00000000	-69.02066000	-14.21014000
21.49999890	0.00000000	-74.79084000	-14.21014000
21.69999889	0.00000000	-77.34990000	-14.21014000
21.89999888	0.00000000	-74.97539000	-14.21014000
22.09999886	0.00000000	-67.21210000	-14.21014000
22.29999885	0.00000000	-55.99163000	-14.21014000
22.49999884	0.00000000	-43.24557000	-14.21014000
22.69999883	0.00000000	-32.08046000	-14.21014000
22.89999882	0.00000000	-25.55979000	-14.16708000
23.09999881	0.00000000	-25.23376000	-13.79183000
23.29999879	0.00000000	-32.30191000	-13.00443000
23.49999878	0.00000000	-45.89075000	-12.25394000
23.69999877	0.00000000	-63.66264000	-11.46653000
23.89999876	0.00000000	-81.76057000	-11.09129000
24.09999875	0.00000000	-95.17101000	-11.09129000
24.29999873	0.00000000	-100.14760000	-11.51575000
24.49999872	0.00000000	-94.70349000	-12.67224000
24.69999871	0.00000000	-80.04429000	-14.21014000
24.89999870	0.00000000	-59.52879000	-15.78494000
25.09999869	0.00000000	-37.47539000	-17.32283000
25.29999867	0.00000000	-18.58391000	-18.43627000
25.49999866	0.00000000	-7.46186000	-18.43627000
25.69999865	0.00000000	-7.51107200	-17.23056000
25.89999864	0.00000000	-19.09449000	-14.90526000
26.09999863	0.00000000	-39.56693000	-11.38041000
26.29999862	0.00000000	-64.27164000	-7.56028500
26.49999860	0.00000000	-87.44463000	-4.08464600
26.69999859	0.00000000	-103.68480000	-2.22071800
26.89999858	0.00000000	-109.45500000	-2.59596400
27.09999857	0.00000000	-103.26650000	-5.37647600
27.29999856	0.00000000	-86.28198000	-10.44537000
27.49999854	0.00000000	-62.78297000	-17.41511000
27.69999853	0.00000000	-38.40428000	-24.75394000
27.89999852	0.00000000	-18.71924000	-30.88705000
28.09999851	0.00000000	-7.83710600	-34.27657000
28.29999850	0.00000000	-8.20620100	-33.02780000
28.49999848	0.00000000	-18.95915000	-26.84547000
28.69999847	0.00000000	-37.51845000	-16.81225000
28.89999846	0.00000000	-59.48573000	-5.20423200
29.09999845	0.00000000	-79.62598000	5.62253900
29.29999844	0.00000000	-93.59005000	13.66265000
29.49999843	0.00000000	-99.07726000	16.26476000
29.69999841	0.00000000	-95.26328000	11.99557000
29.89999840	0.00000000	-83.72293000	1.58710600
30.09999839	0.00000000	-67.48277000	-12.72146000
30.29999838	0.00000000	-50.03691000	-27.82357000
30.49999837	0.00000000	-34.95325000	-40.92643000
30.69999835	0.00000000	-25.23376000	-48.96038000
30.89999834	0.00000000	-22.85925000	-49.33562000
31.09999833	0.00000000	-27.42372000	-41.99680000
31.29999832	0.00000000	-37.47539000	-28.47564000
31.49999831	0.00000000	-50.63976000	-11.47269000
31.69999829	0.00000000	-64.18552000	5.16117100
31.89999828	0.00000000	-75.39369000	18.31324000
32.09999827	0.00000000	-81.63139000	25.23376000
32.29999826	0.00000000	-82.09276000	24.02805000
32.49999825	0.00000000	-77.48523000	14.77608000
32.69999824	0.00000000	-68.97145000	-0.64591530
32.89999822	0.00000000	-58.55069000	-18.43627000
33.09999821	0.00000000	-48.45595000	-35.07013000
33.29999820	0.00000000	-40.72957000	-47.42864000
33.49999819	0.00000000	-36.82332000	-52.44832000
33.69999818	0.00000000	-37.61073000	-49.37868000
33.89999816	0.00000000	-42.59350000	-38.97022000
34.09999815	0.00000000	-50.63976000	-23.50517000
34.29999814	0.00000000	-59.11048000	-6.53912400
34.49999813	0.00000000	-65.71727000	8.55068800
34.69999812	0.00000000	-69.62352000	18.22096000
34.89999810	0.00000000	-69.99876000	20.95841000
35.09999809	0.00000000	-66.97219000	16.31397000
35.29999808	0.00000000	-61.57726000	5.16117100
35.49999807	0.00000000	-55.38263000	-9.47342500
35.69999806	0.00000000	-49.61245000	-24.15723000
35.89999805	0.00000000	-45.80462000	-35.72219000
36.09999803	0.00000000	-45.38017000	-41.52928000
36.29999802	0.00000000	-48.03149000	-40.41584000
36.49999801	0.00000000	-52.64517000	-33.12008000
36.69999800	0.00000000	-58.03395000	-21.59203000
36.89999799	0.00000000	-62.59842000	-8.86441900
37.09999797	0.00000000	-65.00983000	1.87007900
37.29999796	0.00000000	-64.97292000	8.04010800
37.49999795	0.00000000	-63.05364000	7.67716500
37.69999794	0.00000000	-58.78444000	1.58710600
37.89999793	0.00000000	-53.85088000	-8.35998900
38.09999791	0.00000000	-49.56939000	-19.04527000
38.29999790	0.00000000	-46.91806000	-26.75935000
38.49999789	0.00000000	-46.87500000	-29.87205000
38.69999788	0.00000000	-49.15108000	-27.96506000
38.89999787	0.00000000	-52.59596000	-21.41363000
39.09999786	0.00000000	-56.54527000	-12.25394000
39.29999784	0.00000000	-60.41461000	-3.05733300
39.49999783	0.00000000	-63.89641000	3.03272600
39.69999782	0.00000000	-65.80955000	4.18922200
39.89999781	0.00000000	-65.80955000	-0.04306102
40.09999780	0.00000000	-63.89641000	-8.44611200
40.29999778	0.00000000	-60.41461000	-18.39321000
40.49999777	0.00000000	-56.54527000	-26.84547000
40.69999776	0.00000000	-52.59596000	-31.49606000
40.89999775	0.00000000	-49.15108000	-31.45300000
41.09999774	0.00000000	-46.82579000	-26.42716000
41.29999772	0.00000000	-46.45054000	-17.27362000
41.49999771	0.00000000	-47.98843000	-7.33267600
41.69999770	0.00000000	-51.06422000	0.42445860
41.89999769	0.00000000	-54.92125000	4.65059000
42.09999768	0.00000000	-58.45841000	4.27534400
42.29999767	0.00000000	-61.57111000	-0.68897630
42.49999765	0.00000000	-63.85334000	-8.35998900
42.69999764	0.00000000	-64.27164000	-16.85531000
42.89999763	0.00000000	-63.15207000	-24.15723000
43.09999762	0.00000000	-61.19586000	-28.38337000
43.29999761	0.00000000	-58.50147000	-28.47564000
43.49999759	0.00000000	-55.80708000	-25.03691000
43.69999758	0.00000000	-53.85088000	-19.64198000
43.89999757	0.00000000	-52.64517000	-13.09670000
44.09999756	0.00000000	-52.22071000	-7.37573800
44.29999755	0.00000000	-52.22071000	-4.21998000
44.49999753	0.00000000	-52.59596000	-3.75246000
44.69999752	0.00000000	-53.34030000	-5.29035400
44.89999751	0.00000000	-53.71555000	-8.35998900
45.09999750	0.00000000	-53.80167000	-12.21087000
45.29999749	0.00000000	-54.22613000	-15.69882000
45.49999748	0.00000000	-55.43184000	-18.39321000
45.69999746	0.00000000	-57.38804000	-19.55585000
45.89999745	0.00000000	-60.08243000	-18.85458000
46.09999744	0.00000000	-62.77681000	-17.32283000
46.29999743	0.00000000	-64.73302000	-15.36663000
46.49999742	0.00000000	-65.80955000	-13.04749000
46.69999740	0.00000000	-64.96678000	-11.14050000
46.89999739	0.00000000	-61.43578000	-9.93479300
47.09999738	0.00000000	-56.03469000	-9.56569900
47.29999737	0.00000000	-49.48326000	-9.93479300
47.49999736	0.00000000	-43.75615000	-11.14050000
47.69999734	0.00000000	-40.63730000	-13.04749000
47.89999733	0.00000000	-40.68651000	-15.36663000
48.09999732	0.00000000	-44.17446000	-17.27362000
48.29999731	0.00000000	-50.77510000	-18.43627000
48.49999730	0.00000000	-58.87672000	-18.39321000
48.69999729	0.00000000	-66.97219000	-16.85531000
48.89999727	0.00000000	-72.74237000	-14.16092000
49.09999726	0.00000000	-74.65550000	-11.09744000
49.29999725	0.00000000	-72.32407000	-8.35383800
49.49999724	0.00000000	-65.71727000	-6.44685000
49.69999723	0.00000000	-56.50221000	-5.70866100
49.89999721	0.00000000	-46.87500000	-6.91437000
50.09999720	0.00000000	-39.56693000	-9.93479300
50.29999719	0.00000000	-36.44808000	-13.79183000
50.49999718	0.00000000	-38.02903000	-17.32283000
50.69999717	0.00000000	-44.13140000	-20.39247000
50.89999715	0.00000000	-53.00812000	-22.24409000
51.09999714	0.00000000	-61.90329000	-21.50590000
51.29999713	0.00000000	-69.58046000	-18.85458000
51.49999712	0.00000000	-73.39443000	-15.32357000
51.69999711	0.00000000	-71.91190000	-11.09129000
51.89999710	0.00000000	-66.55389000	-7.24040300
52.09999708	0.00000000	-58.45841000	-4.95816900
52.29999707	0.00000000	-50.07997000	-4.54601300
52.49999706	0.00000000	-44.26673000	-6.48991100
52.69999705	0.00000000	-42.26747000	-9.93479300
52.89999704	0.00000000	-43.79921000	-14.16708000
53.09999702	0.00000000	-48.45595000	-17.97490000
53.29999701	0.00000000	-55.33957000	-19.97416000
53.49999700	0.00000000	-62.22933000	-20.39247000
53.69999699	0.00000000	-66.83685000	-19.59892000
53.89999698	0.00000000	-68.04256000	-17.27977000
54.09999696	0.00000000	-65.76648000	-14.25320000
54.29999695	0.00000000	-61.15280000	-11.55881000
54.49999694	0.00000000	-55.33957000	-9.98400600
54.69999693	0.00000000	-49.61245000	-9.60875900
54.89999692	0.00000000	-45.80462000	-10.35310000
55.09999691	0.00000000	-45.38017000	-12.25394000
55.29999689	0.00000000	-48.03149000	-14.11786000
55.49999688	0.00000000	-52.64517000	-15.27436000
55.69999687	0.00000000	-58.03395000	-15.27436000
55.89999686	0.00000000	-62.64764000	-14.16092000
56.09999685	0.00000000	-65.34202000	-12.62918000
56.29999683	0.00000000	-65.34202000	-11.09744000
56.49999682	0.00000000	-62.69069000	-10.02707000
56.69999681	0.00000000	-58.45841000	-10.44537000
56.89999680	0.00000000	-53.85088000	-12.72146000
57.09999679	0.00000000	-49.98769000	-15.74188000
57.29999677	0.00000000	-48.03149000	-18.47933000
57.49999676	0.00000000	-48.03149000	-20.39247000
57.69999675	0.00000000	-49.94463000	-21.08760000
57.89999674	0.00000000	-53.38336000	-19.50664000
58.09999673	0.00000000	-56.82825000	-15.69882000
58.29999672	0.00000000	-59.57185000	-11.04823000
58.49999670	0.00000000	-61.10974000	-6.40378900
58.69999669	0.00000000	-61.10974000	-2.63902500
58.89999668	0.00000000	-59.61491000	-1.52559000
59.09999667	0.00000000	-57.33883000	-3.84473400
59.29999666	0.00000000	-55.38263000	-8.82135800
59.49999664	0.00000000	-53.85088000	-15.36663000
59.69999663	0.00000000	-53.06348000	-21.50590000
59.89999662	0.00000000	-53.42642000	-25.77510000
60.09999661	0.00000000	-54.17691000	-27.31299000
60.29999660	0.00000000	-55.33957000	-25.68897000
60.49999658	0.00000000	-56.45300000	-20.66314000
60.69999657	0.00000000	-56.87746000	-13.00443000
60.89999656	0.00000000	-56.87746000	-5.38262700
61.09999655	0.00000000	-56.45300000	0.04921259
61.29999654	0.00000000	-55.33957000	2.00541300
61.49999653	0.00000000	-54.26919000	0.46751960
61.69999651	0.00000000	-54.22613000	-4.17691900
61.89999650	0.00000000	-54.96432000	-11.14050000
62.09999649	0.00000000	-55.71481000	-18.85458000
62.29999648	0.00000000	-56.54527000	-25.73203000
62.49999647	0.00000000	-57.33883000	-29.53986000
62.69999645	0.00000000	-58.45841000	-28.89395000
62.89999644	0.00000000	-59.15354000	-24.99385000
63.09999643	0.00000000	-58.45841000	-18.80536000
63.29999642	0.00000000	-57.29576000	-10.72835000
63.49999641	0.00000000	-56.08390000	-3.84473400
63.69999639	0.00000000	-54.17691000	0.46751960
63.89999638	0.00000000	-52.68823000	1.63016700
64.09999637	0.00000000	-52.26993000	-0.64591530
64.29999636	0.00000000	-52.64517000	-5.29035400
64.49999635	0.00000000	-53.80167000	-11.46653000
64.69999634	0.00000000	-55.33957000	-18.01796000
64.89999632	0.00000000	-56.92052000	-23.03765000
65.09999631	0.00000000	-58.45841000	-25.77510000
65.29999630	0.00000000	-59.57185000	-25.77510000
65.49999629	0.00000000	-59.52879000	-23.12992000
65.69999628	0.00000000	-58.03395000	-18.90379000
65.89999626	0.00000000	-55.80708000	-14.21014000
66.09999625	0.00000000	-54.26919000	-9.56569900
66.29999624	0.00000000	-53.85088000	-5.70866100
66.49999623	0.00000000	-54.17691000	-3.75246000
66.69999622	0.00000000	-54.96432000	-3.66633800
66.89999620	0.00000000	-55.75787000	-4.82283400
67.09999619	0.00000000	-56.92052000	-6.77903500
67.29999618	0.00000000	-57.99089000	-9.51648500
67.49999617	0.00000000	-57.99089000	-12.62918000
67.69999616	0.00000000	-56.82825000	-15.74188000
67.89999615	0.00000000	-54.92125000	-18.47933000
68.09999613	0.00000000	-52.59596000	-20.47859000
68.29999612	0.00000000	-50.73204000	-21.96727000
68.49999611	0.00000000	-49.98769000	-22.29331000
68.69999610	0.00000000	-51.15034000	-20.39247000
68.89999609	0.00000000	-53.85088000	-17.32283000
69.09999607	0.00000000	-57.29576000	-13.74262000
69.29999606	0.00000000	-60.77756000	-9.47342500
69.49999605	0.00000000	-63.10900000	-5.29035400
69.69999604	0.00000000	-64.27164000	-2.59596400
69.89999603	0.00000000	-63.76107000	-2.17150600
70.09999601	0.00000000	-60.69144000	-3.75246000
70.29999600	0.00000000	-55.71481000	-7.24040300
70.49999599	0.00000000	-50.68897000	-12.25394000
70.69999598	0.00000000	-46.45054000	-17.27362000
70.89999597	0.00000000	-44.17446000	-21.54897000
71.09999596	0.00000000	-44.91880000	-24.20029000
71.29999594	0.00000000	-47.98843000	-24.20029000
71.49999593	0.00000000	-52.68823000	-21.54897000
71.69999592	0.00000000	-58.45841000	-17.32283000
71.89999591	0.00000000	-63.85334000	-12.67224000
72.09999590	0.00000000	-67.34743000	-8.44611200
72.29999588	0.00000000	-68.51008000	-5.70866100
72.49999587	0.00000000	-66.92913000	-4.91510800
72.69999586	0.00000000	-62.69069000	-5.66560000
72.89999585	0.00000000	-56.92052000	-7.98474400
73.09999584	0.00000000	-51.15034000	-11.04823000
73.29999582	0.00000000	-46.87500000	-14.11786000
73.49999581	0.00000000	-44.86958000	-16.43701000
73.69999580	0.00000000	-44.91880000	-17.23056000
73.89999579	0.00000000	-47.20103000	-16.85531000
74.09999578	0.00000000	-51.47023000	-15.36663000
74.29999577	0.00000000	-56.04699000	-13.50886000
74.49999575	0.00000000	-60.35925000	-12.72146000
74.69999574	0.00000000	-63.01673000	-12.67224000
74.89999573	0.00000000	-63.89641000	-13.09670000
75.09999572	0.00000000	-63.06594000	-14.21014000
75.29999571	0.00000000	-60.77756000	-15.32357000
75.49999569	0.00000000	-57.29576000	-15.64960000
75.69999568	0.00000000	-53.89394000	-14.85605000
75.89999567	0.00000000	-51.52559000	-12.58612000
76.09999566	0.00000000	-50.73204000	-9.89173200
76.29999565	0.00000000	-51.06422000	-7.56643700
76.49999563	0.00000000	-52.22071000	-5.70866100
76.69999562	0.00000000	-53.71555000	-5.75172200
76.89999561	0.00000000	-54.87204000	-8.02780400
77.09999560	0.00000000	-55.33957000	-11.51575000
77.29999559	0.00000000	-55.71481000	-15.78494000
77.49999558	0.00000000	-56.08390000	-20.01722000
77.69999556	0.00000000	-55.75787000	-23.08686000
77.89999555	0.00000000	-55.85014000	-24.20029000
78.09999554	0.00000000	-56.92052000	-22.61934000
78.29999553	0.00000000	-58.03395000	-18.43627000
78.49999552	0.00000000	-58.45841000	-13.04749000
78.69999550	0.00000000	-58.45841000	-7.98474400
78.89999549	0.00000000	-58.03395000	-3.70939900
79.09999548	0.00000000	-56.87746000	-1.06422200
79.29999547	0.00000000	-55.29650000	-1.10728300
79.49999546	0.00000000	-53.34030000	-4.12770700
79.69999544	0.00000000	-51.10728000	-9.09817800
79.89999543	0.00000000	-49.94463000	-14.16708000
80.09999542	0.00000000	-50.31373000	-18.85458000
80.29999541	0.00000000	-51.48252000	-22.66855000
80.49999540	0.00000000	-53.85088000	-24.20029000
80.69999539	0.00000000	-56.87746000	-23.08686000
80.89999537	0.00000000	-59.57185000	-20.06029000
81.09999536	0.00000000	-61.10974000	-16.16018000
81.29999535	0.00000000	-61.15280000	-12.25394000
81.49999534	0.00000000	-59.99015000	-8.40305000
81.69999533	0.00000000	-58.03395000	-5.70866100
81.89999531	0.00000000	-55.33957000	-4.87204700
82.09999530	0.00000000	-52.68823000	-5.19808000
82.29999529	0.00000000	-51.10728000	-6.40378900
82.49999528	0.00000000	-50.73204000	-8.35383800
82.69999527	0.00000000	-51.48252000	-11.09744000
82.89999525	0.00000000	-53.38336000	-14.21014000
83.09999524	0.00000000	-55.29650000	-17.32283000
83.29999523	0.00000000	-56.87746000	-20.01722000
83.49999522	0.00000000	-57.99089000	-21.54897000
83.69999521	0.00000000	-58.03395000	-21.54897000
83.89999520	0.00000000	-57.33883000	-20.01722000
84.09999518	0.00000000	-56.92052000	-17.27977000
84.29999517	0.00000000	-56.50221000	-13.79183000
84.49999516	0.00000000	-55.75787000	-9.89173200
84.69999515	0.00000000	-55.38263000	-6.44685000
84.89999514	0.00000000	-55.33957000	-4.12770700
85.09999512	0.00000000	-55.33957000	-3.75246000
85.29999511	0.00000000	-55.29650000	-5.29035400
85.49999510	0.00000000	-54.92125000	-8.40305000
85.69999509	0.00000000	-54.17691000	-12.67224000
85.89999508	0.00000000	-53.80167000	-17.27362000
86.09999506	0.00000000	-53.75861000	-21.13066000
86.29999505	0.00000000	-53.80167000	-23.08686000
86.49999504	0.00000000	-54.22613000	-23.08686000
86.69999503	0.00000000	-55.38263000	-21.08760000
86.89999502	0.00000000	-56.87746000	-16.85531000
87.09999501	0.00000000	-58.03395000	-11.51575000
87.29999499	0.00000000	-58.40920000	-6.90821800
87.49999498	0.00000000	-58.03395000	-4.12770700
87.69999497	0.00000000	-56.87746000	-3.37721400
87.89999496	0.00000000	-55.33957000	-4.54601300
88.09999495	0.00000000	-53.80167000	-8.07086500
88.29999493	0.00000000	-52.64517000	-13.00443000
88.49999492	0.00000000	-52.22071000	-18.01796000
88.69999491	0.00000000	-52.22071000	-21.46284000
88.89999490	0.00000000	-52.68823000	-22.66240000
89.09999489	0.00000000	-54.17691000	-21.46284000
89.29999487	0.00000000	-56.08390000	-18.01796000
89.49999486	0.00000000	-57.25270000	-13.00443000
89.69999485	0.00000000	-58.08316000	-8.02780400
89.89999484	0.00000000	-58.40920000	-4.17076700
90.09999483	0.00000000	-58.03395000	-2.63902500
90.29999482	0.00000000	-56.87746000	-3.79552100
90.49999480	0.00000000	-55.38263000	-7.28346400
90.69999479	0.00000000	-54.22613000	-12.62918000
90.89999478	0.00000000	-53.80167000	-17.97490000
91.09999477	0.00000000	-53.75861000	-21.46284000
91.29999476	0.00000000	-53.80167000	-22.61934000
91.49999474	0.00000000	-54.17691000	-21.08760000
91.69999473	0.00000000	-54.92125000	-17.23056000
91.89999472	0.00000000	-55.24729000	-12.25394000
92.09999471	0.00000000	-54.96432000	-7.28346400
92.29999470	0.00000000	-54.59522000	-4.21998000
92.49999468	0.00000000	-54.96432000	-3.80167300
92.69999467	0.00000000	-55.33957000	-5.75172200
92.89999466	0.00000000	-55.75787000	-9.93479300
93.09999465	0.00000000	-56.50221000	-14.94833000
93.29999464	0.00000000	-56.92052000	-19.13755000
93.49999463	0.00000000	-57.33883000	-21.86885000
93.69999461	0.00000000	-58.03395000	-21.83194000
93.89999460	0.00000000	-57.99089000	-19.59892000
94.09999459	0.00000000	-56.82825000	-15.69882000
94.29999458	0.00000000	-54.92125000	-11.14050000
94.49999457	0.00000000	-52.59596000	-7.28346400
94.69999455	0.00000000	-50.68897000	-5.37647600
94.89999454	0.00000000	-49.52633000	-5.75172200
95.09999453	0.00000000	-49.56939000	-8.40305000
95.29999452	0.00000000	-51.10728000	-12.21087000
95.49999451	0.00000000	-53.80167000	-15.69882000
95.69999449	0.00000000	-56.87746000	-18.43627000
95.89999448	0.00000000	-59.61491000	-19.93110000
96.09999447	0.00000000	-61.52805000	-19.50664000
96.29999446	0.00000000	-62.27239000	-16.90453000
96.49999445	0.00000000	-61.10974000	-13.46580000
96.69999444	0.00000000	-58.40920000	-10.76525000
96.89999442	0.00000000	-54.92125000	-8.77214500
97.09999441	0.00000000	-51.06422000	-8.02780400
97.29999440	0.00000000	-47.98843000	-8.40305000
97.49999439	0.00000000	-46.40748000	-9.93479300
97.69999438	0.00000000	-46.45054000	-12.21087000
97.89999436	0.00000000	-48.40674000	-14.16092000
98.09999435	0.00000000	-52.22071000	-15.69882000
98.29999434	0.00000000	-56.45300000	-16.43701000
98.49999433	0.00000000	-59.99015000	-15.69882000
98.69999432	0.00000000	-62.69069000	-14.25320000
98.89999430	0.00000000	-63.80413000	-13.04749000
99.09999429	0.00000000	-62.69069000	-12.25394000
99.29999428	0.00000000	-60.03937000	-11.51575000
99.49999427	0.00000000	-56.92052000	-11.51575000
99.69999426	0.00000000	-53.75861000	-12.21087000
99.89999425	0.00000000	-50.68897000	-12.53691000
100.09999423	0.00000000	-48.36368000	-12.21087000
100.29999422	0.00000000	-47.61319000	-11.46653000
100.49999421	0.00000000	-48.36368000	-11.09129000
100.69999420	0.00000000	-50.68897000	-11.09129000
100.89999419	0.00000000	-53.75861000	-11.51575000
101.09999417	0.00000000	-56.87746000	-12.67224000
101.29999416	0.00000000	-59.57185000	-14.21014000
101.49999415	0.00000000	-61.15280000	-15.74188000
101.69999414	0.00000000	-61.52805000	-16.89837000
101.89999413	0.00000000	-60.77756000	-17.27362000
102.09999411	0.00000000	-58.83366000	-16.85531000
102.29999410	0.00000000	-56.54527000	-15.32357000
102.49999409	0.00000000	-54.17691000	-13.00443000
102.69999408	0.00000000	-52.26993000	-10.67298000
102.89999407	0.00000000	-51.06422000	-8.35383800
103.09999406	0.00000000	-50.68897000	-6.86515700
103.29999404	0.00000000	-51.06422000	-6.86515700
103.49999403	0.00000000	-52.26993000	-8.44611200
103.69999402	0.00000000	-54.17691000	-11.46653000
103.89999401	0.00000000	-56.45300000	-14.90526000
104.09999400	0.00000000	-57.99089000	-17.23056000
104.29999398	0.00000000	-58.45841000	-18.43627000
104.49999397	0.00000000	-58.45841000	-18.39321000
104.69999396	0.00000000	-58.03395000	-16.90453000
104.89999395	0.00000000	-56.87746000	-14.58538000
105.09999394	0.00000000	-55.33957000	-12.25394000
105.29999392	0.00000000	-53.80167000	-9.89173200
105.49999391	0.00000000	-52.64517000	-8.02780400
105.69999390	0.00000000	-52.26993000	-7.28346400
105.89999389	0.00000000	-52.64517000	-8.44611200
106.09999388	0.00000000	-53.80167000	-11.04823000
106.29999387	0.00000000	-55.29650000	-13.74262000
106.49999385	0.00000000	-56.45300000	-15.64960000
106.69999384	0.00000000	-56.82825000	-16.48007000
106.89999383	0.00000000	-56.50221000	-16.11712000
107.09999382	0.00000000	-55.71481000	-15.36663000
107.29999381	0.00000000	-54.96432000	-14.16092000
107.49999379	0.00000000	-54.17691000	-12.62918000
107.69999378	0.00000000	-53.80167000	-11.09744000
107.89999377	0.00000000	-53.75861000	-9.98400600
108.09999376	0.00000000	-53.80167000	-9.98400600
108.29999375	0.00000000	-54.22613000	-11.09744000
108.49999374	0.00000000	-55.33957000	-12.62918000
108.69999372	0.00000000	-56.45300000	-14.16092000
108.89999371	0.00000000	-56.92052000	-15.32357000
109.09999370	0.00000000	-57.25270000	-15.69267000
109.29999369	0.00000000	-57.19734000	-15.32357000
109.49999368	0.00000000	-55.71481000	-14.16092000
109.69999366	0.00000000	-54.22613000	-12.62918000
109.89999365	0.00000000	-53.38336000	-11.09744000
110.09999364	0.00000000	-52.64517000	-9.93479300
110.29999363	0.00000000	-52.64517000	-9.56569900
110.49999362	0.00000000	-53.38336000	-9.93479300
110.69999360	0.00000000	-54.17691000	-11.14050000
110.89999359	0.00000000	-55.33957000	-13.00443000
111.09999358	0.00000000	-56.45300000	-14.90526000
111.29999357	0.00000000	-56.87746000	-15.69267000
111.49999356	0.00000000	-56.92052000	-15.78494000
111.69999355	0.00000000	-56.87746000	-15.74188000
111.89999353	0.00000000	-56.45300000	-15.32357000
112.09999352	0.00000000	-55.33957000	-14.21014000
112.29999351	0.00000000	-54.22613000	-13.04749000
112.49999350	0.00000000	-53.80167000	-12.25394000
112.69999349	0.00000000	-53.75861000	-11.46653000
112.89999347	0.00000000	-53.80167000	-11.09129000
113.09999346	0.00000000	-54.17691000	-11.09129000
113.29999345	0.00000000	-54.92125000	-11.46653000
113.49999344	0.00000000	-55.29650000	-12.21087000
113.69999343	0.00000000	-55.33957000	-12.62918000
113.89999341	0.00000000	-55.33957000	-13.04749000
114.09999340	0.00000000	-55.33957000	-13.79183000
114.29999339	0.00000000	-55.33957000	-14.16708000
114.49999338	0.00000000	-55.33957000	-14.21014000
114.69999337	0.00000000	-55.29650000	-14.21014000
114.89999336	0.00000000	-54.96432000	-14.21014000
115.09999334	0.00000000	-54.59522000	-14.21014000
115.29999333	0.00000000	-54.92125000	-14.21014000
115.49999332	0.00000000	-54.92125000	-14.16708000
115.69999331	0.00000000	-54.59522000	-13.79183000
115.89999330	0.00000000	-54.96432000	-13.00443000
116.09999328	0.00000000	-55.29650000	-12.25394000
116.29999327	0.00000000	-55.33957000	-11.42347000
116.49999326	0.00000000	-55.33957000	-10.72219000
116.69999325	0.00000000	-55.33957000	-10.31004000
116.89999324	0.00000000	-55.33957000	-10.72219000
117.09999322	0.00000000	-55.33957000	-11.46653000
117.29999321	0.00000000	-55.29650000	-12.62918000
117.49999320	0.00000000	-54.92125000	-13.74262000
117.69999319	0.00000000	-54.13385000	-14.16708000
117.89999318	0.00000000	-53.42642000	-14.21014000
118.09999317	0.00000000	-53.01427000	-14.21014000
118.29999315	0.00000000	-53.38336000	-14.16708000
118.49999314	0.00000000	-53.75861000	-13.79183000
118.69999313	0.00000000	-54.22613000	-13.00443000
118.89999312	0.00000000	-55.33957000	-12.25394000
119.09999311	0.00000000	-56.45300000	-11.46653000
119.29999309	0.00000000	-56.87746000	-11.09129000
119.49999308	0.00000000	-56.92052000	-11.04823000
119.69999307	0.00000000	-56.87746000	-11.04823000
119.89999306	0.00000000	-56.45300000	-11.09129000
120.09999305	0.00000000	-55.29650000	-11.46653000
120.29999303	0.00000000	-53.80167000	-12.25394000
120.49999302	0.00000000	-52.59596000	-13.00443000
120.69999301	0.00000000	-51.84547000	-13.79183000
120.89999300	0.00000000	-51.48252000	-14.16708000
121.09999299	0.00000000	-52.26993000	-14.21014000
121.29999298	0.00000000	-53.71555000	-14.21014000
121.49999296	0.00000000	-54.92125000	-14.16708000
121.69999295	0.00000000	-55.75787000	-13.79183000
121.89999294	0.00000000	-56.92052000	-13.04749000
122.09999293	0.00000000	-57.99089000	-12.67224000
122.29999292	0.00000000	-58.03395000	-12.62918000
122.49999290	0.00000000	-57.29576000	-12.62918000
122.69999289	0.00000000	-56.50221000	-12.58612000
122.89999288	0.00000000	-55.33957000	-12.21087000
123.09999287	0.00000000	-54.17691000	-11.51575000
123.29999286	0.00000000	-53.38336000	-11.51575000
123.49999284	0.00000000	-52.59596000	-12.21087000
123.69999283	0.00000000	-52.22071000	-12.62918000
123.89999282	0.00000000	-52.22071000	-13.04749000
124.09999281	0.00000000	-52.64517000	-13.79183000
124.29999280	0.00000000	-53.75861000	-14.16708000
124.49999279	0.00000000	-54.92125000	-14.21014000
124.69999277	0.00000000	-55.71481000	-14.21014000
124.89999276	0.00000000	-56.50221000	-14.16708000
125.09999275	0.00000000	-56.87746000	-13.79183000
125.29999274	0.00000000	-56.92052000	-13.04749000
125.49999273	0.00000000	-56.87746000	-12.62918000
125.69999271	0.00000000	-56.45300000	-12.21087000
125.89999270	0.00000000	-55.33957000	-11.46653000
126.09999269	0.00000000	-54.17691000	-11.09129000
126.29999268	0.00000000	-53.38336000	-11.09129000
126.49999267	0.00000000	-52.59596000	-11.46653000
126.69999265	0.00000000	-52.26993000	-12.21087000
126.89999264	0.00000000	-52.59596000	-12.58612000
127.09999263	0.00000000	-53.38336000	-12.67224000
127.29999262	0.00000000	-54.17691000	-13.04749000
127.49999261	0.00000000	-55.33957000	-13.79183000
127.69999260	0.00000000	-56.45300000	-14.11786000
127.89999258	0.00000000	-56.87746000	-13.79183000
128.09999257	0.00000000	-56.87746000	-13.04749000
128.29999256	0.00000000	-56.50221000	-12.67224000
128.49999255	0.00000000	-55.71481000	-12.58612000
128.69999254	0.00000000	-54.92125000	-12.21087000
128.89999252	0.00000000	-53.75861000	-11.51575000
129.09999251	0.00000000	-52.64517000	-11.51575000
129.29999250	0.00000000	-52.26993000	-12.21087000
129.49999249	0.00000000	-52.64517000	-12.62918000
129.69999248	0.00000000	-53.75861000	-13.04749000
129.89999246	0.00000000	-54.92125000	-13.74262000
130.09999245	0.00000000	-55.71481000	-13.74262000
130.29999244	0.00000000	-56.50221000	-13.04749000
130.49999243	0.00000000	-56.82825000	-12.67224000
130.69999242	0.00000000	-56.50221000	-12.62918000
130.89999241	0.00000000	-55.71481000	-12.58612000
131.09999239	0.00000000	-54.96432000	-12.25394000
131.29999238	0.00000000	-54.13385000	-11.88484000
131.49999237	0.00000000	-53.42642000	-12.25394000
131.69999236	0.00000000	-53.01427000	-12.62918000
131.89999235	0.00000000	-53.38336000	-13.04749000
132.09999233	0.00000000	-53.75861000	-13.79183000
132.29999232	0.00000000	-54.17691000	-14.16708000
132.49999231	0.00000000	-54.92125000	-14.21014000
132.69999230	0.00000000	-55.29650000	-14.16708000
132.89999229	0.00000000	-55.33957000	-13.79183000
133.09999227	0.00000000	-55.33957000	-13.00443000
133.29999226	0.00000000	-55.33957000	-12.25394000
133.49999225	0.00000000	-55.29650000	-11.46653000
133.69999224	0.00000000	-54.96432000	-11.09129000
133.89999223	0.00000000	-54.59522000	-11.09129000
134.09999222	0.00000000	-54.96432000	-11.46653000
134.29999220	0.00000000	-55.29650000	-12.25394000
134.49999219	0.00000000	-55.29650000	-13.00443000
134.69999218	0.00000000	-54.92125000	-13.79183000
134.89999217	0.00000000	-54.17691000	-14.21014000
135.09999216	0.00000000	-53.80167000	-14.58538000
135.29999214	0.00000000	-53.75861000	-14.94833000
135.49999213	0.00000000	-53.80167000	-14.58538000
135.69999212	0.00000000	-54.17691000	-14.21014000
135.89999211	0.00000000	-54.92125000	-13.74262000
136.09999210	0.00000000	-55.29650000	-12.62918000
136.29999208	0.00000000	-55.33957000	-11.51575000
136.49999207	0.00000000	-55.33957000	-11.09129000
136.69999206	0.00000000	-55.33957000	-11.04823000
136.89999205	0.00000000	-55.33957000	-11.09129000
137.09999204	0.00000000	-55.29650000	-11.46653000
137.29999203	0.00000000	-54.92125000	-12.25394000
137.49999201	0.00000000	-54.17691000	-13.00443000
137.69999200	0.00000000	-53.75861000	-13.79183000
137.89999199	0.00000000	-53.38336000	-14.16708000
138.09999198	0.00000000	-53.01427000	-14.21014000
138.29999197	0.00000000	-53.38336000	-14.21014000
138.49999195	0.00000000	-53.75861000	-14.16708000
138.69999194	0.00000000	-54.17691000	-13.79183000
138.89999193	0.00000000	-54.92125000	-13.00443000
139.09999192	0.00000000	-55.29650000	-12.25394000
139.29999191	0.00000000	-55.33957000	-11.46653000
139.49999189	0.00000000	-55.29650000	-11.09129000
139.69999188	0.00000000	-54.92125000	-11.04823000
139.89999187	0.00000000	-54.17691000	-11.09129000
140.09999186	0.00000000	-53.80167000	-11.46653000
140.29999185	0.00000000	-53.75861000	-12.25394000
140.49999184	0.00000000	-53.75861000	-13.00443000
140.69999182	0.00000000	-53.75861000	-13.79183000
140.89999181	0.00000000	-53.80167000	-14.16708000
141.09999180	0.00000000	-54.17691000	-14.21014000
141.29999179	0.00000000	-54.92125000	-14.16708000
141.49999178	0.00000000	-55.29650000	-13.79183000
141.69999176	0.00000000	-55.29650000	-13.00443000
141.89999175	0.00000000	-54.92125000	-12.25394000
142.09999174	0.00000000	-54.17691000	-11.46653000
142.29999173	0.00000000	-53.80167000	-11.09129000
142.49999172	0.00000000	-53.75861000	-11.04823000
142.69999170	0.00000000	-53.75861000	-11.09129000
142.89999169	0.00000000	-53.75861000	-11.46653000
143.09999168	0.00000000	-53.75861000	-12.25394000
143.29999167	0.00000000	-53.80167000	-13.00443000
143.49999166	0.00000000	-54.17691000	-13.79183000
143.69999165	0.00000000	-54.92125000	-14.16708000
143.89999163	0.00000000	-55.24729000	-14.21014000
144.09999162	0.00000000	-54.92125000	-14.16708000
144.29999161	0.00000000	-54.17691000	-13.74262000
144.49999160	0.00000000	-53.80167000	-12.62918000
144.69999159	0.00000000	-53.75861000	-11.51575000
144.89999157	0.00000000	-53.75861000	-11.09129000
145.09999156	0.00000000	-53.75861000	-11.04823000
145.29999155	0.00000000	-53.80167000	-11.09129000
145.49999154	0.00000000	-54.17691000	-11.46653000
145.69999153	0.00000000	-54.92125000	-12.21087000
145.89999151	0.00000000	-55.29650000	-12.58612000
146.09999150	0.00000000	-55.33957000	-12.67224000
146.29999149	0.00000000	-55.33957000	-13.04749000
146.49999148	0.00000000	-55.29650000	-13.79183000
146.69999147	0.00000000	-54.92125000	-14.11786000
146.89999146	0.00000000	-54.17691000	-13.79183000
147.09999144	0.00000000	-53.80167000	-13.00443000
147.29999143	0.00000000	-53.75861000	-12.29700000
147.49999142	0.00000000	-53.75861000	-11.88484000
147.69999141	0.00000000	-53.75861000	-12.25394000
147.89999140	0.00000000	-53.80167000	-12.58612000
148.09999138	0.00000000	-54.17691000	-12.62918000
148.29999137	0.00000000	-54.92125000	-12.62918000
148.49999136	0.00000000	-55.29650000	-12.67224000
148.69999135	0.00000000	-55.33957000	-13.04749000
148.89999134	0.00000000	-55.29650000	-13.79183000
149.09999132	0.00000000	-54.92125000	-14.16708000
149.29999131	0.00000000	-54.17691000	-14.21014000
149.49999130	0.00000000	-53.80167000	-14.16708000
149.69999129	0.00000000	-53.75861000	-13.79183000
149.89999128	0.00000000	-53.75861000	-13.04749000
150.09999127	0.00000000	-53.75861000	-12.62918000
150.29999125	0.00000000	-53.75861000	-12.21087000
150.49999124	0.00000000	-53.75861000	-11.46653000
150.69999123	0.00000000	-53.80167000	-11.09129000
150.89999122	0.00000000	-54.17691000	-11.04823000
151.09999121	0.00000000	-54.92125000	-11.09129000
151.29999119	0.00000000	-55.29650000	-11.46653000
151.49999118	0.00000000	-55.33957000	-12.21087000
151.69999117	0.00000000	-55.33957000	-12.58612000
151.89999116	0.00000000	-55.29650000	-12.62918000
152.09999115	0.00000000	-54.92125000	-12.67224000
152.29999113	0.00000000	-54.17691000	-13.00443000
152.49999112	0.00000000	-53.80167000	-13.37352000
152.69999111	0.00000000	-53.71555000	-13.00443000
152.89999110	0.00000000	-53.34030000	-12.62918000
153.09999109	0.00000000	-52.64517000	-12.25394000
153.29999108	0.00000000	-52.64517000	-11.84178000
153.49999106	0.00000000	-53.34030000	-11.83563000
153.69999105	0.00000000	-53.75861000	-11.42347000
153.89999104	0.00000000	-54.17691000	-11.09129000
154.09999103	0.00000000	-54.92125000	-11.04823000
154.29999102	0.00000000	-55.29650000	-11.09129000
154.49999100	0.00000000	-55.33957000	-11.46653000
154.69999099	0.00000000	-55.29650000	-12.16166000
154.89999098	0.00000000	-54.92125000	-12.21087000
155.09999097	0.00000000	-54.17691000	-11.88484000
155.29999096	0.00000000	-53.80167000	-12.29700000
155.49999094	0.00000000	-53.75861000	-12.96137000
155.69999093	0.00000000	-53.71555000	-13.37352000
155.89999092	0.00000000	-53.38336000	-13.00443000
156.09999091	0.00000000	-53.01427000	-12.67224000
156.29999090	0.00000000	-53.38336000	-12.62918000
156.49999089	0.00000000	-53.71555000	-12.58612000
156.69999087	0.00000000	-53.80167000	-12.21087000
156.89999086	0.00000000	-54.17691000	-11.46653000
157.09999085	0.00000000	-54.92125000	-11.14050000
157.29999084	0.00000000	-55.29650000	-11.46653000
157.49999083	0.00000000	-55.33957000	-12.21087000
157.69999081	0.00000000	-55.29650000	-12.58612000
157.89999080	0.00000000	-54.92125000	-12.62918000
158.09999079	0.00000000	-54.17691000	-12.67224000
158.29999078	0.00000000	-53.80167000	-13.04749000
158.49999077	0.00000000	-53.75861000	-13.74262000
158.69999075	0.00000000	-53.75861000	-13.74262000
158.89999074	0.00000000	-53.75861000	-13.04749000
159.09999073	0.00000000	-53.75861000	-12.67224000
159.29999072	0.00000000	-53.75861000	-12.62918000
159.49999071	0.00000000	-53.75861000	-12.58612000
159.69999070	0.00000000	-53.80167000	-12.21087000
159.89999068	0.00000000	-54.17691000	-11.46653000
160.09999067	0.00000000	-54.87204000	-11.09129000
160.29999066	0.00000000	-54.87204000	-11.09129000
160.49999065	0.00000000	-54.22613000	-11.46653000
160.69999064	0.00000000	-54.22613000	-12.25394000
160.89999062	0.00000000	-54.87204000	-12.96137000
161.09999061	0.00000000	-54.87204000	-13.37352000
161.29999060	0.00000000	-54.17691000	-13.00443000
161.49999059	0.00000000	-53.80167000	-12.67224000
161.69999058	0.00000000	-53.75861000	-12.62918000
161.89999056	0.00000000	-53.75861000	-12.62918000
162.09999055	0.00000000	-53.75861000	-12.62918000
162.29999054	0.00000000	-53.75861000	-12.62918000
162.49999053	0.00000000	-53.75861000	-12.62918000
162.69999052	0.00000000	-53.75861000	-12.62918000
162.89999051	0.00000000	-53.75861000	-12.62918000
163.09999049	0.00000000	-53.80167000	-12.62918000
163.29999048	0.00000000	-54.17691000	-12.62918000
163.49999047	0.00000000	-54.92125000	-12.62918000
163.69999046	0.00000000	-55.29650000	-12.62918000
163.89999045	0.00000000	-55.29650000	-12.62918000
164.09999043	0.00000000	-54.92125000	-12.62918000
164.29999042	0.00000000	-54.17691000	-12.62918000
164.49999041	0.00000000	-53.80167000	-12.62918000
164.69999040	0.00000000	-53.75861000	-12.62918000
164.89999039	0.00000000	-53.71555000	-12.62918000
165.09999037	0.00000000	-53.38336000	-12.62918000
165.29999036	0.00000000	-53.01427000	-12.62918000
165.49999035	0.00000000	-53.38336000	-12.62918000
165.69999034	0.00000000	-53.71555000	-12.62918000
165.89999033	0.00000000	-53.75861000	-12.58612000
166.09999032	0.00000000	-53.80167000	-12.25394000
166.29999030	0.00000000	-54.13385000	-11.88484000
166.49999029	0.00000000	-54.54601000	-12.25394000
166.69999028	0.00000000	-54.55216000	-12.58612000
166.89999027	0.00000000	-54.92125000	-12.62918000
167.09999026	0.00000000	-54.87204000	-12.62918000
167.29999024	0.00000000	-54.17691000	-12.62918000
167.49999023	0.00000000	-53.80167000	-12.62918000
167.69999022	0.00000000	-53.75861000	-12.62918000
167.89999021	0.00000000	-53.71555000	-12.62918000
168.09999020	0.00000000	-53.38336000	-12.62918000
168.29999018	0.00000000	-53.01427000	-12.62918000
168.49999017	0.00000000	-53.38336000	-12.62918000
168.69999016	0.00000000	-53.71555000	-12.62918000
168.89999015	0.00000000	-53.75861000	-12.62918000
169.09999014	0.00000000	-53.75861000	-12.62918000
169.29999013	0.00000000	-53.75861000	-12.62918000
169.49999011	0.00000000	-53.75861000	-12.62918000
169.69999010	0.00000000	-53.75861000	-12.62918000
169.89999009	0.00000000	-53.75861000	-12.58612000
170.09999008	0.00000000	-53.80167000	-12.25394000
170.29999007	0.00000000	-54.13385000	-11.88484000
170.49999005	0.00000000	-54.50295000	-12.25394000
170.69999004	0.00000000	-54.13385000	-12.58612000
170.89999003	0.00000000	-53.80167000	-12.62918000
171.09999002	0.00000000	-53.75861000	-12.62918000
171.29999001	0.00000000	-53.75861000	-12.62918000
171.49998999	0.00000000	-53.75861000	-12.62918000
171.69998998	0.00000000	-53.75861000	-12.62918000
171.89998997	0.00000000	-53.75861000	-12.62918000
172.09998996	0.00000000	-53.75861000	-12.62918000
172.29998995	0.00000000	-53.75861000	-12.62918000
172.49998994	0.00000000	-53.75861000	-12.62918000
172.69998992	0.00000000	-53.75861000	-12.62918000
172.89998991	0.00000000	-53.75861000	-12.62918000
173.09998990	0.00000000	-53.75861000	-12.62918000
173.29998989	0.00000000	-53.75861000	-12.62918000
173.49998988	0.00000000	-53.75861000	-12.62918000
173.69998986	0.00000000	-53.75861000	-12.62918000
173.89998985	0.00000000	-53.75861000	-12.62918000
174.09998984	0.00000000	-53.75861000	-12.62918000
174.29998983	0.00000000	-53.75861000	-12.62918000
174.49998982	0.00000000	-53.75861000	-12.62918000
174.69998980	0.00000000	-53.75861000	-12.62918000
174.89998979	0.00000000	-53.75861000	-12.62918000
175.09998978	0.00000000	-53.75861000	-12.62918000
175.29998977	0.00000000	-53.75861000	-12.62918000
175.49998976	0.00000000	-53.75861000	-12.62918000
175.69998975	0.00000000	-53.75861000	-12.62918000
175.89998973	0.00000000	-53.75861000	-12.62918000
176.09998972	0.00000000	-53.75861000	-12.62918000
176.29998971	0.00000000	-53.75861000	-12.62918000
176.49998970	0.00000000	-53.75861000	-12.62918000
176.69998969	0.00000000	-53.75861000	-12.62918000
176.89998967	0.00000000	-53.75861000	-12.62918000
177.09998966	0.00000000	-53.75861000	-12.62918000
177.29998965	0.00000000	-53.75861000	-12.62918000
177.49998964	0.00000000	-53.75861000	-12.62918000
177.69998963	0.00000000	-53.75861000	-12.62918000
177.89998961	0.00000000	-53.75861000	-12.62918000
178.09998960	0.00000000	-53.75861000	-12.62918000
178.29998959	0.00000000	-53.75861000	-12.62918000
178.49998958	0.00000000	-53.75861000	-12.62918000
178.69998957	0.00000000	-53.75861000	-12.62918000
178.89998956	0.00000000	-53.71555000	-12.58612000
179.09998954	0.00000000	-53.38336000	-12.25394000
179.29998953	0.00000000	-53.01427000	-11.88484000
179.49998952	0.00000000	-53.34030000	-12.25394000
179.69998951	0.00000000	-53.34030000	-12.58612000
179.89998950	0.00000000	-53.01427000	-12.62918000
180.09998948	0.00000000	-53.38336000	-12.62918000
180.29998947	0.00000000	-53.71555000	-12.62918000
180.49998946	0.00000000	-53.75861000	-12.62918000
180.69998945	0.00000000	-53.75861000	-12.62918000
180.89998944	0.00000000	-53.75861000	-12.62918000
181.09998942	0.00000000	-53.75861000	-12.62918000
181.29998941	0.00000000	-53.75861000	-12.62918000
181.49998940	0.00000000	-53.75861000	-12.62918000
181.69998939	0.00000000	-53.75861000	-12.62918000
181.89998938	0.00000000	-53.75861000	-12.62918000
182.09998937	0.00000000	-53.75861000	-12.62918000
182.29998935	0.00000000	-53.75861000	-12.62918000
182.49998934	0.00000000	-53.75861000	-12.62918000
182.69998933	0.00000000	-53.75861000	-12.62918000
182.89998932	0.00000000	-53.75861000	-12.62918000
183.09998931	0.00000000	-53.75861000	-12.62918000
183.29998929	0.00000000	-53.75861000	-12.62918000
183.49998928	0.00000000	-53.75861000	-12.62918000
183.69998927	0.00000000	-53.75861000	-12.62918000
183.89998926	0.00000000	-53.75861000	-12.62918000
184.09998925	0.00000000	-53.75861000	-12.58612000
184.29998923	0.00000000	-53.75861000	-12.21087000
184.49998922	0.00000000	-53.75861000	-11.46653000
184.69998921	0.00000000	-53.75861000	-11.09129000
184.89998920	0.00000000	-53.75861000	-11.04823000
185.09998919	0.00000000	-53.75861000	-11.09129000
185.29998918	0.00000000	-53.75861000	-11.46653000
185.49998916	0.00000000	-53.75861000	-12.21087000
185.69998915	0.00000000	-53.75861000	-12.58612000
185.89998914	0.00000000	-53.71555000	-12.62918000
186.09998913	0.00000000	-53.38336000	-12.67224000
186.29998912	0.00000000	-53.01427000	-13.00443000
186.49998910	0.00000000	-53.38336000	-13.37352000
186.69998909	0.00000000	-53.71555000	-13.00443000
186.89998908	0.00000000	-53.75861000	-12.67224000
187.09998907	0.00000000	-53.75861000	-12.58612000
187.29998906	0.00000000	-53.75861000	-12.21087000
187.49998904	0.00000000	-53.75861000	-11.46653000
187.69998903	0.00000000	-53.75861000	-11.14050000
187.89998902	0.00000000	-53.75861000	-11.42347000
188.09998901	0.00000000	-53.75861000	-11.83563000
188.29998900	0.00000000	-53.75861000	-11.84178000
188.49998899	0.00000000	-53.71555000	-12.25394000
188.69998897	0.00000000	-53.38336000	-12.58612000
188.89998896	0.00000000	-53.01427000	-12.62918000
189.09998895	0.00000000	-53.38336000	-12.62918000
189.29998894	0.00000000	-53.71555000	-12.62918000
189.49998893	0.00000000	-53.75861000	-12.62918000
189.69998891	0.00000000	-53.75861000	-12.62918000
189.89998890	0.00000000	-53.75861000	-12.62918000
190.09998889	0.00000000	-53.75861000	-12.62918000
190.29998888	0.00000000	-53.75861000	-12.62918000
190.49998887	0.00000000	-53.75861000	-12.62918000
190.69998885	0.00000000	-53.75861000	-12.58612000
190.89998884	0.00000000	-53.75861000	-12.25394000
191.09998883	0.00000000	-53.75861000	-11.88484000
191.29998882	0.00000000	-53.75861000	-12.25394000
191.49998881	0.00000000	-53.75861000	-12.58612000
191.69998880	0.00000000	-53.71555000	-12.62918000
191.89998878	0.00000000	-53.38336000	-12.62918000
192.09998877	0.00000000	-53.01427000	-12.62918000
192.29998876	0.00000000	-53.38336000	-12.62918000
192.49998875	0.00000000	-53.71555000	-12.62918000
192.69998874	0.00000000	-53.75861000	-12.62918000
192.89998872	0.00000000	-53.75861000	-12.62918000
193.09998871	0.00000000	-53.75861000	-12.62918000
193.29998870	0.00000000	-53.75861000	-12.62918000
193.49998869	0.00000000	-53.75861000	-12.62918000
193.69998868	0.00000000	-53.75861000	-12.58612000
193.89998866	0.00000000	-53.75861000	-12.21087000
194.09998865	0.00000000	-53.75861000	-11.51575000
194.29998864	0.00000000	-53.75861000	-11.51575000
194.49998863	0.00000000	-53.75861000	-12.21087000
194.69998862	0.00000000	-53.71555000	-12.58612000
194.89998861	0.00000000	-53.34030000	-12.62918000
195.09998859	0.00000000	-52.64517000	-12.62918000
195.29998858	0.00000000	-52.64517000	-12.62918000
195.49998857	0.00000000	-53.34030000	-12.62918000
195.69998856	0.00000000	-53.71555000	-12.62918000
195.89998855	0.00000000	-53.75861000	-12.62918000
196.09998853	0.00000000	-53.75861000	-12.62918000
