Time	Channel A	Channel B	Channel C
(us)	(V)	(mV)	(mV)

-4.49999956	0.00000000	-47.43479000	-9.47342500
-4.29999957	0.00000000	-47.43479000	-9.47342500
-4.09999958	0.00000000	-47.43479000	-9.51648500
-3.89999959	0.00000000	-47.43479000	-9.84867000
-3.69999960	0.00000000	-47.43479000	-10.21161000
-3.49999962	0.00000000	-47.43479000	-9.84867000
-3.29999963	0.00000000	-47.43479000	-9.56569900
-3.09999964	0.00000000	-47.43479000	-9.84867000
-2.89999965	0.00000000	-47.43479000	-10.21161000
-2.69999966	0.00000000	-47.43479000	-9.84867000
-2.49999968	0.00000000	-47.43479000	-9.56569900
-2.29999969	0.00000000	-47.43479000	-9.89173200
-2.09999970	0.00000000	-47.43479000	-10.58686000
-1.89999971	0.00000000	-47.43479000	-10.58686000
-1.69999972	0.00000000	-47.43479000	-9.93479300
-1.49999973	0.00000000	-47.43479000	-9.93479300
-1.29999975	0.00000000	-47.47785000	-10.62992000
-1.09999976	0.00000000	-47.81004000	-10.95595000
-0.89999977	0.00000000	-48.17913000	-10.62992000
-0.69999978	0.00000000	-47.81004000	-9.89173200
-0.49999979	0.00000000	-47.47785000	-9.56569900
-0.29999981	0.31803640	-47.43479000	-9.84867000
-0.09999982	0.63668800	-47.43479000	-10.21161000
0.10000017	0.95533960	-47.43479000	-9.84867000
0.30000016	0.95533960	-47.43479000	-9.51648500
0.50000015	0.79601380	-47.43479000	-9.47342500
0.70000013	0.31803640	-47.43479000	-9.47342500
0.90000012	-0.47736220	-47.43479000	-9.47342500
1.10000011	-1.59264300	-47.43479000	-9.47342500
1.30000010	-2.38927200	-47.43479000	-9.47342500
1.50000009	-2.86724900	-47.43479000	-9.47342500
1.70000008	-2.38927200	-47.43479000	-9.47342500
1.90000006	-1.27399100	-47.43479000	-9.47342500
2.10000005	0.63668800	-47.43479000	-9.47342500
2.30000004	2.70792300	-47.43479000	-9.47342500
2.50000003	4.61921700	-47.43479000	-9.51648500
2.70000002	5.41584600	-47.43479000	-9.89173200
2.90000000	4.77854300	-47.43479000	-10.58686000
3.09999999	2.86724900	-47.43479000	-10.62992000
3.29999998	-0.31803640	-47.43479000	-10.26698000
3.49999997	-3.66326300	-47.43479000	-10.25467000
3.69999996	-6.53112700	-47.43479000	-9.84867000
3.89999994	-7.96444400	-47.43479000	-9.51648500
4.09999993	-7.32714100	-47.43479000	-9.47342500
4.29999992	-4.77854300	-47.43479000	-9.43036400
4.49999991	-0.79601380	-47.43479000	-9.09817800
4.69999990	3.50393700	-47.43479000	-8.72908400
4.89999989	7.32714100	-47.43479000	-9.09817800
5.09999987	9.23905000	-47.43479000	-9.43036400
5.29999986	9.07972400	-47.43479000	-9.51648500
5.49999985	6.37180100	-47.43479000	-9.89173200
5.69999984	2.07062000	-47.43479000	-10.58686000
5.89999983	-2.70792300	-47.43479000	-10.58686000
6.09999981	-6.69045300	-47.43479000	-9.89173200
6.29999980	-9.23905000	-47.43479000	-9.51648500
6.49999979	-9.23905000	-47.43479000	-9.47342500
6.69999978	-7.00848900	-47.43479000	-9.47342500
6.89999977	-3.18590100	-47.43479000	-9.47342500
7.09999975	1.27399100	-47.43479000	-9.47342500
7.29999974	5.09719500	-47.43479000	-9.47342500
7.49999973	7.32714100	-47.43479000	-9.47342500
7.69999972	7.64579200	-47.43479000	-9.51648500
7.89999971	6.21247500	-47.43479000	-9.84867000
8.09999970	3.18590100	-47.43479000	-10.25467000
8.29999968	-0.15871060	-47.47785000	-10.21776000
8.49999967	-3.02657500	-47.81004000	-10.25467000
8.69999966	-4.77854300	-48.17913000	-9.84867000
8.89999965	-5.09719500	-47.81004000	-9.51648500
9.09999964	-4.30056600	-47.47785000	-9.47342500
9.29999962	-2.54859700	-47.43479000	-9.47342500
9.49999961	-0.63668800	-47.43479000	-9.47342500
9.69999960	1.11466500	-47.43479000	-9.47342500
9.89999959	2.22994600	-47.43479000	-9.47342500
10.09999958	2.54859700	-47.43479000	-9.47342500
10.29999956	2.07062000	-47.43479000	-9.47342500
10.49999955	1.43331700	-47.43479000	-9.47342500
10.69999954	0.47736220	-47.43479000	-9.47342500
10.89999953	-0.15871060	-47.43479000	-9.47342500
11.09999952	-0.79601380	-47.43479000	-9.47342500
11.29999951	-0.95533960	-47.43479000	-9.47342500
11.49999949	-0.95533960	-47.43479000	-9.47342500
11.69999948	-0.63668800	-47.43479000	-9.47342500
11.89999947	-0.47736220	-47.43479000	-9.47342500
12.09999946	-0.15871060	-47.43479000	-9.47342500
12.29999945	-0.15871060	-47.43479000	-9.47342500
12.49999943	0.00000000	-47.43479000	-9.47342500
12.69999942	0.00000000	-47.43479000	-9.47342500
12.89999941	0.15871060	-47.43479000	-9.47342500
13.09999940	0.00000000	-47.43479000	-9.47342500
13.29999939	0.15871060	-47.43479000	-9.47342500
13.49999937	0.00000000	-47.43479000	-9.47342500
13.69999936	0.00000000	-47.43479000	-9.47342500
13.89999935	0.00000000	-47.43479000	-9.47342500
14.09999934	-0.15871060	-47.43479000	-9.47342500
14.29999933	-0.15871060	-47.43479000	-9.47342500
14.49999932	-0.15871060	-47.43479000	-9.47342500
14.69999930	-0.15871060	-47.43479000	-9.47342500
14.89999929	0.00000000	-47.43479000	-9.47342500
15.09999928	0.00000000	-47.43479000	-9.47342500
15.29999927	0.00000000	-47.43479000	-9.47342500
15.49999926	0.15871060	-47.43479000	-9.47342500
15.69999924	0.00000000	-47.43479000	-9.47342500
15.89999923	0.00000000	-47.43479000	-9.47342500
16.09999922	0.00000000	-47.43479000	-9.47342500
16.29999921	0.00000000	-47.43479000	-9.47342500
16.49999920	0.00000000	-47.43479000	-9.47342500
16.69999919	-0.15871060	-47.39173000	-9.47342500
16.89999917	0.00000000	-47.01648000	-9.47342500
17.09999916	0.00000000	-46.22908000	-9.47342500
17.29999915	0.00000000	-45.52165000	-9.47342500
17.49999914	0.00000000	-45.10950000	-9.47342500
17.69999913	0.00000000	-45.52165000	-9.47342500
17.89999911	0.00000000	-46.27214000	-9.47342500
18.09999910	0.00000000	-47.43479000	-9.47342500
18.29999909	0.00000000	-48.64050000	-9.47342500
18.49999908	0.00000000	-49.80930000	-9.47342500
18.69999907	0.00000000	-51.34104000	-9.47342500
18.89999905	0.00000000	-52.08538000	-9.47342500
19.09999904	0.00000000	-52.08538000	-9.47342500
19.29999903	0.00000000	-51.20571000	-9.47342500
19.49999902	0.00000000	-48.50517000	-9.47342500
19.69999901	0.00000000	-44.64813000	-9.47342500
19.89999900	0.00000000	-40.77879000	-9.47342500
20.09999898	0.00000000	-37.29700000	-9.47342500
20.29999897	0.00000000	-35.47613000	-9.47342500
20.49999896	0.00000000	-36.26968000	-9.47342500
20.69999895	0.00000000	-40.17593000	-9.47342500
20.89999894	0.00000000	-46.36442000	-9.47342500
21.09999892	0.00000000	-53.75861000	-9.47342500
21.29999891	0.00000000	-61.06668000	-9.43036400
21.49999890	0.00000000	-66.41855000	-9.09817800
21.69999889	0.00000000	-67.86417000	-8.72908400
21.89999888	0.00000000	-64.32701000	-9.09817800
22.09999886	0.00000000	-55.76402000	-9.43036400
22.29999885	0.00000000	-43.80536000	-9.47342500
22.49999884	0.00000000	-31.05930000	-9.47342500
22.69999883	0.00000000	-20.68159000	-9.47342500
22.89999882	0.00000000	-15.32972000	-9.47342500
23.09999881	0.00000000	-16.95374000	-9.43036400
23.29999879	0.00000000	-25.89198000	-9.05511800
23.49999878	0.00000000	-40.63730000	-8.26771600
23.69999877	0.00000000	-58.41535000	-7.56028500
23.89999876	0.00000000	-75.35064000	-7.14812900
24.09999875	0.00000000	-86.84178000	-7.56028500
24.29999873	0.00000000	-89.54231000	-8.26771600
24.49999872	0.00000000	-82.52337000	-9.14124000
24.69999871	0.00000000	-67.02756000	-10.31004000
24.89999870	0.00000000	-45.76156000	-12.21087000
25.09999869	0.00000000	-23.75123000	-13.74262000
25.29999867	0.00000000	-6.02239100	-14.53617000
25.49999866	0.00000000	3.18651600	-14.85605000
25.69999865	0.00000000	0.81815940	-13.60728000
25.89999864	0.00000000	-12.67840000	-10.58686000
26.09999863	0.00000000	-34.35654000	-6.72982200
26.29999862	0.00000000	-59.43651000	-3.19881900
26.49999860	0.00000000	-82.19118000	-0.09227362
26.69999859	0.00000000	-96.85039000	2.14074800
26.89999858	0.00000000	-99.96923000	2.00541300
27.09999857	0.00000000	-91.08022000	-1.43946800
27.29999856	0.00000000	-72.18872000	-7.65255800
27.49999854	0.00000000	-47.90231000	-14.96063000
27.69999853	0.00000000	-24.31102000	-22.33637000
27.89999852	0.00000000	-6.48991100	-27.68824000
28.09999851	0.00000000	2.06692900	-29.95817000
28.29999850	0.00000000	-0.25221450	-27.91584000
28.49999848	0.00000000	-12.58612000	-20.95226000
28.69999847	0.00000000	-32.26501000	-10.54380000
28.89999846	0.00000000	-54.23228000	1.07037400
29.09999845	0.00000000	-73.25910000	11.47884000
29.29999844	0.00000000	-85.68528000	18.35630000
29.49999843	0.00000000	-89.58538000	19.46973000
29.69999841	0.00000000	-84.19044000	14.03789000
29.89999840	0.00000000	-71.11835000	3.16190900
30.09999839	0.00000000	-53.75861000	-11.51575000
30.29999838	0.00000000	-36.31274000	-26.93774000
30.49999837	0.00000000	-22.35482000	-39.25935000
30.69999835	0.00000000	-14.16708000	-45.80462000
30.89999834	0.00000000	-13.37352000	-44.59892000
31.09999833	0.00000000	-19.47589000	-35.72219000
31.29999832	0.00000000	-30.68405000	-20.99532000
31.49999831	0.00000000	-44.18061000	-3.24803100
31.69999829	0.00000000	-57.01894000	13.70571000
31.89999828	0.00000000	-66.75073000	25.69513000
32.09999827	0.00000000	-72.18872000	30.38878000
32.29999826	0.00000000	-72.18872000	27.23302000
32.49999825	0.00000000	-66.79379000	16.40010000
32.69999824	0.00000000	-57.52953000	-0.17839570
32.89999822	0.00000000	-46.32135000	-18.30093000
33.09999821	0.00000000	-35.93750000	-34.19045000
33.29999820	0.00000000	-28.91855000	-44.64198000
33.49999819	0.00000000	-26.53789000	-47.76082000
33.69999818	0.00000000	-28.45103000	-43.11023000
33.89999816	0.00000000	-34.26427000	-31.53912000
34.09999815	0.00000000	-42.69193000	-15.69882000
34.29999814	0.00000000	-51.15649000	0.93503930
34.49999813	0.00000000	-57.39419000	15.19439000
34.69999812	0.00000000	-60.50689000	23.69586000
34.89999810	0.00000000	-60.13164000	24.53248000
35.09999809	0.00000000	-56.32381000	18.35630000
35.29999808	0.00000000	-50.55364000	6.40994000
35.49999807	0.00000000	-44.36515000	-8.63681000
35.69999806	0.00000000	-39.01329000	-22.85925000
35.89999805	0.00000000	-36.31890000	-33.34769000
36.09999803	0.00000000	-37.01402000	-37.58612000
36.29999802	0.00000000	-40.08366000	-35.30389000
36.49999801	0.00000000	-44.74040000	-26.84547000
36.69999800	0.00000000	-50.08612000	-14.58538000
36.89999799	0.00000000	-54.27534000	-2.26377900
37.09999797	0.00000000	-55.85630000	7.39419200
37.29999796	0.00000000	-54.78592000	11.99557000
37.49999795	0.00000000	-52.04232000	10.50689000
37.69999794	0.00000000	-48.17913000	3.62942900
37.89999793	0.00000000	-43.52854000	-6.31151500
38.09999791	0.00000000	-39.70842000	-16.30167000
38.29999790	0.00000000	-37.38927000	-23.60359000
38.49999789	0.00000000	-37.38927000	-26.24877000
38.69999788	0.00000000	-39.66535000	-23.22835000
38.89999787	0.00000000	-43.15945000	-15.56348000
39.09999786	0.00000000	-47.43479000	-6.02854300
39.29999784	0.00000000	-51.66707000	2.79281500
39.49999783	0.00000000	-54.78592000	7.72022600
39.69999782	0.00000000	-56.32381000	7.39419200
39.89999781	0.00000000	-55.94857000	2.00541300
40.09999780	0.00000000	-53.62328000	-6.82209600
40.29999778	0.00000000	-50.17839000	-16.81225000
40.49999777	0.00000000	-46.22908000	-25.17839000
40.69999776	0.00000000	-42.35974000	-29.02928000
40.89999775	0.00000000	-38.87795000	-27.13459000
41.09999774	0.00000000	-36.96481000	-20.62008000
41.29999772	0.00000000	-36.92175000	-11.00517000
41.49999771	0.00000000	-38.50270000	-1.06422200
41.69999770	0.00000000	-41.62155000	6.27460600
41.89999769	0.00000000	-45.85384000	9.38730200
42.09999768	0.00000000	-50.08612000	7.85556000
42.29999767	0.00000000	-53.20496000	2.09768700
42.49999765	0.00000000	-54.78592000	-6.31151500
42.69999764	0.00000000	-54.78592000	-14.76993000
42.89999763	0.00000000	-53.24803000	-20.99532000
43.09999762	0.00000000	-50.55364000	-24.10802000
43.29999761	0.00000000	-47.47785000	-23.73892000
43.49999759	0.00000000	-44.78346000	-19.93110000
43.69999758	0.00000000	-43.20251000	-14.16708000
43.89999757	0.00000000	-42.73499000	-7.98474400
44.09999756	0.00000000	-42.69193000	-2.59596400
44.29999755	0.00000000	-42.69193000	0.51673230
44.49999753	0.00000000	-42.73499000	0.93503930
44.69999752	0.00000000	-43.11023000	-0.92888770
44.89999751	0.00000000	-43.85457000	-4.40452700
45.09999750	0.00000000	-44.27288000	-8.26771600
45.29999749	0.00000000	-44.74040000	-12.11860000
45.49999748	0.00000000	-45.94611000	-14.76993000
45.69999746	0.00000000	-47.90231000	-15.23130000
45.89999745	0.00000000	-50.63976000	-14.16092000
46.09999744	0.00000000	-53.66634000	-12.58612000
46.29999743	0.00000000	-55.94857000	-10.62992000
46.49999742	0.00000000	-56.32381000	-8.31077700
46.69999740	0.00000000	-54.74286000	-6.40378900
46.89999739	0.00000000	-51.15649000	-5.24729300
47.09999738	0.00000000	-45.38631000	-5.19808000
47.29999737	0.00000000	-38.82874000	-5.98548200
47.49999736	0.00000000	-33.47072000	-7.14812900
47.69999734	0.00000000	-30.40723000	-9.14124000
47.89999733	0.00000000	-31.23770000	-11.38041000
48.09999732	0.00000000	-35.85138000	-13.32431000
48.29999731	0.00000000	-43.20251000	-14.07480000
48.49999730	0.00000000	-51.71013000	-13.69956000
48.69999729	0.00000000	-59.39345000	-12.11860000
48.89999727	0.00000000	-64.41313000	-9.42421200
49.09999726	0.00000000	-65.16363000	-6.36072800
49.29999725	0.00000000	-61.66953000	-3.66633800
49.49999724	0.00000000	-54.31840000	-2.12844500
49.69999723	0.00000000	-44.69119000	-2.12844500
49.89999721	0.00000000	-35.47613000	-3.66633800
50.09999720	0.00000000	-28.86934000	-6.40378900
50.29999719	0.00000000	-26.63017000	-9.89173200
50.49999718	0.00000000	-29.29380000	-13.74262000
50.69999717	0.00000000	-36.58957000	-16.76919000
50.89999715	0.00000000	-45.81078000	-17.92569000
51.09999714	0.00000000	-54.69365000	-16.76919000
51.29999713	0.00000000	-61.25123000	-13.69956000
51.49999712	0.00000000	-63.58267000	-9.47342500
51.69999711	0.00000000	-61.66953000	-5.24729300
51.89999710	0.00000000	-55.85630000	-2.12844500
52.09999708	0.00000000	-47.43479000	-0.55364170
52.29999707	0.00000000	-39.01329000	-0.59670270
52.49999706	0.00000000	-33.23696000	-2.54675200
52.69999705	0.00000000	-31.65600000	-6.35457700
52.89999704	0.00000000	-34.31348000	-10.53765000
53.09999702	0.00000000	-40.04060000	-13.69956000
53.29999701	0.00000000	-46.96727000	-15.64960000
53.49999700	0.00000000	-53.16190000	-16.34473000
53.69999699	0.00000000	-57.39419000	-14.85605000
53.89999698	0.00000000	-58.50763000	-11.84178000
54.09999696	0.00000000	-55.85630000	-9.14124000
54.29999695	0.00000000	-50.50443000	-6.77903500
54.49999694	0.00000000	-44.36515000	-5.29035400
54.69999693	0.00000000	-38.97022000	-5.24729300
54.89999692	0.00000000	-35.89444000	-6.40378900
55.09999691	0.00000000	-35.85138000	-8.26771600
55.29999689	0.00000000	-38.54576000	-10.16855000
55.49999688	0.00000000	-43.15945000	-10.91289000
55.69999687	0.00000000	-48.54823000	-10.58686000
55.89999686	0.00000000	-53.11269000	-9.42421200
56.09999685	0.00000000	-55.43799000	-7.89247000
56.29999683	0.00000000	-54.69365000	-6.40378900
56.49999682	0.00000000	-51.66707000	-5.66560000
56.69999681	0.00000000	-47.43479000	-6.44685000
56.89999680	0.00000000	-43.20251000	-8.35383800
57.09999679	0.00000000	-40.08366000	-11.09744000
57.29999677	0.00000000	-38.54576000	-14.11786000
57.49999676	0.00000000	-38.92101000	-16.39395000
57.69999675	0.00000000	-41.20325000	-16.71998000
57.89999674	0.00000000	-44.27288000	-14.76993000
58.09999673	0.00000000	-47.39173000	-10.53765000
58.29999672	0.00000000	-50.08612000	-5.19808000
58.49999670	0.00000000	-51.58095000	-0.59670270
58.69999669	0.00000000	-51.24877000	2.09153500
58.89999668	0.00000000	-49.39099000	2.09153500
59.09999667	0.00000000	-47.47785000	-0.64591530
59.29999666	0.00000000	-45.85384000	-5.66560000
59.49999664	0.00000000	-44.31594000	-12.21087000
59.69999663	0.00000000	-43.20251000	-18.35015000
59.89999662	0.00000000	-43.20251000	-22.57628000
60.09999661	0.00000000	-44.31594000	-23.68971000
60.29999660	0.00000000	-45.81078000	-20.95226000
60.49999658	0.00000000	-46.96727000	-14.85605000
60.69999657	0.00000000	-47.34252000	-7.14812900
60.89999656	0.00000000	-47.01648000	-0.22145670
61.09999655	0.00000000	-46.22908000	4.82898600
61.29999654	0.00000000	-45.47859000	6.69291300
61.49999653	0.00000000	-44.69119000	4.78592500
61.69999651	0.00000000	-44.36515000	-0.64591530
61.89999650	0.00000000	-44.69119000	-8.31077700
62.09999649	0.00000000	-45.47859000	-16.39395000
62.29999648	0.00000000	-46.27214000	-22.52707000
62.49999647	0.00000000	-47.43479000	-25.27067000
62.69999645	0.00000000	-48.54823000	-24.10802000
62.89999644	0.00000000	-48.92347000	-19.50664000
63.09999643	0.00000000	-48.54823000	-12.54306000
63.29999642	0.00000000	-47.34252000	-4.82898600
63.49999641	0.00000000	-45.47859000	2.04847400
63.69999639	0.00000000	-43.57775000	5.94857300
63.89999638	0.00000000	-42.73499000	5.99778500
64.09999637	0.00000000	-42.35974000	3.29724400
64.29999636	0.00000000	-42.41511000	-2.12844500
64.49999635	0.00000000	-43.94069000	-9.00590400
64.69999634	0.00000000	-45.81078000	-15.18824000
64.89999632	0.00000000	-47.43479000	-19.50664000
65.09999631	0.00000000	-48.92347000	-21.46284000
65.29999630	0.00000000	-49.66781000	-21.08760000
65.49999629	0.00000000	-48.92347000	-18.39321000
65.69999628	0.00000000	-47.43479000	-14.16708000
65.89999626	0.00000000	-45.85384000	-9.47342500
66.09999625	0.00000000	-44.31594000	-4.87204700
66.29999624	0.00000000	-43.20251000	-1.39025600
66.49999623	0.00000000	-43.20251000	-0.13533460
66.69999622	0.00000000	-44.31594000	-0.09227362
66.89999620	0.00000000	-45.85384000	-0.92888770
67.09999619	0.00000000	-47.39173000	-3.24803100
67.29999618	0.00000000	-48.50517000	-6.31151500
67.49999617	0.00000000	-48.46210000	-9.47342500
67.69999616	0.00000000	-46.96727000	-12.58612000
67.89999615	0.00000000	-44.64813000	-15.27436000
68.09999613	0.00000000	-42.35974000	-16.85531000
68.29999612	0.00000000	-40.45890000	-17.27362000
68.49999611	0.00000000	-40.12672000	-16.85531000
68.69999610	0.00000000	-41.62155000	-15.23130000
68.89999609	0.00000000	-44.36515000	-12.16166000
69.09999607	0.00000000	-47.85310000	-8.26771600
69.29999606	0.00000000	-51.66707000	-4.36146600
69.49999605	0.00000000	-54.31840000	-0.51058070
69.69999604	0.00000000	-54.74286000	2.09153500
69.89999603	0.00000000	-53.16190000	2.14074800
70.09999601	0.00000000	-49.66781000	-0.17839570
70.29999600	0.00000000	-44.64813000	-4.04158400
70.49999599	0.00000000	-39.66535000	-9.09817800
70.69999598	0.00000000	-35.80217000	-14.07480000
70.89999597	0.00000000	-34.27042000	-17.97490000
71.09999596	0.00000000	-35.38385000	-19.88189000
71.29999594	0.00000000	-38.50270000	-19.50664000
71.49999593	0.00000000	-43.20251000	-16.81225000
71.69999592	0.00000000	-48.97269000	-12.58612000
71.89999591	0.00000000	-54.36761000	-7.93553100
72.09999590	0.00000000	-57.81250000	-3.70939900
72.29999588	0.00000000	-58.59990000	-1.01501000
72.49999587	0.00000000	-56.23154000	-0.59670270
72.69999586	0.00000000	-51.29183000	-2.08538400
72.89999585	0.00000000	-45.15871000	-4.77977300
73.09999584	0.00000000	-40.08366000	-7.84940900
73.29999582	0.00000000	-36.54650000	-10.53765000
73.49999581	0.00000000	-34.63951000	-12.11860000
73.69999580	0.00000000	-35.43307000	-12.53691000
73.89999579	0.00000000	-38.45964000	-12.16166000
74.09999578	0.00000000	-42.73499000	-11.00517000
74.29999577	0.00000000	-47.34252000	-9.51648500
74.49999575	0.00000000	-51.24877000	-8.40305000
74.69999574	0.00000000	-53.53100000	-8.40305000
74.89999573	0.00000000	-53.94316000	-9.51648500
75.09999572	0.00000000	-52.04232000	-11.00517000
75.29999571	0.00000000	-49.01575000	-12.11860000
75.49999569	0.00000000	-45.94611000	-12.11860000
75.69999568	0.00000000	-43.57775000	-10.91289000
75.89999567	0.00000000	-42.35974000	-8.58759800
76.09999566	0.00000000	-41.57849000	-5.15501900
76.29999565	0.00000000	-41.62155000	-2.12844500
76.49999563	0.00000000	-42.69193000	-0.59670270
76.69999562	0.00000000	-43.85457000	-1.01501000
76.89999561	0.00000000	-44.64813000	-3.70939900
77.09999560	0.00000000	-45.43553000	-7.93553100
77.29999559	0.00000000	-45.81078000	-12.58612000
77.49999558	0.00000000	-45.85384000	-16.81225000
77.69999556	0.00000000	-45.89690000	-19.50664000
77.89999555	0.00000000	-46.27214000	-19.88189000
78.09999554	0.00000000	-47.01648000	-17.93184000
78.29999553	0.00000000	-47.43479000	-13.65650000
78.49999552	0.00000000	-47.85310000	-7.89247000
78.69999550	0.00000000	-48.54823000	-2.12844500
78.89999549	0.00000000	-48.46210000	2.09768700
79.09999548	0.00000000	-46.96727000	3.67249000
79.29999547	0.00000000	-44.64813000	2.51599400
79.49999546	0.00000000	-42.35974000	-0.92888770
79.69999544	0.00000000	-40.41584000	-5.93626900
79.89999543	0.00000000	-39.66535000	-10.95595000
80.09999542	0.00000000	-40.04060000	-15.27436000
80.29999541	0.00000000	-41.62155000	-18.35015000
80.49999540	0.00000000	-44.31594000	-19.50664000
80.69999539	0.00000000	-47.39173000	-18.35015000
80.89999537	0.00000000	-50.08612000	-15.27436000
81.09999536	0.00000000	-51.62401000	-11.04823000
81.29999535	0.00000000	-51.62401000	-6.77903500
81.49999534	0.00000000	-50.08612000	-3.29109200
81.69999533	0.00000000	-47.39173000	-0.92888770
81.89999531	0.00000000	-44.31594000	-0.13533460
82.09999530	0.00000000	-41.62155000	-0.51058070
82.29999529	0.00000000	-40.08366000	-2.08538400
82.49999528	0.00000000	-40.04060000	-4.77977300
82.69999527	0.00000000	-41.20325000	-7.89247000
82.89999525	0.00000000	-43.11023000	-11.00517000
83.09999524	0.00000000	-45.43553000	-13.74262000
83.29999523	0.00000000	-47.34252000	-15.69882000
83.49999522	0.00000000	-48.54823000	-16.85531000
83.69999521	0.00000000	-48.92347000	-16.81225000
83.89999520	0.00000000	-48.54823000	-15.23130000
84.09999518	0.00000000	-47.43479000	-12.16166000
84.29999517	0.00000000	-46.27214000	-8.26771600
84.49999516	0.00000000	-45.47859000	-4.40452700
84.69999515	0.00000000	-44.69119000	-0.92888770
84.89999514	0.00000000	-44.31594000	0.97810030
85.09999512	0.00000000	-44.27288000	0.97810030
85.29999511	0.00000000	-44.27288000	-0.97194880
85.49999510	0.00000000	-44.22982000	-4.82898600
85.69999509	0.00000000	-43.85457000	-9.43036400
85.89999508	0.00000000	-43.15945000	-13.74262000
86.09999506	0.00000000	-43.15945000	-17.18750000
86.29999505	0.00000000	-43.89763000	-19.08834000
86.49999504	0.00000000	-44.69119000	-18.30093000
86.69999503	0.00000000	-45.89690000	-15.27436000
86.89999502	0.00000000	-47.39173000	-11.00517000
87.09999501	0.00000000	-48.54823000	-6.35457700
87.29999499	0.00000000	-48.92347000	-2.12844500
87.49999498	0.00000000	-48.54823000	0.55979330
87.69999497	0.00000000	-47.39173000	0.93503930
87.89999496	0.00000000	-45.85384000	-0.97194880
88.09999495	0.00000000	-44.27288000	-4.87204700
88.29999493	0.00000000	-42.73499000	-9.84867000
88.49999492	0.00000000	-41.62155000	-14.81299000
88.69999491	0.00000000	-41.62155000	-17.88263000
88.89999490	0.00000000	-42.73499000	-18.30093000
89.09999489	0.00000000	-44.27288000	-16.39395000
89.29999487	0.00000000	-45.85384000	-12.49385000
89.49999486	0.00000000	-47.34252000	-7.51722400
89.69999485	0.00000000	-48.12992000	-2.55290300
89.89999484	0.00000000	-47.76698000	0.51673230
90.09999483	0.00000000	-47.01648000	0.93503930
90.29999482	0.00000000	-45.85384000	-0.97194880
90.49999480	0.00000000	-44.69119000	-4.87204700
90.69999479	0.00000000	-43.89763000	-9.84867000
90.89999478	0.00000000	-43.11023000	-14.81299000
91.09999477	0.00000000	-42.78420000	-17.88263000
91.29999476	0.00000000	-43.11023000	-18.30093000
91.49999474	0.00000000	-43.85457000	-16.35089000
91.69999473	0.00000000	-44.22982000	-12.11860000
91.89999472	0.00000000	-44.27288000	-6.77903500
92.09999471	0.00000000	-44.27288000	-2.17765700
92.29999470	0.00000000	-44.27288000	0.51673230
92.49999468	0.00000000	-44.31594000	0.55979330
92.69999467	0.00000000	-44.69119000	-1.75935000
92.89999466	0.00000000	-45.47859000	-5.61638700
93.09999465	0.00000000	-46.22908000	-10.62992000
93.29999464	0.00000000	-47.01648000	-15.14518000
93.49999463	0.00000000	-47.39173000	-17.50738000
93.69999461	0.00000000	-47.39173000	-17.13829000
93.89999460	0.00000000	-46.96727000	-14.85605000
94.09999459	0.00000000	-45.81078000	-10.95595000
94.29999458	0.00000000	-44.22982000	-6.40378900
94.49999457	0.00000000	-42.31668000	-2.54675200
94.69999455	0.00000000	-40.41584000	-0.63976370
94.89999454	0.00000000	-39.66535000	-1.01501000
95.09999453	0.00000000	-40.04060000	-3.70939900
95.29999452	0.00000000	-41.62155000	-7.89247000
95.49999451	0.00000000	-44.31594000	-12.07554000
95.69999449	0.00000000	-47.39173000	-14.76993000
95.89999448	0.00000000	-50.12918000	-15.23130000
96.09999447	0.00000000	-51.99926000	-14.07480000
96.29999446	0.00000000	-52.36220000	-11.79257000
96.49999445	0.00000000	-50.46136000	-8.68602300
96.69999444	0.00000000	-47.39173000	-5.98548200
96.89999442	0.00000000	-43.89763000	-3.70939900
97.09999441	0.00000000	-40.41584000	-2.97121000
97.29999440	0.00000000	-38.08440000	-4.44758800
97.49999439	0.00000000	-36.87869000	-6.68676100
97.69999438	0.00000000	-36.96481000	-9.05511800
97.89999436	0.00000000	-38.87795000	-10.96211000
98.09999435	0.00000000	-42.35974000	-12.11860000
98.29999434	0.00000000	-46.22908000	-12.11860000
98.49999433	0.00000000	-50.08612000	-11.00517000
98.69999432	0.00000000	-52.73745000	-9.51648500
98.89999430	0.00000000	-53.16190000	-8.31077700
99.09999429	0.00000000	-51.66707000	-7.51722400
99.29999428	0.00000000	-48.97269000	-6.77903500
99.49999427	0.00000000	-45.81078000	-6.77903500
99.69999426	0.00000000	-42.31668000	-7.42495000
99.89999425	0.00000000	-38.87795000	-7.42495000
100.09999423	0.00000000	-36.96481000	-6.72982200
100.29999422	0.00000000	-36.92175000	-6.35457700
100.49999421	0.00000000	-38.45964000	-6.31151500
100.69999420	0.00000000	-41.15403000	-6.35457700
100.89999419	0.00000000	-44.22982000	-6.77903500
101.09999417	0.00000000	-46.96727000	-7.93553100
101.29999416	0.00000000	-48.97269000	-9.47342500
101.49999415	0.00000000	-50.50443000	-11.04823000
101.69999414	0.00000000	-51.24877000	-12.53691000
101.89999413	0.00000000	-50.46136000	-13.28125000
102.09999411	0.00000000	-48.54823000	-12.49385000
102.29999410	0.00000000	-45.89690000	-10.58686000
102.49999409	0.00000000	-43.52854000	-7.89247000
102.69999408	0.00000000	-41.94144000	-5.19808000
102.89999407	0.00000000	-40.36663000	-3.29109200
103.09999406	0.00000000	-39.66535000	-2.50369100
103.29999404	0.00000000	-40.04060000	-3.29109200
103.49999403	0.00000000	-41.57849000	-5.19808000
103.69999402	0.00000000	-43.85457000	-7.93553100
103.89999401	0.00000000	-45.81078000	-11.00517000
104.09999400	0.00000000	-47.39173000	-13.69956000
104.29999398	0.00000000	-48.50517000	-15.18824000
104.49999397	0.00000000	-48.50517000	-14.81299000
104.69999396	0.00000000	-47.39173000	-12.53691000
104.89999395	0.00000000	-45.85384000	-9.51648500
105.09999394	0.00000000	-44.31594000	-6.77903500
105.29999392	0.00000000	-43.11023000	-4.77977300
105.49999391	0.00000000	-42.35974000	-3.29109200
105.69999390	0.00000000	-41.94759000	-2.92199800
105.89999389	0.00000000	-42.35974000	-4.44758800
106.09999388	0.00000000	-43.11023000	-6.68676100
106.29999387	0.00000000	-44.31594000	-9.05511800
106.49999385	0.00000000	-45.76156000	-10.96211000
106.69999384	0.00000000	-46.54896000	-12.11860000
106.89999383	0.00000000	-46.18602000	-12.11860000
107.09999382	0.00000000	-45.43553000	-10.96211000
107.29999381	0.00000000	-44.27288000	-9.05511800
107.49999379	0.00000000	-43.15945000	-6.77903500
107.69999378	0.00000000	-42.73499000	-5.29035400
107.89999377	0.00000000	-42.73499000	-5.19808000
108.09999376	0.00000000	-43.11023000	-5.98548200
108.29999375	0.00000000	-43.89763000	-7.14812900
108.49999374	0.00000000	-44.69119000	-9.09817800
108.69999372	0.00000000	-45.85384000	-10.91289000
108.89999371	0.00000000	-46.92421000	-11.74336000
109.09999370	0.00000000	-46.92421000	-11.38041000
109.29999369	0.00000000	-45.85384000	-10.58686000
109.49999368	0.00000000	-44.69119000	-9.00590400
109.69999366	0.00000000	-43.89763000	-6.77903500
109.89999365	0.00000000	-43.11023000	-5.24729300
110.09999364	0.00000000	-42.73499000	-4.82898600
110.29999363	0.00000000	-42.73499000	-5.19808000
110.49999362	0.00000000	-43.11023000	-6.36072800
110.69999360	0.00000000	-43.89763000	-7.89247000
110.89999359	0.00000000	-44.64813000	-9.42421200
111.09999358	0.00000000	-45.43553000	-10.58686000
111.29999357	0.00000000	-45.81078000	-11.00517000
111.49999356	0.00000000	-45.85384000	-11.00517000
111.69999355	0.00000000	-45.81078000	-10.62992000
111.89999353	0.00000000	-45.43553000	-9.84867000
112.09999352	0.00000000	-44.64813000	-9.05511800
112.29999351	0.00000000	-43.94069000	-7.89247000
112.49999350	0.00000000	-43.52854000	-6.77903500
112.69999349	0.00000000	-43.89763000	-6.35457700
112.89999347	0.00000000	-44.22982000	-6.35457700
113.09999346	0.00000000	-44.27288000	-6.72982200
113.29999345	0.00000000	-44.27288000	-7.47416300
113.49999344	0.00000000	-44.27288000	-7.84940900
113.69999343	0.00000000	-44.27288000	-7.93553100
113.89999341	0.00000000	-44.27288000	-8.31077700
114.09999340	0.00000000	-44.27288000	-9.05511800
114.29999339	0.00000000	-44.27288000	-9.43036400
114.49999338	0.00000000	-44.27288000	-9.47342500
114.69999337	0.00000000	-44.27288000	-9.47342500
114.89999336	0.00000000	-44.27288000	-9.47342500
115.09999334	0.00000000	-44.27288000	-9.47342500
115.29999333	0.00000000	-44.27288000	-9.47342500
115.49999332	0.00000000	-44.27288000	-9.43036400
115.69999331	0.00000000	-44.27288000	-9.05511800
115.89999330	0.00000000	-44.27288000	-8.26771600
116.09999328	0.00000000	-44.27288000	-7.51722400
116.29999327	0.00000000	-44.27288000	-6.72982200
116.49999326	0.00000000	-44.31594000	-6.35457700
116.69999325	0.00000000	-44.64813000	-6.31151500
116.89999324	0.00000000	-45.01722000	-6.35457700
117.09999322	0.00000000	-44.64813000	-6.77903500
117.29999321	0.00000000	-44.27288000	-7.89247000
117.49999320	0.00000000	-43.85457000	-9.05511800
117.69999319	0.00000000	-43.11023000	-9.84867000
117.89999318	0.00000000	-42.73499000	-10.62992000
118.09999317	0.00000000	-42.69193000	-10.95595000
118.29999315	0.00000000	-42.73499000	-10.62992000
118.49999314	0.00000000	-43.15945000	-9.84867000
118.69999313	0.00000000	-44.27288000	-9.09817800
118.89999312	0.00000000	-45.38631000	-8.26771600
119.09999311	0.00000000	-45.85384000	-7.51722400
119.29999309	0.00000000	-46.22908000	-6.72982200
119.49999308	0.00000000	-46.59818000	-6.35457700
119.69999307	0.00000000	-46.18602000	-6.31151500
119.89999306	0.00000000	-45.43553000	-6.35457700
120.09999305	0.00000000	-44.22982000	-6.72982200
120.29999303	0.00000000	-42.73499000	-7.51722400
120.49999302	0.00000000	-41.57849000	-8.26771600
120.69999301	0.00000000	-41.15403000	-9.05511800
120.89999300	0.00000000	-41.15403000	-9.43036400
121.09999299	0.00000000	-41.57849000	-9.47342500
121.29999298	0.00000000	-42.73499000	-9.47342500
121.49999296	0.00000000	-44.22982000	-9.43036400
121.69999295	0.00000000	-45.43553000	-9.09817800
121.89999294	0.00000000	-46.22908000	-8.68602300
122.09999293	0.00000000	-46.96727000	-8.67987200
122.29999292	0.00000000	-46.96727000	-8.22465500
122.49999290	0.00000000	-46.22908000	-7.51722400
122.69999289	0.00000000	-45.43553000	-6.72982200
122.89999288	0.00000000	-44.27288000	-6.35457700
123.09999287	0.00000000	-43.11023000	-6.35457700
123.29999286	0.00000000	-42.31668000	-6.72982200
123.49999284	0.00000000	-41.57849000	-7.47416300
123.69999283	0.00000000	-41.57849000	-7.89247000
123.89999282	0.00000000	-42.27362000	-8.31077700
124.09999281	0.00000000	-42.69193000	-9.05511800
124.29999280	0.00000000	-43.11023000	-9.43036400
124.49999279	0.00000000	-43.89763000	-9.47342500
124.69999277	0.00000000	-44.64813000	-9.43036400
124.89999276	0.00000000	-45.43553000	-9.05511800
125.09999275	0.00000000	-45.81078000	-8.31077700
125.29999274	0.00000000	-45.85384000	-7.93553100
125.49999273	0.00000000	-45.81078000	-7.84940900
125.69999271	0.00000000	-45.38631000	-7.47416300
125.89999270	0.00000000	-44.27288000	-6.77903500
126.09999269	0.00000000	-43.11023000	-6.77903500
126.29999268	0.00000000	-42.31668000	-7.47416300
126.49999267	0.00000000	-41.57849000	-7.84940900
126.69999265	0.00000000	-41.57849000	-7.89247000
126.89999264	0.00000000	-42.27362000	-7.89247000
127.09999263	0.00000000	-42.73499000	-7.93553100
127.29999262	0.00000000	-43.52854000	-8.26771600
127.49999261	0.00000000	-45.01722000	-8.67987200
127.69999260	0.00000000	-45.76156000	-8.64296200
127.89999258	0.00000000	-45.85384000	-8.67987200
128.09999257	0.00000000	-45.81078000	-8.26771600
128.29999256	0.00000000	-45.38631000	-7.89247000
128.49999255	0.00000000	-44.27288000	-7.51722400
128.69999254	0.00000000	-43.11023000	-7.14812900
128.89999252	0.00000000	-42.31668000	-7.51722400
129.09999251	0.00000000	-41.57849000	-7.84940900
129.29999250	0.00000000	-41.57849000	-7.93553100
129.49999249	0.00000000	-42.31668000	-8.31077700
129.69999248	0.00000000	-43.11023000	-9.05511800
129.89999246	0.00000000	-44.27288000	-9.43036400
130.09999245	0.00000000	-45.38631000	-9.43036400
130.29999244	0.00000000	-45.81078000	-9.05511800
130.49999243	0.00000000	-45.81078000	-8.31077700
130.69999242	0.00000000	-45.43553000	-7.89247000
130.89999241	0.00000000	-44.64813000	-7.47416300
131.09999239	0.00000000	-43.89763000	-6.77903500
131.29999238	0.00000000	-43.06717000	-6.77903500
131.49999237	0.00000000	-42.35974000	-7.51722400
131.69999236	0.00000000	-41.94759000	-8.26771600
131.89999235	0.00000000	-42.35974000	-9.05511800
132.09999233	0.00000000	-43.06717000	-9.43036400
132.29999232	0.00000000	-43.85457000	-9.47342500
132.49999231	0.00000000	-44.22982000	-9.47342500
132.69999230	0.00000000	-44.27288000	-9.43036400
132.89999229	0.00000000	-44.27288000	-9.00590400
133.09999227	0.00000000	-44.27288000	-7.89247000
133.29999226	0.00000000	-44.27288000	-6.77903500
133.49999225	0.00000000	-44.27288000	-6.35457700
133.69999224	0.00000000	-44.27288000	-6.31151500
133.89999223	0.00000000	-44.27288000	-6.35457700
134.09999222	0.00000000	-44.27288000	-6.72982200
134.29999220	0.00000000	-44.27288000	-7.51722400
134.49999219	0.00000000	-44.22982000	-8.26771600
134.69999218	0.00000000	-43.85457000	-9.05511800
134.89999217	0.00000000	-43.11023000	-9.43036400
135.09999216	0.00000000	-42.73499000	-9.47342500
135.29999214	0.00000000	-42.69193000	-9.47342500
135.49999213	0.00000000	-42.69193000	-9.43036400
135.69999212	0.00000000	-42.69193000	-9.05511800
135.89999211	0.00000000	-42.73499000	-8.26771600
136.09999210	0.00000000	-43.11023000	-7.51722400
136.29999208	0.00000000	-43.89763000	-6.72982200
136.49999207	0.00000000	-44.60506000	-6.35457700
136.69999206	0.00000000	-45.06028000	-6.31151500
136.89999205	0.00000000	-45.02337000	-6.31151500
137.09999204	0.00000000	-45.01722000	-6.40378900
137.29999203	0.00000000	-44.22982000	-7.14812900
137.49999201	0.00000000	-43.15945000	-8.63681000
137.69999200	0.00000000	-42.69193000	-9.38115100
137.89999199	0.00000000	-42.31668000	-9.47342500
138.09999198	0.00000000	-41.94759000	-9.47342500
138.29999197	0.00000000	-42.35974000	-9.47342500
138.49999195	0.00000000	-43.06717000	-9.43036400
138.69999194	0.00000000	-43.85457000	-9.05511800
138.89999193	0.00000000	-44.22982000	-8.26771600
139.09999192	0.00000000	-44.27288000	-7.51722400
139.29999191	0.00000000	-44.27288000	-6.72982200
139.49999189	0.00000000	-44.22982000	-6.35457700
139.69999188	0.00000000	-43.85457000	-6.31151500
139.89999187	0.00000000	-43.11023000	-6.35457700
140.09999186	0.00000000	-42.73499000	-6.72982200
140.29999185	0.00000000	-42.69193000	-7.51722400
140.49999184	0.00000000	-42.69193000	-8.26771600
140.69999182	0.00000000	-42.73499000	-9.05511800
140.89999181	0.00000000	-43.11023000	-9.43036400
141.09999180	0.00000000	-43.85457000	-9.47342500
141.29999179	0.00000000	-44.22982000	-9.43036400
141.49999178	0.00000000	-44.27288000	-9.05511800
141.69999176	0.00000000	-44.27288000	-8.26771600
141.89999175	0.00000000	-44.22982000	-7.51722400
142.09999174	0.00000000	-43.85457000	-6.72982200
142.29999173	0.00000000	-43.11023000	-6.35457700
142.49999172	0.00000000	-42.73499000	-6.31151500
142.69999170	0.00000000	-42.69193000	-6.31151500
142.89999169	0.00000000	-42.69193000	-6.35457700
143.09999168	0.00000000	-42.73499000	-6.77903500
143.29999167	0.00000000	-43.11023000	-7.89247000
143.49999166	0.00000000	-43.85457000	-9.00590400
143.69999165	0.00000000	-44.22982000	-9.43036400
143.89999163	0.00000000	-44.22982000	-9.43036400
144.09999162	0.00000000	-43.85457000	-9.05511800
144.29999161	0.00000000	-43.11023000	-8.31077700
144.49999160	0.00000000	-42.73499000	-7.89247000
144.69999159	0.00000000	-42.69193000	-7.47416300
144.89999157	0.00000000	-42.69193000	-6.72982200
145.09999156	0.00000000	-42.69193000	-6.35457700
145.29999155	0.00000000	-42.69193000	-6.35457700
145.49999154	0.00000000	-42.73499000	-6.72982200
145.69999153	0.00000000	-43.11023000	-7.47416300
145.89999151	0.00000000	-43.85457000	-7.89247000
146.09999150	0.00000000	-44.22982000	-8.31077700
146.29999149	0.00000000	-44.27288000	-9.00590400
146.49999148	0.00000000	-44.22982000	-9.05511800
146.69999147	0.00000000	-43.85457000	-8.68602300
146.89999146	0.00000000	-43.11023000	-8.67987200
147.09999144	0.00000000	-42.73499000	-8.26771600
147.29999143	0.00000000	-42.69193000	-7.89247000
147.49999142	0.00000000	-42.69193000	-7.47416300
147.69999141	0.00000000	-42.69193000	-6.72982200
147.89999140	0.00000000	-42.73499000	-6.35457700
148.09999138	0.00000000	-43.11023000	-6.31151500
148.29999137	0.00000000	-43.85457000	-6.35457700
148.49999136	0.00000000	-44.22982000	-6.72982200
148.69999135	0.00000000	-44.27288000	-7.47416300
148.89999134	0.00000000	-44.27288000	-7.89247000
149.09999132	0.00000000	-44.22982000	-8.31077700
149.29999131	0.00000000	-43.85457000	-9.05511800
149.49999130	0.00000000	-43.11023000	-9.38115100
149.69999129	0.00000000	-42.73499000	-9.05511800
149.89999128	0.00000000	-42.69193000	-8.31077700
150.09999127	0.00000000	-42.69193000	-7.89247000
150.29999125	0.00000000	-42.69193000	-7.47416300
150.49999124	0.00000000	-42.69193000	-6.72982200
150.69999123	0.00000000	-42.69193000	-6.35457700
150.89999122	0.00000000	-42.73499000	-6.35457700
151.09999121	0.00000000	-43.11023000	-6.72982200
151.29999119	0.00000000	-43.85457000	-7.47416300
151.49999118	0.00000000	-44.22982000	-7.84940900
151.69999117	0.00000000	-44.22982000	-7.89247000
151.89999116	0.00000000	-43.85457000	-7.89247000
152.09999115	0.00000000	-43.11023000	-7.89247000
152.29999113	0.00000000	-42.69193000	-7.89247000
152.49999112	0.00000000	-42.31668000	-7.89247000
152.69999111	0.00000000	-41.94759000	-7.89247000
152.89999110	0.00000000	-42.31668000	-7.89247000
153.09999109	0.00000000	-42.64886000	-7.89247000
153.29999108	0.00000000	-42.69193000	-7.89247000
153.49999106	0.00000000	-42.73499000	-7.89247000
153.69999105	0.00000000	-43.11023000	-7.89247000
153.89999104	0.00000000	-43.85457000	-7.89247000
154.09999103	0.00000000	-44.22982000	-7.89247000
154.29999102	0.00000000	-44.27288000	-7.89247000
154.49999100	0.00000000	-44.27288000	-7.89247000
154.69999099	0.00000000	-44.22982000	-7.89247000
154.89999098	0.00000000	-43.85457000	-7.89247000
155.09999097	0.00000000	-43.11023000	-7.89247000
155.29999096	0.00000000	-42.73499000	-7.89247000
155.49999094	0.00000000	-42.69193000	-7.89247000
155.69999093	0.00000000	-42.69193000	-7.89247000
155.89999092	0.00000000	-42.69193000	-7.89247000
156.09999091	0.00000000	-42.69193000	-7.89247000
156.29999090	0.00000000	-42.69193000	-7.84940900
156.49999089	0.00000000	-42.73499000	-7.47416300
156.69999087	0.00000000	-43.11023000	-6.72982200
156.89999086	0.00000000	-43.85457000	-6.35457700
157.09999085	0.00000000	-44.22982000	-6.31151500
157.29999084	0.00000000	-44.22982000	-6.35457700
157.49999083	0.00000000	-43.85457000	-6.72982200
157.69999081	0.00000000	-43.11023000	-7.47416300
157.89999080	0.00000000	-42.73499000	-7.84940900
158.09999079	0.00000000	-42.69193000	-7.89247000
158.29999078	0.00000000	-42.69193000	-7.89247000
158.49999077	0.00000000	-42.69193000	-7.89247000
158.69999075	0.00000000	-42.64886000	-7.89247000
158.89999074	0.00000000	-42.31668000	-7.89247000
159.09999073	0.00000000	-41.94759000	-7.84940900
159.29999072	0.00000000	-42.31668000	-7.51722400
159.49999071	0.00000000	-42.64886000	-7.14812900
159.69999070	0.00000000	-42.69193000	-7.47416300
159.89999068	0.00000000	-42.73499000	-7.42495000
160.09999067	0.00000000	-43.11023000	-6.77903500
160.29999066	0.00000000	-43.80536000	-6.77903500
160.49999065	0.00000000	-43.80536000	-7.47416300
160.69999064	0.00000000	-43.11023000	-7.84940900
160.89999062	0.00000000	-42.73499000	-7.89247000
161.09999061	0.00000000	-42.69193000	-7.89247000
161.29999060	0.00000000	-42.69193000	-7.89247000
161.49999059	0.00000000	-42.69193000	-7.89247000
161.69999058	0.00000000	-42.69193000	-7.89247000
161.89999056	0.00000000	-42.69193000	-7.89247000
162.09999055	0.00000000	-42.69193000	-7.89247000
162.29999054	0.00000000	-42.69193000	-7.84940900
162.49999053	0.00000000	-42.69193000	-7.51722400
162.69999052	0.00000000	-42.69193000	-7.14812900
162.89999051	0.00000000	-42.69193000	-7.47416300
163.09999049	0.00000000	-42.73499000	-7.47416300
163.29999048	0.00000000	-43.11023000	-7.14812900
163.49999047	0.00000000	-43.80536000	-7.51722400
163.69999046	0.00000000	-43.85457000	-7.84940900
163.89999045	0.00000000	-43.48548000	-7.89247000
164.09999043	0.00000000	-43.47933000	-7.89247000
164.29999042	0.00000000	-43.06717000	-7.89247000
164.49999041	0.00000000	-42.73499000	-7.89247000
164.69999040	0.00000000	-42.64886000	-7.89247000
164.89999039	0.00000000	-42.27362000	-7.89247000
165.09999037	0.00000000	-41.57849000	-7.89247000
165.29999036	0.00000000	-41.57849000	-7.89247000
165.49999035	0.00000000	-42.27362000	-7.89247000
165.69999034	0.00000000	-42.64886000	-7.89247000
165.89999033	0.00000000	-42.69193000	-7.89247000
166.09999032	0.00000000	-42.69193000	-7.89247000
166.29999030	0.00000000	-42.69193000	-7.89247000
166.49999029	0.00000000	-42.69193000	-7.89247000
166.69999028	0.00000000	-42.73499000	-7.89247000
166.89999027	0.00000000	-43.06717000	-7.89247000
167.09999026	0.00000000	-43.43627000	-7.89247000
167.29999024	0.00000000	-43.06717000	-7.89247000
167.49999023	0.00000000	-42.73499000	-7.89247000
167.69999022	0.00000000	-42.64886000	-7.89247000
167.89999021	0.00000000	-42.31668000	-7.89247000
168.09999020	0.00000000	-41.94759000	-7.89247000
168.29999018	0.00000000	-42.31668000	-7.89247000
168.49999017	0.00000000	-42.64886000	-7.89247000
168.69999016	0.00000000	-42.69193000	-7.89247000
168.89999015	0.00000000	-42.69193000	-7.89247000
169.09999014	0.00000000	-42.69193000	-7.89247000
169.29999013	0.00000000	-42.69193000	-7.89247000
169.49999011	0.00000000	-42.69193000	-7.89247000
169.69999010	0.00000000	-42.69193000	-7.89247000
169.89999009	0.00000000	-42.69193000	-7.84940900
170.09999008	0.00000000	-42.69193000	-7.51722400
170.29999007	0.00000000	-42.69193000	-7.14812900
170.49999005	0.00000000	-42.69193000	-7.51722400
170.69999004	0.00000000	-42.69193000	-7.80019600
170.89999003	0.00000000	-42.69193000	-7.51722400
171.09999002	0.00000000	-42.69193000	-7.14812900
171.29999001	0.00000000	-42.69193000	-7.51722400
171.49998999	0.00000000	-42.69193000	-7.84940900
171.69998998	0.00000000	-42.69193000	-7.89247000
171.89998997	0.00000000	-42.69193000	-7.89247000
172.09998996	0.00000000	-42.69193000	-7.89247000
172.29998995	0.00000000	-42.69193000	-7.89247000
172.49998994	0.00000000	-42.69193000	-7.89247000
172.69998992	0.00000000	-42.69193000	-7.89247000
172.89998991	0.00000000	-42.69193000	-7.89247000
173.09998990	0.00000000	-42.69193000	-7.84940900
173.29998989	0.00000000	-42.69193000	-7.51722400
173.49998988	0.00000000	-42.69193000	-7.14812900
173.69998986	0.00000000	-42.69193000	-7.51722400
173.89998985	0.00000000	-42.69193000	-7.84940900
174.09998984	0.00000000	-42.69193000	-7.89247000
174.29998983	0.00000000	-42.69193000	-7.89247000
174.49998982	0.00000000	-42.69193000	-7.89247000
174.69998980	0.00000000	-42.69193000	-7.89247000
174.89998979	0.00000000	-42.69193000	-7.89247000
175.09998978	0.00000000	-42.69193000	-7.89247000
175.29998977	0.00000000	-42.69193000	-7.89247000
175.49998976	0.00000000	-42.69193000	-7.89247000
175.69998975	0.00000000	-42.69193000	-7.89247000
175.89998973	0.00000000	-42.69193000	-7.89247000
176.09998972	0.00000000	-42.69193000	-7.84940900
176.29998971	0.00000000	-42.69193000	-7.51722400
176.49998970	0.00000000	-42.69193000	-7.14812900
176.69998969	0.00000000	-42.69193000	-7.51722400
176.89998967	0.00000000	-42.69193000	-7.84940900
177.09998966	0.00000000	-42.69193000	-7.89247000
177.29998965	0.00000000	-42.69193000	-7.89247000
177.49998964	0.00000000	-42.69193000	-7.89247000
177.69998963	0.00000000	-42.69193000	-7.89247000
177.89998961	0.00000000	-42.69193000	-7.89247000
178.09998960	0.00000000	-42.69193000	-7.89247000
178.29998959	0.00000000	-42.69193000	-7.89247000
178.49998958	0.00000000	-42.69193000	-7.84940900
178.69998957	0.00000000	-42.69193000	-7.51722400
178.89998956	0.00000000	-42.69193000	-7.14812900
179.09998954	0.00000000	-42.64886000	-7.51722400
179.29998953	0.00000000	-42.31668000	-7.84940900
179.49998952	0.00000000	-41.94759000	-7.89247000
179.69998951	0.00000000	-42.31668000	-7.89247000
179.89998950	0.00000000	-42.64886000	-7.89247000
180.09998948	0.00000000	-42.69193000	-7.89247000
180.29998947	0.00000000	-42.69193000	-7.89247000
180.49998946	0.00000000	-42.69193000	-7.89247000
180.69998945	0.00000000	-42.69193000	-7.89247000
180.89998944	0.00000000	-42.69193000	-7.89247000
181.09998942	0.00000000	-42.69193000	-7.89247000
181.29998941	0.00000000	-42.69193000	-7.84940900
181.49998940	0.00000000	-42.69193000	-7.47416300
181.69998939	0.00000000	-42.69193000	-6.72982200
181.89998938	0.00000000	-42.64886000	-6.35457700
182.09998937	0.00000000	-42.31668000	-6.35457700
182.29998935	0.00000000	-41.94759000	-6.72982200
182.49998934	0.00000000	-42.27362000	-7.47416300
182.69998933	0.00000000	-42.27362000	-7.84940900
182.89998932	0.00000000	-41.94759000	-7.89247000
183.09998931	0.00000000	-42.27362000	-7.89247000
183.29998929	0.00000000	-42.27362000	-7.89247000
183.49998928	0.00000000	-41.94759000	-7.89247000
183.69998927	0.00000000	-42.31668000	-7.89247000
183.89998926	0.00000000	-42.64886000	-7.84940900
184.09998925	0.00000000	-42.69193000	-7.47416300
184.29998923	0.00000000	-42.69193000	-6.72982200
184.49998922	0.00000000	-42.69193000	-6.35457700
184.69998921	0.00000000	-42.69193000	-6.31151500
184.89998920	0.00000000	-42.69193000	-6.31151500
185.09998919	0.00000000	-42.69193000	-6.31151500
185.29998918	0.00000000	-42.69193000	-6.35457700
185.49998916	0.00000000	-42.64886000	-6.72982200
185.69998915	0.00000000	-42.27362000	-7.47416300
185.89998914	0.00000000	-41.52928000	-7.84940900
186.09998913	0.00000000	-41.15403000	-7.89247000
186.29998912	0.00000000	-41.11097000	-7.89247000
186.49998910	0.00000000	-41.15403000	-7.89247000
186.69998909	0.00000000	-41.52928000	-7.89247000
186.89998908	0.00000000	-42.27362000	-7.84940900
187.09998907	0.00000000	-42.64886000	-7.47416300
187.29998906	0.00000000	-42.69193000	-6.72982200
187.49998904	0.00000000	-42.69193000	-6.35457700
187.69998903	0.00000000	-42.69193000	-6.31151500
187.89998902	0.00000000	-42.69193000	-6.31151500
188.09998901	0.00000000	-42.69193000	-6.35457700
188.29998900	0.00000000	-42.64886000	-6.72982200
188.49998899	0.00000000	-42.27362000	-7.47416300
188.69998897	0.00000000	-41.52928000	-7.84940900
188.89998896	0.00000000	-41.15403000	-7.89247000
189.09998895	0.00000000	-41.11097000	-7.89247000
189.29998894	0.00000000	-41.11097000	-7.89247000
189.49998893	0.00000000	-41.15403000	-7.89247000
189.69998891	0.00000000	-41.52928000	-7.89247000
189.89998890	0.00000000	-42.27362000	-7.89247000
190.09998889	0.00000000	-42.64886000	-7.84940900
190.29998888	0.00000000	-42.69193000	-7.47416300
190.49998887	0.00000000	-42.69193000	-6.72982200
190.69998885	0.00000000	-42.69193000	-6.35457700
190.89998884	0.00000000	-42.69193000	-6.31151500
191.09998883	0.00000000	-42.64886000	-6.35457700
191.29998882	0.00000000	-42.27362000	-6.72982200
191.49998881	0.00000000	-41.52928000	-7.47416300
191.69998880	0.00000000	-41.15403000	-7.84940900
191.89998878	0.00000000	-41.15403000	-7.89247000
192.09998877	0.00000000	-41.48622000	-7.89247000
192.29998876	0.00000000	-41.85531000	-7.89247000
192.49998875	0.00000000	-41.52928000	-7.89247000
192.69998874	0.00000000	-41.57849000	-7.84940900
192.89998872	0.00000000	-42.27362000	-7.51722400
193.09998871	0.00000000	-42.64886000	-7.14812900
193.29998870	0.00000000	-42.69193000	-7.51722400
193.49998869	0.00000000	-42.69193000	-7.80019600
193.69998868	0.00000000	-42.69193000	-7.47416300
193.89998866	0.00000000	-42.64886000	-6.72982200
194.09998865	0.00000000	-42.27362000	-6.35457700
194.29998864	0.00000000	-41.52928000	-6.31151500
194.49998863	0.00000000	-41.15403000	-6.31151500
194.69998862	0.00000000	-41.11097000	-6.31151500
194.89998861	0.00000000	-41.11097000	-6.35457700
195.09998859	0.00000000	-41.15403000	-6.72982200
195.29998858	0.00000000	-41.52928000	-7.47416300
195.49998857	0.00000000	-42.27362000	-7.84940900
195.69998856	0.00000000	-42.64886000	-7.89247000
195.89998855	0.00000000	-42.69193000	-7.89247000
196.09998853	0.00000000	-42.69193000	-7.89247000
