Time	Channel A	Channel B	Channel C
(us)	(V)	(mV)	(mV)

-4.59999956	0.00000000	-52.97121000	-11.79872000
-4.39999957	0.00000000	-53.34030000	-11.87869000
-4.19999958	0.00000000	-53.34030000	-11.84178000
-3.99999959	0.00000000	-53.01427000	-12.25394000
-3.79999960	0.00000000	-53.38336000	-12.58612000
-3.59999962	0.00000000	-53.66634000	-12.62918000
-3.39999963	0.00000000	-53.34030000	-12.58612000
-3.19999964	0.00000000	-52.64517000	-12.21087000
-2.99999965	0.00000000	-52.64517000	-11.51575000
-2.79999966	0.00000000	-53.34030000	-11.51575000
-2.59999968	0.00000000	-53.66634000	-12.21087000
-2.39999969	0.00000000	-53.34030000	-12.58612000
-2.19999970	0.00000000	-52.64517000	-12.62918000
-1.99999971	0.00000000	-52.59596000	-12.58612000
-1.79999972	0.00000000	-52.92200000	-12.25394000
-1.59999973	0.00000000	-52.59596000	-11.84178000
-1.39999975	0.00000000	-52.59596000	-11.83563000
-1.19999976	0.00000000	-52.92200000	-11.46653000
-0.99999977	0.00000000	-52.55290000	-11.46653000
-0.79999978	0.00000000	-52.22071000	-11.79257000
-0.59999979	0.00000000	-52.17765000	-11.42347000
-0.39999981	0.15871060	-52.17765000	-11.09129000
-0.19999982	0.47736220	-52.17765000	-11.04823000
0.00000017	0.79601380	-52.17765000	-11.04823000
0.20000016	0.95533960	-52.17765000	-11.09129000
0.40000015	0.95533960	-52.22071000	-11.42347000
0.60000013	0.63668800	-52.55290000	-11.83563000
0.80000012	0.00000000	-52.92200000	-11.84178000
1.00000011	-0.95533960	-52.55290000	-12.21087000
1.20000010	-1.91129400	-52.22071000	-12.16166000
1.40000009	-2.54859700	-52.17765000	-11.46653000
1.60000008	-2.70792300	-52.17765000	-11.09129000
1.80000006	-2.07062000	-52.17765000	-11.04823000
2.00000005	-0.63668800	-52.17765000	-11.04823000
2.20000004	1.43331700	-52.17765000	-11.04823000
2.40000003	3.50393700	-52.17765000	-11.09129000
2.60000002	4.93786900	-52.17765000	-11.46653000
2.80000000	5.41584600	-52.22071000	-12.21087000
2.99999999	4.30056600	-52.55290000	-12.58612000
3.19999998	1.75196900	-52.96506000	-12.62918000
3.39999997	-1.43331700	-52.92815000	-12.62918000
3.59999996	-4.77854300	-52.96506000	-12.58612000
3.79999994	-7.16781500	-52.55290000	-12.21087000
3.99999993	-7.96444400	-52.22071000	-11.46653000
4.19999992	-6.69045300	-52.17765000	-11.09129000
4.39999991	-3.50393700	-52.17765000	-11.04823000
4.59999990	0.63668800	-52.17765000	-11.04823000
4.79999989	5.09719500	-52.17765000	-11.09129000
4.99999987	8.28309500	-52.17765000	-11.46653000
5.19999986	9.55770200	-52.17765000	-12.21087000
5.39999985	8.28309500	-52.17765000	-12.58612000
5.59999984	5.09719500	-52.22071000	-12.62918000
5.79999983	0.47736220	-52.59596000	-12.62918000
5.99999981	-4.14124000	-53.29109000	-12.62918000
6.19999980	-7.96444400	-53.29109000	-12.58612000
6.39999979	-9.39837600	-52.59596000	-12.21087000
6.59999978	-8.60174700	-52.22071000	-11.46653000
6.79999977	-5.89382400	-52.17765000	-11.09129000
6.99999975	-1.59264300	-52.17765000	-11.04823000
7.19999974	2.70792300	-52.17765000	-11.04823000
7.39999973	6.05315000	-52.17765000	-11.04823000
7.59999972	7.64579200	-52.17765000	-11.09129000
7.79999971	7.32714100	-52.17765000	-11.46653000
7.99999970	5.25652100	-52.17765000	-12.21087000
8.19999968	2.07062000	-52.17765000	-12.58612000
8.39999967	-1.11466500	-52.17765000	-12.58612000
8.59999966	-3.66326300	-52.22071000	-12.25394000
8.79999965	-5.09719500	-52.59596000	-11.88484000
8.99999964	-4.93786900	-53.34030000	-12.25394000
9.19999962	-3.66326300	-53.66634000	-12.58612000
9.39999961	-1.91129400	-53.34030000	-12.62918000
9.59999960	0.15871060	-52.64517000	-12.62918000
9.79999959	1.59264300	-52.59596000	-12.62918000
9.99999958	2.38927200	-52.92200000	-12.62918000
10.19999956	2.54859700	-52.55290000	-12.62918000
10.39999955	1.91129400	-52.26993000	-12.62918000
10.59999954	1.11466500	-52.59596000	-12.62918000
10.79999953	0.15871060	-53.29109000	-12.58612000
10.99999952	-0.47736220	-53.29109000	-12.25394000
11.19999951	-0.79601380	-52.59596000	-11.88484000
11.39999949	-0.95533960	-52.26993000	-12.25394000
11.59999948	-0.79601380	-52.59596000	-12.58612000
11.79999947	-0.63668800	-53.29109000	-12.58612000
11.99999946	-0.31803640	-53.34030000	-12.21087000
12.19999945	-0.15871060	-52.97121000	-11.46653000
12.39999943	-0.15871060	-52.96506000	-11.09129000
12.59999942	0.00000000	-52.55290000	-11.04823000
12.79999941	0.00000000	-52.22071000	-11.04823000
12.99999940	0.00000000	-52.17765000	-11.04823000
13.19999939	0.15871060	-52.17765000	-11.04823000
13.39999937	0.00000000	-52.17765000	-11.04823000
13.59999936	0.00000000	-52.17765000	-11.09129000
13.79999935	0.00000000	-52.17765000	-11.42347000
13.99999934	-0.15871060	-52.17765000	-11.83563000
14.19999933	-0.15871060	-52.17765000	-11.79872000
14.39999932	-0.15871060	-52.17765000	-11.83563000
14.59999930	-0.15871060	-52.17765000	-11.42347000
14.79999929	0.00000000	-52.17765000	-11.09129000
14.99999928	0.00000000	-52.17765000	-11.04823000
15.19999927	0.00000000	-52.17765000	-11.04823000
15.39999926	0.00000000	-52.17765000	-11.04823000
15.59999924	0.15871060	-52.17765000	-11.04823000
15.79999923	0.00000000	-52.17765000	-11.04823000
15.99999922	0.00000000	-52.17765000	-11.04823000
16.19999921	0.00000000	-52.17765000	-11.04823000
16.39999920	0.00000000	-52.17765000	-11.04823000
16.59999919	-0.15871060	-52.13459000	-11.04823000
16.79999917	0.00000000	-51.75935000	-11.04823000
16.99999916	0.00000000	-51.01501000	-11.04823000
17.19999915	0.00000000	-50.63976000	-11.04823000
17.39999914	0.00000000	-50.59670000	-11.04823000
17.59999913	0.00000000	-50.63976000	-11.04823000
17.79999911	0.00000000	-51.01501000	-11.04823000
17.99999910	0.00000000	-51.80241000	-11.09129000
18.19999909	0.00000000	-52.59596000	-11.46653000
18.39999908	0.00000000	-53.80167000	-12.21087000
18.59999907	0.00000000	-55.33957000	-12.53691000
18.79999905	0.00000000	-56.82825000	-12.25394000
18.99999904	-0.15871060	-57.57259000	-11.88484000
19.19999903	0.00000000	-56.78519000	-12.25394000
19.39999902	0.00000000	-54.87204000	-12.58612000
19.59999901	0.00000000	-52.04232000	-12.62918000
19.79999900	0.00000000	-48.22219000	-12.62918000
19.99999898	0.00000000	-44.03912000	-12.58612000
20.19999897	0.00000000	-41.70767000	-12.25394000
20.39999896	0.00000000	-41.33858000	-11.88484000
20.59999895	0.00000000	-42.96875000	-12.25394000
20.79999894	0.00000000	-47.70546000	-12.58612000
20.99999892	0.00000000	-54.59522000	-12.62918000
21.19999891	0.00000000	-62.36466000	-12.62918000
21.39999890	0.00000000	-68.88533000	-12.62918000
21.59999889	0.00000000	-72.74237000	-12.62918000
21.79999888	0.00000000	-72.60703000	-12.62918000
21.99999886	0.00000000	-67.48892000	-12.58612000
22.19999885	0.00000000	-57.43725000	-12.25394000
22.39999884	0.00000000	-44.73425000	-11.88484000
22.59999883	0.00000000	-32.73252000	-12.21087000
22.79999882	0.00000000	-23.88656000	-12.16166000
22.99999881	0.00000000	-20.49089000	-11.46653000
23.19999879	0.00000000	-24.44020000	-11.09129000
23.39999878	0.00000000	-35.32849000	-11.00517000
23.59999877	0.00000000	-51.61786000	-10.62992000
23.79999876	0.00000000	-70.09104000	-9.89173200
23.99999875	0.00000000	-85.86368000	-9.56569900
24.19999873	0.00000000	-94.70349000	-9.89173200
24.39999872	0.00000000	-94.24212000	-10.67298000
24.59999871	0.00000000	-83.77214000	-11.46653000
24.79999870	0.00000000	-65.25590000	-12.72146000
24.99999869	0.00000000	-43.20251000	-14.58538000
25.19999867	0.00000000	-22.30561000	-16.48622000
25.39999866	0.00000000	-6.95127900	-17.23056000
25.59999865	0.00000000	-1.60556100	-16.85531000
25.79999864	0.00000000	-8.20620100	-15.23130000
25.99999863	0.00000000	-25.14764000	-12.11860000
26.19999862	0.00000000	-48.73277000	-7.89247000
26.39999860	0.00000000	-73.07455000	-3.66633800
26.59999859	0.00000000	-93.17175000	-0.59670270
26.79999858	0.00000000	-104.29380000	0.51673230
26.99999857	0.00000000	-103.13110000	-1.06422200
27.19999856	0.00000000	-90.09596000	-5.37647600
27.39999854	0.00000000	-68.83612000	-11.93405000
27.59999853	0.00000000	-44.50049000	-19.68504000
27.79999852	0.00000000	-22.07800000	-26.56865000
27.99999851	0.00000000	-7.00049200	-31.21309000
28.19999850	0.00000000	-2.30068900	-31.87131000
28.39999848	0.00000000	-8.44611200	-27.96506000
28.59999847	0.00000000	-23.88656000	-19.42052000
28.79999846	0.00000000	-44.74040000	-7.89247000
28.99999845	0.00000000	-66.37549000	3.72170300
29.19999844	0.00000000	-83.77214000	12.96752000
29.39999843	0.00000000	-93.16560000	17.93799000
29.59999841	0.00000000	-93.59005000	16.68922000
29.79999840	0.00000000	-85.48843000	8.92593500
29.99999839	0.00000000	-70.46629000	-4.17691900
30.19999838	0.00000000	-52.73130000	-19.64198000
30.39999837	0.00000000	-36.40502000	-33.91363000
30.59999835	0.00000000	-24.35408000	-44.35900000
30.79999834	0.00000000	-18.53469000	-48.12992000
30.99999833	0.00000000	-20.02953000	-44.27288000
31.19999832	0.00000000	-28.11885000	-33.02780000
31.39999831	0.00000000	-40.45890000	-16.86147000
31.59999829	0.00000000	-54.41068000	0.55979330
31.79999828	0.00000000	-66.79379000	15.61270000
31.99999827	0.00000000	-75.35064000	25.31988000
32.19999826	0.00000000	-78.46948000	27.60827000
32.39999825	0.00000000	-75.86122000	22.16412000
32.59999824	0.00000000	-68.88533000	9.38730200
32.79999822	0.00000000	-59.20275000	-7.94168200
32.99999821	0.00000000	-48.36368000	-25.73203000
33.19999820	0.00000000	-39.09941000	-40.41584000
33.39999819	0.00000000	-33.28617000	-48.91732000
33.59999818	0.00000000	-32.08046000	-49.33562000
33.79999816	0.00000000	-35.51919000	-41.99680000
33.99999815	0.00000000	-42.08292000	-28.47564000
34.19999814	0.00000000	-50.59670000	-11.51575000
34.39999813	0.00000000	-59.01821000	4.69980300
34.59999812	0.00000000	-64.83144000	16.73228000
34.79999810	0.00000000	-66.83685000	22.53937000
34.99999809	0.00000000	-65.34202000	21.00763000
35.19999808	0.00000000	-61.06668000	12.54921000
35.39999807	0.00000000	-54.92125000	-0.59670270
35.59999806	0.00000000	-48.40674000	-15.64960000
35.79999805	0.00000000	-43.79921000	-29.53986000
35.99999803	0.00000000	-42.17519000	-38.74877000
36.19999802	0.00000000	-43.33784000	-41.11097000
36.39999801	0.00000000	-46.78272000	-36.14050000
36.59999800	0.00000000	-51.80241000	-25.77510000
36.79999799	0.00000000	-56.74212000	-12.72146000
36.99999797	0.00000000	-60.22392000	-0.41215550
37.19999796	0.00000000	-61.01746000	7.67716500
37.39999795	0.00000000	-59.52879000	10.03937000
37.59999794	0.00000000	-56.40993000	6.23154500
37.79999793	0.00000000	-52.13459000	-2.17765700
37.99999791	0.00000000	-47.52707000	-12.53691000
38.19999790	0.00000000	-43.71309000	-22.10876000
38.39999789	0.00000000	-42.17519000	-27.82972000
38.59999788	0.00000000	-43.28863000	-27.92200000
38.79999787	0.00000000	-46.36442000	-22.95152000
38.99999786	0.00000000	-50.59670000	-14.90526000
39.19999784	0.00000000	-54.87204000	-5.66560000
39.39999783	0.00000000	-58.40920000	1.91314000
39.59999782	0.00000000	-61.10974000	5.39493100
39.79999781	0.00000000	-62.22318000	3.45103300
39.99999780	0.00000000	-61.06668000	-3.01427100
40.19999778	0.00000000	-57.99089000	-12.25394000
40.39999777	0.00000000	-53.75861000	-21.46284000
40.59999776	0.00000000	-49.48326000	-28.34030000
40.79999775	0.00000000	-45.94611000	-30.61023000
40.99999774	0.00000000	-43.24557000	-27.17766000
41.19999772	0.00000000	-42.13213000	-19.55585000
41.39999771	0.00000000	-43.24557000	-9.89173200
41.59999770	0.00000000	-45.94611000	-0.68897630
41.79999769	0.00000000	-49.43405000	5.85629900
41.99999768	0.00000000	-53.34030000	7.76328700
42.19999767	0.00000000	-56.78519000	4.74286400
42.39999765	0.00000000	-59.15354000	-2.17765700
42.59999764	0.00000000	-59.94709000	-11.00517000
42.79999763	0.00000000	-59.57185000	-19.46358000
42.99999762	0.00000000	-57.99089000	-25.27067000
43.19999761	0.00000000	-55.29650000	-27.22072000
43.39999759	0.00000000	-52.22071000	-25.35679000
43.59999758	0.00000000	-49.52633000	-20.39247000
43.79999757	0.00000000	-47.94537000	-14.25320000
43.99999756	0.00000000	-47.52707000	-8.40305000
44.19999755	0.00000000	-47.85310000	-3.80167300
44.39999753	0.00000000	-48.59744000	-1.48253000
44.59999752	0.00000000	-48.97269000	-2.17765700
44.79999751	0.00000000	-49.01575000	-4.82283400
44.99999750	0.00000000	-49.05881000	-8.31077700
45.19999749	0.00000000	-49.43405000	-12.16166000
45.39999748	0.00000000	-50.26451000	-15.23130000
45.59999746	0.00000000	-51.48252000	-16.85531000
45.79999745	0.00000000	-53.85088000	-17.23056000
45.99999744	0.00000000	-56.87746000	-16.48622000
46.19999743	0.00000000	-59.57185000	-14.53617000
46.39999742	0.00000000	-61.10974000	-12.25394000
46.59999740	0.00000000	-61.06668000	-9.89173200
46.79999739	0.00000000	-59.06127000	-7.98474400
46.99999738	0.00000000	-54.74286000	-6.82209600
47.19999737	0.00000000	-48.59744000	-6.82209600
47.39999736	0.00000000	-42.08292000	-7.98474400
47.59999734	0.00000000	-37.47539000	-9.89173200
47.79999733	0.00000000	-35.94365000	-12.21087000
47.99999732	0.00000000	-37.89985000	-14.16092000
48.19999731	0.00000000	-43.33784000	-15.69882000
48.39999730	0.00000000	-51.06422000	-16.43701000
48.59999729	0.00000000	-59.57185000	-15.64960000
48.79999727	0.00000000	-66.87991000	-13.74262000
48.99999726	0.00000000	-71.07529000	-11.00517000
49.19999725	0.00000000	-70.65083000	-7.93553100
49.39999724	0.00000000	-65.29897000	-5.24729300
49.59999723	0.00000000	-56.82825000	-3.75246000
49.79999721	0.00000000	-47.52707000	-4.12770700
49.99999720	0.00000000	-39.01329000	-6.44685000
50.19999719	0.00000000	-33.32923000	-9.89173200
50.39999718	0.00000000	-32.54183000	-13.79183000
50.59999717	0.00000000	-37.10014000	-17.23056000
50.79999715	0.00000000	-44.78346000	-19.55585000
50.99999714	0.00000000	-53.71555000	-19.93110000
51.19999713	0.00000000	-62.18011000	-18.39321000
51.39999712	0.00000000	-67.90723000	-15.27436000
51.59999711	0.00000000	-69.06988000	-11.04823000
51.79999710	0.00000000	-65.29897000	-6.82209600
51.99999708	0.00000000	-58.40920000	-3.75246000
52.19999707	0.00000000	-50.63976000	-2.54675200
52.39999706	0.00000000	-43.33784000	-3.33415300
52.59999705	0.00000000	-38.40428000	-5.66560000
52.79999704	0.00000000	-37.98597000	-9.56569900
52.99999702	0.00000000	-41.75689000	-14.11786000
53.19999701	0.00000000	-47.90231000	-17.93184000
53.39999700	0.00000000	-54.82898000	-19.50664000
53.59999699	0.00000000	-60.59916000	-18.81152000
53.79999698	0.00000000	-63.66880000	-16.85531000
53.99999696	0.00000000	-63.29355000	-13.79183000
54.19999695	0.00000000	-59.48573000	-10.35310000
54.39999694	0.00000000	-53.75861000	-8.07086500
54.59999693	0.00000000	-47.94537000	-7.24040300
54.79999692	0.00000000	-43.33784000	-7.98474400
54.99999691	0.00000000	-41.06176000	-9.51648500
55.19999689	0.00000000	-42.21825000	-11.42347000
55.39999688	0.00000000	-46.36442000	-13.28125000
55.59999687	0.00000000	-51.71013000	-13.65650000
55.79999686	0.00000000	-56.36687000	-12.58612000
55.99999685	0.00000000	-59.48573000	-11.04823000
56.19999683	0.00000000	-60.64222000	-9.51648500
56.39999682	0.00000000	-59.48573000	-8.35998900
56.59999681	0.00000000	-56.40993000	-8.02780400
56.79999680	0.00000000	-52.17765000	-8.82135800
56.99999679	0.00000000	-47.94537000	-11.14050000
57.19999677	0.00000000	-44.86958000	-14.21014000
57.39999676	0.00000000	-43.71309000	-17.23056000
57.59999675	0.00000000	-44.82652000	-19.08834000
57.79999674	0.00000000	-47.52707000	-18.30093000
57.99999673	0.00000000	-50.97194000	-15.27436000
58.19999672	0.00000000	-54.45374000	-11.00517000
58.39999670	0.00000000	-56.74212000	-6.35457700
58.59999669	0.00000000	-57.52953000	-2.17765700
58.79999668	0.00000000	-56.40993000	0.09842519
58.99999667	0.00000000	-54.17691000	-0.68897630
59.19999666	0.00000000	-52.22071000	-4.17691900
59.39999664	0.00000000	-50.63976000	-9.98400600
59.59999663	0.00000000	-49.48326000	-16.85531000
59.79999662	0.00000000	-49.10802000	-22.61934000
59.99999661	0.00000000	-49.48326000	-25.68897000
60.19999660	0.00000000	-50.59670000	-25.27067000
60.39999658	0.00000000	-51.75935000	-21.03838000
60.59999657	0.00000000	-52.55290000	-14.16092000
60.79999656	0.00000000	-53.29109000	-6.82209600
60.99999655	0.00000000	-53.24803000	-0.63976370
61.19999654	0.00000000	-52.17765000	3.21112200
61.39999653	0.00000000	-51.06422000	3.53715500
61.59999651	0.00000000	-50.63976000	0.09842519
61.79999650	0.00000000	-50.63976000	-6.44685000
61.99999649	0.00000000	-51.06422000	-14.11786000
62.19999648	0.00000000	-52.17765000	-21.13066000
62.39999647	0.00000000	-53.34030000	-26.10728000
62.59999645	0.00000000	-54.13385000	-28.00812000
62.79999644	0.00000000	-54.87204000	-25.68897000
62.99999643	0.00000000	-54.82898000	-19.97416000
63.19999642	0.00000000	-53.71555000	-12.62918000
63.39999641	0.00000000	-52.17765000	-5.29035400
63.59999639	0.00000000	-50.59670000	0.51673230
63.79999638	0.00000000	-49.05881000	3.58021600
63.99999637	0.00000000	-47.90231000	3.21112200
64.19999636	0.00000000	-47.57013000	-0.59670270
64.39999635	0.00000000	-48.32062000	-6.40378900
64.59999634	0.00000000	-50.22145000	-12.96137000
64.79999632	0.00000000	-52.13459000	-19.13140000
64.99999631	0.00000000	-53.71555000	-22.99459000
65.19999630	0.00000000	-54.82898000	-24.20029000
65.39999629	0.00000000	-54.82898000	-22.66855000
65.59999628	0.00000000	-53.71555000	-18.85458000
65.79999626	0.00000000	-52.17765000	-14.21014000
65.99999625	0.00000000	-50.63976000	-9.51648500
66.19999624	0.00000000	-49.48326000	-5.29035400
66.39999623	0.00000000	-49.10802000	-2.54675200
66.59999622	0.00000000	-49.48326000	-1.71013800
66.79999620	0.00000000	-50.68897000	-2.08538400
66.99999619	0.00000000	-52.55290000	-3.66633800
67.19999618	0.00000000	-54.41068000	-6.36072800
67.39999617	0.00000000	-54.78592000	-9.47342500
67.59999616	0.00000000	-53.66634000	-12.58612000
67.79999615	0.00000000	-51.75935000	-15.36663000
67.99999613	0.00000000	-49.43405000	-17.69808000
68.19999612	0.00000000	-47.52707000	-19.59892000
68.39999611	0.00000000	-46.36442000	-20.01722000
68.59999610	0.00000000	-46.40748000	-19.22982000
68.79999609	0.00000000	-47.98843000	-17.59966000
68.99999607	0.00000000	-51.06422000	-14.07480000
69.19999606	0.00000000	-54.92125000	-9.51648500
69.39999605	0.00000000	-58.32308000	-5.24729300
69.59999604	0.00000000	-60.26698000	-2.12844500
69.79999603	0.00000000	-59.90403000	-0.59670270
69.99999601	0.00000000	-57.94783000	-1.01501000
70.19999600	0.00000000	-54.41068000	-3.75246000
70.39999599	0.00000000	-49.39099000	-8.35998900
70.59999598	0.00000000	-44.45127000	-13.74262000
70.79999597	0.00000000	-40.96949000	-18.39321000
70.99999596	0.00000000	-40.21899000	-21.50590000
71.19999594	0.00000000	-42.08292000	-22.66240000
71.39999593	0.00000000	-46.03223000	-21.50590000
71.59999592	0.00000000	-51.43332000	-18.39321000
71.79999591	0.00000000	-57.57259000	-13.79183000
71.99999590	0.00000000	-62.18011000	-8.77829600
72.19999588	0.00000000	-64.17938000	-4.95816900
72.39999587	0.00000000	-63.76107000	-2.97121000
72.59999586	0.00000000	-60.69144000	-3.33415300
72.79999585	0.00000000	-55.67175000	-5.19808000
72.99999584	0.00000000	-50.26451000	-7.93553100
73.19999582	0.00000000	-45.20177000	-11.00517000
73.39999581	0.00000000	-41.75689000	-13.69956000
73.59999580	0.00000000	-40.59424000	-15.23130000
73.79999579	0.00000000	-42.13213000	-15.27436000
73.99999578	0.00000000	-45.94611000	-14.16092000
74.19999577	0.00000000	-50.55364000	-12.67224000
74.39999575	0.00000000	-54.82898000	-11.51575000
74.59999574	0.00000000	-57.94783000	-11.14050000
74.79999573	0.00000000	-59.48573000	-11.51575000
74.99999572	0.00000000	-59.11048000	-12.62918000
75.19999571	0.00000000	-56.82825000	-13.74262000
75.39999569	0.00000000	-53.80167000	-14.11786000
75.59999568	0.00000000	-51.06422000	-13.69956000
75.79999567	0.00000000	-49.10802000	-12.11860000
75.99999566	0.00000000	-47.90231000	-9.42421200
76.19999565	0.00000000	-47.52707000	-6.36072800
76.39999563	0.00000000	-47.90231000	-3.70939900
76.59999562	0.00000000	-49.01575000	-2.59596400
76.79999561	0.00000000	-50.17839000	-3.75246000
76.99999560	0.00000000	-50.92888000	-6.82209600
77.19999559	0.00000000	-51.38410000	-11.09129000
77.39999558	0.00000000	-51.39025000	-15.74188000
77.59999556	0.00000000	-51.80241000	-19.97416000
77.79999555	0.00000000	-52.13459000	-22.57628000
77.99999554	0.00000000	-52.22071000	-22.20103000
78.19999553	0.00000000	-52.59596000	-18.76845000
78.39999552	0.00000000	-53.38336000	-13.79183000
78.59999550	0.00000000	-54.09079000	-8.31077700
78.79999549	0.00000000	-54.45374000	-3.33415300
78.99999548	0.00000000	-53.66634000	0.14148620
79.19999547	0.00000000	-52.13459000	0.88582670
79.39999546	0.00000000	-50.17839000	-0.97194880
79.59999544	0.00000000	-47.90231000	-4.87204700
79.79999543	0.00000000	-46.36442000	-9.89173200
79.99999542	0.00000000	-45.98917000	-15.32357000
80.19999541	0.00000000	-46.73966000	-19.88189000
80.39999540	0.00000000	-48.73277000	-22.24409000
80.59999539	0.00000000	-51.39025000	-21.92421000
80.79999537	0.00000000	-54.45374000	-20.01722000
80.99999536	0.00000000	-56.36687000	-16.85531000
81.19999535	0.00000000	-56.82825000	-12.62918000
81.39999534	0.00000000	-56.40993000	-8.40305000
81.59999533	0.00000000	-54.82898000	-5.24729300
81.79999531	0.00000000	-52.13459000	-3.29109200
81.99999530	0.00000000	-49.10802000	-2.50369100
82.19999529	0.00000000	-46.78272000	-3.29109200
82.39999528	0.00000000	-45.98917000	-5.19808000
82.59999527	0.00000000	-46.36442000	-7.98474400
82.79999525	0.00000000	-47.90231000	-11.42347000
82.99999524	0.00000000	-50.17839000	-14.90526000
83.19999523	0.00000000	-52.13459000	-17.27362000
83.39999522	0.00000000	-53.66634000	-18.85458000
83.59999521	0.00000000	-54.50295000	-19.59892000
83.79999520	0.00000000	-54.50910000	-18.76845000
83.99999518	0.00000000	-54.50295000	-16.48622000
84.19999517	0.00000000	-53.66634000	-13.00443000
84.39999516	0.00000000	-52.22071000	-9.51648500
84.59999515	0.00000000	-51.06422000	-6.31151500
84.79999514	0.00000000	-50.63976000	-3.29109200
84.99999512	0.00000000	-50.59670000	-1.43331700
85.19999511	0.00000000	-50.59670000	-2.22071800
85.39999510	0.00000000	-50.55364000	-5.24729300
85.59999509	0.00000000	-50.17839000	-9.51648500
85.79999508	0.00000000	-49.48326000	-14.16708000
85.99999506	0.00000000	-49.48326000	-18.39321000
86.19999505	0.00000000	-50.17839000	-21.08760000
86.39999504	0.00000000	-50.59670000	-21.50590000
86.59999503	0.00000000	-51.06422000	-19.97416000
86.79999502	0.00000000	-52.17765000	-16.81225000
86.99999501	0.00000000	-53.34030000	-12.16166000
87.19999499	0.00000000	-54.09079000	-6.82209600
87.39999498	0.00000000	-54.45374000	-2.59596400
87.59999497	0.00000000	-53.66634000	-0.63976370
87.79999496	0.00000000	-52.17765000	-1.06422200
87.99999495	0.00000000	-50.59670000	-4.12770700
88.19999493	0.00000000	-49.05881000	-9.09817800
88.39999492	0.00000000	-47.90231000	-14.11786000
88.59999491	0.00000000	-47.57013000	-18.39321000
88.79999490	0.00000000	-48.27140000	-21.03838000
88.99999489	0.00000000	-49.80315000	-21.03838000
89.19999487	0.00000000	-50.97194000	-18.35015000
89.39999486	0.00000000	-52.22071000	-13.74262000
89.59999485	0.00000000	-53.66634000	-8.35998900
89.79999484	0.00000000	-54.45374000	-3.75246000
89.99999483	0.00000000	-54.09079000	-1.06422200
90.19999482	0.00000000	-53.34030000	-1.06422200
90.39999480	0.00000000	-52.13459000	-3.75246000
90.59999479	0.00000000	-50.63976000	-8.35998900
90.79999478	0.00000000	-49.48326000	-13.74262000
90.99999477	0.00000000	-49.10802000	-18.35015000
91.19999476	0.00000000	-49.43405000	-21.03838000
91.39999474	0.00000000	-50.17839000	-20.99532000
91.59999473	0.00000000	-50.55364000	-17.97490000
91.79999472	0.00000000	-50.59670000	-13.00443000
91.99999471	0.00000000	-50.59670000	-7.98474400
92.19999470	0.00000000	-50.59670000	-3.75246000
92.39999468	0.00000000	-50.59670000	-1.48253000
92.59999467	0.00000000	-50.63976000	-2.26377900
92.79999466	0.00000000	-51.01501000	-5.66560000
92.99999465	0.00000000	-51.80241000	-10.62992000
93.19999464	0.00000000	-52.55290000	-15.23130000
93.39999463	0.00000000	-53.34030000	-18.39321000
93.59999461	0.00000000	-53.71555000	-19.88189000
93.79999460	0.00000000	-53.71555000	-19.08834000
93.99999459	0.00000000	-53.24803000	-15.64960000
94.19999458	0.00000000	-51.71013000	-11.09129000
94.39999457	0.00000000	-49.43405000	-6.82209600
94.59999455	0.00000000	-47.52707000	-3.79552100
94.79999454	0.00000000	-46.32135000	-3.01427100
94.99999453	0.00000000	-45.98917000	-4.91510800
95.19999452	0.00000000	-46.78272000	-8.35998900
95.39999451	0.00000000	-49.10802000	-12.58612000
95.59999449	0.00000000	-52.13459000	-16.39395000
95.79999448	0.00000000	-54.87204000	-18.35015000
95.99999447	0.00000000	-56.82825000	-18.39321000
96.19999446	0.00000000	-57.99089000	-16.81225000
96.39999445	0.00000000	-57.94783000	-13.74262000
96.59999444	0.00000000	-56.36687000	-9.98400600
96.79999442	0.00000000	-53.29109000	-7.24040300
96.99999441	0.00000000	-49.43405000	-6.02854300
97.19999440	0.00000000	-45.94611000	-5.66560000
97.39999439	0.00000000	-43.24557000	-6.86515700
97.59999438	0.00000000	-42.13213000	-9.47342500
97.79999436	0.00000000	-43.28863000	-12.11860000
97.99999435	0.00000000	-46.32135000	-13.69956000
98.19999434	0.00000000	-50.22145000	-14.11786000
98.39999433	0.00000000	-54.09079000	-13.74262000
98.59999432	0.00000000	-57.57259000	-12.62918000
98.79999430	0.00000000	-59.48573000	-11.46653000
98.99999429	0.00000000	-59.52879000	-10.67298000
99.19999428	0.00000000	-57.94783000	-9.89173200
99.39999427	0.00000000	-54.87204000	-9.56569900
99.59999426	0.00000000	-51.01501000	-9.89173200
99.79999425	0.00000000	-47.52707000	-10.58686000
99.99999423	0.00000000	-44.78346000	-10.58686000
100.19999422	0.00000000	-43.28863000	-9.89173200
100.39999421	0.00000000	-43.62082000	-9.47342500
100.59999420	0.00000000	-45.52165000	-9.09817800
100.79999419	0.00000000	-47.85310000	-8.77829600
100.99999417	0.00000000	-50.63976000	-9.55954600
101.19999416	0.00000000	-53.66634000	-11.04823000
101.39999415	0.00000000	-55.99163000	-12.62918000
101.59999414	0.00000000	-56.82825000	-14.16092000
101.79999413	0.00000000	-56.82825000	-15.27436000
101.99999411	0.00000000	-55.99163000	-15.27436000
102.19999410	0.00000000	-53.71555000	-14.11786000
102.39999409	0.00000000	-51.06422000	-12.16781000
102.59999408	0.00000000	-49.05881000	-9.47342500
102.79999407	0.00000000	-47.47785000	-6.82209600
102.99999406	0.00000000	-46.36442000	-5.24729300
103.19999404	0.00000000	-46.36442000	-4.87204700
103.39999403	0.00000000	-47.47785000	-5.66560000
103.59999402	0.00000000	-49.05881000	-7.98474400
103.79999401	0.00000000	-50.97194000	-11.04823000
103.99999400	0.00000000	-52.92200000	-14.11786000
104.19999398	0.00000000	-54.09079000	-16.43701000
104.39999397	0.00000000	-54.87204000	-17.23056000
104.59999396	0.00000000	-54.82898000	-16.85531000
104.79999395	0.00000000	-53.71555000	-15.27436000
104.99999394	0.00000000	-52.17765000	-12.58612000
105.19999392	0.00000000	-50.63976000	-9.51648500
105.39999391	0.00000000	-49.43405000	-6.86515700
105.59999390	0.00000000	-48.68356000	-5.70866100
105.79999389	0.00000000	-48.32062000	-6.44685000
105.99999388	0.00000000	-49.05881000	-8.31077700
106.19999387	0.00000000	-50.17839000	-10.62992000
106.39999385	0.00000000	-51.01501000	-12.58612000
106.59999384	0.00000000	-52.13459000	-14.11786000
106.79999383	0.00000000	-52.87278000	-14.85605000
106.99999382	0.00000000	-52.50984000	-14.11786000
107.19999381	0.00000000	-51.80241000	-12.62918000
107.39999379	0.00000000	-50.92888000	-11.04823000
107.59999378	0.00000000	-49.84621000	-9.51648500
107.79999377	0.00000000	-48.69586000	-8.35998900
107.99999376	0.00000000	-48.73277000	-8.02780400
108.19999375	0.00000000	-49.43405000	-8.77214500
108.39999374	0.00000000	-50.59670000	-10.67298000
108.59999372	0.00000000	-51.75935000	-12.53691000
108.79999371	0.00000000	-52.55290000	-13.74262000
108.99999370	0.00000000	-53.29109000	-14.11786000
109.19999369	0.00000000	-53.24803000	-13.74262000
109.39999368	0.00000000	-52.13459000	-12.58612000
109.59999366	0.00000000	-50.63976000	-11.04823000
109.79999365	0.00000000	-49.48326000	-9.51648500
109.99999364	0.00000000	-49.05881000	-8.35998900
110.19999363	0.00000000	-49.05881000	-7.98474400
110.39999362	0.00000000	-49.43405000	-8.35998900
110.59999360	0.00000000	-50.17839000	-9.51648500
110.79999359	0.00000000	-50.59670000	-11.04823000
110.99999358	0.00000000	-51.06422000	-12.58612000
111.19999357	0.00000000	-52.13459000	-13.74262000
111.39999356	0.00000000	-52.87278000	-14.11786000
111.59999355	0.00000000	-52.55290000	-13.79183000
111.79999353	0.00000000	-52.17765000	-13.00443000
111.99999352	0.00000000	-51.75935000	-12.21087000
112.19999351	0.00000000	-50.97194000	-11.04823000
112.39999350	0.00000000	-50.22145000	-9.93479300
112.59999349	0.00000000	-49.43405000	-9.51648500
112.79999347	0.00000000	-49.10802000	-9.47342500
112.99999346	0.00000000	-49.43405000	-9.51648500
113.19999345	0.00000000	-50.17839000	-9.89173200
113.39999344	0.00000000	-50.55364000	-10.62992000
113.59999343	0.00000000	-50.59670000	-11.00517000
113.79999341	0.00000000	-50.59670000	-11.04823000
113.99999340	0.00000000	-50.59670000	-11.09129000
114.19999339	0.00000000	-50.59670000	-11.46653000
114.39999338	0.00000000	-50.59670000	-12.21087000
114.59999337	0.00000000	-50.59670000	-12.58612000
114.79999336	0.00000000	-50.59670000	-12.62918000
114.99999334	0.00000000	-50.59670000	-12.62918000
115.19999333	0.00000000	-50.59670000	-12.62918000
115.39999332	0.00000000	-50.59670000	-12.62918000
115.59999331	0.00000000	-50.55364000	-12.58612000
115.79999330	0.00000000	-50.22145000	-12.21087000
115.99999328	0.00000000	-49.85236000	-11.42347000
116.19999327	0.00000000	-50.26451000	-10.62992000
116.39999326	0.00000000	-50.92888000	-9.51648500
116.59999325	0.00000000	-51.38410000	-8.77829600
116.79999324	0.00000000	-51.34719000	-9.14124000
116.99999322	0.00000000	-51.38410000	-9.84867000
117.19999321	0.00000000	-50.97194000	-10.62992000
117.39999320	0.00000000	-50.59670000	-11.04823000
117.59999319	0.00000000	-50.17839000	-11.51575000
117.79999318	0.00000000	-49.43405000	-12.58612000
117.99999317	0.00000000	-49.05881000	-13.32431000
118.19999315	0.00000000	-49.01575000	-13.00443000
118.39999314	0.00000000	-49.05881000	-12.62918000
118.59999313	0.00000000	-49.48326000	-12.21087000
118.79999312	0.00000000	-50.59670000	-11.42347000
118.99999311	0.00000000	-51.75935000	-10.67298000
119.19999309	0.00000000	-52.55290000	-9.89173200
119.39999308	0.00000000	-53.29109000	-9.51648500
119.59999307	0.00000000	-53.29109000	-9.47342500
119.79999306	0.00000000	-52.55290000	-9.47342500
119.99999305	0.00000000	-51.75935000	-9.51648500
120.19999303	0.00000000	-50.55364000	-9.89173200
120.39999302	0.00000000	-49.05881000	-10.67298000
120.59999301	0.00000000	-47.90231000	-11.42347000
120.79999300	0.00000000	-47.52707000	-12.21087000
120.99999299	0.00000000	-47.85310000	-12.53691000
121.19999298	0.00000000	-48.64050000	-12.25394000
121.39999296	0.00000000	-49.43405000	-11.88484000
121.59999295	0.00000000	-50.63976000	-12.21087000
121.79999294	0.00000000	-52.13459000	-12.16166000
121.99999293	0.00000000	-53.29109000	-11.42347000
122.19999292	0.00000000	-53.66634000	-10.67298000
122.39999290	0.00000000	-53.34030000	-9.89173200
122.59999289	0.00000000	-52.55290000	-9.51648500
122.79999288	0.00000000	-51.75935000	-9.47342500
122.99999287	0.00000000	-50.59670000	-9.47342500
123.19999286	0.00000000	-49.43405000	-9.51648500
123.39999284	0.00000000	-48.64050000	-9.89173200
123.59999283	0.00000000	-47.85310000	-10.62992000
123.79999282	0.00000000	-47.52707000	-11.04823000
123.99999281	0.00000000	-47.90231000	-11.46653000
124.19999280	0.00000000	-49.01575000	-12.21087000
124.39999279	0.00000000	-50.17839000	-12.58612000
124.59999277	0.00000000	-50.97194000	-12.62918000
124.79999276	0.00000000	-51.80241000	-12.58612000
124.99999275	0.00000000	-52.55290000	-12.21087000
125.19999274	0.00000000	-53.29109000	-11.42347000
125.39999273	0.00000000	-53.29109000	-10.67298000
125.59999271	0.00000000	-52.55290000	-9.89173200
125.79999270	0.00000000	-51.75935000	-9.51648500
125.99999269	0.00000000	-50.59670000	-9.47342500
126.19999268	0.00000000	-49.43405000	-9.51648500
126.39999267	0.00000000	-48.64050000	-9.89173200
126.59999265	0.00000000	-47.90231000	-10.62992000
126.79999264	0.00000000	-47.90231000	-11.00517000
126.99999263	0.00000000	-48.64050000	-11.09129000
127.19999262	0.00000000	-49.43405000	-11.46653000
127.39999261	0.00000000	-50.59670000	-12.16166000
127.59999260	0.00000000	-51.71013000	-12.16166000
127.79999258	0.00000000	-52.13459000	-11.46653000
127.99999257	0.00000000	-52.17765000	-11.09129000
128.19999256	0.00000000	-52.13459000	-11.04823000
128.39999255	0.00000000	-51.71013000	-11.00517000
128.59999254	0.00000000	-50.59670000	-10.62992000
128.79999252	0.00000000	-49.48326000	-9.93479300
128.99999251	0.00000000	-49.01575000	-9.93479300
129.19999250	0.00000000	-48.64050000	-10.62992000
129.39999249	0.00000000	-48.32062000	-11.00517000
129.59999248	0.00000000	-49.10802000	-11.09129000
129.79999246	0.00000000	-50.55364000	-11.42347000
129.99999245	0.00000000	-51.71013000	-11.79257000
130.19999244	0.00000000	-52.13459000	-11.42347000
130.39999243	0.00000000	-52.17765000	-11.09129000
130.59999242	0.00000000	-52.17765000	-11.04823000
130.79999241	0.00000000	-52.08538000	-11.00517000
130.99999239	0.00000000	-51.34104000	-10.67298000
131.19999238	0.00000000	-49.85236000	-10.31004000
131.39999237	0.00000000	-49.10802000	-10.67298000
131.59999236	0.00000000	-49.01575000	-11.04823000
131.79999235	0.00000000	-49.05881000	-11.42347000
131.99999233	0.00000000	-49.43405000	-11.83563000
132.19999232	0.00000000	-50.22145000	-11.84178000
132.39999231	0.00000000	-50.97194000	-12.25394000
132.59999230	0.00000000	-51.71013000	-12.53691000
132.79999229	0.00000000	-51.71013000	-12.21087000
132.99999227	0.00000000	-51.01501000	-11.42347000
133.19999226	0.00000000	-50.63976000	-10.67298000
133.39999225	0.00000000	-50.59670000	-9.89173200
133.59999224	0.00000000	-50.59670000	-9.51648500
133.79999223	0.00000000	-50.59670000	-9.47342500
133.99999222	0.00000000	-50.59670000	-9.51648500
134.19999220	0.00000000	-50.59670000	-9.89173200
134.39999219	0.00000000	-50.59670000	-10.67298000
134.59999218	0.00000000	-50.55364000	-11.42347000
134.79999217	0.00000000	-50.22145000	-12.21087000
134.99999216	0.00000000	-49.80930000	-12.58612000
135.19999214	0.00000000	-49.80315000	-12.62918000
135.39999213	0.00000000	-49.39099000	-12.58612000
135.59999212	0.00000000	-49.10802000	-12.21087000
135.79999211	0.00000000	-49.43405000	-11.42347000
135.99999210	0.00000000	-50.17839000	-10.67298000
136.19999208	0.00000000	-50.59670000	-9.89173200
136.39999207	0.00000000	-51.01501000	-9.51648500
136.59999206	0.00000000	-51.75935000	-9.47342500
136.79999205	0.00000000	-52.08538000	-9.51648500
136.99999204	0.00000000	-51.75935000	-9.89173200
137.19999203	0.00000000	-50.97194000	-10.62992000
137.39999201	0.00000000	-50.22145000	-11.00517000
137.59999200	0.00000000	-49.43405000	-11.09129000
137.79999199	0.00000000	-49.05881000	-11.46653000
137.99999198	0.00000000	-49.01575000	-12.21087000
138.19999197	0.00000000	-49.05881000	-12.58612000
138.39999195	0.00000000	-49.43405000	-12.62918000
138.59999194	0.00000000	-50.22145000	-12.58612000
138.79999193	0.00000000	-50.97194000	-12.21087000
138.99999192	0.00000000	-51.75935000	-11.42347000
139.19999191	0.00000000	-52.08538000	-10.67298000
139.39999189	0.00000000	-51.75935000	-9.89173200
139.59999188	0.00000000	-51.01501000	-9.51648500
139.79999187	0.00000000	-50.59670000	-9.47342500
139.99999186	0.00000000	-50.17839000	-9.51648500
140.19999185	0.00000000	-49.43405000	-9.93479300
140.39999184	0.00000000	-49.05881000	-11.04823000
140.59999182	0.00000000	-49.05881000	-12.16166000
140.79999181	0.00000000	-49.43405000	-12.58612000
140.99999180	0.00000000	-50.17839000	-12.62918000
141.19999179	0.00000000	-50.55364000	-12.58612000
141.39999178	0.00000000	-50.59670000	-12.21087000
141.59999176	0.00000000	-50.59670000	-11.42347000
141.79999175	0.00000000	-50.59670000	-10.67298000
141.99999174	0.00000000	-50.59670000	-9.89173200
142.19999173	0.00000000	-50.55364000	-9.47342500
142.39999172	0.00000000	-50.17839000	-9.09817800
142.59999170	0.00000000	-49.43405000	-8.72908400
142.79999169	0.00000000	-49.05881000	-9.14124000
142.99999168	0.00000000	-49.05881000	-9.84867000
143.19999167	0.00000000	-49.43405000	-10.67298000
143.39999166	0.00000000	-50.17839000	-11.42347000
143.59999165	0.00000000	-50.55364000	-12.21087000
143.79999163	0.00000000	-50.59670000	-12.53691000
143.99999162	0.00000000	-50.59670000	-12.21087000
144.19999161	0.00000000	-50.55364000	-11.46653000
144.39999160	0.00000000	-50.17839000	-11.04823000
144.59999159	0.00000000	-49.43405000	-10.62992000
144.79999157	0.00000000	-49.05881000	-9.89173200
144.99999156	0.00000000	-49.01575000	-9.51648500
145.19999155	0.00000000	-49.05881000	-9.47342500
145.39999154	0.00000000	-49.43405000	-9.47342500
145.59999153	0.00000000	-50.17839000	-9.51648500
145.79999151	0.00000000	-50.55364000	-9.89173200
145.99999150	0.00000000	-50.59670000	-10.67298000
146.19999149	0.00000000	-50.59670000	-11.42347000
146.39999148	0.00000000	-50.59670000	-12.21087000
146.59999147	0.00000000	-50.55364000	-12.53691000
146.79999146	0.00000000	-50.17839000	-12.21087000
146.99999144	0.00000000	-49.43405000	-11.46653000
147.19999143	0.00000000	-49.05881000	-11.04823000
147.39999142	0.00000000	-49.01575000	-10.62992000
147.59999141	0.00000000	-49.05881000	-9.89173200
147.79999140	0.00000000	-49.43405000	-9.51648500
147.99999138	0.00000000	-50.17839000	-9.47342500
148.19999137	0.00000000	-50.59670000	-9.51648500
148.39999136	0.00000000	-50.97194000	-9.89173200
148.59999135	0.00000000	-51.34104000	-10.62992000
148.79999134	0.00000000	-50.97194000	-11.04823000
148.99999132	0.00000000	-50.63976000	-11.42347000
149.19999131	0.00000000	-50.55364000	-11.79257000
149.39999130	0.00000000	-50.22145000	-11.42347000
149.59999129	0.00000000	-49.80930000	-11.09129000
149.79999128	0.00000000	-49.80315000	-11.04823000
149.99999127	0.00000000	-49.39099000	-11.04823000
150.19999125	0.00000000	-49.05881000	-11.04823000
150.39999124	0.00000000	-49.05881000	-11.04823000
150.59999123	0.00000000	-49.43405000	-11.00517000
150.79999122	0.00000000	-50.17839000	-10.67298000
150.99999121	0.00000000	-50.55364000	-10.31004000
151.19999119	0.00000000	-50.59670000	-10.67298000
151.39999118	0.00000000	-50.59670000	-11.00517000
151.59999117	0.00000000	-50.59670000	-11.04823000
151.79999116	0.00000000	-50.59670000	-11.04823000
151.99999115	0.00000000	-50.59670000	-11.04823000
152.19999113	0.00000000	-50.55364000	-11.04823000
152.39999112	0.00000000	-50.17839000	-11.04823000
152.59999111	0.00000000	-49.43405000	-11.04823000
152.79999110	0.00000000	-49.05881000	-11.04823000
152.99999109	0.00000000	-49.01575000	-11.04823000
153.19999108	0.00000000	-49.01575000	-11.00517000
153.39999106	0.00000000	-49.05881000	-10.62992000
153.59999105	0.00000000	-49.43405000	-9.89173200
153.79999104	0.00000000	-50.17839000	-9.51648500
153.99999103	0.00000000	-50.55364000	-9.51648500
154.19999102	0.00000000	-50.59670000	-9.84867000
154.39999100	0.00000000	-50.59670000	-10.25467000
154.59999099	0.00000000	-50.59670000	-10.26698000
154.79999098	0.00000000	-50.59670000	-10.67298000
154.99999097	0.00000000	-50.55364000	-11.00517000
155.19999096	0.00000000	-50.17839000	-11.04823000
155.39999094	0.00000000	-49.43405000	-11.04823000
155.59999093	0.00000000	-49.05881000	-11.04823000
155.79999092	0.00000000	-49.01575000	-11.04823000
155.99999091	0.00000000	-49.01575000	-11.04823000
156.19999090	0.00000000	-49.01575000	-11.00517000
156.39999089	0.00000000	-49.05881000	-10.62992000
156.59999087	0.00000000	-49.43405000	-9.89173200
156.79999086	0.00000000	-50.17839000	-9.51648500
156.99999085	0.00000000	-50.55364000	-9.47342500
157.19999084	0.00000000	-50.59670000	-9.47342500
157.39999083	0.00000000	-50.59670000	-9.51648500
157.59999081	0.00000000	-50.59670000	-9.89173200
157.79999080	0.00000000	-50.59670000	-10.62992000
157.99999079	0.00000000	-50.55364000	-11.00517000
158.19999078	0.00000000	-50.17839000	-11.04823000
158.39999077	0.00000000	-49.43405000	-11.04823000
158.59999075	0.00000000	-49.05881000	-11.04823000
158.79999074	0.00000000	-49.01575000	-11.04823000
158.99999073	0.00000000	-49.01575000	-11.04823000
159.19999072	0.00000000	-49.01575000	-11.00517000
159.39999071	0.00000000	-49.05881000	-10.62992000
159.59999070	0.00000000	-49.43405000	-9.89173200
159.79999068	0.00000000	-50.17839000	-9.51648500
159.99999067	0.00000000	-50.55364000	-9.47342500
160.19999066	0.00000000	-50.59670000	-9.47342500
160.39999065	0.00000000	-50.59670000	-9.51648500
160.59999064	0.00000000	-50.59670000	-9.89173200
160.79999062	0.00000000	-50.59670000	-10.62992000
160.99999061	0.00000000	-50.59670000	-11.04823000
161.19999060	0.00000000	-50.55364000	-11.42347000
161.39999059	0.00000000	-50.17839000	-11.79257000
161.59999058	0.00000000	-49.43405000	-11.42347000
161.79999056	0.00000000	-49.05881000	-11.09129000
161.99999055	0.00000000	-49.01575000	-11.04823000
162.19999054	0.00000000	-49.01575000	-11.04823000
162.39999053	0.00000000	-49.01575000	-11.00517000
162.59999052	0.00000000	-49.01575000	-10.67298000
162.79999051	0.00000000	-49.05881000	-10.26698000
162.99999049	0.00000000	-49.43405000	-10.30389000
163.19999048	0.00000000	-50.17839000	-10.26698000
163.39999047	0.00000000	-50.55364000	-10.67298000
163.59999046	0.00000000	-50.59670000	-11.00517000
163.79999045	0.00000000	-50.59670000	-11.04823000
163.99999043	0.00000000	-50.55364000	-11.04823000
164.19999042	0.00000000	-50.17839000	-11.04823000
164.39999041	0.00000000	-49.43405000	-11.04823000
164.59999040	0.00000000	-49.05881000	-11.04823000
164.79999039	0.00000000	-49.01575000	-11.04823000
164.99999037	0.00000000	-49.01575000	-11.00517000
165.19999036	0.00000000	-49.01575000	-10.67298000
165.39999035	0.00000000	-49.01575000	-10.31004000
165.59999034	0.00000000	-49.01575000	-10.67298000
165.79999033	0.00000000	-49.05881000	-10.95595000
165.99999032	0.00000000	-49.43405000	-10.62992000
166.19999030	0.00000000	-50.17839000	-9.93479300
166.39999029	0.00000000	-50.55364000	-9.93479300
166.59999028	0.00000000	-50.59670000	-10.62992000
166.79999027	0.00000000	-50.59670000	-11.00517000
166.99999026	0.00000000	-50.59670000	-11.04823000
167.19999024	0.00000000	-50.55364000	-11.04823000
167.39999023	0.00000000	-50.17839000	-11.04823000
167.59999022	0.00000000	-49.43405000	-11.04823000
167.79999021	0.00000000	-49.05881000	-11.04823000
167.99999020	0.00000000	-49.01575000	-11.04823000
168.19999018	0.00000000	-49.01575000	-11.04823000
168.39999017	0.00000000	-49.01575000	-11.04823000
168.59999016	0.00000000	-49.01575000	-11.04823000
168.79999015	0.00000000	-49.01575000	-11.04823000
168.99999014	0.00000000	-49.05881000	-11.04823000
169.19999013	0.00000000	-49.43405000	-11.04823000
169.39999011	0.00000000	-50.17839000	-11.04823000
169.59999010	0.00000000	-50.55364000	-11.04823000
169.79999009	0.00000000	-50.55364000	-11.04823000
169.99999008	0.00000000	-50.22145000	-11.04823000
170.19999007	0.00000000	-49.85236000	-11.04823000
170.39999005	0.00000000	-50.17839000	-11.04823000
170.59999004	0.00000000	-50.12918000	-11.04823000
170.79999003	0.00000000	-49.43405000	-11.04823000
170.99999002	0.00000000	-49.05881000	-11.04823000
171.19999001	0.00000000	-49.01575000	-11.04823000
171.39998999	0.00000000	-49.05881000	-11.04823000
171.59998998	0.00000000	-49.39099000	-11.04823000
171.79998997	0.00000000	-49.76009000	-11.04823000
171.99998996	0.00000000	-49.39099000	-11.04823000
172.19998995	0.00000000	-49.05881000	-11.04823000
172.39998994	0.00000000	-49.05881000	-11.04823000
172.59998992	0.00000000	-49.39099000	-11.04823000
172.79998991	0.00000000	-49.80315000	-11.04823000
172.99998990	0.00000000	-49.80930000	-11.04823000
173.19998989	0.00000000	-50.17839000	-11.04823000
173.39998988	0.00000000	-50.12918000	-11.04823000
173.59998986	0.00000000	-49.43405000	-11.04823000
173.79998985	0.00000000	-49.10802000	-11.04823000
173.99998984	0.00000000	-49.43405000	-11.04823000
174.19998983	0.00000000	-50.12918000	-11.04823000
174.39998982	0.00000000	-50.12918000	-11.04823000
174.59998980	0.00000000	-49.43405000	-11.04823000
174.79998979	0.00000000	-49.05881000	-11.04823000
174.99998978	0.00000000	-49.05881000	-11.04823000
175.19998977	0.00000000	-49.43405000	-11.04823000
175.39998976	0.00000000	-50.12918000	-11.04823000
175.59998975	0.00000000	-50.17839000	-11.04823000
175.79998973	0.00000000	-49.80930000	-11.04823000
175.99998972	0.00000000	-49.80315000	-11.04823000
176.19998971	0.00000000	-49.39099000	-11.04823000
176.39998970	0.00000000	-49.05881000	-11.04823000
176.59998969	0.00000000	-49.01575000	-11.04823000
176.79998967	0.00000000	-49.01575000	-11.04823000
176.99998966	0.00000000	-49.05881000	-11.04823000
177.19998965	0.00000000	-49.39099000	-11.04823000
177.39998964	0.00000000	-49.76009000	-11.04823000
177.59998963	0.00000000	-49.39099000	-11.04823000
177.79998961	0.00000000	-49.10802000	-11.04823000
177.99998960	0.00000000	-49.39099000	-11.04823000
178.19998959	0.00000000	-49.76009000	-11.04823000
178.39998958	0.00000000	-49.43405000	-11.04823000
178.59998957	0.00000000	-49.43405000	-11.00517000
178.79998956	0.00000000	-49.76009000	-10.67298000
178.99998954	0.00000000	-49.39099000	-10.26698000
179.19998953	0.00000000	-49.05881000	-10.30389000
179.39998952	0.00000000	-49.01575000	-10.26698000
179.59998951	0.00000000	-49.01575000	-10.67298000
179.79998950	0.00000000	-49.01575000	-11.00517000
179.99998948	0.00000000	-49.05881000	-11.04823000
180.19998947	0.00000000	-49.39099000	-11.00517000
180.39998946	0.00000000	-49.76009000	-10.67298000
180.59998945	0.00000000	-49.43405000	-10.31004000
180.79998944	0.00000000	-49.43405000	-10.67298000
180.99998942	0.00000000	-49.76009000	-11.00517000
181.19998941	0.00000000	-49.43405000	-11.00517000
181.39998940	0.00000000	-49.43405000	-10.62992000
181.59998939	0.00000000	-49.76009000	-9.89173200
181.79998938	0.00000000	-49.39099000	-9.51648500
181.99998937	0.00000000	-49.05881000	-9.47342500
182.19998935	0.00000000	-49.01575000	-9.47342500
182.39998934	0.00000000	-49.01575000	-9.51648500
182.59998933	0.00000000	-49.01575000	-9.89173200
182.79998932	0.00000000	-49.01575000	-10.62992000
182.99998931	0.00000000	-49.01575000	-11.00517000
183.19998929	0.00000000	-49.01575000	-11.04823000
183.39998928	0.00000000	-49.01575000	-11.04823000
183.59998927	0.00000000	-49.01575000	-11.04823000
183.79998926	0.00000000	-49.01575000	-11.04823000
183.99998925	0.00000000	-49.01575000	-11.00517000
184.19998923	0.00000000	-49.05881000	-10.62992000
184.39998922	0.00000000	-49.43405000	-9.89173200
184.59998921	0.00000000	-50.12918000	-9.51648500
184.79998920	0.00000000	-50.12918000	-9.47342500
184.99998919	0.00000000	-49.43405000	-9.47342500
185.19998918	0.00000000	-49.05881000	-9.47342500
185.39998916	0.00000000	-49.01575000	-9.51648500
185.59998915	0.00000000	-49.01575000	-9.89173200
185.79998914	0.00000000	-49.01575000	-10.62992000
185.99998913	0.00000000	-49.01575000	-11.00517000
186.19998912	0.00000000	-49.01575000	-11.04823000
186.39998910	0.00000000	-49.01575000	-11.04823000
186.59998909	0.00000000	-49.01575000	-11.04823000
186.79998908	0.00000000	-49.01575000	-11.00517000
186.99998907	0.00000000	-49.05881000	-10.62992000
187.19998906	0.00000000	-49.39099000	-9.89173200
187.39998904	0.00000000	-49.76009000	-9.51648500
187.59998903	0.00000000	-49.39099000	-9.47342500
187.79998902	0.00000000	-49.05881000	-9.47342500
187.99998901	0.00000000	-49.01575000	-9.47342500
188.19998900	0.00000000	-49.01575000	-9.51648500
188.39998899	0.00000000	-49.01575000	-9.89173200
188.59998897	0.00000000	-49.01575000	-10.62992000
188.79998896	0.00000000	-49.01575000	-11.00517000
188.99998895	0.00000000	-49.01575000	-11.04823000
189.19998894	0.00000000	-49.01575000	-11.04823000
189.39998893	0.00000000	-49.01575000	-11.04823000
189.59998891	0.00000000	-49.01575000	-11.04823000
189.79998890	0.00000000	-49.01575000	-11.04823000
189.99998889	0.00000000	-49.05881000	-11.04823000
190.19998888	0.00000000	-49.43405000	-11.04823000
190.39998887	0.00000000	-50.12918000	-11.04823000
190.59998885	0.00000000	-50.12918000	-11.04823000
190.79998884	0.00000000	-49.43405000	-11.00517000
190.99998883	0.00000000	-49.05881000	-10.62992000
191.19998882	0.00000000	-49.01575000	-9.93479300
191.39998881	0.00000000	-49.01575000	-9.93479300
191.59998880	0.00000000	-49.01575000	-10.62992000
191.79998878	0.00000000	-49.01575000	-11.00517000
191.99998877	0.00000000	-49.01575000	-11.04823000
192.19998876	0.00000000	-49.01575000	-11.04823000
192.39998875	0.00000000	-49.01575000	-11.04823000
192.59998874	0.00000000	-49.01575000	-11.04823000
192.79998872	0.00000000	-49.05881000	-11.04823000
192.99998871	0.00000000	-49.39099000	-11.00517000
193.19998870	0.00000000	-49.80315000	-10.62992000
193.39998869	0.00000000	-49.76624000	-9.89173200
193.59998868	0.00000000	-49.80315000	-9.51648500
193.79998866	0.00000000	-49.39099000	-9.47342500
193.99998865	0.00000000	-49.05881000	-9.47342500
194.19998864	0.00000000	-49.01575000	-9.47342500
194.39998863	0.00000000	-49.01575000	-9.47342500
194.59998862	0.00000000	-49.01575000	-9.47342500
194.79998861	0.00000000	-49.01575000	-9.51648500
194.99998859	0.00000000	-49.01575000	-9.84867000
195.19998858	0.00000000	-49.01575000	-10.25467000
195.39998857	0.00000000	-49.01575000	-10.21776000
195.59998856	0.00000000	-49.01575000	-10.30389000
195.79998855	0.00000000	-49.01575000	-10.26698000
195.99998853	0.00000000	-49.01575000	-10.67298000
