Time	Channel A	Channel B	Channel C
(us)	(V)	(mV)	(mV)

-4.49999956	0.00000000	-58.54454000	-14.21014000
-4.29999957	0.00000000	-58.87672000	-14.21014000
-4.09999958	0.00000000	-59.24582000	-14.21014000
-3.89999959	0.00000000	-58.87672000	-14.21014000
-3.69999960	0.00000000	-58.54454000	-14.21014000
-3.49999962	0.00000000	-58.50147000	-14.21014000
-3.29999963	0.00000000	-58.50147000	-14.21014000
-3.09999964	0.00000000	-58.50147000	-14.21014000
-2.89999965	0.00000000	-58.50147000	-14.25320000
-2.69999966	0.00000000	-58.50147000	-14.58538000
-2.49999968	0.00000000	-58.50147000	-14.94833000
-2.29999969	0.00000000	-58.50147000	-14.58538000
-2.09999970	0.00000000	-58.50147000	-14.25320000
-1.89999971	0.00000000	-58.50147000	-14.25320000
-1.69999972	0.00000000	-58.50147000	-14.58538000
-1.49999973	0.00000000	-58.54454000	-14.94833000
-1.29999975	0.00000000	-58.91978000	-14.58538000
-1.09999976	0.00000000	-59.61491000	-14.25320000
-0.89999977	0.00000000	-59.61491000	-14.21014000
-0.69999978	0.00000000	-58.91978000	-14.21014000
-0.49999979	0.00000000	-58.54454000	-14.21014000
-0.29999981	0.31803640	-58.50147000	-14.21014000
-0.09999982	0.63668800	-58.50147000	-14.25320000
0.10000017	0.95533960	-58.50147000	-14.58538000
0.30000016	0.95533960	-58.50147000	-14.94833000
0.50000015	0.79601380	-58.54454000	-14.58538000
0.70000013	0.31803640	-58.87672000	-14.30241000
0.90000012	-0.63668800	-59.24582000	-14.58538000
1.10000011	-1.59264300	-58.87672000	-14.94833000
1.30000010	-2.38927200	-58.54454000	-14.58538000
1.50000009	-2.70792300	-58.50147000	-14.25320000
1.70000008	-2.38927200	-58.45841000	-14.16708000
1.90000006	-1.11466500	-58.16929000	-13.83489000
2.10000005	0.79601380	-58.13238000	-13.46580000
2.30000004	3.02657500	-58.87056000	-13.83489000
2.50000003	4.61921700	-58.83366000	-14.16708000
2.70000002	5.41584600	-58.54454000	-14.21014000
2.90000000	4.61921700	-58.50147000	-14.25320000
3.09999999	2.54859700	-58.50147000	-14.58538000
3.29999998	-0.63668800	-58.50147000	-14.94833000
3.49999997	-3.98191400	-58.50147000	-14.58538000
3.69999996	-6.69045300	-58.50147000	-14.25320000
3.89999994	-7.96444400	-58.50147000	-14.21014000
4.09999993	-7.16781500	-58.50147000	-14.21014000
4.29999992	-4.45989200	-58.50147000	-14.16708000
4.49999991	-0.47736220	-58.50147000	-13.83489000
4.69999990	3.98191400	-58.50147000	-13.46580000
4.89999989	7.48646600	-58.50147000	-13.83489000
5.09999987	9.39837600	-58.50147000	-14.16708000
5.29999986	8.92039900	-58.50147000	-14.25320000
5.49999985	6.05315000	-58.50147000	-14.62844000
5.69999984	1.75196900	-58.50147000	-15.32357000
5.89999983	-2.86724900	-58.50147000	-15.32357000
6.09999981	-7.00848900	-58.50147000	-14.62844000
6.29999980	-9.23905000	-58.50147000	-14.21014000
6.49999979	-9.07972400	-58.50147000	-13.83489000
6.69999978	-6.69045300	-58.50147000	-13.46580000
6.89999977	-2.86724900	-58.50147000	-13.79183000
7.09999975	1.59264300	-58.50147000	-13.79183000
7.29999974	5.25652100	-58.50147000	-13.46580000
7.49999973	7.48646600	-58.50147000	-13.83489000
7.69999972	7.64579200	-58.50147000	-14.16708000
7.89999971	5.89382400	-58.50147000	-14.21014000
8.09999970	3.02657500	-58.50147000	-14.21014000
8.29999968	-0.31803640	-58.50147000	-14.25320000
8.49999967	-3.18590100	-58.50147000	-14.58538000
8.69999966	-4.77854300	-58.50147000	-14.94833000
8.89999965	-5.09719500	-58.50147000	-14.58538000
9.09999964	-4.14124000	-58.50147000	-14.25320000
9.29999962	-2.38927200	-58.50147000	-14.21014000
9.49999961	-0.31803640	-58.50147000	-14.21014000
9.69999960	1.27399100	-58.50147000	-14.21014000
9.89999959	2.22994600	-58.50147000	-14.21014000
10.09999958	2.54859700	-58.54454000	-14.21014000
10.29999956	2.07062000	-58.87672000	-14.21014000
10.49999955	1.27399100	-59.24582000	-14.21014000
10.69999954	0.47736220	-58.83366000	-14.21014000
10.89999953	-0.31803640	-58.21850000	-14.25320000
11.09999952	-0.79601380	-58.13238000	-14.58538000
11.29999951	-0.95533960	-58.87056000	-14.94833000
11.49999949	-0.95533960	-58.83366000	-14.58538000
11.69999948	-0.63668800	-58.54454000	-14.25320000
11.89999947	-0.31803640	-58.50147000	-14.21014000
12.09999946	-0.15871060	-58.50147000	-14.21014000
12.29999945	-0.15871060	-58.50147000	-14.21014000
12.49999943	0.00000000	-58.50147000	-14.21014000
12.69999942	0.00000000	-58.50147000	-14.21014000
12.89999941	0.00000000	-58.50147000	-14.21014000
13.09999940	0.15871060	-58.50147000	-14.21014000
13.29999939	0.00000000	-58.50147000	-14.21014000
13.49999937	0.00000000	-58.50147000	-14.21014000
13.69999936	0.00000000	-58.50147000	-14.21014000
13.89999935	0.00000000	-58.50147000	-14.21014000
14.09999934	-0.15871060	-58.50147000	-14.21014000
14.29999933	-0.15871060	-58.50147000	-14.21014000
14.49999932	-0.15871060	-58.50147000	-14.21014000
14.69999930	0.00000000	-58.50147000	-14.21014000
14.89999929	0.00000000	-58.50147000	-14.21014000
15.09999928	0.00000000	-58.50147000	-14.21014000
15.29999927	0.00000000	-58.50147000	-14.21014000
15.49999926	0.00000000	-58.50147000	-14.21014000
15.69999924	0.00000000	-58.50147000	-14.21014000
15.89999923	0.00000000	-58.50147000	-14.21014000
16.09999922	0.00000000	-58.50147000	-14.21014000
16.29999921	0.00000000	-58.50147000	-14.21014000
16.49999920	-0.15871060	-58.45841000	-14.21014000
16.69999919	0.00000000	-58.08316000	-14.21014000
16.89999917	0.00000000	-57.33883000	-14.21014000
17.09999916	0.00000000	-56.96358000	-14.21014000
17.29999915	0.00000000	-56.92052000	-14.21014000
17.49999914	0.00000000	-56.92052000	-14.21014000
17.69999913	0.00000000	-56.96358000	-14.21014000
17.89999911	0.00000000	-57.38804000	-14.21014000
18.09999910	0.00000000	-58.54454000	-14.21014000
18.29999909	0.00000000	-60.08243000	-14.21014000
18.49999908	0.00000000	-61.62032000	-14.21014000
18.69999907	0.00000000	-62.77681000	-14.21014000
18.89999905	0.00000000	-63.15207000	-14.21014000
19.09999904	0.00000000	-62.77681000	-14.21014000
19.29999903	0.00000000	-61.52805000	-14.21014000
19.49999902	0.00000000	-59.15354000	-14.21014000
19.69999901	0.00000000	-55.24729000	-14.21014000
19.89999900	0.00000000	-50.73204000	-14.21014000
20.09999898	0.00000000	-47.25024000	-14.21014000
20.29999897	0.00000000	-46.12450000	-14.21014000
20.49999896	0.00000000	-47.33637000	-14.21014000
20.69999895	0.00000000	-51.66092000	-14.21014000
20.89999894	0.00000000	-58.59375000	-14.21014000
21.09999892	0.00000000	-66.32012000	-14.21014000
21.29999891	0.00000000	-73.29601000	-14.21014000
21.49999890	0.00000000	-77.90354000	-14.25320000
21.69999889	0.00000000	-78.93085000	-14.58538000
21.89999888	0.00000000	-75.01846000	-14.99139000
22.09999886	0.00000000	-66.09251000	-14.95448000
22.29999885	0.00000000	-54.50295000	-14.99139000
22.49999884	0.00000000	-42.08292000	-14.58538000
22.69999883	0.00000000	-31.74827000	-14.25320000
22.89999882	0.00000000	-26.43947000	-14.21014000
23.09999881	0.00000000	-28.44488000	-14.16708000
23.29999879	0.00000000	-38.12131000	-13.79183000
23.49999878	0.00000000	-53.24187000	-13.04749000
23.69999877	0.00000000	-71.06299000	-12.67224000
23.89999876	0.00000000	-87.95521000	-12.62918000
24.09999875	0.00000000	-99.07726000	-12.67224000
24.29999873	0.00000000	-100.99040000	-13.04749000
24.49999872	0.00000000	-93.21481000	-13.83489000
24.69999871	0.00000000	-76.93159000	-14.67150000
24.89999870	0.00000000	-55.29650000	-16.25246000
25.09999869	0.00000000	-33.28617000	-18.47933000
25.29999867	0.00000000	-15.97564000	-19.97416000
25.49999866	0.00000000	-7.88016700	-19.97416000
25.69999865	0.00000000	-11.41117000	-18.43627000
25.89999864	0.00000000	-25.70128000	-15.69882000
26.09999863	0.00000000	-48.12377000	-12.16166000
26.29999862	0.00000000	-73.16068000	-7.93553100
26.49999860	0.00000000	-94.83882000	-4.17076700
26.69999859	0.00000000	-108.33540000	-2.63902500
26.89999858	0.00000000	-110.66070000	-3.79552100
27.09999857	0.00000000	-100.99040000	-7.33267600
27.29999856	0.00000000	-81.71751000	-13.18282000
27.49999854	0.00000000	-57.38804000	-20.52780000
27.69999853	0.00000000	-33.83981000	-27.82357000
27.89999852	0.00000000	-16.39395000	-33.16314000
28.09999851	0.00000000	-8.62450800	-34.69488000
28.29999850	0.00000000	-11.69414000	-31.95743000
28.49999848	0.00000000	-24.81545000	-25.31373000
28.69999847	0.00000000	-44.86958000	-15.18824000
28.89999846	0.00000000	-66.87991000	-3.29109200
29.09999845	0.00000000	-85.86368000	7.48031400
29.29999844	0.00000000	-97.91460000	13.98868000
29.49999843	0.00000000	-101.03350000	14.73302000
29.69999841	0.00000000	-94.88803000	8.88287400
29.89999840	0.00000000	-81.06544000	-2.68823800
30.09999839	0.00000000	-63.66264000	-17.40895000
30.29999838	0.00000000	-46.58587000	-32.46801000
30.49999837	0.00000000	-32.63410000	-44.77731000
30.69999835	0.00000000	-24.90772000	-50.91658000
30.89999834	0.00000000	-24.77239000	-49.33562000
31.09999833	0.00000000	-31.32997000	-40.04060000
31.29999832	0.00000000	-42.55044000	-24.61860000
31.49999831	0.00000000	-56.45915000	-6.87130900
31.69999829	0.00000000	-69.58046000	9.38730200
31.89999828	0.00000000	-78.98006000	20.95841000
32.09999827	0.00000000	-83.67372000	25.23376000
32.29999826	0.00000000	-83.25540000	21.37672000
32.49999825	0.00000000	-77.48523000	10.50689000
32.69999824	0.00000000	-67.85802000	-5.75787400
32.89999822	0.00000000	-57.05585000	-24.24335000
33.09999821	0.00000000	-47.33637000	-40.41584000
33.29999820	0.00000000	-40.77264000	-50.54134000
33.49999819	0.00000000	-38.40428000	-52.87278000
33.69999818	0.00000000	-40.68651000	-47.52091000
33.89999816	0.00000000	-46.40748000	-35.44537000
34.09999815	0.00000000	-53.85088000	-19.31594000
34.29999814	0.00000000	-61.95251000	-2.27608300
34.49999813	0.00000000	-69.20522000	11.20817000
34.69999812	0.00000000	-72.65625000	19.00221000
34.89999810	0.00000000	-71.62893000	19.37746000
35.09999809	0.00000000	-67.43970000	12.45694000
35.29999808	0.00000000	-61.62032000	0.14148620
35.49999807	0.00000000	-55.43184000	-14.90526000
35.69999806	0.00000000	-50.07997000	-28.80167000
35.89999805	0.00000000	-47.42864000	-38.88410000
36.09999803	0.00000000	-48.49901000	-43.06717000
36.29999802	0.00000000	-52.26993000	-40.04060000
36.49999801	0.00000000	-56.92052000	-30.88705000
36.69999800	0.00000000	-61.57111000	-18.94685000
36.89999799	0.00000000	-65.43430000	-6.95743000
37.09999797	0.00000000	-67.30437000	2.65748000
37.29999796	0.00000000	-66.59695000	7.25885800
37.49999795	0.00000000	-63.48425000	5.72096400
37.69999794	0.00000000	-59.28888000	-1.52559000
37.89999793	0.00000000	-54.59522000	-12.21087000
38.09999791	0.00000000	-50.82431000	-22.52707000
38.29999790	0.00000000	-48.83120000	-29.49680000
38.49999789	0.00000000	-49.24335000	-31.40379000
38.69999788	0.00000000	-51.52559000	-27.96506000
38.89999787	0.00000000	-55.38263000	-19.93110000
39.09999786	0.00000000	-59.61491000	-10.02707000
39.29999784	0.00000000	-63.15207000	-1.57480300
39.49999783	0.00000000	-65.89567000	3.03272600
39.69999782	0.00000000	-67.39050000	2.61441900
39.89999781	0.00000000	-67.01525000	-3.14960600
40.09999780	0.00000000	-64.68996000	-12.67224000
40.29999778	0.00000000	-61.19586000	-22.61934000
40.49999777	0.00000000	-56.92052000	-29.95817000
40.69999776	0.00000000	-52.68823000	-33.07701000
40.89999775	0.00000000	-49.56939000	-31.49606000
41.09999774	0.00000000	-48.03149000	-25.31373000
41.29999772	0.00000000	-48.40674000	-15.74188000
41.49999771	0.00000000	-50.73204000	-5.80093500
41.69999770	0.00000000	-54.17691000	1.53789400
41.89999769	0.00000000	-58.08316000	4.65059000
42.09999768	0.00000000	-61.57111000	3.11884800
42.29999767	0.00000000	-64.31471000	-2.63902500
42.49999765	0.00000000	-65.85260000	-11.09744000
42.69999764	0.00000000	-65.85260000	-19.92495000
42.89999763	0.00000000	-64.27164000	-26.84547000
43.09999762	0.00000000	-61.28814000	-29.95817000
43.29999761	0.00000000	-58.18159000	-28.89395000
43.49999759	0.00000000	-56.21309000	-24.66781000
43.69999758	0.00000000	-54.59522000	-18.52854000
43.89999757	0.00000000	-53.85088000	-11.97711000
44.09999756	0.00000000	-53.80167000	-6.95743000
44.29999755	0.00000000	-54.17691000	-4.21998000
44.49999753	0.00000000	-54.92125000	-4.17076700
44.69999752	0.00000000	-55.29650000	-6.44685000
44.89999751	0.00000000	-55.33957000	-9.89173200
45.09999750	0.00000000	-55.38263000	-13.79183000
45.29999749	0.00000000	-55.85014000	-17.23056000
45.49999748	0.00000000	-57.43110000	-19.59892000
45.69999746	0.00000000	-60.08243000	-20.34941000
45.89999745	0.00000000	-62.82603000	-19.64198000
46.09999744	0.00000000	-65.20053000	-17.69808000
46.29999743	0.00000000	-67.43970000	-15.40969000
46.49999742	0.00000000	-68.08563000	-13.04749000
46.69999740	0.00000000	-65.80955000	-11.14050000
46.89999739	0.00000000	-61.52805000	-9.98400600
47.09999738	0.00000000	-56.08390000	-9.98400600
47.29999737	0.00000000	-49.90157000	-11.09744000
47.49999736	0.00000000	-44.91880000	-12.67224000
47.69999734	0.00000000	-42.21825000	-14.62844000
47.89999733	0.00000000	-42.68578000	-16.94759000
48.09999732	0.00000000	-46.96112000	-18.81152000
48.29999731	0.00000000	-54.31225000	-19.59892000
48.49999730	0.00000000	-63.15822000	-18.81152000
48.69999729	0.00000000	-71.25368000	-16.90453000
48.89999727	0.00000000	-76.23646000	-14.21014000
49.09999726	0.00000000	-77.02386000	-11.46653000
49.29999725	0.00000000	-73.11761000	-9.14124000
49.49999724	0.00000000	-65.43430000	-7.24040300
49.69999723	0.00000000	-55.75787000	-6.90821800
49.89999721	0.00000000	-46.54281000	-8.44611200
50.09999720	0.00000000	-39.98523000	-11.55881000
50.29999719	0.00000000	-38.07825000	-15.74188000
50.49999718	0.00000000	-41.14788000	-19.59892000
50.69999717	0.00000000	-48.45595000	-21.92421000
50.89999715	0.00000000	-58.04010000	-22.71161000
51.09999714	0.00000000	-66.92913000	-21.50590000
51.29999713	0.00000000	-73.11761000	-18.43627000
51.49999712	0.00000000	-75.44291000	-14.25320000
51.69999711	0.00000000	-73.11761000	-10.35310000
51.89999710	0.00000000	-66.97219000	-7.60949800
52.09999708	0.00000000	-58.55069000	-5.70866100
52.29999707	0.00000000	-50.49828000	-5.75172200
52.49999706	0.00000000	-45.42937000	-8.02780400
52.69999705	0.00000000	-43.84842000	-11.46653000
52.89999704	0.00000000	-45.80462000	-15.36663000
53.09999702	0.00000000	-51.15034000	-18.81152000
53.29999701	0.00000000	-58.03395000	-21.13066000
53.49999700	0.00000000	-64.22859000	-21.50590000
53.69999699	0.00000000	-68.46087000	-20.01722000
53.89999698	0.00000000	-69.58046000	-17.32283000
54.09999696	0.00000000	-66.92913000	-14.25320000
54.29999695	0.00000000	-61.57726000	-11.55881000
54.49999694	0.00000000	-55.43184000	-10.02707000
54.69999693	0.00000000	-50.03691000	-10.02707000
54.89999692	0.00000000	-47.01033000	-11.51575000
55.09999691	0.00000000	-47.33637000	-13.74262000
55.29999689	0.00000000	-50.77510000	-15.27436000
55.49999688	0.00000000	-55.75787000	-15.69267000
55.69999687	0.00000000	-61.15280000	-15.32357000
55.89999686	0.00000000	-65.39124000	-14.16092000
56.09999685	0.00000000	-67.30437000	-12.62918000
56.29999683	0.00000000	-66.59695000	-11.14050000
56.49999682	0.00000000	-63.48425000	-10.40231000
56.69999681	0.00000000	-59.28888000	-11.22662000
56.89999680	0.00000000	-54.64444000	-13.51501000
57.09999679	0.00000000	-51.19340000	-16.94759000
57.29999677	0.00000000	-49.61245000	-19.97416000
57.49999676	0.00000000	-50.03691000	-21.54897000
57.69999675	0.00000000	-52.68823000	-21.50590000
57.89999674	0.00000000	-56.45300000	-19.50664000
58.09999673	0.00000000	-59.57185000	-15.28051000
58.29999672	0.00000000	-61.57111000	-9.93479300
58.49999670	0.00000000	-62.73376000	-5.33341500
58.69999669	0.00000000	-62.69069000	-2.63902500
58.89999668	0.00000000	-61.19586000	-2.68208600
59.09999667	0.00000000	-58.91978000	-5.75172200
59.29999666	0.00000000	-57.01279000	-11.14050000
59.49999664	0.00000000	-55.80708000	-17.32283000
59.69999663	0.00000000	-55.43184000	-23.08686000
59.89999662	0.00000000	-55.75787000	-26.93774000
60.09999661	0.00000000	-56.54527000	-27.63902000
60.29999660	0.00000000	-57.29576000	-24.93848000
60.49999658	0.00000000	-58.08316000	-18.76845000
60.69999657	0.00000000	-58.45841000	-11.14050000
60.89999656	0.00000000	-58.45841000	-4.17691900
61.09999655	0.00000000	-58.08316000	0.42445860
61.29999654	0.00000000	-57.29576000	1.58710600
61.49999653	0.00000000	-56.58833000	-1.10728300
61.69999651	0.00000000	-56.17618000	-6.86515700
61.89999650	0.00000000	-56.58833000	-14.25320000
62.09999649	0.00000000	-57.33883000	-21.92421000
62.29999648	0.00000000	-58.50147000	-28.05118000
62.49999647	0.00000000	-59.66412000	-30.38263000
62.69999645	0.00000000	-60.41461000	-28.89395000
62.89999644	0.00000000	-60.77756000	-24.24335000
63.09999643	0.00000000	-59.99015000	-17.27977000
63.29999642	0.00000000	-58.50147000	-9.60875900
63.49999641	0.00000000	-56.92052000	-3.05733300
63.69999639	0.00000000	-55.38263000	0.42445860
63.89999638	0.00000000	-54.22613000	0.51673230
64.09999637	0.00000000	-53.85088000	-2.22071800
64.29999636	0.00000000	-54.26919000	-7.28346400
64.49999635	0.00000000	-55.80708000	-14.16092000
64.69999634	0.00000000	-58.08316000	-20.71235000
64.89999632	0.00000000	-59.99015000	-24.99385000
65.09999631	0.00000000	-61.15280000	-26.98080000
65.29999630	0.00000000	-61.19586000	-26.19955000
65.49999629	0.00000000	-60.41461000	-23.12992000
65.69999628	0.00000000	-59.24582000	-18.52854000
65.89999626	0.00000000	-57.33883000	-13.51501000
66.09999625	0.00000000	-55.85014000	-9.60875900
66.29999624	0.00000000	-55.38263000	-6.82209600
66.49999623	0.00000000	-55.43184000	-5.29035400
66.69999622	0.00000000	-56.22539000	-5.24729300
66.89999620	0.00000000	-58.12622000	-6.40378900
67.09999619	0.00000000	-59.94709000	-8.40305000
67.29999618	0.00000000	-60.73450000	-11.46653000
67.49999617	0.00000000	-59.99015000	-14.94833000
67.69999616	0.00000000	-58.45841000	-17.69808000
67.89999615	0.00000000	-56.50221000	-20.10950000
68.09999613	0.00000000	-54.22613000	-22.01649000
68.29999612	0.00000000	-52.73130000	-23.12992000
68.49999611	0.00000000	-52.68823000	-22.71161000
68.69999610	0.00000000	-53.89394000	-20.39247000
68.89999609	0.00000000	-56.22539000	-16.90453000
69.09999607	0.00000000	-59.70718000	-12.62918000
69.29999606	0.00000000	-63.10900000	-8.40305000
69.49999605	0.00000000	-65.43430000	-5.24729300
69.69999604	0.00000000	-65.80955000	-3.33415300
69.89999603	0.00000000	-64.27164000	-3.01427100
70.09999601	0.00000000	-61.10974000	-5.33341500
70.29999600	0.00000000	-56.50221000	-9.51648500
70.49999599	0.00000000	-51.52559000	-14.21014000
70.69999598	0.00000000	-48.03149000	-18.90379000
70.89999597	0.00000000	-46.49975000	-23.08686000
71.09999596	0.00000000	-47.29330000	-25.35679000
71.29999594	0.00000000	-50.77510000	-24.61860000
71.49999593	0.00000000	-55.80708000	-21.59203000
71.69999592	0.00000000	-61.57726000	-17.32283000
71.89999591	0.00000000	-66.59695000	-12.67224000
72.09999590	0.00000000	-69.30363000	-8.44611200
72.29999588	0.00000000	-69.71580000	-5.75172200
72.49999587	0.00000000	-67.34743000	-5.33341500
72.69999586	0.00000000	-62.73376000	-6.82209600
72.89999585	0.00000000	-56.96358000	-9.51648500
73.09999584	0.00000000	-51.56865000	-12.58612000
73.29999582	0.00000000	-48.03149000	-15.32357000
73.49999581	0.00000000	-46.45054000	-17.23056000
73.69999580	0.00000000	-46.91806000	-18.01796000
73.89999579	0.00000000	-49.98769000	-17.27362000
74.09999578	0.00000000	-54.96432000	-15.78494000
74.29999577	0.00000000	-59.94709000	-14.29626000
74.49999575	0.00000000	-63.85334000	-13.51501000
74.69999574	0.00000000	-65.80955000	-13.87795000
74.89999573	0.00000000	-65.85260000	-14.62844000
75.09999572	0.00000000	-64.27164000	-15.78494000
75.29999571	0.00000000	-61.24508000	-16.85531000
75.49999569	0.00000000	-57.75713000	-16.81225000
75.69999568	0.00000000	-55.05659000	-15.27436000
75.89999567	0.00000000	-53.06348000	-12.62918000
76.09999566	0.00000000	-52.31299000	-9.89173200
76.29999565	0.00000000	-52.64517000	-7.60949800
76.49999563	0.00000000	-53.80167000	-6.08390700
76.69999562	0.00000000	-55.33957000	-6.53912400
76.89999561	0.00000000	-56.87746000	-8.82135800
77.09999560	0.00000000	-57.99089000	-12.72146000
77.29999559	0.00000000	-58.03395000	-17.32283000
77.49999558	0.00000000	-57.33883000	-21.54897000
77.69999556	0.00000000	-57.01279000	-24.20029000
77.89999555	0.00000000	-57.33883000	-24.20029000
78.09999554	0.00000000	-58.12622000	-21.54897000
78.29999553	0.00000000	-58.87672000	-17.27362000
78.49999552	0.00000000	-59.66412000	-12.21087000
78.69999550	0.00000000	-59.99015000	-6.82209600
78.89999549	0.00000000	-59.61491000	-2.63902500
79.09999548	0.00000000	-58.45841000	-1.10728300
79.29999547	0.00000000	-56.87746000	-2.59596400
79.49999546	0.00000000	-54.92125000	-6.44685000
79.69999544	0.00000000	-52.68823000	-11.46653000
79.89999543	0.00000000	-51.56865000	-16.89837000
80.09999542	0.00000000	-52.31299000	-21.50590000
80.29999541	0.00000000	-54.22613000	-24.24335000
80.49999540	0.00000000	-56.92052000	-24.66781000
80.69999539	0.00000000	-59.61491000	-23.12992000
80.89999537	0.00000000	-61.57111000	-20.06029000
81.09999536	0.00000000	-62.73376000	-16.16018000
81.29999535	0.00000000	-62.69069000	-12.29700000
81.49999534	0.00000000	-61.15280000	-8.77214500
81.69999533	0.00000000	-58.50147000	-6.48991100
81.89999531	0.00000000	-55.80708000	-5.61638700
82.09999530	0.00000000	-53.85088000	-6.02854300
82.29999529	0.00000000	-52.68823000	-7.19734200
82.49999528	0.00000000	-52.68823000	-9.55954600
82.69999527	0.00000000	-53.80167000	-12.62918000
82.89999525	0.00000000	-55.38263000	-15.78494000
83.09999524	0.00000000	-57.29576000	-18.85458000
83.29999523	0.00000000	-59.19660000	-21.17372000
83.49999522	0.00000000	-59.99015000	-21.96727000
83.69999521	0.00000000	-60.03937000	-21.54897000
83.89999520	0.00000000	-59.66412000	-19.59892000
84.09999518	0.00000000	-58.87672000	-16.11712000
84.29999517	0.00000000	-58.12622000	-12.29700000
84.49999516	0.00000000	-57.33883000	-8.72908400
84.69999515	0.00000000	-56.92052000	-6.02854300
84.89999514	0.00000000	-56.54527000	-4.12770700
85.09999512	0.00000000	-56.17618000	-4.17076700
85.29999511	0.00000000	-56.50221000	-6.44685000
85.49999510	0.00000000	-56.45300000	-9.93479300
85.69999509	0.00000000	-55.75787000	-14.21014000
85.89999508	0.00000000	-55.38263000	-18.43627000
86.09999506	0.00000000	-55.38263000	-21.54897000
86.29999505	0.00000000	-55.75787000	-23.08686000
86.49999504	0.00000000	-56.54527000	-22.66855000
86.69999503	0.00000000	-57.33883000	-19.92495000
86.89999502	0.00000000	-58.50147000	-15.36663000
87.09999501	0.00000000	-59.61491000	-10.35310000
87.29999499	0.00000000	-59.99015000	-6.48991100
87.49999498	0.00000000	-59.61491000	-4.12770700
87.69999497	0.00000000	-58.45841000	-3.80167300
87.89999496	0.00000000	-56.92052000	-5.75172200
88.09999495	0.00000000	-55.38263000	-9.98400600
88.29999493	0.00000000	-54.22613000	-15.32357000
88.49999492	0.00000000	-53.85088000	-19.92495000
88.69999491	0.00000000	-54.22613000	-22.66855000
88.89999490	0.00000000	-55.38263000	-23.03765000
89.09999489	0.00000000	-56.92052000	-21.13066000
89.29999487	0.00000000	-58.45841000	-17.27362000
89.49999486	0.00000000	-59.61491000	-12.67224000
89.69999485	0.00000000	-60.03937000	-8.40305000
89.89999484	0.00000000	-60.03937000	-5.33341500
90.09999483	0.00000000	-59.61491000	-4.21998000
90.29999482	0.00000000	-58.45841000	-5.80093500
90.49999480	0.00000000	-56.96358000	-9.98400600
90.69999479	0.00000000	-55.80708000	-15.32357000
90.89999478	0.00000000	-55.43184000	-19.97416000
91.09999477	0.00000000	-55.75787000	-23.04380000
91.29999476	0.00000000	-56.50221000	-23.78199000
91.49999474	0.00000000	-56.87746000	-21.50590000
91.69999473	0.00000000	-56.92052000	-17.27362000
91.89999472	0.00000000	-56.92052000	-12.25394000
92.09999471	0.00000000	-56.92052000	-7.28346400
92.29999470	0.00000000	-56.92052000	-4.26304100
92.49999468	0.00000000	-56.92052000	-4.21998000
92.69999467	0.00000000	-56.96358000	-6.90821800
92.89999466	0.00000000	-57.38804000	-11.51575000
93.09999465	0.00000000	-58.50147000	-16.85531000
93.29999464	0.00000000	-59.61491000	-21.08760000
93.49999463	0.00000000	-60.03937000	-23.03765000
93.69999461	0.00000000	-60.03937000	-22.66855000
93.89999460	0.00000000	-59.57185000	-19.97416000
94.09999459	0.00000000	-58.03395000	-15.74188000
94.29999458	0.00000000	-55.75787000	-11.14050000
94.49999457	0.00000000	-53.80167000	-7.33267600
94.69999455	0.00000000	-52.26993000	-5.79478300
94.89999454	0.00000000	-51.52559000	-6.91437000
95.09999453	0.00000000	-52.31299000	-9.93479300
95.29999452	0.00000000	-54.22613000	-13.79183000
95.49999451	0.00000000	-56.96358000	-17.23056000
95.69999449	0.00000000	-60.03937000	-19.55585000
95.89999448	0.00000000	-62.73376000	-19.97416000
96.09999447	0.00000000	-64.27164000	-18.85458000
96.29999446	0.00000000	-64.27164000	-16.85531000
96.49999445	0.00000000	-62.69069000	-13.79183000
96.69999444	0.00000000	-59.57185000	-10.40231000
96.89999442	0.00000000	-55.38263000	-8.48917200
97.09999441	0.00000000	-51.52559000	-8.40305000
97.29999440	0.00000000	-49.19414000	-9.55954600
97.49999439	0.00000000	-48.36368000	-11.46653000
97.69999438	0.00000000	-49.19414000	-13.79183000
97.89999436	0.00000000	-51.52559000	-15.69882000
98.09999435	0.00000000	-55.38263000	-16.89837000
98.29999434	0.00000000	-59.57185000	-17.23056000
98.49999433	0.00000000	-62.73376000	-16.52928000
98.69999432	0.00000000	-64.68996000	-15.00369000
98.89999430	0.00000000	-65.43430000	-13.87795000
99.09999429	0.00000000	-64.27164000	-13.04749000
99.29999428	0.00000000	-61.57111000	-12.67224000
99.49999427	0.00000000	-58.08316000	-12.62918000
99.69999426	0.00000000	-54.22613000	-12.62918000
99.89999425	0.00000000	-51.15034000	-12.58612000
100.09999423	0.00000000	-49.56939000	-12.21087000
100.29999422	0.00000000	-49.52633000	-11.46653000
100.49999421	0.00000000	-50.73204000	-11.09129000
100.69999420	0.00000000	-53.01427000	-11.09129000
100.89999419	0.00000000	-56.12696000	-11.51575000
101.09999417	0.00000000	-58.83366000	-12.67224000
101.29999416	0.00000000	-61.19586000	-14.21014000
101.49999415	0.00000000	-62.69069000	-15.78494000
101.69999414	0.00000000	-62.73376000	-17.27362000
101.89999413	0.00000000	-61.62032000	-18.01796000
102.09999411	0.00000000	-60.03937000	-17.23056000
102.29999410	0.00000000	-58.08316000	-15.32357000
102.49999409	0.00000000	-55.75787000	-12.62918000
102.69999408	0.00000000	-53.85088000	-9.93479300
102.89999407	0.00000000	-52.64517000	-8.02780400
103.09999406	0.00000000	-52.26993000	-7.24040300
103.29999404	0.00000000	-52.68823000	-8.02780400
103.49999403	0.00000000	-54.22613000	-9.93479300
103.69999402	0.00000000	-56.50221000	-12.67224000
103.89999401	0.00000000	-58.40920000	-15.74188000
104.09999400	0.00000000	-59.66412000	-18.43627000
104.29999398	0.00000000	-60.41461000	-19.97416000
104.49999397	0.00000000	-60.77756000	-19.97416000
104.69999396	0.00000000	-59.99015000	-18.43627000
104.89999395	0.00000000	-58.50147000	-15.74188000
105.09999394	0.00000000	-56.96358000	-12.67224000
105.29999392	0.00000000	-55.75787000	-9.98400600
105.49999391	0.00000000	-55.00738000	-8.44611200
105.69999390	0.00000000	-54.59522000	-8.44611200
105.89999389	0.00000000	-55.00738000	-9.93479300
106.09999388	0.00000000	-55.75787000	-12.25394000
106.29999387	0.00000000	-56.92052000	-14.53617000
106.49999385	0.00000000	-58.03395000	-16.48622000
106.69999384	0.00000000	-58.45841000	-17.23056000
106.89999383	0.00000000	-58.45841000	-16.89837000
107.09999382	0.00000000	-58.03395000	-15.69882000
107.29999381	0.00000000	-56.92052000	-13.83489000
107.49999379	0.00000000	-55.80708000	-11.93405000
107.69999378	0.00000000	-55.38263000	-11.14050000
107.89999377	0.00000000	-55.38263000	-11.09129000
108.09999376	0.00000000	-55.75787000	-11.51575000
108.29999375	0.00000000	-56.54527000	-12.67224000
108.49999374	0.00000000	-57.29576000	-14.21014000
108.69999372	0.00000000	-58.08316000	-15.74188000
108.89999371	0.00000000	-58.45841000	-16.85531000
109.09999370	0.00000000	-58.45841000	-16.85531000
109.29999369	0.00000000	-58.03395000	-15.74188000
109.49999368	0.00000000	-56.92052000	-14.21014000
109.69999366	0.00000000	-55.75787000	-12.62918000
109.89999365	0.00000000	-54.96432000	-11.09744000
110.09999364	0.00000000	-54.22613000	-9.98400600
110.29999363	0.00000000	-54.26919000	-9.98400600
110.49999362	0.00000000	-55.33957000	-11.09744000
110.69999360	0.00000000	-56.50221000	-12.62918000
110.89999359	0.00000000	-57.29576000	-14.21014000
111.09999358	0.00000000	-58.08316000	-15.74188000
111.29999357	0.00000000	-58.45841000	-16.85531000
111.49999356	0.00000000	-58.45841000	-16.89837000
111.69999355	0.00000000	-58.08316000	-16.16018000
111.89999353	0.00000000	-57.33883000	-15.36663000
112.09999352	0.00000000	-56.92052000	-14.21014000
112.29999351	0.00000000	-56.50221000	-13.04749000
112.49999350	0.00000000	-55.75787000	-12.25394000
112.69999349	0.00000000	-55.38263000	-11.51575000
112.89999347	0.00000000	-55.38263000	-11.51575000
113.09999346	0.00000000	-55.75787000	-12.21087000
113.29999345	0.00000000	-56.50221000	-12.62918000
113.49999344	0.00000000	-56.87746000	-13.04749000
113.69999343	0.00000000	-56.92052000	-13.79183000
113.89999341	0.00000000	-56.92052000	-14.16708000
114.09999340	0.00000000	-56.92052000	-14.21014000
114.29999339	0.00000000	-56.92052000	-14.21014000
114.49999338	0.00000000	-56.92052000	-14.21014000
114.69999337	0.00000000	-56.92052000	-14.25320000
114.89999336	0.00000000	-56.92052000	-14.62844000
115.09999334	0.00000000	-56.92052000	-15.32357000
115.29999333	0.00000000	-56.87746000	-15.32357000
115.49999332	0.00000000	-56.54527000	-14.62844000
115.69999331	0.00000000	-56.17618000	-14.21014000
115.89999330	0.00000000	-56.54527000	-13.79183000
116.09999328	0.00000000	-56.87746000	-13.00443000
116.29999327	0.00000000	-56.92052000	-12.25394000
116.49999326	0.00000000	-56.92052000	-11.46653000
116.69999325	0.00000000	-56.92052000	-11.14050000
116.89999324	0.00000000	-56.92052000	-11.51575000
117.09999322	0.00000000	-56.87746000	-12.62918000
117.29999321	0.00000000	-56.50221000	-13.79183000
117.49999320	0.00000000	-55.75787000	-14.58538000
117.69999319	0.00000000	-55.38263000	-15.36663000
117.89999318	0.00000000	-55.33957000	-15.74188000
118.09999317	0.00000000	-55.33957000	-15.74188000
118.29999315	0.00000000	-55.33957000	-15.36663000
118.49999314	0.00000000	-55.38263000	-14.58538000
118.69999313	0.00000000	-55.80708000	-13.83489000
118.89999312	0.00000000	-56.96358000	-13.00443000
119.09999311	0.00000000	-58.40920000	-12.25394000
119.29999309	0.00000000	-59.19660000	-11.46653000
119.49999308	0.00000000	-58.83366000	-11.14050000
119.69999307	0.00000000	-58.12622000	-11.46653000
119.89999306	0.00000000	-57.29576000	-12.21087000
120.09999305	0.00000000	-56.50221000	-12.62918000
120.29999303	0.00000000	-55.33957000	-13.04749000
120.49999302	0.00000000	-54.22613000	-13.79183000
120.69999301	0.00000000	-53.80167000	-14.16708000
120.89999300	0.00000000	-53.80167000	-14.25320000
121.09999299	0.00000000	-54.22613000	-14.62844000
121.29999298	0.00000000	-55.38263000	-15.32357000
121.49999296	0.00000000	-56.87746000	-15.32357000
121.69999295	0.00000000	-58.08316000	-14.58538000
121.89999294	0.00000000	-58.87672000	-13.83489000
122.09999293	0.00000000	-59.61491000	-13.04749000
122.29999292	0.00000000	-59.57185000	-12.62918000
122.49999290	0.00000000	-58.50147000	-12.25394000
122.69999289	0.00000000	-57.33883000	-11.88484000
122.89999288	0.00000000	-56.54527000	-12.25394000
123.09999287	0.00000000	-55.71481000	-12.62918000
123.29999286	0.00000000	-54.96432000	-13.04749000
123.49999284	0.00000000	-54.17691000	-13.79183000
123.69999283	0.00000000	-53.85088000	-14.16708000
123.89999282	0.00000000	-54.17691000	-14.25320000
124.09999281	0.00000000	-54.96432000	-14.62844000
124.29999280	0.00000000	-55.71481000	-15.32357000
124.49999279	0.00000000	-56.54527000	-15.32357000
124.69999277	0.00000000	-57.29576000	-14.62844000
124.89999276	0.00000000	-58.08316000	-14.25320000
125.09999275	0.00000000	-58.45841000	-14.21014000
125.29999274	0.00000000	-58.50147000	-14.16708000
125.49999273	0.00000000	-58.45841000	-13.79183000
125.69999271	0.00000000	-58.03395000	-13.04749000
125.89999270	0.00000000	-56.87746000	-12.67224000
126.09999269	0.00000000	-55.38263000	-12.62918000
126.29999268	0.00000000	-54.22613000	-12.62918000
126.49999267	0.00000000	-53.80167000	-12.62918000
126.69999265	0.00000000	-53.80167000	-12.67224000
126.89999264	0.00000000	-54.22613000	-13.04749000
127.09999263	0.00000000	-55.33957000	-13.79183000
127.29999262	0.00000000	-56.50221000	-14.16708000
127.49999261	0.00000000	-57.29576000	-14.21014000
127.69999260	0.00000000	-58.08316000	-14.21014000
127.89999258	0.00000000	-58.45841000	-14.16708000
128.09999257	0.00000000	-58.45841000	-13.79183000
128.29999256	0.00000000	-58.03395000	-13.04749000
128.49999255	0.00000000	-56.87746000	-12.62918000
128.69999254	0.00000000	-55.38263000	-12.25394000
128.89999252	0.00000000	-54.22613000	-11.88484000
129.09999251	0.00000000	-53.85088000	-12.25394000
129.29999250	0.00000000	-54.17691000	-12.62918000
129.49999249	0.00000000	-54.96432000	-13.04749000
129.69999248	0.00000000	-55.71481000	-13.79183000
129.89999246	0.00000000	-56.54527000	-14.16708000
130.09999245	0.00000000	-57.29576000	-14.16708000
130.29999244	0.00000000	-58.08316000	-13.79183000
130.49999243	0.00000000	-58.40920000	-13.04749000
130.69999242	0.00000000	-58.03395000	-12.67224000
130.89999241	0.00000000	-56.92052000	-12.62918000
131.09999239	0.00000000	-55.75787000	-12.62918000
131.29999238	0.00000000	-54.96432000	-12.62918000
131.49999237	0.00000000	-54.22613000	-12.67224000
131.69999236	0.00000000	-54.22613000	-13.04749000
131.89999235	0.00000000	-54.96432000	-13.79183000
132.09999233	0.00000000	-55.71481000	-14.16708000
132.29999232	0.00000000	-56.50221000	-14.21014000
132.49999231	0.00000000	-56.87746000	-14.21014000
132.69999230	0.00000000	-56.92052000	-14.21014000
132.89999229	0.00000000	-56.92052000	-14.16708000
133.09999227	0.00000000	-56.92052000	-13.79183000
133.29999226	0.00000000	-56.92052000	-13.04749000
133.49999225	0.00000000	-56.92052000	-12.67224000
133.69999224	0.00000000	-56.92052000	-12.62918000
133.89999223	0.00000000	-56.92052000	-12.62918000
134.09999222	0.00000000	-56.92052000	-12.67224000
134.29999220	0.00000000	-56.92052000	-13.04749000
134.49999219	0.00000000	-56.92052000	-13.83489000
134.69999218	0.00000000	-56.87746000	-14.58538000
134.89999217	0.00000000	-56.50221000	-15.36663000
135.09999216	0.00000000	-55.75787000	-15.74188000
135.29999214	0.00000000	-55.38263000	-15.74188000
135.49999213	0.00000000	-55.33957000	-15.36663000
135.69999212	0.00000000	-55.38263000	-14.58538000
135.89999211	0.00000000	-55.75787000	-13.83489000
136.09999210	0.00000000	-56.50221000	-13.00443000
136.29999208	0.00000000	-56.87746000	-12.29700000
136.49999207	0.00000000	-56.96358000	-11.88484000
136.69999206	0.00000000	-57.29576000	-12.25394000
136.89999205	0.00000000	-57.66486000	-12.62918000
137.09999204	0.00000000	-57.25270000	-13.04749000
137.29999203	0.00000000	-56.54527000	-13.79183000
137.49999201	0.00000000	-55.71481000	-14.16708000
137.69999200	0.00000000	-55.00738000	-14.21014000
137.89999199	0.00000000	-54.59522000	-14.25320000
138.09999198	0.00000000	-54.96432000	-14.58538000
138.29999197	0.00000000	-55.33957000	-14.94833000
138.49999195	0.00000000	-55.75787000	-14.53617000
138.69999194	0.00000000	-56.50221000	-13.83489000
138.89999193	0.00000000	-56.87746000	-13.04749000
139.09999192	0.00000000	-56.87746000	-12.62918000
139.29999191	0.00000000	-56.54527000	-12.25394000
139.49999189	0.00000000	-56.17618000	-11.84178000
139.69999188	0.00000000	-56.50221000	-11.87869000
139.89999187	0.00000000	-56.45300000	-11.84178000
140.09999186	0.00000000	-55.75787000	-12.29700000
140.29999185	0.00000000	-55.38263000	-13.00443000
140.49999184	0.00000000	-55.33957000	-13.79183000
140.69999182	0.00000000	-55.33957000	-14.21014000
140.89999181	0.00000000	-55.38263000	-14.58538000
141.09999180	0.00000000	-55.75787000	-14.94833000
141.29999179	0.00000000	-56.50221000	-14.53617000
141.49999178	0.00000000	-56.87746000	-13.83489000
141.69999176	0.00000000	-56.92052000	-13.04749000
141.89999175	0.00000000	-56.92052000	-12.62918000
142.09999174	0.00000000	-56.87746000	-12.21087000
142.29999173	0.00000000	-56.50221000	-11.46653000
142.49999172	0.00000000	-55.75787000	-11.14050000
142.69999170	0.00000000	-55.38263000	-11.46653000
142.89999169	0.00000000	-55.33957000	-12.25394000
143.09999168	0.00000000	-55.38263000	-13.00443000
143.29999167	0.00000000	-55.75787000	-13.83489000
143.49999166	0.00000000	-56.50221000	-14.58538000
143.69999165	0.00000000	-56.87746000	-15.32357000
143.89999163	0.00000000	-56.87746000	-15.32357000
144.09999162	0.00000000	-56.50221000	-14.58538000
144.29999161	0.00000000	-55.75787000	-13.83489000
144.49999160	0.00000000	-55.38263000	-13.04749000
144.69999159	0.00000000	-55.33957000	-12.62918000
144.89999157	0.00000000	-55.33957000	-12.25394000
145.09999156	0.00000000	-55.38263000	-11.88484000
145.29999155	0.00000000	-55.75787000	-12.25394000
145.49999154	0.00000000	-56.50221000	-12.58612000
145.69999153	0.00000000	-56.87746000	-12.67224000
145.89999151	0.00000000	-56.92052000	-13.09670000
146.09999150	0.00000000	-56.92052000	-14.16092000
146.29999149	0.00000000	-56.87746000	-14.90526000
146.49999148	0.00000000	-56.50221000	-14.58538000
146.69999147	0.00000000	-55.75787000	-14.25320000
146.89999146	0.00000000	-55.38263000	-14.16708000
147.09999144	0.00000000	-55.33957000	-13.79183000
147.29999143	0.00000000	-55.33957000	-13.04749000
147.49999142	0.00000000	-55.33957000	-12.67224000
147.69999141	0.00000000	-55.38263000	-12.62918000
147.89999140	0.00000000	-55.75787000	-12.62918000
148.09999138	0.00000000	-56.50221000	-12.62918000
148.29999137	0.00000000	-56.87746000	-12.62918000
148.49999136	0.00000000	-56.92052000	-12.67224000
148.69999135	0.00000000	-56.92052000	-13.04749000
148.89999134	0.00000000	-56.87746000	-13.79183000
149.09999132	0.00000000	-56.50221000	-14.16708000
149.29999131	0.00000000	-55.75787000	-14.21014000
149.49999130	0.00000000	-55.38263000	-14.21014000
149.69999129	0.00000000	-55.33957000	-14.16708000
149.89999128	0.00000000	-55.33957000	-13.79183000
150.09999127	0.00000000	-55.33957000	-13.04749000
150.29999125	0.00000000	-55.33957000	-12.67224000
150.49999124	0.00000000	-55.38263000	-12.62918000
150.69999123	0.00000000	-55.75787000	-12.62918000
150.89999122	0.00000000	-56.50221000	-12.62918000
151.09999121	0.00000000	-56.87746000	-12.62918000
151.29999119	0.00000000	-56.92052000	-12.67224000
151.49999118	0.00000000	-56.92052000	-13.04749000
151.69999117	0.00000000	-56.92052000	-13.79183000
151.89999116	0.00000000	-56.87746000	-14.11786000
152.09999115	0.00000000	-56.50221000	-13.83489000
152.29999113	0.00000000	-55.75787000	-13.46580000
152.49999112	0.00000000	-55.38263000	-13.79183000
152.69999111	0.00000000	-55.33957000	-13.74262000
152.89999110	0.00000000	-55.33957000	-13.04749000
153.09999109	0.00000000	-55.33957000	-12.67224000
153.29999108	0.00000000	-55.33957000	-12.62918000
153.49999106	0.00000000	-55.38263000	-12.62918000
153.69999105	0.00000000	-55.75787000	-12.62918000
153.89999104	0.00000000	-56.50221000	-12.62918000
154.09999103	0.00000000	-56.87746000	-12.62918000
154.29999102	0.00000000	-56.92052000	-12.62918000
154.49999100	0.00000000	-56.92052000	-12.62918000
154.69999099	0.00000000	-56.92052000	-12.67224000
154.89999098	0.00000000	-56.92052000	-13.04749000
155.09999097	0.00000000	-56.87746000	-13.79183000
155.29999096	0.00000000	-56.50221000	-14.16708000
155.49999094	0.00000000	-55.75787000	-14.21014000
155.69999093	0.00000000	-55.38263000	-14.16708000
155.89999092	0.00000000	-55.33957000	-13.83489000
156.09999091	0.00000000	-55.33957000	-13.42274000
156.29999090	0.00000000	-55.33957000	-13.41658000
156.49999089	0.00000000	-55.38263000	-13.00443000
156.69999087	0.00000000	-55.75787000	-12.67224000
156.89999086	0.00000000	-56.50221000	-12.62918000
157.09999085	0.00000000	-56.87746000	-12.62918000
157.29999084	0.00000000	-56.92052000	-12.62918000
157.49999083	0.00000000	-56.92052000	-12.67224000
157.69999081	0.00000000	-56.87746000	-13.00443000
157.89999080	0.00000000	-56.50221000	-13.41658000
158.09999079	0.00000000	-55.75787000	-13.42274000
158.29999078	0.00000000	-55.38263000	-13.83489000
158.49999077	0.00000000	-55.33957000	-14.16708000
158.69999075	0.00000000	-55.33957000	-14.21014000
158.89999074	0.00000000	-55.33957000	-14.21014000
159.09999073	0.00000000	-55.33957000	-14.16708000
159.29999072	0.00000000	-55.33957000	-13.79183000
159.49999071	0.00000000	-55.38263000	-13.04749000
159.69999070	0.00000000	-55.75787000	-12.67224000
159.89999068	0.00000000	-56.50221000	-12.62918000
160.09999067	0.00000000	-56.87746000	-12.62918000
160.29999066	0.00000000	-56.92052000	-12.67224000
160.49999065	0.00000000	-56.92052000	-13.04749000
160.69999064	0.00000000	-56.92052000	-13.79183000
160.89999062	0.00000000	-56.87746000	-14.16708000
161.09999061	0.00000000	-56.50221000	-14.21014000
161.29999060	0.00000000	-55.80708000	-14.21014000
161.49999059	0.00000000	-55.75787000	-14.21014000
161.69999058	0.00000000	-56.08390000	-14.21014000
161.89999056	0.00000000	-55.71481000	-14.16708000
162.09999055	0.00000000	-55.38263000	-13.79183000
162.29999054	0.00000000	-55.29650000	-13.04749000
162.49999053	0.00000000	-55.00738000	-12.67224000
162.69999052	0.00000000	-55.01968000	-12.62918000
162.89999051	0.00000000	-56.12696000	-12.62918000
163.09999049	0.00000000	-56.78519000	-12.62918000
163.29999048	0.00000000	-56.54527000	-12.62918000
163.49999047	0.00000000	-56.17618000	-12.67224000
163.69999046	0.00000000	-56.54527000	-13.00443000
163.89999045	0.00000000	-56.82825000	-13.37352000
164.09999043	0.00000000	-56.50221000	-13.04749000
164.29999042	0.00000000	-55.75787000	-13.09670000
164.49999041	0.00000000	-55.38263000	-13.74262000
164.69999040	0.00000000	-55.33957000	-13.74262000
164.89999039	0.00000000	-55.33957000	-13.09670000
165.09999037	0.00000000	-55.33957000	-13.09670000
165.29999036	0.00000000	-55.33957000	-13.74262000
165.49999035	0.00000000	-55.33957000	-13.74262000
165.69999034	0.00000000	-55.38263000	-13.04749000
165.89999033	0.00000000	-55.71481000	-12.67224000
166.09999032	0.00000000	-56.12696000	-12.62918000
166.29999030	0.00000000	-56.13312000	-12.62918000
166.49999029	0.00000000	-56.54527000	-12.62918000
166.69999028	0.00000000	-56.87746000	-12.62918000
166.89999027	0.00000000	-56.87746000	-12.67224000
167.09999026	0.00000000	-56.50221000	-13.04749000
167.29999024	0.00000000	-55.75787000	-13.74262000
167.49999023	0.00000000	-55.38263000	-13.79183000
167.69999022	0.00000000	-55.33957000	-13.42274000
167.89999021	0.00000000	-55.33957000	-13.45964000
168.09999020	0.00000000	-55.33957000	-13.37967000
168.29999018	0.00000000	-55.33957000	-13.41658000
168.49999017	0.00000000	-55.33957000	-13.00443000
168.69999016	0.00000000	-55.33957000	-12.67224000
168.89999015	0.00000000	-55.33957000	-12.62918000
169.09999014	0.00000000	-55.33957000	-12.62918000
169.29999013	0.00000000	-55.33957000	-12.62918000
169.49999011	0.00000000	-55.38263000	-12.67224000
169.69999010	0.00000000	-55.71481000	-13.00443000
169.89999009	0.00000000	-56.12696000	-13.37352000
170.09999008	0.00000000	-56.09006000	-13.00443000
170.29999007	0.00000000	-56.12696000	-12.67224000
170.49999005	0.00000000	-55.71481000	-12.62918000
170.69999004	0.00000000	-55.38263000	-12.62918000
170.89999003	0.00000000	-55.33957000	-12.62918000
171.09999002	0.00000000	-55.38263000	-12.67224000
171.29999001	0.00000000	-55.67175000	-13.00443000
171.49998999	0.00000000	-55.75172000	-13.41658000
171.69998998	0.00000000	-55.34571000	-13.42274000
171.89998997	0.00000000	-55.75172000	-13.83489000
172.09998996	0.00000000	-55.67175000	-14.11786000
172.29998995	0.00000000	-55.38263000	-13.79183000
172.49998994	0.00000000	-55.33957000	-13.04749000
172.69998992	0.00000000	-55.33957000	-12.67224000
172.89998991	0.00000000	-55.33957000	-12.62918000
173.09998990	0.00000000	-55.33957000	-12.62918000
173.29998989	0.00000000	-55.33957000	-12.62918000
173.49998988	0.00000000	-55.33957000	-12.62918000
173.69998986	0.00000000	-55.33957000	-12.62918000
173.89998985	0.00000000	-55.33957000	-12.62918000
174.09998984	0.00000000	-55.33957000	-12.62918000
174.29998983	0.00000000	-55.33957000	-12.67224000
174.49998982	0.00000000	-55.33957000	-13.00443000
174.69998980	0.00000000	-55.33957000	-13.37352000
174.89998979	0.00000000	-55.33957000	-13.04749000
175.09998978	0.00000000	-55.33957000	-13.04749000
175.29998977	0.00000000	-55.33957000	-13.37352000
175.49998976	0.00000000	-55.33957000	-13.00443000
175.69998975	0.00000000	-55.33957000	-12.67224000
175.89998973	0.00000000	-55.33957000	-12.62918000
176.09998972	0.00000000	-55.33957000	-12.62918000
176.29998971	0.00000000	-55.33957000	-12.62918000
176.49998970	0.00000000	-55.33957000	-12.67224000
176.69998969	0.00000000	-55.33957000	-13.00443000
176.89998967	0.00000000	-55.33957000	-13.37352000
177.09998966	0.00000000	-55.33957000	-13.04749000
177.29998965	0.00000000	-55.33957000	-13.04749000
177.49998964	0.00000000	-55.33957000	-13.37352000
177.69998963	0.00000000	-55.33957000	-13.00443000
177.89998961	0.00000000	-55.33957000	-12.67224000
178.09998960	0.00000000	-55.33957000	-12.62918000
178.29998959	0.00000000	-55.33957000	-12.62918000
178.49998958	0.00000000	-55.33957000	-12.62918000
178.69998957	0.00000000	-55.33957000	-12.62918000
178.89998956	0.00000000	-55.33957000	-12.62918000
179.09998954	0.00000000	-55.33957000	-12.62918000
179.29998953	0.00000000	-55.33957000	-12.62918000
179.49998952	0.00000000	-55.33957000	-12.62918000
179.69998951	0.00000000	-55.33957000	-12.62918000
179.89998950	0.00000000	-55.33957000	-12.67224000
180.09998948	0.00000000	-55.33957000	-13.04749000
180.29998947	0.00000000	-55.33957000	-13.74262000
180.49998946	0.00000000	-55.33957000	-13.79183000
180.69998945	0.00000000	-55.33957000	-13.42274000
180.89998944	0.00000000	-55.33957000	-13.41658000
181.09998942	0.00000000	-55.33957000	-13.00443000
181.29998941	0.00000000	-55.33957000	-12.67224000
181.49998940	0.00000000	-55.33957000	-12.62918000
181.69998939	0.00000000	-55.33957000	-12.62918000
181.89998938	0.00000000	-55.33957000	-12.62918000
182.09998937	0.00000000	-55.33957000	-12.62918000
182.29998935	0.00000000	-55.33957000	-12.62918000
182.49998934	0.00000000	-55.33957000	-12.62918000
182.69998933	0.00000000	-55.33957000	-12.67224000
182.89998932	0.00000000	-55.33957000	-13.04749000
183.09998931	0.00000000	-55.33957000	-13.79183000
183.29998929	0.00000000	-55.33957000	-14.11786000
183.49998928	0.00000000	-55.33957000	-13.83489000
183.69998927	0.00000000	-55.33957000	-13.46580000
183.89998926	0.00000000	-55.33957000	-13.79183000
184.09998925	0.00000000	-55.33957000	-13.74262000
184.29998923	0.00000000	-55.33957000	-13.04749000
184.49998922	0.00000000	-55.33957000	-12.67224000
184.69998921	0.00000000	-55.33957000	-12.62918000
184.89998920	0.00000000	-55.33957000	-12.62918000
185.09998919	0.00000000	-55.33957000	-12.62918000
185.29998918	0.00000000	-55.33957000	-12.62918000
185.49998916	0.00000000	-55.33957000	-12.62918000
185.69998915	0.00000000	-55.33957000	-12.67224000
185.89998914	0.00000000	-55.33957000	-13.04749000
186.09998913	0.00000000	-55.33957000	-13.79183000
186.29998912	0.00000000	-55.33957000	-14.16708000
186.49998910	0.00000000	-55.33957000	-14.21014000
186.69998909	0.00000000	-55.33957000	-14.16708000
186.89998908	0.00000000	-55.33957000	-13.79183000
187.09998907	0.00000000	-55.33957000	-13.04749000
187.29998906	0.00000000	-55.33957000	-12.67224000
187.49998904	0.00000000	-55.33957000	-12.62918000
187.69998903	0.00000000	-55.33957000	-12.62918000
187.89998902	0.00000000	-55.33957000	-12.62918000
188.09998901	0.00000000	-55.33957000	-12.62918000
188.29998900	0.00000000	-55.33957000	-12.67224000
188.49998899	0.00000000	-55.33957000	-13.04749000
188.69998897	0.00000000	-55.33957000	-13.74262000
188.89998896	0.00000000	-55.33957000	-13.79183000
189.09998895	0.00000000	-55.33957000	-13.46580000
189.29998894	0.00000000	-55.33957000	-13.79183000
189.49998893	0.00000000	-55.33957000	-13.79183000
189.69998891	0.00000000	-55.33957000	-13.42274000
189.89998890	0.00000000	-55.33957000	-13.41658000
190.09998889	0.00000000	-55.33957000	-13.00443000
190.29998888	0.00000000	-55.33957000	-12.67224000
190.49998887	0.00000000	-55.33957000	-12.62918000
190.69998885	0.00000000	-55.33957000	-12.62918000
190.89998884	0.00000000	-55.33957000	-12.62918000
191.09998883	0.00000000	-55.33957000	-12.62918000
191.29998882	0.00000000	-55.33957000	-12.62918000
191.49998881	0.00000000	-55.33957000	-12.62918000
191.69998880	0.00000000	-55.33957000	-12.62918000
191.89998878	0.00000000	-55.33957000	-12.62918000
192.09998877	0.00000000	-55.33957000	-12.62918000
192.29998876	0.00000000	-55.38263000	-12.67224000
192.49998875	0.00000000	-55.71481000	-13.04749000
192.69998874	0.00000000	-56.08390000	-13.79183000
192.89998872	0.00000000	-55.71481000	-14.11786000
193.09998871	0.00000000	-55.38263000	-13.83489000
193.29998870	0.00000000	-55.33957000	-13.42274000
193.49998869	0.00000000	-55.33957000	-13.41658000
193.69998868	0.00000000	-55.33957000	-13.00443000
193.89998866	0.00000000	-55.33957000	-12.67224000
194.09998865	0.00000000	-55.33957000	-12.62918000
194.29998864	0.00000000	-55.29650000	-12.62918000
194.49998863	0.00000000	-54.96432000	-12.62918000
194.69998862	0.00000000	-54.59522000	-12.62918000
194.89998861	0.00000000	-54.92125000	-12.62918000
195.09998859	0.00000000	-54.87204000	-12.62918000
195.29998858	0.00000000	-54.22613000	-12.62918000
195.49998857	0.00000000	-54.22613000	-12.62918000
195.69998856	0.00000000	-54.92125000	-12.67224000
195.89998855	0.00000000	-55.29650000	-13.00443000
196.09998853	0.00000000	-55.33957000	-13.37352000
