Time	Channel A	Channel B	Channel C
(us)	(V)	(mV)	(mV)

-4.49999956	0.00000000	-54.54601000	-12.62918000
-4.29999957	0.00000000	-54.55216000	-12.62918000
-4.09999958	0.00000000	-54.92125000	-12.62918000
-3.89999959	0.00000000	-54.92125000	-12.62918000
-3.69999960	0.00000000	-54.59522000	-12.62918000
-3.49999962	0.00000000	-54.96432000	-12.62918000
-3.29999963	0.00000000	-55.29650000	-12.62918000
-3.09999964	0.00000000	-55.29650000	-12.62918000
-2.89999965	0.00000000	-54.96432000	-12.62918000
-2.69999966	0.00000000	-54.55216000	-12.62918000
-2.49999968	0.00000000	-54.54601000	-12.62918000
-2.29999969	0.00000000	-54.17691000	-12.62918000
-2.09999970	0.00000000	-54.22613000	-12.62918000
-1.89999971	0.00000000	-54.92125000	-12.62918000
-1.69999972	0.00000000	-55.29650000	-12.62918000
-1.49999973	0.00000000	-55.33957000	-12.62918000
-1.29999975	0.00000000	-55.33957000	-12.62918000
-1.09999976	0.00000000	-55.33957000	-12.62918000
-0.89999977	0.00000000	-55.33957000	-12.62918000
-0.69999978	0.00000000	-55.33957000	-12.62918000
-0.49999979	0.00000000	-55.33957000	-12.62918000
-0.29999981	0.31803640	-55.33957000	-12.62918000
-0.09999982	0.63668800	-55.33957000	-12.62918000
0.10000017	0.95533960	-55.33957000	-12.62918000
0.30000016	0.95533960	-55.33957000	-12.62918000
0.50000015	0.79601380	-55.33957000	-12.62918000
0.70000013	0.31803640	-55.33957000	-12.62918000
0.90000012	-0.47736220	-55.33957000	-12.62918000
1.10000011	-1.43331700	-55.33957000	-12.62918000
1.30000010	-2.38927200	-55.29650000	-12.62918000
1.50000009	-2.70792300	-54.92125000	-12.62918000
1.70000008	-2.38927200	-54.17691000	-12.62918000
1.90000006	-1.27399100	-53.80167000	-12.62918000
2.10000005	0.47736220	-53.75861000	-12.62918000
2.30000004	2.70792300	-53.80167000	-12.62918000
2.50000003	4.45989200	-54.17691000	-12.62918000
2.70000002	5.25652100	-54.92125000	-12.62918000
2.90000000	4.93786900	-55.24729000	-12.62918000
3.09999999	3.02657500	-54.96432000	-12.62918000
3.29999998	0.00000000	-54.55216000	-12.62918000
3.49999997	-3.50393700	-54.54601000	-12.62918000
3.69999996	-6.37180100	-54.17691000	-12.62918000
3.89999994	-7.96444400	-54.17691000	-12.58612000
4.09999993	-7.48646600	-54.50295000	-12.21087000
4.29999992	-5.09719500	-54.13385000	-11.46653000
4.49999991	-1.11466500	-53.80167000	-11.09129000
4.69999990	3.34522600	-53.75861000	-11.09129000
4.89999989	7.16781500	-53.75861000	-11.46653000
5.09999987	9.23905000	-53.75861000	-12.21087000
5.29999986	9.07972400	-53.80167000	-12.58612000
5.49999985	6.53112700	-54.17691000	-12.62918000
5.69999984	2.54859700	-54.87204000	-12.62918000
5.89999983	-2.22994600	-54.87204000	-12.62918000
6.09999981	-6.53112700	-54.17691000	-12.62918000
6.29999980	-9.07972400	-53.80167000	-12.62918000
6.49999979	-9.23905000	-53.75861000	-12.62918000
6.69999978	-7.16781500	-53.75861000	-12.58612000
6.89999977	-3.50393700	-53.75861000	-12.25394000
7.09999975	0.95533960	-53.80167000	-11.88484000
7.29999974	4.77854300	-54.13385000	-12.25394000
7.49999973	7.16781500	-54.50295000	-12.58612000
7.69999972	7.64579200	-54.17691000	-12.62918000
7.89999971	6.37180100	-54.22613000	-12.67224000
8.09999970	3.50393700	-54.92125000	-13.00443000
8.29999968	0.15871060	-55.29650000	-13.37352000
8.49999967	-2.86724900	-55.33957000	-13.04749000
8.69999966	-4.61921700	-55.33957000	-13.04749000
8.89999965	-5.25652100	-55.33957000	-13.37352000
9.09999964	-4.45989200	-55.29650000	-13.00443000
9.29999962	-2.70792300	-54.92125000	-12.67224000
9.49999961	-0.63668800	-54.22613000	-12.62918000
9.69999960	1.11466500	-54.22613000	-12.62918000
9.89999959	2.22994600	-54.92125000	-12.62918000
10.09999958	2.54859700	-55.24729000	-12.62918000
10.29999956	2.22994600	-54.92125000	-12.62918000
10.49999955	1.43331700	-54.17691000	-12.62918000
10.69999954	0.63668800	-53.80167000	-12.62918000
10.89999953	-0.15871060	-53.80167000	-12.62918000
11.09999952	-0.79601380	-54.17691000	-12.62918000
11.29999951	-0.95533960	-54.92125000	-12.62918000
11.49999949	-0.95533960	-55.29650000	-12.62918000
11.69999948	-0.79601380	-55.33957000	-12.62918000
11.89999947	-0.47736220	-55.33957000	-12.62918000
12.09999946	-0.15871060	-55.29650000	-12.62918000
12.29999945	-0.15871060	-54.96432000	-12.62918000
12.49999943	0.00000000	-54.55216000	-12.62918000
12.69999942	0.00000000	-54.58907000	-12.62918000
12.89999941	0.00000000	-54.50910000	-12.62918000
13.09999940	0.00000000	-54.54601000	-12.62918000
13.29999939	0.00000000	-54.13385000	-12.62918000
13.49999937	0.00000000	-53.80167000	-12.62918000
13.69999936	0.00000000	-53.75861000	-12.62918000
13.89999935	0.00000000	-53.75861000	-12.62918000
14.09999934	-0.15871060	-53.75861000	-12.62918000
14.29999933	-0.15871060	-53.80167000	-12.62918000
14.49999932	0.00000000	-54.13385000	-12.62918000
14.69999930	0.00000000	-54.50295000	-12.62918000
14.89999929	0.00000000	-54.17691000	-12.62918000
15.09999928	0.00000000	-54.17691000	-12.62918000
15.29999927	0.00000000	-54.50295000	-12.62918000
15.49999926	0.00000000	-54.17691000	-12.62918000
15.69999924	0.00000000	-54.22613000	-12.62918000
15.89999923	0.00000000	-54.87204000	-12.62918000
16.09999922	0.00000000	-54.87204000	-12.62918000
16.29999921	0.00000000	-54.17691000	-12.62918000
16.49999920	0.00000000	-53.80167000	-12.62918000
16.69999919	0.00000000	-53.75861000	-12.62918000
16.89999917	0.00000000	-53.71555000	-12.62918000
17.09999916	0.00000000	-53.34030000	-12.62918000
17.29999915	0.00000000	-52.59596000	-12.62918000
17.49999914	0.00000000	-52.22071000	-12.62918000
17.69999913	0.00000000	-52.22071000	-12.62918000
17.89999911	0.00000000	-52.64517000	-12.62918000
18.09999910	0.00000000	-53.80167000	-12.62918000
18.29999909	0.00000000	-55.33957000	-12.62918000
18.49999908	0.00000000	-56.92052000	-12.62918000
18.69999907	0.00000000	-58.45841000	-12.62918000
18.89999905	0.00000000	-59.57185000	-12.62918000
19.09999904	0.00000000	-59.52879000	-12.62918000
19.29999903	0.00000000	-57.94783000	-12.62918000
19.49999902	0.00000000	-54.87204000	-12.62918000
19.69999901	0.00000000	-51.01501000	-12.62918000
19.89999900	0.00000000	-47.47785000	-12.62918000
20.09999898	0.00000000	-44.40821000	-12.62918000
20.29999897	0.00000000	-42.55044000	-12.62918000
20.49999896	0.00000000	-43.38090000	-12.62918000
20.69999895	0.00000000	-46.87500000	-12.62918000
20.89999894	0.00000000	-52.77436000	-12.62918000
21.09999892	0.00000000	-60.45767000	-12.62918000
21.29999891	0.00000000	-68.13484000	-12.62918000
21.49999890	0.00000000	-73.16068000	-12.62918000
21.69999889	0.00000000	-74.65550000	-12.62918000
21.89999888	0.00000000	-71.85654000	-12.62918000
22.09999886	0.00000000	-64.05019000	-12.62918000
22.29999885	0.00000000	-52.82972000	-12.62918000
22.49999884	0.00000000	-40.08366000	-12.62918000
22.69999883	0.00000000	-28.96161000	-12.62918000
22.89999882	0.00000000	-22.85925000	-12.62918000
23.09999881	0.00000000	-23.70202000	-12.58612000
23.29999879	0.00000000	-32.25885000	-12.21087000
23.49999878	0.00000000	-46.91806000	-11.46653000
23.69999877	0.00000000	-64.36392000	-11.09129000
23.89999876	0.00000000	-80.97932000	-11.04823000
24.09999875	0.00000000	-93.25787000	-11.09129000
24.29999873	0.00000000	-97.36097000	-11.46653000
24.49999872	0.00000000	-91.12327000	-12.29700000
24.69999871	0.00000000	-75.30142000	-13.46580000
24.89999870	0.00000000	-53.71555000	-15.36663000
25.09999869	0.00000000	-31.65600000	-16.85531000
25.29999867	0.00000000	-13.88410000	-17.32283000
25.49999866	0.00000000	-4.29995100	-17.27362000
25.69999865	0.00000000	-5.93011800	-16.43701000
25.89999864	0.00000000	-19.05143000	-14.07480000
26.09999863	0.00000000	-40.63730000	-10.62992000
26.29999862	0.00000000	-65.39124000	-6.72982200
26.49999860	0.00000000	-87.81988000	-3.29109200
26.69999859	0.00000000	-103.21730000	-1.01501000
26.89999858	0.00000000	-107.41260000	-1.10728300
27.09999857	0.00000000	-98.98498000	-4.21998000
27.29999856	0.00000000	-80.51180000	-10.02707000
27.49999854	0.00000000	-56.92052000	-17.36589000
27.69999853	0.00000000	-33.32923000	-24.71087000
27.89999852	0.00000000	-14.76993000	-30.46875000
28.09999851	0.00000000	-5.46259800	-33.07701000
28.29999850	0.00000000	-6.95127900	-31.07775000
28.49999848	0.00000000	-18.54085000	-24.10802000
28.69999847	0.00000000	-37.47539000	-13.69956000
28.89999846	0.00000000	-59.43651000	-2.08538400
29.09999845	0.00000000	-79.16461000	8.32308000
29.29999844	0.00000000	-92.00910000	15.24360000
29.49999843	0.00000000	-96.32750000	16.73228000
29.69999841	0.00000000	-91.67692000	12.03863000
29.89999840	0.00000000	-79.02312000	1.53789400
30.09999839	0.00000000	-62.03863000	-13.13976000
30.29999838	0.00000000	-44.96186000	-28.89395000
30.49999837	0.00000000	-30.58563000	-41.62155000
30.69999835	0.00000000	-21.69660000	-48.17913000
30.89999834	0.00000000	-20.07259000	-47.38558000
31.09999833	0.00000000	-25.46752000	-38.88410000
31.29999832	0.00000000	-36.26968000	-24.61860000
31.49999831	0.00000000	-50.17839000	-7.94168200
31.69999829	0.00000000	-63.71801000	8.32308000
31.89999828	0.00000000	-74.23105000	21.00763000
32.09999827	0.00000000	-80.05044000	26.76550000
32.29999826	0.00000000	-80.05044000	24.11417000
32.49999825	0.00000000	-74.32332000	14.03789000
32.69999824	0.00000000	-64.73917000	-1.43946800
32.89999822	0.00000000	-54.26919000	-19.59892000
33.09999821	0.00000000	-44.86958000	-36.14665000
33.29999820	0.00000000	-37.56767000	-47.42864000
33.49999819	0.00000000	-34.12278000	-51.29183000
33.69999818	0.00000000	-35.98671000	-47.42864000
33.89999816	0.00000000	-41.70767000	-36.23277000
34.09999815	0.00000000	-49.43405000	-20.39247000
34.29999814	0.00000000	-57.57259000	-3.42642700
34.49999813	0.00000000	-64.13631000	11.29429000
34.69999812	0.00000000	-67.99950000	20.17101000
34.89999810	0.00000000	-67.99950000	22.16412000
35.09999809	0.00000000	-64.22859000	16.68922000
35.29999808	0.00000000	-58.45841000	4.78592500
35.49999807	0.00000000	-52.26993000	-10.58686000
35.69999806	0.00000000	-46.91806000	-25.27067000
35.89999805	0.00000000	-44.17446000	-36.09744000
36.09999803	0.00000000	-44.50049000	-41.16019000
36.29999802	0.00000000	-46.82579000	-39.21014000
36.49999801	0.00000000	-51.10728000	-31.17003000
36.69999800	0.00000000	-56.40993000	-18.90379000
36.89999799	0.00000000	-60.64222000	-6.21924200
37.09999797	0.00000000	-62.59842000	3.45103300
37.29999796	0.00000000	-62.22318000	8.50762700
37.49999795	0.00000000	-59.52879000	7.72022600
37.69999794	0.00000000	-55.33957000	1.58710600
37.89999793	0.00000000	-51.06422000	-8.35998900
38.09999791	0.00000000	-47.57013000	-19.04527000
38.29999790	0.00000000	-45.24483000	-26.71629000
38.49999789	0.00000000	-44.91880000	-29.45374000
38.69999788	0.00000000	-46.82579000	-26.75935000
38.89999787	0.00000000	-50.63976000	-19.50664000
39.09999786	0.00000000	-54.87204000	-9.94094400
39.29999784	0.00000000	-58.45841000	-1.15649600
39.49999783	0.00000000	-61.52805000	4.23228400
39.69999782	0.00000000	-63.42888000	4.55831700
39.89999781	0.00000000	-63.06594000	-0.36909450
40.09999780	0.00000000	-61.15280000	-9.19045200
40.29999778	0.00000000	-57.99089000	-18.76845000
40.49999777	0.00000000	-53.75861000	-26.84547000
40.69999776	0.00000000	-49.52633000	-31.02854000
40.89999775	0.00000000	-46.40748000	-29.91511000
41.09999774	0.00000000	-44.82652000	-24.15723000
41.29999772	0.00000000	-44.82652000	-15.32357000
41.49999771	0.00000000	-46.40748000	-5.70866100
41.69999770	0.00000000	-49.48326000	1.95620100
41.89999769	0.00000000	-53.34030000	5.81323800
42.09999768	0.00000000	-56.87746000	4.69365100
42.29999767	0.00000000	-59.99015000	-0.64591530
42.49999765	0.00000000	-62.27239000	-8.35998900
42.69999764	0.00000000	-62.64764000	-16.81225000
42.89999763	0.00000000	-61.15280000	-23.73892000
43.09999762	0.00000000	-58.45841000	-27.22072000
43.29999761	0.00000000	-55.38263000	-26.89468000
43.49999759	0.00000000	-52.64517000	-23.08686000
43.69999758	0.00000000	-50.68897000	-17.32283000
43.89999757	0.00000000	-49.48326000	-11.14050000
44.09999756	0.00000000	-49.10802000	-5.75172200
44.29999755	0.00000000	-49.43405000	-2.63902500
44.49999753	0.00000000	-50.17839000	-2.17150600
44.69999752	0.00000000	-50.55364000	-3.70939900
44.89999751	0.00000000	-50.63976000	-6.77903500
45.09999750	0.00000000	-51.01501000	-10.62992000
45.29999749	0.00000000	-51.80241000	-14.11786000
45.49999748	0.00000000	-52.68823000	-16.81225000
45.69999746	0.00000000	-54.68750000	-18.01796000
45.89999745	0.00000000	-58.08316000	-17.64887000
46.09999744	0.00000000	-61.15280000	-16.48622000
46.29999743	0.00000000	-63.10900000	-14.16092000
46.49999742	0.00000000	-63.80413000	-11.51575000
46.69999740	0.00000000	-62.22318000	-9.55954600
46.89999739	0.00000000	-58.32308000	-8.35998900
47.09999738	0.00000000	-52.87278000	-8.02780400
47.29999737	0.00000000	-46.32135000	-8.77214500
47.49999736	0.00000000	-40.59424000	-10.67298000
47.69999734	0.00000000	-37.52460000	-12.62918000
47.89999733	0.00000000	-37.94291000	-14.58538000
48.09999732	0.00000000	-42.21825000	-16.48622000
48.29999731	0.00000000	-49.52633000	-17.23056000
48.49999730	0.00000000	-58.03395000	-16.85531000
48.69999729	0.00000000	-65.76648000	-15.27436000
48.89999727	0.00000000	-71.16142000	-12.58612000
49.09999726	0.00000000	-72.65625000	-9.51648500
49.29999725	0.00000000	-69.58046000	-6.82209600
49.49999724	0.00000000	-62.60457000	-5.29035400
49.69999723	0.00000000	-53.34030000	-5.29035400
49.89999721	0.00000000	-43.71309000	-6.82209600
50.09999720	0.00000000	-36.44808000	-9.55954600
50.29999719	0.00000000	-33.75369000	-13.04749000
50.49999718	0.00000000	-36.40502000	-16.90453000
50.69999717	0.00000000	-43.28863000	-19.92495000
50.89999715	0.00000000	-52.17765000	-21.08760000
51.09999714	0.00000000	-61.02362000	-19.97416000
51.29999713	0.00000000	-67.58119000	-17.23056000
51.49999712	0.00000000	-69.95570000	-13.37352000
51.69999711	0.00000000	-68.41782000	-8.77829600
51.89999710	0.00000000	-63.34276000	-5.33341500
52.09999708	0.00000000	-55.29650000	-3.70939900
52.29999707	0.00000000	-46.91806000	-3.70939900
52.49999706	0.00000000	-41.10482000	-5.29035400
52.69999705	0.00000000	-39.14862000	-8.40305000
52.89999704	0.00000000	-41.06176000	-12.62918000
53.09999702	0.00000000	-46.45054000	-16.81225000
53.29999701	0.00000000	-53.71555000	-19.50664000
53.49999700	0.00000000	-60.59916000	-19.93110000
53.69999699	0.00000000	-64.83144000	-18.43627000
53.89999698	0.00000000	-65.29897000	-15.69882000
54.09999696	0.00000000	-62.64764000	-12.29700000
54.29999695	0.00000000	-57.99089000	-9.23966500
54.49999694	0.00000000	-52.22071000	-8.07086500
54.69999693	0.00000000	-46.87500000	-8.35998900
54.89999692	0.00000000	-43.79921000	-9.55954600
55.09999691	0.00000000	-43.75615000	-11.42347000
55.29999689	0.00000000	-46.45054000	-13.32431000
55.49999688	0.00000000	-51.06422000	-14.07480000
55.69999687	0.00000000	-56.40993000	-13.74262000
55.89999686	0.00000000	-60.64222000	-12.58612000
56.09999685	0.00000000	-62.59842000	-11.04823000
56.29999683	0.00000000	-62.22318000	-9.51648500
56.49999682	0.00000000	-59.52879000	-8.44611200
56.69999681	0.00000000	-55.33957000	-8.90747900
56.89999680	0.00000000	-51.06422000	-11.51575000
57.09999679	0.00000000	-47.61319000	-14.94833000
57.29999677	0.00000000	-45.66929000	-17.64887000
57.49999676	0.00000000	-46.08144000	-19.59892000
57.69999675	0.00000000	-48.32062000	-19.88189000
57.89999674	0.00000000	-51.80241000	-17.97490000
58.09999673	0.00000000	-55.20423000	-14.07480000
58.29999672	0.00000000	-57.57259000	-9.09817800
58.49999670	0.00000000	-58.36614000	-4.12770700
58.69999669	0.00000000	-58.03395000	-1.06422200
58.89999668	0.00000000	-56.87746000	-0.68897630
59.09999667	0.00000000	-55.29650000	-3.01427100
59.29999666	0.00000000	-53.34030000	-8.07086500
59.49999664	0.00000000	-51.10728000	-14.58538000
59.69999663	0.00000000	-49.98769000	-21.13066000
59.89999662	0.00000000	-50.68897000	-25.68897000
60.09999661	0.00000000	-52.13459000	-26.84547000
60.29999660	0.00000000	-53.34030000	-24.15723000
60.49999658	0.00000000	-54.09079000	-18.39321000
60.69999657	0.00000000	-54.50295000	-11.04823000
60.89999656	0.00000000	-54.13385000	-3.75246000
61.09999655	0.00000000	-53.75861000	1.63016700
61.29999654	0.00000000	-53.34030000	3.53715500
61.49999653	0.00000000	-52.59596000	1.63016700
61.69999651	0.00000000	-52.22071000	-3.75246000
61.89999650	0.00000000	-52.22071000	-11.09744000
62.09999649	0.00000000	-52.64517000	-18.81152000
62.29999648	0.00000000	-53.80167000	-25.35679000
62.49999647	0.00000000	-55.29650000	-28.75861000
62.69999645	0.00000000	-56.45300000	-28.00812000
62.89999644	0.00000000	-56.82825000	-23.03765000
63.09999643	0.00000000	-56.45300000	-15.78494000
63.29999642	0.00000000	-55.24729000	-8.40305000
63.49999641	0.00000000	-53.38336000	-2.17765700
63.69999639	0.00000000	-51.43332000	2.04847400
63.89999638	0.00000000	-50.31373000	3.16190900
64.09999637	0.00000000	-49.90157000	0.51673230
64.29999636	0.00000000	-50.68897000	-4.87204700
64.49999635	0.00000000	-52.17765000	-11.42347000
64.69999634	0.00000000	-53.75861000	-18.01796000
64.89999632	0.00000000	-55.29650000	-22.99459000
65.09999631	0.00000000	-56.45300000	-25.35679000
65.29999630	0.00000000	-56.82825000	-24.66166000
65.49999629	0.00000000	-56.40993000	-21.96727000
65.69999628	0.00000000	-54.92125000	-18.06102000
65.89999626	0.00000000	-53.01427000	-13.04749000
66.09999625	0.00000000	-51.84547000	-8.44611200
66.29999624	0.00000000	-51.06422000	-5.24729300
66.49999623	0.00000000	-51.10728000	-3.29109200
66.69999622	0.00000000	-52.22071000	-2.54675200
66.89999620	0.00000000	-53.75861000	-3.70939900
67.09999619	0.00000000	-55.29650000	-6.36072800
67.29999618	0.00000000	-56.40993000	-9.47342500
67.49999617	0.00000000	-56.36687000	-12.58612000
67.69999616	0.00000000	-54.87204000	-15.36663000
67.89999615	0.00000000	-52.59596000	-17.74114000
68.09999613	0.00000000	-50.63976000	-20.01722000
68.29999612	0.00000000	-49.10802000	-21.13066000
68.49999611	0.00000000	-48.36368000	-20.39247000
68.69999610	0.00000000	-49.19414000	-18.47933000
68.89999609	0.00000000	-51.52559000	-15.69882000
69.09999607	0.00000000	-55.33957000	-12.21087000
69.29999606	0.00000000	-59.15354000	-8.31077700
69.49999605	0.00000000	-61.48499000	-4.82283400
69.69999604	0.00000000	-62.27239000	-2.12844500
69.89999603	0.00000000	-61.06668000	-1.05807100
70.09999601	0.00000000	-57.94783000	-2.63902500
70.29999600	0.00000000	-53.29109000	-6.82209600
70.49999599	0.00000000	-47.94537000	-12.21087000
70.69999598	0.00000000	-43.71309000	-17.23056000
70.89999597	0.00000000	-41.79995000	-21.13066000
71.09999596	0.00000000	-42.55044000	-23.08686000
71.29999594	0.00000000	-46.03223000	-23.03765000
71.49999593	0.00000000	-51.06422000	-20.71235000
71.69999592	0.00000000	-56.87746000	-16.11712000
71.89999591	0.00000000	-62.22318000	-11.14050000
72.09999590	0.00000000	-65.34202000	-6.86515700
72.29999588	0.00000000	-65.76033000	-4.17076700
72.49999587	0.00000000	-63.80413000	-3.70939900
72.69999586	0.00000000	-59.52879000	-4.87204700
72.89999585	0.00000000	-53.75861000	-7.19734200
73.09999584	0.00000000	-47.98843000	-10.62992000
73.29999582	0.00000000	-43.75615000	-13.65650000
73.49999581	0.00000000	-42.13213000	-15.27436000
73.69999580	0.00000000	-42.91954000	-15.69267000
73.89999579	0.00000000	-45.62008000	-15.32357000
74.09999578	0.00000000	-50.22145000	-14.16092000
74.29999577	0.00000000	-54.82898000	-12.67224000
74.49999575	0.00000000	-58.36614000	-11.55881000
74.69999574	0.00000000	-60.69144000	-11.55881000
74.89999573	0.00000000	-61.10974000	-12.67224000
75.09999572	0.00000000	-59.94709000	-14.16092000
75.29999571	0.00000000	-57.61565000	-15.27436000
75.49999569	0.00000000	-54.17691000	-15.27436000
75.69999568	0.00000000	-51.10728000	-14.07480000
75.89999567	0.00000000	-49.15108000	-11.74951000
76.09999566	0.00000000	-48.36368000	-8.35998900
76.29999565	0.00000000	-49.10802000	-5.70866100
76.49999563	0.00000000	-50.59670000	-4.87204700
76.69999562	0.00000000	-52.13459000	-5.29035400
76.89999561	0.00000000	-53.29109000	-7.28346400
77.09999560	0.00000000	-53.71555000	-11.14050000
77.29999559	0.00000000	-53.75861000	-15.74188000
77.49999558	0.00000000	-53.75861000	-19.97416000
77.69999556	0.00000000	-53.75861000	-22.66855000
77.89999555	0.00000000	-53.80167000	-23.03765000
78.09999554	0.00000000	-54.17691000	-21.08760000
78.29999553	0.00000000	-54.96432000	-16.81225000
78.49999552	0.00000000	-55.67175000	-11.09744000
78.69999550	0.00000000	-56.08390000	-5.70866100
78.89999549	0.00000000	-55.67175000	-2.17765700
79.09999548	0.00000000	-54.87204000	-0.59670270
79.29999547	0.00000000	-53.29109000	-1.01501000
79.49999546	0.00000000	-51.01501000	-3.75246000
79.69999544	0.00000000	-49.10802000	-8.35998900
79.89999543	0.00000000	-47.94537000	-13.74262000
80.09999542	0.00000000	-47.98843000	-18.39321000
80.29999541	0.00000000	-49.52633000	-21.50590000
80.49999540	0.00000000	-52.22071000	-22.66240000
80.69999539	0.00000000	-55.29650000	-21.54897000
80.89999537	0.00000000	-57.94783000	-18.85458000
81.09999536	0.00000000	-59.11048000	-15.32357000
81.29999535	0.00000000	-58.40920000	-11.09129000
81.49999534	0.00000000	-56.87746000	-7.24040300
81.69999533	0.00000000	-54.87204000	-4.87204700
81.89999531	0.00000000	-52.17765000	-3.66633800
82.09999530	0.00000000	-49.52633000	-3.70939900
82.29999529	0.00000000	-47.98843000	-5.24729300
82.49999528	0.00000000	-47.94537000	-7.93553100
82.69999527	0.00000000	-49.10802000	-11.04823000
82.89999525	0.00000000	-51.01501000	-14.16092000
83.09999524	0.00000000	-53.29109000	-16.90453000
83.29999523	0.00000000	-54.87204000	-18.85458000
83.49999522	0.00000000	-55.67175000	-20.01722000
83.69999521	0.00000000	-56.08390000	-19.97416000
83.89999520	0.00000000	-55.67175000	-18.43627000
84.09999518	0.00000000	-54.96432000	-15.69882000
84.29999517	0.00000000	-54.13385000	-12.21087000
84.49999516	0.00000000	-53.38336000	-8.35998900
84.69999515	0.00000000	-52.59596000	-5.24729300
84.89999514	0.00000000	-52.22071000	-3.33415300
85.09999512	0.00000000	-52.17765000	-2.97121000
85.29999511	0.00000000	-52.17765000	-4.91510800
85.49999510	0.00000000	-52.17765000	-8.35998900
85.69999509	0.00000000	-52.13459000	-12.62918000
85.89999508	0.00000000	-51.80241000	-16.90453000
86.09999506	0.00000000	-51.43332000	-20.39247000
86.29999505	0.00000000	-51.84547000	-22.66855000
86.49999504	0.00000000	-52.59596000	-22.61934000
86.69999503	0.00000000	-53.80167000	-19.92495000
86.89999502	0.00000000	-55.29650000	-15.32357000
87.09999501	0.00000000	-56.45300000	-9.93479300
87.29999499	0.00000000	-56.82825000	-5.33341500
87.49999498	0.00000000	-56.45300000	-2.59596400
87.69999497	0.00000000	-55.29650000	-2.22071800
87.89999496	0.00000000	-53.71555000	-4.12770700
88.09999495	0.00000000	-51.80241000	-7.98474400
88.29999493	0.00000000	-49.90157000	-12.62918000
88.49999492	0.00000000	-49.15108000	-17.23056000
88.69999491	0.00000000	-49.48326000	-20.66314000
88.89999490	0.00000000	-50.63976000	-21.46284000
89.09999489	0.00000000	-52.17765000	-19.92495000
89.29999487	0.00000000	-53.75861000	-16.43701000
89.49999486	0.00000000	-55.24729000	-11.42347000
89.69999485	0.00000000	-56.03469000	-6.44685000
89.89999484	0.00000000	-55.67175000	-2.63902500
90.09999483	0.00000000	-54.92125000	-1.48253000
90.29999482	0.00000000	-53.75861000	-3.37721400
90.49999480	0.00000000	-52.59596000	-7.24040300
90.69999479	0.00000000	-51.80241000	-12.58612000
90.89999478	0.00000000	-51.06422000	-17.55659000
91.09999477	0.00000000	-51.06422000	-20.30020000
91.29999476	0.00000000	-51.75935000	-21.08760000
91.49999474	0.00000000	-52.13459000	-19.50664000
91.69999473	0.00000000	-52.17765000	-15.69882000
91.89999472	0.00000000	-52.17765000	-11.04823000
92.09999471	0.00000000	-52.17765000	-6.44685000
92.29999470	0.00000000	-52.17765000	-3.01427100
92.49999468	0.00000000	-52.22071000	-2.26377900
92.69999467	0.00000000	-52.59596000	-4.17076700
92.89999466	0.00000000	-53.38336000	-8.40305000
93.09999465	0.00000000	-54.13385000	-13.74262000
93.29999464	0.00000000	-54.96432000	-18.35015000
93.49999463	0.00000000	-55.67175000	-21.03838000
93.69999461	0.00000000	-56.03469000	-21.03838000
93.89999460	0.00000000	-55.24729000	-18.39321000
94.09999459	0.00000000	-53.75861000	-14.16708000
94.29999458	0.00000000	-52.17765000	-9.56569900
94.49999457	0.00000000	-50.59670000	-5.75172200
94.69999455	0.00000000	-49.05881000	-4.21998000
94.89999454	0.00000000	-47.94537000	-5.29035400
95.09999453	0.00000000	-47.98843000	-7.98474400
95.29999452	0.00000000	-49.52633000	-11.46653000
95.49999451	0.00000000	-52.22071000	-15.32357000
95.69999449	0.00000000	-55.29650000	-18.35015000
95.89999448	0.00000000	-58.03395000	-19.50664000
96.09999447	0.00000000	-59.90403000	-18.39321000
96.29999446	0.00000000	-60.31618000	-15.74188000
96.49999445	0.00000000	-58.74138000	-12.62918000
96.69999444	0.00000000	-56.08390000	-9.55954600
96.89999442	0.00000000	-52.55290000	-7.28346400
97.09999441	0.00000000	-49.05881000	-6.86515700
97.29999440	0.00000000	-45.98917000	-7.98474400
97.49999439	0.00000000	-44.08833000	-9.89173200
97.69999438	0.00000000	-44.50049000	-12.21087000
97.89999436	0.00000000	-46.73966000	-14.11786000
98.09999435	0.00000000	-50.26451000	-15.27436000
98.29999434	0.00000000	-54.13385000	-15.32357000
98.49999433	0.00000000	-57.99089000	-14.58538000
98.69999432	0.00000000	-60.64222000	-13.79183000
98.89999430	0.00000000	-61.10974000	-12.62918000
99.09999429	0.00000000	-59.94709000	-11.51575000
99.29999428	0.00000000	-57.61565000	-11.09129000
99.49999427	0.00000000	-54.13385000	-11.04823000
99.69999426	0.00000000	-50.63976000	-11.04823000
99.89999425	0.00000000	-47.57013000	-11.00517000
100.09999423	0.00000000	-45.62008000	-10.62992000
100.29999422	0.00000000	-45.57086000	-9.89173200
100.49999421	0.00000000	-46.36442000	-9.51648500
100.69999420	0.00000000	-48.36368000	-9.51648500
100.89999419	0.00000000	-51.75935000	-9.89173200
101.09999417	0.00000000	-54.82898000	-10.76525000
101.29999416	0.00000000	-56.87746000	-12.26009000
101.49999415	0.00000000	-58.40920000	-14.57308000
101.69999414	0.00000000	-59.11048000	-16.02485000
101.89999413	0.00000000	-57.99089000	-16.48007000
102.09999411	0.00000000	-55.75787000	-15.64960000
102.29999410	0.00000000	-53.75861000	-13.74262000
102.49999409	0.00000000	-51.75935000	-11.04823000
102.69999408	0.00000000	-49.48326000	-8.35383800
102.89999407	0.00000000	-47.94537000	-6.40378900
103.09999406	0.00000000	-47.52707000	-5.29035400
103.29999404	0.00000000	-47.94537000	-5.70866100
103.49999403	0.00000000	-49.48326000	-7.98474400
103.69999402	0.00000000	-51.75935000	-11.04823000
103.89999401	0.00000000	-53.71555000	-14.16092000
104.09999400	0.00000000	-55.29650000	-16.85531000
104.29999398	0.00000000	-56.40993000	-18.39321000
104.49999397	0.00000000	-56.45300000	-18.39321000
104.69999396	0.00000000	-55.67175000	-16.85531000
104.89999395	0.00000000	-54.54601000	-14.16092000
105.09999394	0.00000000	-52.97121000	-11.09744000
105.29999392	0.00000000	-51.84547000	-8.40305000
105.49999391	0.00000000	-51.01501000	-6.86515700
105.69999390	0.00000000	-50.68897000	-6.86515700
105.89999389	0.00000000	-51.06422000	-8.35383800
106.09999388	0.00000000	-52.17765000	-10.67298000
106.29999387	0.00000000	-53.34030000	-12.95522000
106.49999385	0.00000000	-54.09079000	-14.90526000
106.69999384	0.00000000	-54.50295000	-15.64960000
106.89999383	0.00000000	-54.13385000	-15.32357000
107.09999382	0.00000000	-53.75861000	-14.16092000
107.29999381	0.00000000	-53.34030000	-12.62918000
107.49999379	0.00000000	-52.55290000	-11.04823000
107.69999378	0.00000000	-51.84547000	-9.55954600
107.89999377	0.00000000	-51.43332000	-8.82135800
108.09999376	0.00000000	-51.84547000	-9.55954600
108.29999375	0.00000000	-52.55290000	-11.04823000
108.49999374	0.00000000	-53.38336000	-12.62918000
108.69999372	0.00000000	-54.13385000	-14.16092000
108.89999371	0.00000000	-54.87204000	-15.27436000
109.09999370	0.00000000	-54.87204000	-15.27436000
109.29999369	0.00000000	-54.13385000	-14.16092000
109.49999368	0.00000000	-53.34030000	-12.62918000
109.69999366	0.00000000	-52.17765000	-11.04823000
109.89999365	0.00000000	-51.06422000	-9.51648500
110.09999364	0.00000000	-50.63976000	-8.40305000
110.29999363	0.00000000	-50.63976000	-8.40305000
110.49999362	0.00000000	-51.01501000	-9.51648500
110.69999360	0.00000000	-51.80241000	-11.04823000
110.89999359	0.00000000	-52.55290000	-12.62918000
111.09999358	0.00000000	-53.34030000	-14.16092000
111.29999357	0.00000000	-53.71555000	-15.27436000
111.49999356	0.00000000	-53.75861000	-15.32357000
111.69999355	0.00000000	-53.71555000	-14.58538000
111.89999353	0.00000000	-53.34030000	-13.79183000
112.09999352	0.00000000	-52.59596000	-12.62918000
112.29999351	0.00000000	-52.22071000	-11.46653000
112.49999350	0.00000000	-52.13459000	-10.67298000
112.69999349	0.00000000	-51.80241000	-9.89173200
112.89999347	0.00000000	-51.43332000	-9.56569900
113.09999346	0.00000000	-51.80241000	-9.89173200
113.29999345	0.00000000	-52.13459000	-10.62992000
113.49999344	0.00000000	-52.17765000	-11.04823000
113.69999343	0.00000000	-52.17765000	-11.46653000
113.89999341	0.00000000	-52.17765000	-12.21087000
114.09999340	0.00000000	-52.17765000	-12.58612000
114.29999339	0.00000000	-52.17765000	-12.62918000
114.49999338	0.00000000	-52.17765000	-12.62918000
114.69999337	0.00000000	-52.17765000	-12.62918000
114.89999336	0.00000000	-52.17765000	-12.62918000
115.09999334	0.00000000	-52.17765000	-12.62918000
115.29999333	0.00000000	-52.17765000	-12.62918000
115.49999332	0.00000000	-52.17765000	-12.62918000
115.69999331	0.00000000	-52.17765000	-12.58612000
115.89999330	0.00000000	-52.17765000	-12.21087000
116.09999328	0.00000000	-52.22071000	-11.42347000
116.29999327	0.00000000	-52.59596000	-10.67298000
116.49999326	0.00000000	-53.34030000	-9.89173200
116.69999325	0.00000000	-53.71555000	-9.56569900
116.89999324	0.00000000	-53.75861000	-9.89173200
117.09999322	0.00000000	-53.71555000	-10.67298000
117.29999321	0.00000000	-53.34030000	-11.46653000
117.49999320	0.00000000	-52.55290000	-12.62918000
117.69999319	0.00000000	-51.80241000	-13.74262000
117.89999318	0.00000000	-51.01501000	-14.16708000
118.09999317	0.00000000	-50.63976000	-14.16708000
118.29999315	0.00000000	-50.63976000	-13.79183000
118.49999314	0.00000000	-51.06422000	-13.00443000
118.69999313	0.00000000	-52.17765000	-12.25394000
118.89999312	0.00000000	-53.34030000	-11.42347000
119.09999311	0.00000000	-54.13385000	-10.67298000
119.29999309	0.00000000	-54.92125000	-9.89173200
119.49999308	0.00000000	-55.24729000	-9.56569900
119.69999307	0.00000000	-54.87204000	-9.89173200
119.89999306	0.00000000	-53.75861000	-10.62992000
120.09999305	0.00000000	-52.59596000	-11.04823000
120.29999303	0.00000000	-51.75935000	-11.46653000
120.49999302	0.00000000	-50.59670000	-12.21087000
120.69999301	0.00000000	-49.48326000	-12.58612000
120.89999300	0.00000000	-49.10802000	-12.62918000
121.09999299	0.00000000	-49.48326000	-12.62918000
121.29999298	0.00000000	-50.63976000	-12.62918000
121.49999296	0.00000000	-52.17765000	-12.62918000
121.69999295	0.00000000	-53.71555000	-12.62918000
121.89999294	0.00000000	-54.87204000	-12.58612000
122.09999293	0.00000000	-55.29650000	-12.21087000
122.29999292	0.00000000	-55.29650000	-11.42347000
122.49999290	0.00000000	-54.87204000	-10.72219000
122.69999289	0.00000000	-53.71555000	-10.26698000
122.89999288	0.00000000	-52.22071000	-10.25467000
123.09999287	0.00000000	-51.06422000	-9.89173200
123.29999286	0.00000000	-50.63976000	-9.93479300
123.49999284	0.00000000	-50.59670000	-10.67298000
123.69999283	0.00000000	-50.59670000	-11.42347000
123.89999282	0.00000000	-50.59670000	-12.21087000
124.09999281	0.00000000	-50.63976000	-12.58612000
124.29999280	0.00000000	-51.06422000	-12.62918000
124.49999279	0.00000000	-52.17765000	-12.62918000
124.69999277	0.00000000	-53.34030000	-12.62918000
124.89999276	0.00000000	-54.13385000	-12.58612000
125.09999275	0.00000000	-54.87204000	-12.21087000
125.29999274	0.00000000	-54.87204000	-11.46653000
125.49999273	0.00000000	-54.17691000	-11.09129000
125.69999271	0.00000000	-53.75861000	-11.04823000
125.89999270	0.00000000	-53.29109000	-11.04823000
126.09999269	0.00000000	-52.17765000	-11.04823000
126.29999268	0.00000000	-51.06422000	-11.04823000
126.49999267	0.00000000	-50.63976000	-11.09129000
126.69999265	0.00000000	-50.59670000	-11.46653000
126.89999264	0.00000000	-50.63976000	-12.21087000
127.09999263	0.00000000	-51.06422000	-12.58612000
127.29999262	0.00000000	-52.17765000	-12.62918000
127.49999261	0.00000000	-53.34030000	-12.62918000
127.69999260	0.00000000	-54.13385000	-12.62918000
127.89999258	0.00000000	-54.87204000	-12.58612000
128.09999257	0.00000000	-54.87204000	-12.21087000
128.29999256	0.00000000	-54.13385000	-11.46653000
128.49999255	0.00000000	-53.34030000	-11.09129000
128.69999254	0.00000000	-52.17765000	-11.04823000
128.89999252	0.00000000	-51.01501000	-11.04823000
129.09999251	0.00000000	-50.26451000	-11.04823000
129.29999250	0.00000000	-49.90157000	-11.09129000
129.49999249	0.00000000	-50.63976000	-11.46653000
129.69999248	0.00000000	-51.75935000	-12.21087000
129.89999246	0.00000000	-52.55290000	-12.58612000
130.09999245	0.00000000	-53.38336000	-12.62918000
130.29999244	0.00000000	-54.09079000	-12.58612000
130.49999243	0.00000000	-54.50295000	-12.21087000
130.69999242	0.00000000	-54.09079000	-11.46653000
130.89999241	0.00000000	-53.34030000	-11.09129000
131.09999239	0.00000000	-52.17765000	-11.04823000
131.29999238	0.00000000	-51.06422000	-11.04823000
131.49999237	0.00000000	-50.63976000	-11.09129000
131.69999236	0.00000000	-50.59670000	-11.46653000
131.89999235	0.00000000	-50.63976000	-12.25394000
132.09999233	0.00000000	-51.01501000	-12.96137000
132.29999232	0.00000000	-51.80241000	-13.37352000
132.49999231	0.00000000	-52.55290000	-13.00443000
132.69999230	0.00000000	-53.29109000	-12.62918000
132.89999229	0.00000000	-53.29109000	-12.21087000
133.09999227	0.00000000	-52.59596000	-11.42347000
133.29999226	0.00000000	-52.22071000	-10.67298000
133.49999225	0.00000000	-52.17765000	-9.89173200
133.69999224	0.00000000	-52.17765000	-9.51648500
133.89999223	0.00000000	-52.17765000	-9.51648500
134.09999222	0.00000000	-52.17765000	-9.93479300
134.29999220	0.00000000	-52.17765000	-11.04823000
134.49999219	0.00000000	-52.17765000	-12.21087000
134.69999218	0.00000000	-52.17765000	-13.00443000
134.89999217	0.00000000	-52.17765000	-13.79183000
135.09999216	0.00000000	-52.13459000	-14.16708000
135.29999214	0.00000000	-51.80241000	-14.16708000
135.49999213	0.00000000	-51.43332000	-13.74262000
135.69999212	0.00000000	-51.80241000	-12.62918000
135.89999211	0.00000000	-52.13459000	-11.51575000
136.09999210	0.00000000	-52.22071000	-11.04823000
136.29999208	0.00000000	-52.59596000	-10.62992000
136.49999207	0.00000000	-53.34030000	-9.93479300
136.69999206	0.00000000	-53.71555000	-9.93479300
136.89999205	0.00000000	-53.71555000	-10.62992000
137.09999204	0.00000000	-53.34030000	-11.04823000
137.29999203	0.00000000	-52.55290000	-11.46653000
137.49999201	0.00000000	-51.80241000	-12.21087000
137.69999200	0.00000000	-51.01501000	-12.58612000
137.89999199	0.00000000	-50.63976000	-12.62918000
138.09999198	0.00000000	-50.63976000	-12.62918000
138.29999197	0.00000000	-51.01501000	-12.62918000
138.49999195	0.00000000	-51.75935000	-12.58612000
138.69999194	0.00000000	-52.17765000	-12.21087000
138.89999193	0.00000000	-52.59596000	-11.42347000
139.09999192	0.00000000	-53.34030000	-10.67298000
139.29999191	0.00000000	-53.66634000	-9.89173200
139.49999189	0.00000000	-53.34030000	-9.51648500
139.69999188	0.00000000	-52.55290000	-9.47342500
139.89999187	0.00000000	-51.80241000	-9.51648500
140.09999186	0.00000000	-51.01501000	-9.93479300
140.29999185	0.00000000	-50.63976000	-11.04823000
140.49999184	0.00000000	-50.59670000	-12.16166000
140.69999182	0.00000000	-50.63976000	-12.58612000
140.89999181	0.00000000	-51.01501000	-12.62918000
141.09999180	0.00000000	-51.75935000	-12.62918000
141.29999179	0.00000000	-52.13459000	-12.58612000
141.49999178	0.00000000	-52.17765000	-12.21087000
141.69999176	0.00000000	-52.17765000	-11.46653000
141.89999175	0.00000000	-52.17765000	-11.04823000
142.09999174	0.00000000	-52.13459000	-10.62992000
142.29999173	0.00000000	-51.75935000	-9.89173200
142.49999172	0.00000000	-51.06422000	-9.56569900
142.69999170	0.00000000	-51.06422000	-9.89173200
142.89999169	0.00000000	-51.75935000	-10.67298000
143.09999168	0.00000000	-52.13459000	-11.46653000
143.29999167	0.00000000	-52.17765000	-12.62918000
143.49999166	0.00000000	-52.17765000	-13.74262000
143.69999165	0.00000000	-52.17765000	-14.11786000
143.89999163	0.00000000	-52.17765000	-13.79183000
144.09999162	0.00000000	-52.17765000	-13.04749000
144.29999161	0.00000000	-52.13459000	-12.62918000
144.49999160	0.00000000	-51.80241000	-12.21087000
144.69999159	0.00000000	-51.39025000	-11.46653000
144.89999157	0.00000000	-51.38410000	-11.09129000
145.09999156	0.00000000	-51.01501000	-11.04823000
145.29999155	0.00000000	-51.10728000	-11.09129000
145.49999154	0.00000000	-52.13459000	-11.46653000
145.69999153	0.00000000	-52.92200000	-12.21087000
145.89999151	0.00000000	-52.92815000	-12.58612000
146.09999150	0.00000000	-52.96506000	-12.62918000
146.29999149	0.00000000	-52.55290000	-12.62918000
146.49999148	0.00000000	-52.22071000	-12.62918000
146.69999147	0.00000000	-52.17765000	-12.62918000
146.89999146	0.00000000	-52.13459000	-12.62918000
147.09999144	0.00000000	-51.75935000	-12.58612000
147.29999143	0.00000000	-51.01501000	-12.21087000
147.49999142	0.00000000	-50.68897000	-11.46653000
147.69999141	0.00000000	-51.01501000	-11.09129000
147.89999140	0.00000000	-51.75935000	-11.04823000
148.09999138	0.00000000	-52.13459000	-11.04823000
148.29999137	0.00000000	-52.17765000	-11.04823000
148.49999136	0.00000000	-52.17765000	-11.09129000
148.69999135	0.00000000	-52.17765000	-11.46653000
148.89999134	0.00000000	-52.17765000	-12.21087000
149.09999132	0.00000000	-52.17765000	-12.58612000
149.29999131	0.00000000	-52.17765000	-12.62918000
149.49999130	0.00000000	-52.13459000	-12.62918000
149.69999129	0.00000000	-51.80241000	-12.58612000
149.89999128	0.00000000	-51.39025000	-12.21087000
150.09999127	0.00000000	-51.38410000	-11.46653000
150.29999125	0.00000000	-51.01501000	-11.09129000
150.49999124	0.00000000	-51.06422000	-11.04823000
150.69999123	0.00000000	-51.75935000	-11.04823000
150.89999122	0.00000000	-52.13459000	-11.04823000
151.09999121	0.00000000	-52.17765000	-11.04823000
151.29999119	0.00000000	-52.17765000	-11.04823000
151.49999118	0.00000000	-52.17765000	-11.04823000
151.69999117	0.00000000	-52.17765000	-11.04823000
151.89999116	0.00000000	-52.17765000	-11.04823000
152.09999115	0.00000000	-52.17765000	-11.04823000
152.29999113	0.00000000	-52.13459000	-11.04823000
152.49999112	0.00000000	-51.75935000	-11.09129000
152.69999111	0.00000000	-51.01501000	-11.42347000
152.89999110	0.00000000	-50.63976000	-11.79257000
153.09999109	0.00000000	-50.59670000	-11.42347000
153.29999108	0.00000000	-50.63976000	-11.09129000
153.49999106	0.00000000	-51.01501000	-11.04823000
153.69999105	0.00000000	-51.75935000	-11.04823000
153.89999104	0.00000000	-52.13459000	-11.04823000
154.09999103	0.00000000	-52.17765000	-11.04823000
154.29999102	0.00000000	-52.22071000	-11.04823000
154.49999100	0.00000000	-52.55290000	-11.04823000
154.69999099	0.00000000	-52.92200000	-11.04823000
154.89999098	0.00000000	-52.55290000	-11.04823000
155.09999097	0.00000000	-52.17765000	-11.04823000
155.29999096	0.00000000	-51.80241000	-11.09129000
155.49999094	0.00000000	-51.39025000	-11.46653000
155.69999093	0.00000000	-51.38410000	-12.16166000
155.89999092	0.00000000	-50.97194000	-12.16166000
156.09999091	0.00000000	-50.63976000	-11.46653000
156.29999090	0.00000000	-50.63976000	-11.09129000
156.49999089	0.00000000	-51.01501000	-11.04823000
156.69999087	0.00000000	-51.75935000	-11.04823000
156.89999086	0.00000000	-52.17765000	-11.04823000
157.09999085	0.00000000	-52.59596000	-11.04823000
157.29999084	0.00000000	-53.29109000	-11.04823000
157.49999083	0.00000000	-53.29109000	-11.04823000
157.69999081	0.00000000	-52.59596000	-11.09129000
157.89999080	0.00000000	-52.17765000	-11.46653000
158.09999079	0.00000000	-51.80241000	-12.21087000
158.29999078	0.00000000	-51.39025000	-12.58612000
158.49999077	0.00000000	-51.38410000	-12.62918000
158.69999075	0.00000000	-50.97194000	-12.62918000
158.89999074	0.00000000	-50.63976000	-12.58612000
159.09999073	0.00000000	-50.63976000	-12.21087000
159.29999072	0.00000000	-51.01501000	-11.46653000
159.49999071	0.00000000	-51.75935000	-11.09129000
159.69999070	0.00000000	-52.13459000	-11.04823000
159.89999068	0.00000000	-52.17765000	-11.04823000
160.09999067	0.00000000	-52.17765000	-11.04823000
160.29999066	0.00000000	-52.17765000	-11.04823000
160.49999065	0.00000000	-52.17765000	-11.04823000
160.69999064	0.00000000	-52.17765000	-11.09129000
160.89999062	0.00000000	-52.17765000	-11.46653000
161.09999061	0.00000000	-52.17765000	-12.21087000
161.29999060	0.00000000	-52.17765000	-12.58612000
161.49999059	0.00000000	-52.13459000	-12.62918000
161.69999058	0.00000000	-51.75935000	-12.62918000
161.89999056	0.00000000	-51.01501000	-12.58612000
162.09999055	0.00000000	-50.63976000	-12.21087000
162.29999054	0.00000000	-50.59670000	-11.46653000
162.49999053	0.00000000	-50.63976000	-11.09129000
162.69999052	0.00000000	-51.01501000	-11.04823000
162.89999051	0.00000000	-51.75935000	-11.04823000
163.09999049	0.00000000	-52.13459000	-11.04823000
163.29999048	0.00000000	-52.17765000	-11.04823000
163.49999047	0.00000000	-52.17765000	-11.04823000
163.69999046	0.00000000	-52.17765000	-11.04823000
163.89999045	0.00000000	-52.17765000	-11.09129000
164.09999043	0.00000000	-52.13459000	-11.42347000
164.29999042	0.00000000	-51.80241000	-11.79257000
164.49999041	0.00000000	-51.39025000	-11.42347000
164.69999040	0.00000000	-51.38410000	-11.09129000
164.89999039	0.00000000	-50.97194000	-11.04823000
165.09999037	0.00000000	-50.63976000	-11.04823000
165.29999036	0.00000000	-50.59670000	-11.04823000
165.49999035	0.00000000	-50.59670000	-11.04823000
165.69999034	0.00000000	-50.59670000	-11.04823000
165.89999033	0.00000000	-50.63976000	-11.04823000
166.09999032	0.00000000	-51.01501000	-11.04823000
166.29999030	0.00000000	-51.75935000	-11.04823000
166.49999029	0.00000000	-52.13459000	-11.04823000
166.69999028	0.00000000	-52.17765000	-11.04823000
166.89999027	0.00000000	-52.17765000	-11.04823000
167.09999026	0.00000000	-52.13459000	-11.04823000
167.29999024	0.00000000	-51.80241000	-11.04823000
167.49999023	0.00000000	-51.39025000	-11.04823000
167.69999022	0.00000000	-51.38410000	-11.04823000
167.89999021	0.00000000	-50.97194000	-11.04823000
168.09999020	0.00000000	-50.63976000	-11.04823000
168.29999018	0.00000000	-50.59670000	-11.04823000
168.49999017	0.00000000	-50.59670000	-11.04823000
168.69999016	0.00000000	-50.63976000	-11.04823000
168.89999015	0.00000000	-51.01501000	-11.04823000
169.09999014	0.00000000	-51.75935000	-11.04823000
169.29999013	0.00000000	-52.13459000	-11.04823000
169.49999011	0.00000000	-52.17765000	-11.04823000
169.69999010	0.00000000	-52.17765000	-11.04823000
169.89999009	0.00000000	-52.17765000	-11.04823000
170.09999008	0.00000000	-52.17765000	-11.04823000
170.29999007	0.00000000	-52.17765000	-11.04823000
170.49999005	0.00000000	-52.13459000	-11.04823000
170.69999004	0.00000000	-51.75935000	-11.04823000
170.89999003	0.00000000	-51.06422000	-11.09129000
171.09999002	0.00000000	-51.06422000	-11.42347000
171.29999001	0.00000000	-51.71013000	-11.79257000
171.49998999	0.00000000	-51.71013000	-11.42347000
171.69998998	0.00000000	-51.01501000	-11.09129000
171.89998997	0.00000000	-50.63976000	-11.09129000
172.09998996	0.00000000	-50.63976000	-11.42347000
172.29998995	0.00000000	-51.01501000	-11.79257000
172.49998994	0.00000000	-51.71013000	-11.42347000
172.69998992	0.00000000	-51.75935000	-11.09129000
172.89998991	0.00000000	-51.43332000	-11.04823000
173.09998990	0.00000000	-51.80241000	-11.04823000
173.29998989	0.00000000	-52.13459000	-11.04823000
173.49998988	0.00000000	-52.17765000	-11.04823000
173.69998986	0.00000000	-52.17765000	-11.04823000
173.89998985	0.00000000	-52.17765000	-11.04823000
174.09998984	0.00000000	-52.13459000	-11.04823000
174.29998983	0.00000000	-51.80241000	-11.04823000
174.49998982	0.00000000	-51.43332000	-11.04823000
174.69998980	0.00000000	-51.80241000	-11.04823000
174.89998979	0.00000000	-52.13459000	-11.04823000
175.09998978	0.00000000	-52.17765000	-11.04823000
175.29998977	0.00000000	-52.17765000	-11.04823000
175.49998976	0.00000000	-52.17765000	-11.04823000
175.69998975	0.00000000	-52.13459000	-11.04823000
175.89998973	0.00000000	-51.80241000	-11.04823000
176.09998972	0.00000000	-51.43332000	-11.04823000
176.29998971	0.00000000	-51.80241000	-11.04823000
176.49998970	0.00000000	-52.08538000	-11.04823000
176.69998969	0.00000000	-51.75935000	-11.04823000
176.89998967	0.00000000	-51.01501000	-11.04823000
177.09998966	0.00000000	-50.63976000	-11.04823000
177.29998965	0.00000000	-50.63976000	-11.04823000
177.49998964	0.00000000	-51.01501000	-11.04823000
177.69998963	0.00000000	-51.75935000	-11.04823000
177.89998961	0.00000000	-52.08538000	-11.09129000
178.09998960	0.00000000	-51.80241000	-11.42347000
178.29998959	0.00000000	-51.43332000	-11.79257000
178.49998958	0.00000000	-51.80241000	-11.42347000
178.69998957	0.00000000	-52.13459000	-11.09129000
178.89998956	0.00000000	-52.17765000	-11.04823000
179.09998954	0.00000000	-52.13459000	-11.04823000
179.29998953	0.00000000	-51.75935000	-11.04823000
179.49998952	0.00000000	-51.01501000	-11.04823000
179.69998951	0.00000000	-50.68897000	-11.04823000
179.89998950	0.00000000	-50.97194000	-11.04823000
180.09998948	0.00000000	-51.38410000	-11.04823000
180.29998947	0.00000000	-51.34719000	-11.04823000
180.49998946	0.00000000	-51.42716000	-11.09129000
180.69998945	0.00000000	-51.39025000	-11.42347000
180.89998944	0.00000000	-51.80241000	-11.79257000
181.09998942	0.00000000	-52.13459000	-11.42347000
181.29998941	0.00000000	-52.17765000	-11.09129000
181.49998940	0.00000000	-52.13459000	-11.04823000
181.69998939	0.00000000	-51.75935000	-11.04823000
181.89998938	0.00000000	-51.06422000	-11.04823000
182.09998937	0.00000000	-51.01501000	-11.04823000
182.29998935	0.00000000	-51.34104000	-11.04823000
182.49998934	0.00000000	-50.97194000	-11.04823000
182.69998933	0.00000000	-50.63976000	-11.09129000
182.89998932	0.00000000	-50.59670000	-11.46653000
183.09998931	0.00000000	-50.59670000	-12.21087000
183.29998929	0.00000000	-50.59670000	-12.58612000
183.49998928	0.00000000	-50.63976000	-12.58612000
183.69998927	0.00000000	-51.01501000	-12.21087000
183.89998926	0.00000000	-51.71013000	-11.46653000
184.09998925	0.00000000	-51.75935000	-11.09129000
184.29998923	0.00000000	-51.43332000	-11.04823000
184.49998922	0.00000000	-51.80241000	-11.04823000
184.69998921	0.00000000	-52.13459000	-11.04823000
184.89998920	0.00000000	-52.13459000	-11.04823000
185.09998919	0.00000000	-51.75935000	-11.04823000
185.29998918	0.00000000	-51.01501000	-11.04823000
185.49998916	0.00000000	-50.63976000	-11.04823000
185.69998915	0.00000000	-50.59670000	-11.09129000
185.89998914	0.00000000	-50.59670000	-11.42347000
186.09998913	0.00000000	-50.59670000	-11.83563000
186.29998912	0.00000000	-50.63976000	-11.84178000
186.49998910	0.00000000	-50.97194000	-12.21087000
186.69998909	0.00000000	-51.34104000	-12.16166000
186.89998908	0.00000000	-51.01501000	-11.46653000
187.09998907	0.00000000	-51.01501000	-11.04823000
187.29998906	0.00000000	-51.38410000	-10.67298000
187.49998904	0.00000000	-51.39025000	-10.31004000
187.69998903	0.00000000	-51.75935000	-10.67298000
187.89998902	0.00000000	-51.75935000	-11.00517000
188.09998901	0.00000000	-51.39025000	-11.04823000
188.29998900	0.00000000	-51.38410000	-11.04823000
188.49998899	0.00000000	-50.97194000	-11.09129000
188.69998897	0.00000000	-50.63976000	-11.46653000
188.89998896	0.00000000	-50.59670000	-12.21087000
189.09998895	0.00000000	-50.59670000	-12.53691000
189.29998894	0.00000000	-50.63976000	-12.25394000
189.49998893	0.00000000	-50.97194000	-11.88484000
189.69998891	0.00000000	-51.34104000	-12.21087000
189.89998890	0.00000000	-51.01501000	-12.16166000
190.09998889	0.00000000	-51.06422000	-11.46653000
190.29998888	0.00000000	-51.75935000	-11.09129000
190.49998887	0.00000000	-52.13459000	-11.04823000
190.69998885	0.00000000	-52.17765000	-11.04823000
190.89998884	0.00000000	-52.13459000	-11.04823000
191.09998883	0.00000000	-51.75935000	-11.04823000
191.29998882	0.00000000	-51.01501000	-11.04823000
191.49998881	0.00000000	-50.63976000	-11.04823000
191.69998880	0.00000000	-50.59670000	-11.09129000
191.89998878	0.00000000	-50.59670000	-11.42347000
192.09998877	0.00000000	-50.59670000	-11.79257000
192.29998876	0.00000000	-50.59670000	-11.42347000
192.49998875	0.00000000	-50.63976000	-11.14050000
192.69998874	0.00000000	-50.97194000	-11.42347000
192.89998872	0.00000000	-51.38410000	-11.79257000
193.09998871	0.00000000	-51.34719000	-11.42347000
193.29998870	0.00000000	-51.42716000	-11.09129000
193.49998869	0.00000000	-51.34719000	-11.04823000
193.69998868	0.00000000	-51.38410000	-11.04823000
193.89998866	0.00000000	-50.97194000	-11.04823000
194.09998865	0.00000000	-50.63976000	-11.04823000
194.29998864	0.00000000	-50.59670000	-11.04823000
194.49998863	0.00000000	-50.59670000	-11.04823000
194.69998862	0.00000000	-50.59670000	-11.04823000
194.89998861	0.00000000	-50.59670000	-11.04823000
195.09998859	0.00000000	-50.59670000	-11.04823000
195.29998858	0.00000000	-50.59670000	-11.04823000
195.49998857	0.00000000	-50.63976000	-11.04823000
195.69998856	0.00000000	-51.01501000	-11.04823000
195.89998855	0.00000000	-51.75935000	-11.09129000
196.09998853	0.00000000	-52.08538000	-11.42347000
