Time	Channel A	Channel B	Channel C
(us)	(V)	(mV)	(mV)

-4.49999956	0.00000000	-9.48572700	4.31840500
-4.29999957	0.00000000	-9.48572700	4.69365100
-4.09999958	0.00000000	-9.48572700	4.73671200
-3.89999959	0.00000000	-9.48572700	4.69365100
-3.69999960	0.00000000	-9.48572700	4.36146600
-3.49999962	0.00000000	-9.48572700	3.94931100
-3.29999963	0.00000000	-9.48572700	3.94315900
-3.09999964	0.00000000	-9.48572700	3.53100400
-2.89999965	0.00000000	-9.48572700	3.19881900
-2.69999966	0.00000000	-9.48572700	3.15575800
-2.49999968	0.00000000	-9.48572700	3.15575800
-2.29999969	0.00000000	-9.48572700	3.19881900
-2.09999970	0.00000000	-9.48572700	3.57406500
-1.89999971	0.00000000	-9.48572700	4.26919300
-1.69999972	0.00000000	-9.48572700	4.31840500
-1.49999973	0.00000000	-9.48572700	3.99237200
-1.29999975	0.00000000	-9.44266700	4.36146600
-1.09999976	0.00000000	-9.11048200	4.69365100
-0.89999977	0.00000000	-8.74138700	4.73671200
-0.69999978	0.00000000	-9.11048200	4.69365100
-0.49999979	0.00000000	-9.44266700	4.36146600
-0.29999981	0.31803640	-9.48572700	3.99237200
-0.09999982	0.63668800	-9.48572700	4.36146600
0.10000017	0.95533960	-9.48572700	4.64443900
0.30000016	0.95533960	-9.48572700	4.31840500
0.50000015	0.95533960	-9.48572700	3.62327700
0.70000013	0.47736220	-9.48572700	3.62327700
0.90000012	-0.31803640	-9.48572700	4.26919300
1.10000011	-1.43331700	-9.48572700	4.31840500
1.30000010	-2.22994600	-9.48572700	3.99237200
1.50000009	-2.70792300	-9.48572700	4.36146600
1.70000008	-2.54859700	-9.48572700	4.69365100
1.90000006	-1.43331700	-9.48572700	4.73671200
2.10000005	0.31803640	-9.48572700	4.73671200
2.30000004	2.38927200	-9.48572700	4.73671200
2.50000003	4.30056600	-9.48572700	4.69365100
2.70000002	5.25652100	-9.48572700	4.31840500
2.90000000	5.09719500	-9.48572700	3.57406500
3.09999999	3.18590100	-9.48572700	3.19881900
3.29999998	0.31803640	-9.48572700	3.15575800
3.49999997	-3.02657500	-9.48572700	3.19881900
3.69999996	-6.05315000	-9.44266700	3.53100400
3.89999994	-7.80511800	-9.11048200	3.94315900
4.09999993	-7.64579200	-8.69832600	3.94931100
4.29999992	-5.41584600	-8.69217500	4.36146600
4.49999991	-1.59264300	-8.32308000	4.69365100
4.69999990	2.70792300	-8.37229300	4.73671200
4.89999989	6.69045300	-9.06742000	4.69365100
5.09999987	9.07972400	-9.44266700	4.31840500
5.29999986	9.23905000	-9.48572700	3.57406500
5.49999985	7.00848900	-9.48572700	3.19881900
5.69999984	3.02657500	-9.48572700	3.15575800
5.89999983	-1.75196900	-9.48572700	3.15575800
6.09999981	-6.05315000	-9.44266700	3.19881900
6.29999980	-8.92039900	-9.11048200	3.57406500
6.49999979	-9.39837600	-8.74138700	4.31840500
6.69999978	-7.64579200	-9.06742000	4.69365100
6.89999977	-3.98191400	-9.06742000	4.73671200
7.09999975	0.31803640	-8.74138700	4.73671200
7.29999974	4.45989200	-9.11048200	4.73671200
7.49999973	7.00848900	-9.44266700	4.69365100
7.69999972	7.80511800	-9.48572700	4.31840500
7.89999971	6.53112700	-9.48572700	3.57406500
8.09999970	3.82258900	-9.48572700	3.19881900
8.29999968	0.47736220	-9.48572700	3.15575800
8.49999967	-2.38927200	-9.48572700	3.19881900
8.69999966	-4.45989200	-9.48572700	3.57406500
8.89999965	-5.25652100	-9.48572700	4.31840500
9.09999964	-4.61921700	-9.44266700	4.69365100
9.29999962	-2.86724900	-9.11048200	4.73671200
9.49999961	-0.95533960	-8.74138700	4.73671200
9.69999960	0.95533960	-9.11048200	4.73671200
9.89999959	2.07062000	-9.44266700	4.73671200
10.09999958	2.54859700	-9.44266700	4.69365100
10.29999956	2.22994600	-9.06742000	4.31840500
10.49999955	1.59264300	-8.32308000	3.57406500
10.69999954	0.63668800	-7.99704600	3.24803100
10.89999953	-0.15871060	-8.32308000	3.57406500
11.09999952	-0.63668800	-9.01820900	4.31840500
11.29999951	-0.95533960	-9.06742000	4.64443900
11.49999949	-0.95533960	-8.74138700	4.31840500
11.69999948	-0.79601380	-9.06742000	3.62327700
11.89999947	-0.47736220	-9.06742000	3.62327700
12.09999946	-0.15871060	-8.74138700	4.26919300
12.29999945	-0.15871060	-9.11048200	4.31840500
12.49999943	0.00000000	-9.44266700	3.94931100
12.69999942	0.00000000	-9.48572700	3.98622000
12.89999941	0.00000000	-9.48572700	3.94931100
13.09999940	0.00000000	-9.44266700	4.36146600
13.29999939	0.15871060	-9.11048200	4.64443900
13.49999937	0.00000000	-8.74138700	4.36146600
13.69999936	0.00000000	-9.11048200	3.99237200
13.89999935	0.00000000	-9.44266700	4.31840500
14.09999934	0.00000000	-9.48572700	4.26919300
14.29999933	-0.15871060	-9.48572700	3.62327700
14.49999932	-0.15871060	-9.48572700	3.57406500
14.69999930	0.00000000	-9.48572700	3.94315900
14.89999929	0.00000000	-9.48572700	3.90625000
15.09999928	0.00000000	-9.48572700	3.98622000
15.29999927	0.00000000	-9.48572700	3.90625000
15.49999926	0.00000000	-9.48572700	3.98622000
15.69999924	0.00000000	-9.48572700	3.94931100
15.89999923	0.00000000	-9.48572700	4.36146600
16.09999922	0.00000000	-9.44266700	4.64443900
16.29999921	0.00000000	-9.11048200	4.31840500
16.49999920	0.00000000	-8.69832600	3.62327700
16.69999919	0.00000000	-8.69217500	3.62327700
16.89999917	0.00000000	-8.28001900	4.26919300
17.09999916	0.00000000	-7.94783400	4.26919300
17.29999915	0.00000000	-7.86171200	3.57406500
17.49999914	0.00000000	-7.48646600	3.19881900
17.69999913	0.00000000	-6.79133800	3.19881900
17.89999911	0.00000000	-6.83439900	3.57406500
18.09999910	0.00000000	-7.94783400	4.31840500
18.29999909	0.00000000	-9.48572700	4.69365100
18.49999908	0.00000000	-11.06668000	4.69365100
18.69999907	0.00000000	-12.60458000	4.36146600
18.89999905	0.00000000	-13.71801000	3.94931100
19.09999904	0.00000000	-13.71801000	3.94315900
19.29999903	0.00000000	-12.55536000	3.57406500
19.49999902	0.00000000	-10.55610000	3.62327700
19.69999901	0.00000000	-7.39419200	4.26919300
19.89999900	0.00000000	-3.20497000	4.31840500
20.09999898	0.00000000	0.60900590	3.94931100
20.29999897	0.00000000	2.51599400	3.98622000
20.49999896	0.00000000	2.09768700	3.90625000
20.69999895	0.00000000	-1.06422200	3.98622000
20.89999894	0.00000000	-6.87746000	3.94931100
21.09999892	0.00000000	-14.22859000	4.36146600
21.29999891	0.00000000	-21.57972000	4.69365100
21.49999890	0.00000000	-27.30069000	4.69365100
21.69999889	0.00000000	-29.53371000	4.31840500
21.89999888	0.00000000	-26.79626000	3.57406500
22.09999886	0.00000000	-19.39591000	3.19881900
22.29999885	0.00000000	-8.51377900	3.15575800
22.49999884	0.00000000	4.23228400	3.19881900
22.69999883	0.00000000	15.72958000	3.57406500
22.89999882	0.00000000	22.61319000	4.31840500
23.09999881	0.00000000	22.57013000	4.69365100
23.29999879	0.00000000	15.12672000	4.77977300
23.49999878	0.00000000	1.16879900	5.15501900
23.69999877	0.00000000	-16.97219000	5.89320800
23.89999876	0.00000000	-34.65797000	6.26845500
24.09999875	0.00000000	-47.36097000	6.26845500
24.29999873	0.00000000	-51.59325000	5.85014700
24.49999872	0.00000000	-46.10605000	4.68750000
24.69999871	0.00000000	-31.77288000	3.15575800
24.89999870	0.00000000	-10.88829000	1.57480300
25.09999869	0.00000000	11.44808000	0.04306102
25.29999867	0.00000000	30.00738000	-1.11343500
25.49999866	0.00000000	40.39124000	-1.43946800
25.69999865	0.00000000	39.96678000	-0.60285430
25.89999864	0.00000000	28.34030000	2.08538400
26.09999863	0.00000000	7.86786400	5.93626900
26.29999862	0.00000000	-16.83686000	9.79945900
26.49999860	0.00000000	-40.00984000	13.28125000
26.69999859	0.00000000	-56.20078000	15.18824000
26.89999858	0.00000000	-61.63877000	15.14518000
27.09999857	0.00000000	-55.03814000	12.72761000
27.29999856	0.00000000	-38.09670000	7.29576700
27.49999854	0.00000000	-14.51772000	0.00000000
27.69999853	0.00000000	9.77485200	-7.33882900
27.89999852	0.00000000	29.49680000	-13.10285000
28.09999851	0.00000000	39.96678000	-15.74803000
28.29999850	0.00000000	39.27165000	-14.16708000
28.49999848	0.00000000	28.47564000	-8.31692900
28.69999847	0.00000000	9.91018600	1.01501000
28.89999846	0.00000000	-12.05093000	12.58612000
29.09999845	0.00000000	-32.19119000	23.73892000
29.29999844	0.00000000	-46.15526000	31.40379000
29.49999843	0.00000000	-51.59325000	33.67987000
29.69999841	0.00000000	-47.40403000	29.36146000
29.89999840	0.00000000	-35.16855000	18.95300000
30.09999839	0.00000000	-18.88533000	4.65059000
30.29999838	0.00000000	-1.80856300	-10.45152000
30.49999837	0.00000000	13.30585000	-23.55438000
30.69999835	0.00000000	22.93922000	-31.59449000
30.89999834	0.00000000	25.35679000	-31.96973000
31.09999833	0.00000000	20.38017000	-24.62475000
31.29999832	0.00000000	10.00246000	-11.06053000
31.49999831	0.00000000	-3.20497000	6.31766700
31.69999829	0.00000000	-16.74459000	23.64665000
31.89999828	0.00000000	-27.95891000	36.79257000
32.09999827	0.00000000	-34.19045000	43.02411000
32.29999826	0.00000000	-34.65797000	41.44316000
32.49999825	0.00000000	-30.00123000	32.14813000
32.69999824	0.00000000	-21.11220000	16.72613000
32.89999822	0.00000000	-9.95324800	-1.07037400
33.09999821	0.00000000	0.47367120	-17.70423000
33.29999820	0.00000000	7.86786400	-30.01353000
33.49999819	0.00000000	11.02977000	-34.65797000
33.69999818	0.00000000	9.86712600	-30.89321000
33.89999816	0.00000000	4.84128900	-20.44168000
34.09999815	0.00000000	-3.20497000	-5.33956700
34.29999814	0.00000000	-11.67569000	11.65723000
34.49999813	0.00000000	-18.28248000	26.71629000
34.69999812	0.00000000	-22.18258000	36.74950000
34.89999810	0.00000000	-22.55782000	39.44390000
35.09999809	0.00000000	-19.48819000	34.09818000
35.29999808	0.00000000	-13.76107000	22.57628000
35.49999807	0.00000000	-7.20964500	7.89247000
35.69999806	0.00000000	-1.80856300	-6.78518600
35.89999805	0.00000000	1.67938000	-18.35630000
36.09999803	0.00000000	2.05462600	-24.16338000
36.29999802	0.00000000	-0.59670270	-23.04995000
36.49999801	0.00000000	-5.21038300	-15.74803000
36.69999800	0.00000000	-10.59916000	-4.18307100
36.89999799	0.00000000	-15.21284000	8.87672100
37.09999797	0.00000000	-17.90723000	19.98031000
37.29999796	0.00000000	-17.90723000	25.78740000
37.49999795	0.00000000	-15.25591000	25.09227000
37.69999794	0.00000000	-11.02362000	19.00221000
37.89999793	0.00000000	-6.36687900	9.38730200
38.09999791	0.00000000	-2.13459600	-0.93503930
38.29999790	0.00000000	0.55979330	-9.01205700
38.49999789	0.00000000	0.98425190	-12.45694000
38.69999788	0.00000000	-0.55364170	-10.54995000
38.89999787	0.00000000	-3.71555100	-3.72170300
39.09999786	0.00000000	-8.32308000	5.47490100
39.29999784	0.00000000	-13.29970000	13.89641000
39.49999783	0.00000000	-16.79380000	19.64813000
39.69999782	0.00000000	-18.37475000	20.34941000
39.89999781	0.00000000	-17.99951000	15.84030000
40.09999780	0.00000000	-15.71727000	7.75713500
40.29999778	0.00000000	-12.60458000	-1.43946800
40.49999777	0.00000000	-9.01820900	-9.52263600
40.69999776	0.00000000	-4.78592500	-14.08095000
40.89999775	0.00000000	-0.97194880	-13.70571000
41.09999774	0.00000000	0.98425190	-8.31692900
41.29999772	0.00000000	1.02731300	0.51058070
41.49999771	0.00000000	-0.55364170	10.45152000
41.69999770	0.00000000	-3.62942900	18.53469000
41.89999769	0.00000000	-7.52952700	22.44094000
42.09999768	0.00000000	-11.39887000	22.06570000
42.29999767	0.00000000	-14.88066000	17.42126000
42.49999765	0.00000000	-16.79380000	9.38115100
42.69999764	0.00000000	-16.83686000	0.55364170
42.89999763	0.00000000	-15.34203000	-6.78518600
43.09999762	0.00000000	-13.02288000	-11.01132000
43.29999761	0.00000000	-10.64838000	-11.05438000
43.49999759	0.00000000	-7.94783400	-7.29576700
43.69999758	0.00000000	-5.67175200	-1.53174200
43.89999757	0.00000000	-4.83513700	4.64443900
44.09999756	0.00000000	-4.74286400	10.07628000
44.29999755	0.00000000	-4.78592500	13.52116000
44.49999753	0.00000000	-5.16117100	14.35162000
44.69999752	0.00000000	-5.90551100	12.45079000
44.89999751	0.00000000	-6.28075700	9.05511800
45.09999750	0.00000000	-6.36687900	5.15501900
45.29999749	0.00000000	-6.79133800	1.66707700
45.49999748	0.00000000	-7.99704600	-1.02116100
45.69999746	0.00000000	-9.95324800	-2.18380900
45.89999745	0.00000000	-12.69070000	-1.43946800
46.09999744	0.00000000	-15.71727000	0.41830710
46.29999743	0.00000000	-18.04257000	2.78051200
46.49999742	0.00000000	-18.74385000	5.06274600
46.69999740	0.00000000	-17.57505000	7.01279500
46.89999739	0.00000000	-14.00098000	7.80019600
47.09999738	0.00000000	-8.59990100	7.84940900
47.29999737	0.00000000	-2.04847400	7.38188900
47.49999736	0.00000000	3.67864200	5.85014700
47.69999734	0.00000000	6.79749000	3.57406500
47.89999733	0.00000000	6.74827700	1.62401600
48.09999732	0.00000000	3.21112200	0.09227362
48.29999731	0.00000000	-3.71555100	-0.69512790
48.49999730	0.00000000	-12.18012000	-0.28297240
48.69999729	0.00000000	-19.95571000	0.87967510
48.89999727	0.00000000	-25.71973000	3.19881900
49.09999726	0.00000000	-27.95275000	5.89320800
49.29999725	0.00000000	-25.21530000	8.21850300
49.49999724	0.00000000	-17.95029000	10.16855000
49.69999723	0.00000000	-8.32308000	10.86983000
49.89999721	0.00000000	0.93503930	10.07628000
50.09999720	0.00000000	7.91092400	7.38188900
50.29999719	0.00000000	10.98671000	3.57406500
50.49999718	0.00000000	9.44881800	0.09227362
50.69999717	0.00000000	3.63558100	-2.64517700
50.89999715	0.00000000	-5.25344500	-4.14000900
51.09999714	0.00000000	-15.16363000	-3.71555100
51.29999713	0.00000000	-22.88386000	-1.07037400
51.49999712	0.00000000	-26.00886000	2.78051200
51.69999711	0.00000000	-24.88312000	6.68676100
51.89999710	0.00000000	-19.44513000	10.53765000
52.09999708	0.00000000	-11.06668000	13.14591000
52.29999707	0.00000000	-2.60211600	13.18898000
52.49999706	0.00000000	3.58636800	10.91289000
52.69999705	0.00000000	6.28690900	7.47416300
52.89999704	0.00000000	4.74901600	3.53100400
53.09999702	0.00000000	-0.59670270	-0.23991140
53.29999701	0.00000000	-7.86171200	-2.97121000
53.49999700	0.00000000	-14.78838000	-3.35260800
53.69999699	0.00000000	-19.44513000	-2.27608300
53.89999698	0.00000000	-20.97687000	0.09227362
54.09999696	0.00000000	-19.06988000	3.11269700
54.29999695	0.00000000	-14.09326000	5.85014700
54.49999694	0.00000000	-7.94783400	7.75713500
54.69999693	0.00000000	-2.17765700	8.54453700
54.89999692	0.00000000	1.63016700	7.75713500
55.09999691	0.00000000	2.05462600	5.89320800
55.29999689	0.00000000	-0.59670270	3.61712600
55.49999688	0.00000000	-5.21038300	2.12844500
55.69999687	0.00000000	-10.59916000	2.08538400
55.89999686	0.00000000	-15.21284000	3.19881900
56.09999685	0.00000000	-17.90723000	4.73671200
56.29999683	0.00000000	-17.90723000	6.26845500
56.49999682	0.00000000	-15.25591000	7.38188900
56.69999681	0.00000000	-11.06668000	7.33882900
56.89999680	0.00000000	-6.79133800	5.75787400
57.09999679	0.00000000	-3.29724400	2.73745100
57.29999677	0.00000000	-1.02116100	-0.69512790
57.49999676	0.00000000	-1.02116100	-2.97736200
57.69999675	0.00000000	-3.25418300	-3.71555100
57.89999674	0.00000000	-6.32381900	-2.09768700
58.09999673	0.00000000	-9.44266700	2.08538400
58.29999672	0.00000000	-12.13706000	7.42495000
58.49999670	0.00000000	-13.67495000	12.07554000
58.69999669	0.00000000	-13.67495000	15.14518000
58.89999668	0.00000000	-12.18012000	15.88336000
59.09999667	0.00000000	-9.90403500	13.56422000
59.29999666	0.00000000	-7.94783400	8.91978400
59.49999664	0.00000000	-6.36687900	2.73745100
59.69999663	0.00000000	-5.25344500	-3.76476400
59.89999662	0.00000000	-5.25344500	-8.31692900
60.09999661	0.00000000	-6.36687900	-9.52263600
60.29999660	0.00000000	-7.86171200	-7.20349400
60.49999658	0.00000000	-9.01820900	-2.18380900
60.69999657	0.00000000	-9.44266700	4.77977300
60.89999656	0.00000000	-9.44266700	12.07554000
61.09999655	0.00000000	-9.06742000	17.83957000
61.29999654	0.00000000	-8.28001900	20.48474000
61.49999653	0.00000000	-7.52952700	18.95300000
61.69999651	0.00000000	-6.79133800	13.56422000
61.89999650	0.00000000	-6.79133800	5.89320800
62.09999649	0.00000000	-7.57258800	-2.18380900
62.29999648	0.00000000	-8.69832600	-8.36614100
62.49999647	0.00000000	-10.27313000	-11.52190000
62.69999645	0.00000000	-11.34966000	-11.47884000
62.89999644	0.00000000	-11.76181000	-7.99089500
63.09999643	0.00000000	-10.97441000	-1.44562000
63.29999642	0.00000000	-9.48572700	6.22539300
63.49999641	0.00000000	-7.90477300	13.18898000
63.69999639	0.00000000	-6.36687900	17.79650000
63.89999638	0.00000000	-5.21038300	19.00221000
64.09999637	0.00000000	-4.83513700	16.72613000
64.29999636	0.00000000	-5.21038300	12.07554000
64.49999635	0.00000000	-6.36687900	5.89320800
64.69999634	0.00000000	-7.90477300	-0.64591530
64.89999632	0.00000000	-9.48572700	-5.67175200
65.09999631	0.00000000	-10.97441000	-8.40920300
65.29999630	0.00000000	-11.71875000	-8.40920300
65.49999629	0.00000000	-10.97441000	-5.75787400
65.69999628	0.00000000	-9.48572700	-1.53174200
65.89999626	0.00000000	-7.90477300	3.15575800
66.09999625	0.00000000	-6.41609200	7.80019600
66.29999624	0.00000000	-5.62869100	11.65723000
66.49999623	0.00000000	-5.99163300	13.61343000
66.69999622	0.00000000	-6.79133800	13.69956000
66.89999620	0.00000000	-8.32308000	12.53691000
67.09999619	0.00000000	-10.18086000	10.58686000
67.29999618	0.00000000	-10.93135000	7.84940900
67.49999617	0.00000000	-10.59916000	4.73671200
67.69999616	0.00000000	-9.39345400	1.62401600
67.89999615	0.00000000	-7.48646600	-1.11343500
68.09999613	0.00000000	-5.21038300	-3.06348400
68.29999612	0.00000000	-3.67249000	-4.22613100
68.49999611	0.00000000	-3.29724400	-4.18307100
68.69999610	0.00000000	-4.09079700	-2.64517700
68.89999609	0.00000000	-6.45915300	0.09227362
69.09999607	0.00000000	-9.86097400	3.66633800
69.29999606	0.00000000	-13.39198000	8.22465500
69.49999605	0.00000000	-16.00640000	12.44464000
69.69999604	0.00000000	-17.19980000	14.40084000
69.89999603	0.00000000	-15.95718000	14.85605000
70.09999601	0.00000000	-12.92446000	13.56422000
70.29999600	0.00000000	-8.23695900	10.11934000
70.49999599	0.00000000	-3.29724400	5.11195900
70.69999598	0.00000000	0.65206690	0.09227362
70.89999597	0.00000000	2.89124000	-4.18307100
71.09999596	0.00000000	2.88508800	-6.82824800
71.29999594	0.00000000	-0.22760820	-6.82824800
71.49999593	0.00000000	-5.16117100	-4.18307100
71.69999592	0.00000000	-10.64838000	0.04306102
71.89999591	0.00000000	-15.67421000	4.69365100
72.09999590	0.00000000	-19.48819000	8.96284400
72.29999588	0.00000000	-20.65084000	12.03248000
72.49999587	0.00000000	-18.74385000	13.18898000
72.69999586	0.00000000	-14.88066000	12.07554000
72.89999585	0.00000000	-9.44266700	9.42421200
73.09999584	0.00000000	-3.71555100	6.31151500
73.29999582	0.00000000	0.55979330	3.24803100
73.49999581	0.00000000	2.51599400	0.92888770
73.69999580	0.00000000	2.14074800	0.13533460
73.89999579	0.00000000	-0.55364170	0.46136810
74.09999578	0.00000000	-4.78592500	1.62401600
74.29999577	0.00000000	-9.44266700	3.11269700
74.49999575	0.00000000	-13.67495000	4.22613100
74.69999574	0.00000000	-16.36934000	4.26919300
74.89999573	0.00000000	-16.79380000	3.53100400
75.09999572	0.00000000	-15.29897000	2.78051200
75.29999571	0.00000000	-12.60458000	1.99311000
75.49999569	0.00000000	-9.48572700	1.66707700
75.69999568	0.00000000	-6.41609200	2.08538400
75.89999567	0.00000000	-4.09079700	3.66633800
76.09999566	0.00000000	-3.29724400	6.36072800
76.29999565	0.00000000	-3.62942900	9.38115100
76.49999563	0.00000000	-4.78592500	11.61417000
76.69999562	0.00000000	-6.28075700	11.61417000
76.89999561	0.00000000	-7.48646600	9.33809000
77.09999560	0.00000000	-8.23695900	5.85014700
77.29999559	0.00000000	-8.64911400	1.57480300
77.49999558	0.00000000	-8.28001900	-2.64517700
77.69999556	0.00000000	-7.99704600	-5.71481200
77.89999555	0.00000000	-8.32308000	-6.82824800
78.09999554	0.00000000	-9.11048200	-5.29650500
78.29999553	0.00000000	-9.86097400	-1.43946800
78.49999552	0.00000000	-10.64838000	3.57406500
78.69999550	0.00000000	-10.97441000	9.00590400
78.89999549	0.00000000	-10.59916000	13.61343000
79.09999548	0.00000000	-9.44266700	16.30167000
79.29999547	0.00000000	-7.86171200	16.30167000
79.49999546	0.00000000	-5.90551100	13.61343000
79.69999544	0.00000000	-3.67249000	8.96284400
79.89999543	0.00000000	-2.55290300	3.20497000
80.09999542	0.00000000	-3.25418300	-2.18380900
80.29999541	0.00000000	-4.78592500	-5.67175200
80.49999540	0.00000000	-6.79133800	-6.87130900
80.69999539	0.00000000	-9.48572700	-5.71481200
80.89999537	0.00000000	-12.13706000	-2.69439000
81.09999536	0.00000000	-13.67495000	1.20570900
81.29999535	0.00000000	-13.71801000	5.11195900
81.49999534	0.00000000	-12.55536000	8.96284400
81.69999533	0.00000000	-10.59916000	11.65723000
81.89999531	0.00000000	-7.90477300	12.53691000
82.09999530	0.00000000	-5.25344500	12.53691000
82.29999529	0.00000000	-3.67249000	11.70029000
82.49999528	0.00000000	-3.25418300	9.33809000
82.69999527	0.00000000	-3.67249000	5.93626900
82.89999525	0.00000000	-5.21038300	2.41141700
83.09999524	0.00000000	-7.43725300	-0.33218500
83.29999523	0.00000000	-9.01820900	-2.69439000
83.49999522	0.00000000	-9.86097400	-4.18307100
83.69999521	0.00000000	-10.59916000	-4.18307100
83.89999520	0.00000000	-10.59916000	-2.60211600
84.09999518	0.00000000	-9.86097400	0.46751960
84.29999517	0.00000000	-9.11048200	4.31840500
84.49999516	0.00000000	-8.32308000	7.84940900
84.69999515	0.00000000	-7.94783400	10.96211000
84.89999514	0.00000000	-7.90477300	13.23819000
85.09999512	0.00000000	-7.90477300	13.61343000
85.29999511	0.00000000	-7.86171200	12.11860000
85.49999510	0.00000000	-7.48646600	9.33809000
85.69999509	0.00000000	-6.74212600	5.43184000
85.89999508	0.00000000	-6.36687900	0.46136810
86.09999506	0.00000000	-6.36687900	-3.71555100
86.29999505	0.00000000	-6.74212600	-5.71481200
86.49999504	0.00000000	-7.52952700	-5.71481200
86.69999503	0.00000000	-8.32308000	-3.71555100
86.89999502	0.00000000	-9.52879000	0.51058070
87.09999501	0.00000000	-10.97441000	5.85014700
87.29999499	0.00000000	-11.76181000	10.49459000
87.49999498	0.00000000	-11.39887000	13.60728000
87.69999497	0.00000000	-10.59916000	14.72687000
87.89999496	0.00000000	-9.01820900	13.18898000
88.09999495	0.00000000	-6.79133800	9.33809000
88.29999493	0.00000000	-5.25344500	4.36146600
88.49999492	0.00000000	-4.78592500	-0.64591530
88.69999491	0.00000000	-4.83513700	-4.09079700
88.89999490	0.00000000	-5.62869100	-5.29650500
89.09999489	0.00000000	-7.52952700	-4.09079700
89.29999487	0.00000000	-9.39345400	-0.64591530
89.49999486	0.00000000	-10.59916000	4.36146600
89.69999485	0.00000000	-11.02362000	9.33809000
89.89999484	0.00000000	-11.02362000	13.18898000
90.09999483	0.00000000	-10.59916000	14.67766000
90.29999482	0.00000000	-9.48572700	13.18898000
90.49999480	0.00000000	-8.32308000	9.33809000
90.69999479	0.00000000	-7.52952700	4.36146600
90.89999478	0.00000000	-6.74212600	-0.64591530
91.09999477	0.00000000	-6.41609200	-4.09079700
91.29999476	0.00000000	-6.69906400	-5.25344500
91.49999474	0.00000000	-7.11122000	-3.71555100
91.69999473	0.00000000	-7.11737200	0.13533460
91.89999472	0.00000000	-7.52952700	5.11195900
92.09999471	0.00000000	-7.86171200	10.07628000
92.29999470	0.00000000	-7.90477300	13.14591000
92.49999468	0.00000000	-7.90477300	13.56422000
92.69999467	0.00000000	-7.94783400	11.65723000
92.89999466	0.00000000	-8.32308000	7.80019600
93.09999465	0.00000000	-9.11048200	3.20497000
93.29999464	0.00000000	-9.86097400	-1.02116100
93.49999463	0.00000000	-10.64838000	-3.71555100
93.69999461	0.00000000	-10.97441000	-4.09079700
93.89999460	0.00000000	-10.55610000	-2.18380900
94.09999459	0.00000000	-9.01820900	1.66707700
94.29999458	0.00000000	-6.74212600	6.21924200
94.49999457	0.00000000	-4.83513700	10.07628000
94.69999455	0.00000000	-3.62942900	11.98327000
94.89999454	0.00000000	-3.25418300	11.65723000
95.09999453	0.00000000	-3.62942900	9.33809000
95.29999452	0.00000000	-4.83513700	5.89320800
95.49999451	0.00000000	-6.79133800	2.04232300
95.69999449	0.00000000	-9.52879000	-1.02116100
95.89999448	0.00000000	-12.55536000	-2.55905500
96.09999447	0.00000000	-14.83760000	-2.18380900
96.29999446	0.00000000	-15.21284000	0.13533460
96.49999445	0.00000000	-13.71801000	3.53100400
96.69999444	0.00000000	-11.02362000	7.01279500
96.89999442	0.00000000	-7.86171200	9.29502900
97.09999441	0.00000000	-4.36761800	10.11934000
97.29999440	0.00000000	-0.92888770	9.33809000
97.49999439	0.00000000	0.93503930	7.43110200
97.69999438	0.00000000	0.60900590	4.77977300
97.89999436	0.00000000	-1.71628900	2.46063000
98.09999435	0.00000000	-5.16117100	1.29183100
98.29999434	0.00000000	-9.06742000	0.87967510
98.49999433	0.00000000	-12.55536000	1.66707700
98.69999432	0.00000000	-15.25591000	3.11269700
98.89999430	0.00000000	-16.41855000	4.26919300
99.09999429	0.00000000	-15.67421000	4.69365100
99.29999428	0.00000000	-13.71801000	4.73671200
99.49999427	0.00000000	-10.59916000	4.77977300
99.69999426	0.00000000	-6.74212600	5.11195900
99.89999425	0.00000000	-3.29724400	5.51796200
100.09999423	0.00000000	-0.92888770	5.53026500
100.29999422	0.00000000	-0.17839570	5.98548200
100.49999421	0.00000000	-0.92888770	6.64370100
100.69999420	0.00000000	-3.25418300	7.05585600
100.89999419	0.00000000	-6.32381900	6.59448800
101.09999417	0.00000000	-9.44266700	5.47490100
101.29999416	0.00000000	-12.13706000	3.53100400
101.49999415	0.00000000	-13.71801000	1.66707700
101.69999414	0.00000000	-14.09326000	0.46136810
101.89999413	0.00000000	-13.34276000	0.09227362
102.09999411	0.00000000	-11.44193000	0.51058070
102.29999410	0.00000000	-9.48572700	2.08538400
102.49999409	0.00000000	-7.48646600	4.73671200
102.69999408	0.00000000	-5.21038300	7.43110200
102.89999407	0.00000000	-3.67249000	9.38115100
103.09999406	0.00000000	-3.25418300	10.53765000
103.29999404	0.00000000	-3.62942900	10.49459000
103.49999403	0.00000000	-4.83513700	8.96284400
103.69999402	0.00000000	-6.74212600	6.26845500
103.89999401	0.00000000	-9.01820900	3.19881900
104.09999400	0.00000000	-10.59916000	0.51058070
104.29999398	0.00000000	-11.39887000	-1.02116100
104.49999397	0.00000000	-11.76181000	-1.06422200
104.69999396	0.00000000	-10.97441000	0.09227362
104.89999395	0.00000000	-9.48572700	2.04232300
105.09999394	0.00000000	-7.94783400	4.73671200
105.29999392	0.00000000	-6.74212600	7.38188900
105.49999391	0.00000000	-5.94857300	8.91978400
105.69999390	0.00000000	-5.21038300	8.96284400
105.89999389	0.00000000	-5.25344500	7.80019600
106.09999388	0.00000000	-6.36687900	5.89320800
106.29999387	0.00000000	-7.86171200	3.57406500
106.49999385	0.00000000	-9.01820900	1.66707700
106.69999384	0.00000000	-9.44266700	0.51058070
106.89999383	0.00000000	-9.44266700	0.51058070
107.09999382	0.00000000	-9.06742000	1.62401600
107.29999381	0.00000000	-8.28001900	3.19881900
107.49999379	0.00000000	-7.52952700	5.11195900
107.69999378	0.00000000	-6.74212600	7.01279500
107.89999377	0.00000000	-6.36687900	7.75713500
108.09999376	0.00000000	-6.36687900	7.42495000
108.29999375	0.00000000	-6.79133800	6.26845500
108.49999374	0.00000000	-7.90477300	4.73671200
108.69999372	0.00000000	-9.06742000	3.19881900
108.89999371	0.00000000	-9.81791200	2.04232300
109.09999370	0.00000000	-10.23007000	1.66707700
109.29999369	0.00000000	-9.81791200	2.04232300
109.49999368	0.00000000	-9.06742000	3.19881900
109.69999366	0.00000000	-7.90477300	4.73671200
109.89999365	0.00000000	-6.74212600	6.26845500
110.09999364	0.00000000	-5.99163300	7.42495000
110.29999363	0.00000000	-5.57947800	7.80019600
110.49999362	0.00000000	-5.99163300	7.38188900
110.69999360	0.00000000	-6.74212600	5.85014700
110.89999359	0.00000000	-7.90477300	3.61712600
111.09999358	0.00000000	-9.01820900	2.08538400
111.29999357	0.00000000	-9.44266700	1.61786400
111.49999356	0.00000000	-9.48572700	1.57480300
111.69999355	0.00000000	-9.44266700	1.66707700
111.89999353	0.00000000	-9.06742000	2.41141700
112.09999352	0.00000000	-8.32308000	3.90009800
112.29999351	0.00000000	-7.90477300	4.69365100
112.49999350	0.00000000	-7.52952700	5.15501900
112.69999349	0.00000000	-7.16043300	5.89320800
112.89999347	0.00000000	-7.52952700	6.21924200
113.09999346	0.00000000	-7.86171200	5.89320800
113.29999345	0.00000000	-7.90477300	5.15501900
113.49999344	0.00000000	-7.90477300	4.77977300
113.69999343	0.00000000	-7.90477300	4.69365100
113.89999341	0.00000000	-7.90477300	4.31840500
114.09999340	0.00000000	-7.90477300	3.57406500
114.29999339	0.00000000	-7.90477300	3.24803100
114.49999338	0.00000000	-7.90477300	3.53100400
114.69999337	0.00000000	-7.90477300	3.90009800
114.89999336	0.00000000	-7.90477300	3.53100400
115.09999334	0.00000000	-7.86171200	3.19881900
115.29999333	0.00000000	-7.52952700	3.15575800
115.49999332	0.00000000	-7.16043300	3.19881900
115.69999331	0.00000000	-7.52952700	3.57406500
115.89999330	0.00000000	-7.86171200	4.36146600
116.09999328	0.00000000	-7.90477300	5.11195900
116.29999327	0.00000000	-7.90477300	5.89320800
116.49999326	0.00000000	-7.90477300	6.26845500
116.69999325	0.00000000	-7.90477300	6.31151500
116.89999324	0.00000000	-7.90477300	6.26845500
117.09999322	0.00000000	-7.90477300	5.85014700
117.29999321	0.00000000	-7.90477300	4.73671200
117.49999320	0.00000000	-7.86171200	3.57406500
117.69999319	0.00000000	-7.48646600	2.78051200
117.89999318	0.00000000	-6.69906400	1.99311000
118.09999317	0.00000000	-5.99163300	1.61786400
118.29999315	0.00000000	-5.62869100	1.61786400
118.49999314	0.00000000	-6.36687900	2.04232300
118.69999313	0.00000000	-7.48646600	3.19881900
118.89999312	0.00000000	-8.32308000	4.68750000
119.09999311	0.00000000	-9.44266700	5.85014700
119.29999309	0.00000000	-10.18086000	6.26845500
119.49999308	0.00000000	-9.86097400	6.31151500
119.69999307	0.00000000	-9.48572700	6.26845500
119.89999306	0.00000000	-9.01820900	5.89320800
120.09999305	0.00000000	-7.90477300	5.15501900
120.29999303	0.00000000	-6.74212600	4.73671200
120.49999302	0.00000000	-5.94857300	4.31840500
120.69999301	0.00000000	-5.16117100	3.57406500
120.89999300	0.00000000	-4.83513700	3.19881900
121.09999299	0.00000000	-5.21038300	3.15575800
121.29999298	0.00000000	-6.36687900	3.15575800
121.49999296	0.00000000	-7.86171200	3.15575800
121.69999295	0.00000000	-9.06742000	3.19881900
121.89999294	0.00000000	-9.86097400	3.57406500
122.09999293	0.00000000	-10.59916000	4.31840500
122.29999292	0.00000000	-10.59916000	4.73671200
122.49999290	0.00000000	-9.86097400	5.15501900
122.69999289	0.00000000	-9.11048200	5.89320800
122.89999288	0.00000000	-8.28001900	6.26845500
123.09999287	0.00000000	-7.48646600	6.31151500
123.29999286	0.00000000	-6.32381900	6.26845500
123.49999284	0.00000000	-5.21038300	5.89320800
123.69999283	0.00000000	-4.83513700	5.11195900
123.89999282	0.00000000	-5.16117100	4.36146600
124.09999281	0.00000000	-5.94857300	3.57406500
124.29999280	0.00000000	-6.69906400	3.19881900
124.49999279	0.00000000	-7.52952700	3.15575800
124.69999277	0.00000000	-8.28001900	3.19881900
124.89999276	0.00000000	-9.06742000	3.57406500
125.09999275	0.00000000	-9.44266700	4.31840500
125.29999274	0.00000000	-9.48572700	4.73671200
125.49999273	0.00000000	-9.44266700	5.15501900
125.69999271	0.00000000	-9.06742000	5.89320800
125.89999270	0.00000000	-8.28001900	6.26845500
126.09999269	0.00000000	-7.52952700	6.26845500
126.29999268	0.00000000	-6.69906400	5.89320800
126.49999267	0.00000000	-5.94857300	5.15501900
126.69999265	0.00000000	-5.21038300	4.77977300
126.89999264	0.00000000	-5.21038300	4.69365100
127.09999263	0.00000000	-5.94857300	4.31840500
127.29999262	0.00000000	-6.74212600	3.57406500
127.49999261	0.00000000	-7.90477300	3.19881900
127.69999260	0.00000000	-9.06742000	3.15575800
127.89999258	0.00000000	-9.81791200	3.19881900
128.09999257	0.00000000	-10.18086000	3.57406500
128.29999256	0.00000000	-9.44266700	4.31840500
128.49999255	0.00000000	-8.32308000	4.69365100
128.69999254	0.00000000	-7.48646600	4.73671200
128.89999252	0.00000000	-6.32381900	4.73671200
129.09999251	0.00000000	-5.25344500	4.73671200
129.29999250	0.00000000	-5.21038300	4.73671200
129.49999249	0.00000000	-5.94857300	4.69365100
129.69999248	0.00000000	-6.74212600	4.31840500
129.89999246	0.00000000	-7.90477300	3.57406500
130.09999245	0.00000000	-9.01820900	3.24803100
130.29999244	0.00000000	-9.44266700	3.57406500
130.49999243	0.00000000	-9.48572700	4.31840500
130.69999242	0.00000000	-9.44266700	4.69365100
130.89999241	0.00000000	-9.01820900	4.73671200
131.09999239	0.00000000	-7.90477300	4.73671200
131.29999238	0.00000000	-6.79133800	4.73671200
131.49999237	0.00000000	-6.36687900	4.69365100
131.69999236	0.00000000	-6.32381900	4.31840500
131.89999235	0.00000000	-6.36687900	3.57406500
132.09999233	0.00000000	-6.74212600	3.19881900
132.29999232	0.00000000	-7.48646600	3.15575800
132.49999231	0.00000000	-7.86171200	3.15575800
132.69999230	0.00000000	-7.90477300	3.19881900
132.89999229	0.00000000	-7.90477300	3.57406500
133.09999227	0.00000000	-7.90477300	4.36146600
133.29999226	0.00000000	-7.90477300	5.11195900
133.49999225	0.00000000	-7.90477300	5.89320800
133.69999224	0.00000000	-7.90477300	6.26845500
133.89999223	0.00000000	-7.90477300	6.26845500
134.09999222	0.00000000	-7.90477300	5.85014700
134.29999220	0.00000000	-7.90477300	4.77977300
134.49999219	0.00000000	-7.90477300	3.99237200
134.69999218	0.00000000	-7.86171200	3.90009800
134.89999217	0.00000000	-7.48646600	3.11269700
135.09999216	0.00000000	-6.74212600	2.08538400
135.29999214	0.00000000	-6.36687900	2.04232300
135.49999213	0.00000000	-6.36687900	2.78051200
135.69999212	0.00000000	-6.74212600	3.53100400
135.89999211	0.00000000	-7.48646600	4.36146600
136.09999210	0.00000000	-7.90477300	5.11195900
136.29999208	0.00000000	-8.32308000	5.89320800
136.49999207	0.00000000	-9.06742000	6.26845500
136.69999206	0.00000000	-9.44266700	6.26845500
136.89999205	0.00000000	-9.44266700	5.89320800
137.09999204	0.00000000	-9.01820900	5.15501900
137.29999203	0.00000000	-7.90477300	4.73671200
137.49999201	0.00000000	-6.79133800	4.31840500
137.69999200	0.00000000	-6.36687900	3.57406500
137.89999199	0.00000000	-6.32381900	3.19881900
138.09999198	0.00000000	-6.36687900	3.15575800
138.29999197	0.00000000	-6.74212600	3.15575800
138.49999195	0.00000000	-7.48646600	3.19881900
138.69999194	0.00000000	-7.90477300	3.57406500
138.89999193	0.00000000	-8.32308000	4.31840500
139.09999192	0.00000000	-9.06742000	4.73671200
139.29999191	0.00000000	-9.39345400	5.15501900
139.49999189	0.00000000	-9.06742000	5.89320800
139.69999188	0.00000000	-8.32308000	6.21924200
139.89999187	0.00000000	-7.90477300	5.89320800
140.09999186	0.00000000	-7.48646600	5.15501900
140.29999185	0.00000000	-6.74212600	4.73671200
140.49999184	0.00000000	-6.36687900	4.31840500
140.69999182	0.00000000	-6.36687900	3.57406500
140.89999181	0.00000000	-6.74212600	3.19881900
141.09999180	0.00000000	-7.48646600	3.15575800
141.29999179	0.00000000	-7.86171200	3.15575800
141.49999178	0.00000000	-7.90477300	3.19881900
141.69999176	0.00000000	-7.90477300	3.57406500
141.89999175	0.00000000	-7.90477300	4.36146600
142.09999174	0.00000000	-7.90477300	5.11195900
142.29999173	0.00000000	-7.86171200	5.89320800
142.49999172	0.00000000	-7.48646600	6.21924200
142.69999170	0.00000000	-6.79133800	5.89320800
142.89999169	0.00000000	-6.79133800	5.11195900
143.09999168	0.00000000	-7.48646600	4.36146600
143.29999167	0.00000000	-7.86171200	3.57406500
143.49999166	0.00000000	-7.90477300	3.19881900
143.69999165	0.00000000	-7.90477300	3.15575800
143.89999163	0.00000000	-7.90477300	3.15575800
144.09999162	0.00000000	-7.90477300	3.19881900
144.29999161	0.00000000	-7.86171200	3.57406500
144.49999160	0.00000000	-7.48646600	4.36146600
144.69999159	0.00000000	-6.74212600	5.11195900
144.89999157	0.00000000	-6.41609200	5.89320800
145.09999156	0.00000000	-6.74212600	6.26845500
145.29999155	0.00000000	-7.48646600	6.26845500
145.49999154	0.00000000	-7.86171200	5.89320800
145.69999153	0.00000000	-7.90477300	5.15501900
145.89999151	0.00000000	-7.90477300	4.73671200
146.09999150	0.00000000	-7.90477300	4.31840500
146.29999149	0.00000000	-7.90477300	3.57406500
146.49999148	0.00000000	-7.90477300	3.19881900
146.69999147	0.00000000	-7.86171200	3.15575800
146.89999146	0.00000000	-7.48646600	3.15575800
147.09999144	0.00000000	-6.74212600	3.19881900
147.29999143	0.00000000	-6.41609200	3.62327700
147.49999142	0.00000000	-6.69906400	4.68750000
147.69999141	0.00000000	-7.11122000	5.47490100
147.89999140	0.00000000	-7.11737200	5.48105300
148.09999138	0.00000000	-7.52952700	5.51796200
148.29999137	0.00000000	-7.86171200	5.11195900
148.49999136	0.00000000	-7.90477300	4.77977300
148.69999135	0.00000000	-7.90477300	4.69365100
148.89999134	0.00000000	-7.90477300	4.31840500
149.09999132	0.00000000	-7.90477300	3.57406500
149.29999131	0.00000000	-7.86171200	3.24803100
149.49999130	0.00000000	-7.48646600	3.53100400
149.69999129	0.00000000	-6.74212600	3.94315900
149.89999128	0.00000000	-6.36687900	3.94931100
150.09999127	0.00000000	-6.32381900	4.36146600
150.29999125	0.00000000	-6.36687900	4.69365100
150.49999124	0.00000000	-6.69906400	4.77977300
150.69999123	0.00000000	-7.11122000	5.11195900
150.89999122	0.00000000	-7.11737200	5.47490100
151.09999121	0.00000000	-7.52952700	5.11195900
151.29999119	0.00000000	-7.86171200	4.77977300
151.49999118	0.00000000	-7.90477300	4.73671200
151.69999117	0.00000000	-7.90477300	4.73671200
151.89999116	0.00000000	-7.90477300	4.69365100
152.09999115	0.00000000	-7.86171200	4.36146600
152.29999113	0.00000000	-7.48646600	3.99237200
152.49999112	0.00000000	-6.74212600	4.36146600
152.69999111	0.00000000	-6.36687900	4.69365100
152.89999110	0.00000000	-6.32381900	4.73671200
153.09999109	0.00000000	-6.32381900	4.73671200
153.29999108	0.00000000	-6.32381900	4.73671200
153.49999106	0.00000000	-6.32381900	4.73671200
153.69999105	0.00000000	-6.36687900	4.73671200
153.89999104	0.00000000	-6.74212600	4.73671200
154.09999103	0.00000000	-7.48646600	4.73671200
154.29999102	0.00000000	-7.86171200	4.73671200
154.49999100	0.00000000	-7.90477300	4.73671200
154.69999099	0.00000000	-7.90477300	4.73671200
154.89999098	0.00000000	-7.90477300	4.69365100
155.09999097	0.00000000	-7.86171200	4.36146600
155.29999096	0.00000000	-7.48646600	3.99237200
155.49999094	0.00000000	-6.74212600	4.31840500
155.69999093	0.00000000	-6.36687900	4.31840500
155.89999092	0.00000000	-6.32381900	3.99237200
156.09999091	0.00000000	-6.32381900	4.36146600
156.29999090	0.00000000	-6.36687900	4.69365100
156.49999089	0.00000000	-6.74212600	4.73671200
156.69999087	0.00000000	-7.48646600	4.77977300
156.89999086	0.00000000	-7.86171200	5.15501900
157.09999085	0.00000000	-7.90477300	5.89320800
157.29999084	0.00000000	-7.90477300	6.21924200
157.49999083	0.00000000	-7.90477300	5.89320800
157.69999081	0.00000000	-7.90477300	5.15501900
157.89999080	0.00000000	-7.90477300	4.77977300
158.09999079	0.00000000	-7.86171200	4.69365100
158.29999078	0.00000000	-7.48646600	4.31840500
158.49999077	0.00000000	-6.74212600	3.57406500
158.69999075	0.00000000	-6.36687900	3.24803100
158.89999074	0.00000000	-6.32381900	3.57406500
159.09999073	0.00000000	-6.36687900	4.31840500
159.29999072	0.00000000	-6.74212600	4.69365100
159.49999071	0.00000000	-7.48646600	4.73671200
159.69999070	0.00000000	-7.86171200	4.77977300
159.89999068	0.00000000	-7.90477300	5.15501900
160.09999067	0.00000000	-7.90477300	5.85014700
160.29999066	0.00000000	-7.90477300	5.85014700
160.49999065	0.00000000	-7.90477300	5.15501900
160.69999064	0.00000000	-7.90477300	4.77977300
160.89999062	0.00000000	-7.90477300	4.69365100
161.09999061	0.00000000	-7.90477300	4.31840500
161.29999060	0.00000000	-7.86171200	3.57406500
161.49999059	0.00000000	-7.48646600	3.24803100
161.69999058	0.00000000	-6.74212600	3.57406500
161.89999056	0.00000000	-6.36687900	4.31840500
162.09999055	0.00000000	-6.32381900	4.69365100
162.29999054	0.00000000	-6.36687900	4.73671200
162.49999053	0.00000000	-6.74212600	4.73671200
162.69999052	0.00000000	-7.48646600	4.73671200
162.89999051	0.00000000	-7.86171200	4.73671200
163.09999049	0.00000000	-7.90477300	4.73671200
163.29999048	0.00000000	-7.94783400	4.73671200
163.49999047	0.00000000	-8.28001900	4.69365100
163.69999046	0.00000000	-8.64911400	4.36146600
163.89999045	0.00000000	-8.28001900	3.99237200
164.09999043	0.00000000	-7.94783400	4.36146600
164.29999042	0.00000000	-7.90477300	4.69365100
164.49999041	0.00000000	-7.86171200	4.73671200
164.69999040	0.00000000	-7.48646600	4.73671200
164.89999039	0.00000000	-6.74212600	4.73671200
165.09999037	0.00000000	-6.36687900	4.73671200
165.29999036	0.00000000	-6.32381900	4.73671200
165.49999035	0.00000000	-6.32381900	4.73671200
165.69999034	0.00000000	-6.36687900	4.73671200
165.89999033	0.00000000	-6.74212600	4.73671200
166.09999032	0.00000000	-7.48646600	4.73671200
166.29999030	0.00000000	-7.86171200	4.73671200
166.49999029	0.00000000	-7.86171200	4.73671200
166.69999028	0.00000000	-7.52952700	4.73671200
166.89999027	0.00000000	-7.16043300	4.73671200
167.09999026	0.00000000	-7.52952700	4.73671200
167.29999024	0.00000000	-7.81250000	4.73671200
167.49999023	0.00000000	-7.48646600	4.73671200
167.69999022	0.00000000	-6.74212600	4.73671200
167.89999021	0.00000000	-6.36687900	4.73671200
168.09999020	0.00000000	-6.32381900	4.73671200
168.29999018	0.00000000	-6.32381900	4.73671200
168.49999017	0.00000000	-6.36687900	4.73671200
168.69999016	0.00000000	-6.74212600	4.73671200
168.89999015	0.00000000	-7.48646600	4.73671200
169.09999014	0.00000000	-7.86171200	4.73671200
169.29999013	0.00000000	-7.90477300	4.73671200
169.49999011	0.00000000	-7.90477300	4.73671200
169.69999010	0.00000000	-7.90477300	4.73671200
169.89999009	0.00000000	-7.90477300	4.73671200
170.09999008	0.00000000	-7.90477300	4.73671200
170.29999007	0.00000000	-7.90477300	4.73671200
170.49999005	0.00000000	-7.90477300	4.73671200
170.69999004	0.00000000	-7.86171200	4.73671200
170.89999003	0.00000000	-7.48646600	4.73671200
171.09999002	0.00000000	-6.74212600	4.73671200
171.29999001	0.00000000	-6.41609200	4.73671200
171.49998999	0.00000000	-6.69906400	4.73671200
171.69998998	0.00000000	-7.11122000	4.73671200
171.89998997	0.00000000	-7.11737200	4.73671200
172.09998996	0.00000000	-7.48646600	4.69365100
172.29998995	0.00000000	-7.43725300	4.36146600
172.49998994	0.00000000	-6.79133800	3.99237200
172.69998992	0.00000000	-6.79133800	4.36146600
172.89998991	0.00000000	-7.48646600	4.69365100
173.09998990	0.00000000	-7.81250000	4.73671200
173.29998989	0.00000000	-7.52952700	4.73671200
173.49998988	0.00000000	-7.16043300	4.73671200
173.69998986	0.00000000	-7.48646600	4.73671200
173.89998985	0.00000000	-7.43725300	4.73671200
174.09998984	0.00000000	-6.79133800	4.73671200
174.29998983	0.00000000	-6.74212600	4.73671200
174.49998982	0.00000000	-7.06815900	4.73671200
174.69998980	0.00000000	-6.69906400	4.73671200
174.89998979	0.00000000	-6.41609200	4.73671200
175.09998978	0.00000000	-6.74212600	4.73671200
175.29998977	0.00000000	-7.48646600	4.73671200
175.49998976	0.00000000	-7.86171200	4.73671200
175.69998975	0.00000000	-7.86171200	4.73671200
175.89998973	0.00000000	-7.52952700	4.73671200
176.09998972	0.00000000	-7.16043300	4.73671200
176.29998971	0.00000000	-7.52952700	4.73671200
176.49998970	0.00000000	-7.86171200	4.73671200
176.69998969	0.00000000	-7.90477300	4.73671200
176.89998967	0.00000000	-7.90477300	4.73671200
177.09998966	0.00000000	-7.90477300	4.73671200
177.29998965	0.00000000	-7.86171200	4.73671200
177.49998964	0.00000000	-7.52952700	4.73671200
177.69998963	0.00000000	-7.16043300	4.73671200
177.89998961	0.00000000	-7.52952700	4.73671200
178.09998960	0.00000000	-7.86171200	4.73671200
178.29998959	0.00000000	-7.90477300	4.73671200
178.49998958	0.00000000	-7.90477300	4.73671200
178.69998957	0.00000000	-7.90477300	4.73671200
178.89998956	0.00000000	-7.90477300	4.73671200
179.09998954	0.00000000	-7.86171200	4.73671200
179.29998953	0.00000000	-7.52952700	4.73671200
179.49998952	0.00000000	-7.11737200	4.73671200
179.69998951	0.00000000	-7.11122000	4.73671200
179.89998950	0.00000000	-6.74212600	4.73671200
180.09998948	0.00000000	-6.79133800	4.73671200
180.29998947	0.00000000	-7.43725300	4.69365100
180.49998946	0.00000000	-7.48646600	4.36146600
180.69998945	0.00000000	-7.16043300	3.99237200
180.89998944	0.00000000	-7.52952700	4.31840500
181.09998942	0.00000000	-7.86171200	4.31840500
181.29998941	0.00000000	-7.90477300	3.99237200
181.49998940	0.00000000	-7.90477300	4.36146600
181.69998939	0.00000000	-7.86171200	4.69365100
181.89998938	0.00000000	-7.48646600	4.73671200
182.09998937	0.00000000	-6.74212600	4.73671200
182.29998935	0.00000000	-6.36687900	4.73671200
182.49998934	0.00000000	-6.32381900	4.73671200
182.69998933	0.00000000	-6.32381900	4.73671200
182.89998932	0.00000000	-6.32381900	4.69365100
183.09998931	0.00000000	-6.32381900	4.31840500
183.29998929	0.00000000	-6.36687900	3.57406500
183.49998928	0.00000000	-6.74212600	3.24803100
183.69998927	0.00000000	-7.43725300	3.57406500
183.89998926	0.00000000	-7.48646600	4.31840500
184.09998925	0.00000000	-7.11737200	4.73671200
184.29998923	0.00000000	-7.11122000	5.15501900
184.49998922	0.00000000	-6.69906400	5.89320800
184.69998921	0.00000000	-6.36687900	6.26845500
184.89998920	0.00000000	-6.32381900	6.31151500
185.09998919	0.00000000	-6.32381900	6.31151500
185.29998918	0.00000000	-6.32381900	6.26845500
185.49998916	0.00000000	-6.36687900	5.89320800
185.69998915	0.00000000	-6.69906400	5.11195900
185.89998914	0.00000000	-7.06815900	4.36146600
186.09998913	0.00000000	-6.69906400	3.57406500
186.29998912	0.00000000	-6.36687900	3.19881900
186.49998910	0.00000000	-6.36687900	3.19881900
186.69998909	0.00000000	-6.74212600	3.57406500
186.89998908	0.00000000	-7.48646600	4.31840500
187.09998907	0.00000000	-7.86171200	4.69365100
187.29998906	0.00000000	-7.90477300	4.73671200
187.49998904	0.00000000	-7.90477300	4.73671200
187.69998903	0.00000000	-7.90477300	4.73671200
187.89998902	0.00000000	-7.90477300	4.73671200
188.09998901	0.00000000	-7.86171200	4.73671200
188.29998900	0.00000000	-7.52952700	4.73671200
188.49998899	0.00000000	-7.11737200	4.69365100
188.69998897	0.00000000	-7.11122000	4.31840500
188.89998896	0.00000000	-6.69906400	3.57406500
189.09998895	0.00000000	-6.36687900	3.19881900
189.29998894	0.00000000	-6.36687900	3.15575800
189.49998893	0.00000000	-6.69906400	3.19881900
189.69998891	0.00000000	-7.11122000	3.57406500
189.89998890	0.00000000	-7.11737200	4.31840500
190.09998889	0.00000000	-7.52952700	4.69365100
190.29998888	0.00000000	-7.86171200	4.73671200
190.49998887	0.00000000	-7.90477300	4.73671200
190.69998885	0.00000000	-7.90477300	4.73671200
190.89998884	0.00000000	-7.90477300	4.73671200
191.09998883	0.00000000	-7.86171200	4.73671200
191.29998882	0.00000000	-7.48646600	4.73671200
191.49998881	0.00000000	-6.79133800	4.73671200
191.69998880	0.00000000	-6.74212600	4.73671200
191.89998878	0.00000000	-7.06815900	4.73671200
192.09998877	0.00000000	-6.69906400	4.73671200
192.29998876	0.00000000	-6.36687900	4.73671200
192.49998875	0.00000000	-6.36687900	4.73671200
192.69998874	0.00000000	-6.74212600	4.73671200
192.89998872	0.00000000	-7.48646600	4.73671200
193.09998871	0.00000000	-7.86171200	4.73671200
193.29998870	0.00000000	-7.90477300	4.73671200
193.49998869	0.00000000	-7.90477300	4.73671200
193.69998868	0.00000000	-7.90477300	4.73671200
193.89998866	0.00000000	-7.86171200	4.73671200
194.09998865	0.00000000	-7.48646600	4.73671200
194.29998864	0.00000000	-6.74212600	4.73671200
194.49998863	0.00000000	-6.36687900	4.73671200
194.69998862	0.00000000	-6.32381900	4.73671200
194.89998861	0.00000000	-6.32381900	4.73671200
195.09998859	0.00000000	-6.32381900	4.73671200
195.29998858	0.00000000	-6.32381900	4.73671200
195.49998857	0.00000000	-6.36687900	4.73671200
195.69998856	0.00000000	-6.74212600	4.73671200
195.89998855	0.00000000	-7.48646600	4.73671200
196.09998853	0.00000000	-7.86171200	4.73671200
