Time	Channel A	Channel B	Channel C
(us)	(V)	(mV)	(mV)

-4.49999956	0.00000000	-57.29576000	-14.21014000
-4.29999957	0.00000000	-56.96358000	-14.16708000
-4.09999958	0.00000000	-56.92052000	-13.83489000
-3.89999959	0.00000000	-56.92052000	-13.46580000
-3.69999960	0.00000000	-56.92052000	-13.83489000
-3.49999962	0.00000000	-56.92052000	-14.16708000
-3.29999963	0.00000000	-56.92052000	-14.21014000
-3.09999964	0.00000000	-56.92052000	-14.21014000
-2.89999965	0.00000000	-56.92052000	-14.21014000
-2.69999966	0.00000000	-56.92052000	-14.21014000
-2.49999968	0.00000000	-56.92052000	-14.21014000
-2.29999969	0.00000000	-56.92052000	-14.21014000
-2.09999970	0.00000000	-56.92052000	-14.21014000
-1.89999971	0.00000000	-56.92052000	-14.16708000
-1.69999972	0.00000000	-56.92052000	-13.83489000
-1.49999973	0.00000000	-56.92052000	-13.46580000
-1.29999975	0.00000000	-56.92052000	-13.79183000
-1.09999976	0.00000000	-56.92052000	-13.74262000
-0.89999977	0.00000000	-56.92052000	-13.04749000
-0.69999978	0.00000000	-56.92052000	-12.67224000
-0.49999979	0.00000000	-56.92052000	-12.67224000
-0.29999981	0.31803640	-56.92052000	-13.04749000
-0.09999982	0.63668800	-56.92052000	-13.79183000
0.10000017	0.95533960	-56.92052000	-14.16708000
0.30000016	1.11466500	-56.92052000	-14.21014000
0.50000015	0.79601380	-56.92052000	-14.21014000
0.70000013	0.31803640	-56.92052000	-14.21014000
0.90000012	-0.63668800	-56.92052000	-14.21014000
1.10000011	-1.59264300	-56.92052000	-14.21014000
1.30000010	-2.38927200	-56.92052000	-14.21014000
1.50000009	-2.70792300	-56.92052000	-14.21014000
1.70000008	-2.38927200	-56.92052000	-14.21014000
1.90000006	-1.27399100	-56.92052000	-14.21014000
2.10000005	0.63668800	-56.92052000	-14.21014000
2.30000004	2.70792300	-56.92052000	-14.21014000
2.50000003	4.45989200	-56.92052000	-14.21014000
2.70000002	5.41584600	-56.92052000	-14.21014000
2.90000000	4.77854300	-56.92052000	-14.21014000
3.09999999	2.86724900	-56.92052000	-14.21014000
3.29999998	-0.15871060	-56.92052000	-14.21014000
3.49999997	-3.66326300	-56.92052000	-14.16708000
3.69999996	-6.53112700	-56.92052000	-13.79183000
3.89999994	-7.96444400	-56.92052000	-13.04749000
4.09999993	-7.48646600	-56.92052000	-12.67224000
4.29999992	-4.93786900	-56.92052000	-12.62918000
4.49999991	-0.95533960	-56.92052000	-12.62918000
4.69999990	3.50393700	-56.92052000	-12.62918000
4.89999989	7.32714100	-56.92052000	-12.67224000
5.09999987	9.39837600	-56.92052000	-13.04749000
5.29999986	9.07972400	-56.92052000	-13.79183000
5.49999985	6.53112700	-56.92052000	-14.16708000
5.69999984	2.22994600	-56.92052000	-14.21014000
5.89999983	-2.54859700	-56.92052000	-14.21014000
6.09999981	-6.69045300	-56.92052000	-14.16708000
6.29999980	-9.07972400	-56.92052000	-13.79183000
6.49999979	-9.23905000	-56.87746000	-13.04749000
6.69999978	-7.00848900	-56.54527000	-12.67224000
6.89999977	-3.18590100	-56.17618000	-12.62918000
7.09999975	1.11466500	-56.54527000	-12.62918000
7.29999974	4.93786900	-56.87746000	-12.62918000
7.49999973	7.32714100	-56.92052000	-12.67224000
7.69999972	7.64579200	-56.92052000	-13.04749000
7.89999971	6.21247500	-56.92052000	-13.79183000
8.09999970	3.34522600	-56.92052000	-14.16708000
8.29999968	0.00000000	-56.92052000	-14.21014000
8.49999967	-2.86724900	-56.92052000	-14.16708000
8.69999966	-4.77854300	-56.92052000	-13.79183000
8.89999965	-5.09719500	-56.92052000	-13.04749000
9.09999964	-4.30056600	-56.92052000	-12.67224000
9.29999962	-2.70792300	-56.92052000	-12.62918000
9.49999961	-0.63668800	-56.92052000	-12.62918000
9.69999960	1.11466500	-56.92052000	-12.67224000
9.89999959	2.22994600	-56.92052000	-13.04749000
10.09999958	2.54859700	-56.92052000	-13.79183000
10.29999956	2.22994600	-56.92052000	-14.16708000
10.49999955	1.43331700	-56.92052000	-14.21014000
10.69999954	0.47736220	-56.92052000	-14.21014000
10.89999953	-0.15871060	-56.92052000	-14.21014000
11.09999952	-0.79601380	-56.92052000	-14.21014000
11.29999951	-0.95533960	-56.92052000	-14.21014000
11.49999949	-0.95533960	-56.92052000	-14.21014000
11.69999948	-0.79601380	-56.92052000	-14.21014000
11.89999947	-0.31803640	-56.92052000	-14.21014000
12.09999946	-0.15871060	-56.92052000	-14.21014000
12.29999945	-0.15871060	-56.92052000	-14.21014000
12.49999943	0.00000000	-56.92052000	-14.21014000
12.69999942	0.00000000	-56.92052000	-14.21014000
12.89999941	0.00000000	-56.92052000	-14.21014000
13.09999940	0.15871060	-56.92052000	-14.21014000
13.29999939	0.15871060	-56.92052000	-14.21014000
13.49999937	0.00000000	-56.92052000	-14.21014000
13.69999936	0.00000000	-56.92052000	-14.21014000
13.89999935	0.00000000	-56.92052000	-14.21014000
14.09999934	-0.15871060	-56.92052000	-14.21014000
14.29999933	-0.15871060	-56.92052000	-14.16708000
14.49999932	-0.15871060	-56.92052000	-13.79183000
14.69999930	0.00000000	-56.92052000	-13.09670000
14.89999929	0.00000000	-56.92052000	-13.04749000
15.09999928	0.00000000	-56.92052000	-13.41658000
15.29999927	0.00000000	-56.92052000	-13.42274000
15.49999926	0.00000000	-56.92052000	-13.83489000
15.69999924	0.00000000	-56.92052000	-14.11786000
15.89999923	0.00000000	-56.92052000	-13.79183000
16.09999922	0.00000000	-56.92052000	-13.04749000
16.29999921	0.00000000	-56.92052000	-12.67224000
16.49999920	0.00000000	-56.92052000	-12.62918000
16.69999919	0.00000000	-56.87746000	-12.67224000
16.89999917	0.00000000	-56.50221000	-13.04749000
17.09999916	0.00000000	-55.75787000	-13.74262000
17.29999915	0.00000000	-55.38263000	-13.79183000
17.49999914	0.00000000	-55.33957000	-13.42274000
17.69999913	0.00000000	-55.38263000	-13.41658000
17.89999911	0.00000000	-55.80708000	-13.00443000
18.09999910	0.00000000	-56.92052000	-12.67224000
18.29999909	0.00000000	-58.12622000	-12.67224000
18.49999908	0.00000000	-59.29502000	-13.00443000
18.69999907	0.00000000	-60.82677000	-13.37352000
18.89999905	0.00000000	-61.57111000	-13.04749000
19.09999904	0.00000000	-61.57111000	-13.09670000
19.29999903	0.00000000	-60.69144000	-13.74262000
19.49999902	0.00000000	-57.94783000	-13.74262000
19.69999901	0.00000000	-53.75861000	-13.09670000
19.89999900	0.00000000	-49.52633000	-13.04749000
20.09999898	0.00000000	-46.40748000	-13.41658000
20.29999897	0.00000000	-44.91880000	-13.42274000
20.49999896	0.00000000	-45.75541000	-13.83489000
20.69999895	0.00000000	-49.66166000	-14.11786000
20.89999894	0.00000000	-55.89320000	-13.83489000
21.09999892	0.00000000	-63.61958000	-13.46580000
21.29999891	0.00000000	-71.29675000	-13.83489000
21.49999890	0.00000000	-76.27953000	-14.16708000
21.69999889	0.00000000	-77.39911000	-14.21014000
21.89999888	0.00000000	-73.85580000	-14.21014000
22.09999886	0.00000000	-65.67421000	-14.21014000
22.29999885	0.00000000	-54.41068000	-14.21014000
22.49999884	0.00000000	-41.66461000	-14.21014000
22.69999883	0.00000000	-30.58563000	-14.21014000
22.89999882	0.00000000	-24.85851000	-14.16708000
23.09999881	0.00000000	-26.43947000	-13.79183000
23.29999879	0.00000000	-35.37770000	-13.04749000
23.49999878	0.00000000	-50.12303000	-12.62918000
23.69999877	0.00000000	-67.90108000	-12.25394000
23.89999876	0.00000000	-84.83636000	-11.84178000
24.09999875	0.00000000	-96.37672000	-11.87869000
24.29999873	0.00000000	-99.40329000	-11.88484000
24.49999872	0.00000000	-92.79650000	-12.76452000
24.69999871	0.00000000	-77.25762000	-14.62844000
24.89999870	0.00000000	-56.03469000	-16.90453000
25.09999869	0.00000000	-33.66142000	-18.43627000
25.29999867	0.00000000	-15.93258000	-18.85458000
25.49999866	0.00000000	-7.04355200	-18.47933000
25.69999865	0.00000000	-9.04281500	-17.23056000
25.89999864	0.00000000	-22.21334000	-14.90526000
26.09999863	0.00000000	-43.84842000	-11.38041000
26.29999862	0.00000000	-68.92839000	-7.56028500
26.49999860	0.00000000	-91.67692000	-4.08464600
26.69999859	0.00000000	-106.33610000	-2.22071800
26.89999858	0.00000000	-109.45500000	-2.63902500
27.09999857	0.00000000	-100.61520000	-5.79478300
27.29999856	0.00000000	-82.09276000	-11.60187000
27.49999854	0.00000000	-58.50147000	-18.94685000
27.69999853	0.00000000	-34.91019000	-26.24262000
27.89999852	0.00000000	-16.39395000	-31.63140000
28.09999851	0.00000000	-7.46186000	-33.53838000
28.29999850	0.00000000	-9.74409400	-31.53912000
28.49999848	0.00000000	-22.07800000	-25.27067000
28.69999847	0.00000000	-41.75689000	-15.18824000
28.89999846	0.00000000	-63.76107000	-3.24803100
29.09999845	0.00000000	-83.12007000	7.90477300
29.29999844	0.00000000	-95.90919000	15.15133000
29.49999843	0.00000000	-99.45251000	16.31397000
29.69999841	0.00000000	-93.76845000	10.87598000
29.89999840	0.00000000	-81.02238000	0.00615157
30.09999839	0.00000000	-64.36392000	-14.67766000
30.29999838	0.00000000	-46.96112000	-30.09350000
30.49999837	0.00000000	-32.63410000	-42.45817000
30.69999835	0.00000000	-24.44020000	-49.33562000
30.89999834	0.00000000	-23.23450000	-48.54207000
31.09999833	0.00000000	-29.00467000	-39.67765000
31.29999832	0.00000000	-40.17593000	-25.35679000
31.49999831	0.00000000	-53.71555000	-7.94168200
31.69999829	0.00000000	-66.87991000	8.96899500
31.89999828	0.00000000	-76.97465000	20.95841000
32.09999827	0.00000000	-82.04970000	25.65207000
32.29999826	0.00000000	-81.71751000	22.53937000
32.49999825	0.00000000	-76.32258000	12.08784000
32.69999824	0.00000000	-67.43970000	-3.75246000
32.89999822	0.00000000	-56.96973000	-21.54897000
33.09999821	0.00000000	-46.91806000	-37.76451000
33.29999820	0.00000000	-39.56693000	-48.96038000
33.49999819	0.00000000	-36.44808000	-52.44832000
33.69999818	0.00000000	-37.98597000	-47.84694000
33.89999816	0.00000000	-43.75615000	-36.27584000
34.09999815	0.00000000	-52.17765000	-20.43553000
34.29999814	0.00000000	-60.69144000	-3.80167300
34.49999813	0.00000000	-67.25517000	10.50689000
34.69999812	0.00000000	-70.78616000	19.37746000
34.89999810	0.00000000	-70.42323000	20.91535000
35.09999809	0.00000000	-66.97219000	14.77608000
35.29999808	0.00000000	-61.15280000	2.46678100
35.49999807	0.00000000	-54.31225000	-12.54306000
35.69999806	0.00000000	-48.91732000	-26.85162000
35.89999805	0.00000000	-46.54281000	-37.30315000
36.09999803	0.00000000	-46.87500000	-41.94759000
36.29999802	0.00000000	-49.61245000	-39.99754000
36.49999801	0.00000000	-54.22613000	-31.53912000
36.69999800	0.00000000	-59.57185000	-18.94685000
36.89999799	0.00000000	-63.80413000	-6.26230300
37.09999797	0.00000000	-65.76033000	3.03272600
37.29999796	0.00000000	-65.38509000	7.30191900
37.49999795	0.00000000	-62.69069000	5.77017700
37.69999794	0.00000000	-58.45841000	-1.10728300
37.89999793	0.00000000	-53.80167000	-11.04823000
38.09999791	0.00000000	-49.56939000	-21.03838000
38.29999790	0.00000000	-46.91806000	-28.34030000
38.49999789	0.00000000	-46.87500000	-30.98548000
38.69999788	0.00000000	-49.15108000	-27.92200000
38.89999787	0.00000000	-52.64517000	-19.93110000
39.09999786	0.00000000	-56.92052000	-10.02707000
39.29999784	0.00000000	-61.15280000	-1.57480300
39.49999783	0.00000000	-64.27164000	3.03272600
39.69999782	0.00000000	-65.85260000	2.65748000
39.89999781	0.00000000	-65.80955000	-2.68208600
40.09999780	0.00000000	-63.85334000	-11.14050000
40.29999778	0.00000000	-59.99015000	-20.34941000
40.49999777	0.00000000	-55.38263000	-28.05733000
40.69999776	0.00000000	-51.10728000	-31.82825000
40.89999775	0.00000000	-47.98843000	-30.70251000
41.09999774	0.00000000	-46.40748000	-24.52633000
41.29999772	0.00000000	-46.40748000	-15.36663000
41.49999771	0.00000000	-47.98843000	-5.70866100
41.69999770	0.00000000	-51.10728000	1.91314000
41.89999769	0.00000000	-55.33957000	5.43799200
42.09999768	0.00000000	-59.57185000	3.91240100
42.29999767	0.00000000	-62.69069000	-1.43946800
42.49999765	0.00000000	-64.27164000	-9.51648500
42.69999764	0.00000000	-64.27164000	-17.97490000
42.89999763	0.00000000	-62.73376000	-24.53248000
43.09999762	0.00000000	-60.08243000	-28.05733000
43.29999761	0.00000000	-57.38804000	-27.68824000
43.49999759	0.00000000	-55.38263000	-24.24335000
43.69999758	0.00000000	-53.80167000	-18.43627000
43.89999757	0.00000000	-52.64517000	-11.55881000
44.09999756	0.00000000	-52.26993000	-5.84399600
44.29999755	0.00000000	-52.59596000	-3.05733300
44.49999753	0.00000000	-53.34030000	-3.38336600
44.69999752	0.00000000	-53.71555000	-5.61638700
44.89999751	0.00000000	-53.75861000	-9.14124000
45.09999750	0.00000000	-53.80167000	-12.96137000
45.29999749	0.00000000	-54.26919000	-16.48622000
45.49999748	0.00000000	-55.80708000	-18.76845000
45.69999746	0.00000000	-58.12622000	-19.59892000
45.89999745	0.00000000	-60.50073000	-18.81152000
46.09999744	0.00000000	-63.20127000	-16.94759000
46.29999743	0.00000000	-65.43430000	-14.58538000
46.49999742	0.00000000	-65.80955000	-12.25394000
46.69999740	0.00000000	-64.22859000	-9.98400600
46.89999739	0.00000000	-60.69144000	-8.82135800
47.09999738	0.00000000	-55.24729000	-9.14124000
47.29999737	0.00000000	-49.10802000	-9.93479300
47.49999736	0.00000000	-43.71309000	-11.51575000
47.69999734	0.00000000	-40.68651000	-13.79183000
47.89999733	0.00000000	-41.10482000	-15.74188000
48.09999732	0.00000000	-45.38017000	-17.32283000
48.29999731	0.00000000	-52.68823000	-18.43627000
48.49999730	0.00000000	-61.20201000	-18.39321000
48.69999729	0.00000000	-68.92839000	-16.85531000
48.89999727	0.00000000	-74.28026000	-14.16092000
49.09999726	0.00000000	-75.39369000	-11.09744000
49.29999725	0.00000000	-71.57972000	-8.35383800
49.49999724	0.00000000	-64.22859000	-6.48991100
49.69999723	0.00000000	-54.96432000	-6.08390700
49.89999721	0.00000000	-45.71235000	-7.65255800
50.09999720	0.00000000	-39.19168000	-10.31004000
50.29999719	0.00000000	-36.87254000	-13.87795000
50.49999718	0.00000000	-39.56693000	-17.69808000
50.69999717	0.00000000	-46.45054000	-21.13066000
50.89999715	0.00000000	-55.33957000	-22.61934000
51.09999714	0.00000000	-64.22859000	-21.50590000
51.29999713	0.00000000	-71.11835000	-18.43627000
51.49999712	0.00000000	-73.81274000	-14.21014000
51.69999711	0.00000000	-71.53666000	-9.93479300
51.89999710	0.00000000	-65.43430000	-6.44685000
52.09999708	0.00000000	-57.33883000	-4.17076700
52.29999707	0.00000000	-49.66166000	-4.21998000
52.49999706	0.00000000	-44.22367000	-6.82209600
52.69999705	0.00000000	-42.31053000	-10.67298000
52.89999704	0.00000000	-44.22367000	-14.58538000
53.09999702	0.00000000	-49.56939000	-18.39321000
53.29999701	0.00000000	-56.45300000	-20.66929000
53.49999700	0.00000000	-62.64764000	-20.34941000
53.69999699	0.00000000	-66.87991000	-18.47933000
53.89999698	0.00000000	-67.99950000	-15.74188000
54.09999696	0.00000000	-65.34202000	-12.67224000
54.29999695	0.00000000	-59.99015000	-9.98400600
54.49999694	0.00000000	-53.85088000	-8.44611200
54.69999693	0.00000000	-48.45595000	-8.44611200
54.89999692	0.00000000	-45.38017000	-9.93479300
55.09999691	0.00000000	-45.38017000	-12.21087000
55.29999689	0.00000000	-48.40674000	-14.11786000
55.49999688	0.00000000	-53.38336000	-15.27436000
55.69999687	0.00000000	-58.40920000	-15.23130000
55.89999686	0.00000000	-62.69069000	-13.74262000
56.09999685	0.00000000	-65.29897000	-11.46653000
56.29999683	0.00000000	-64.96678000	-9.60875900
56.49999682	0.00000000	-61.94635000	-8.82135800
56.69999681	0.00000000	-58.08316000	-9.60875900
56.89999680	0.00000000	-53.80167000	-11.55881000
57.09999679	0.00000000	-49.98769000	-14.62844000
57.29999677	0.00000000	-48.08071000	-18.01796000
57.49999676	0.00000000	-48.40674000	-19.93110000
57.69999675	0.00000000	-50.68897000	-19.93110000
57.89999674	0.00000000	-53.75861000	-17.97490000
58.09999673	0.00000000	-56.87746000	-14.07480000
58.29999672	0.00000000	-59.57185000	-9.09817800
58.49999670	0.00000000	-61.10974000	-4.12770700
58.69999669	0.00000000	-61.15280000	-1.10728300
58.89999668	0.00000000	-59.99015000	-1.10728300
59.09999667	0.00000000	-58.08316000	-4.17691900
59.29999666	0.00000000	-55.75787000	-9.60875900
59.49999664	0.00000000	-53.89394000	-16.11712000
59.69999663	0.00000000	-53.06348000	-22.28715000
59.89999662	0.00000000	-53.42642000	-26.10728000
60.09999661	0.00000000	-54.17691000	-26.89468000
60.29999660	0.00000000	-55.33957000	-24.15723000
60.49999658	0.00000000	-56.45300000	-18.39321000
60.69999657	0.00000000	-56.87746000	-11.09744000
60.89999656	0.00000000	-56.87746000	-4.17691900
61.09999655	0.00000000	-56.50221000	0.46751960
61.29999654	0.00000000	-55.71481000	2.00541300
61.49999653	0.00000000	-54.96432000	0.04921259
61.69999651	0.00000000	-54.22613000	-5.33341500
61.89999650	0.00000000	-54.26919000	-12.67840000
62.09999649	0.00000000	-55.38263000	-20.39247000
62.29999648	0.00000000	-56.92052000	-26.89468000
62.49999647	0.00000000	-58.45841000	-29.95817000
62.69999645	0.00000000	-59.57185000	-28.84473000
62.89999644	0.00000000	-59.61491000	-24.24335000
63.09999643	0.00000000	-58.83366000	-17.27977000
63.29999642	0.00000000	-57.66486000	-9.60875900
63.49999641	0.00000000	-55.71481000	-3.01427100
63.69999639	0.00000000	-53.85088000	0.84276570
63.89999638	0.00000000	-52.64517000	1.67322800
64.09999637	0.00000000	-52.26993000	-0.68897630
64.29999636	0.00000000	-52.68823000	-5.70866100
64.49999635	0.00000000	-54.22613000	-12.62918000
64.69999634	0.00000000	-56.50221000	-19.50664000
64.89999632	0.00000000	-58.40920000	-24.20029000
65.09999631	0.00000000	-59.57185000	-26.19955000
65.29999630	0.00000000	-59.61491000	-25.82431000
65.49999629	0.00000000	-58.83366000	-23.08686000
65.69999628	0.00000000	-57.66486000	-18.47933000
65.89999626	0.00000000	-55.75787000	-13.09670000
66.09999625	0.00000000	-54.26919000	-8.44611200
66.29999624	0.00000000	-53.80167000	-5.29035400
66.49999623	0.00000000	-53.85088000	-3.70939900
66.69999622	0.00000000	-54.64444000	-3.66633800
66.89999620	0.00000000	-56.50221000	-4.82283400
67.09999619	0.00000000	-57.99089000	-6.77903500
67.29999618	0.00000000	-58.45841000	-9.51648500
67.49999617	0.00000000	-58.40920000	-12.62918000
67.69999616	0.00000000	-57.57259000	-15.74188000
67.89999615	0.00000000	-55.29650000	-18.47933000
68.09999613	0.00000000	-52.64517000	-20.43553000
68.29999612	0.00000000	-50.73204000	-21.59203000
68.49999611	0.00000000	-49.98769000	-21.54897000
68.69999610	0.00000000	-51.19340000	-19.97416000
68.89999609	0.00000000	-54.22613000	-16.85531000
69.09999607	0.00000000	-58.08316000	-12.62918000
69.29999606	0.00000000	-61.52805000	-8.35998900
69.49999605	0.00000000	-63.85334000	-4.87204700
69.69999604	0.00000000	-64.22859000	-2.54675200
69.89999603	0.00000000	-62.69069000	-2.22071800
70.09999601	0.00000000	-59.52879000	-4.12770700
70.29999600	0.00000000	-54.92125000	-8.02780400
70.49999599	0.00000000	-49.94463000	-13.00443000
70.69999598	0.00000000	-46.45054000	-18.06102000
70.89999597	0.00000000	-44.86958000	-21.88115000
71.09999596	0.00000000	-45.33710000	-23.86811000
71.29999594	0.00000000	-48.45595000	-23.45595000
71.49999593	0.00000000	-53.80167000	-21.17372000
71.69999592	0.00000000	-59.61491000	-17.27362000
71.89999591	0.00000000	-64.64690000	-12.67224000
72.09999590	0.00000000	-68.08563000	-8.40305000
72.29999588	0.00000000	-68.46087000	-5.33341500
72.49999587	0.00000000	-65.80955000	-4.17691900
72.69999586	0.00000000	-61.19586000	-5.33341500
72.89999585	0.00000000	-55.75787000	-8.35998900
73.09999584	0.00000000	-50.73204000	-12.16166000
73.29999582	0.00000000	-46.82579000	-15.23130000
73.49999581	0.00000000	-44.91880000	-16.85531000
73.69999580	0.00000000	-45.33710000	-17.23056000
73.89999579	0.00000000	-48.40674000	-16.52928000
74.09999578	0.00000000	-53.34030000	-15.00369000
74.29999577	0.00000000	-57.99089000	-13.87795000
74.49999575	0.00000000	-61.52805000	-13.04749000
74.69999574	0.00000000	-63.85334000	-12.76452000
74.89999573	0.00000000	-64.22859000	-13.46580000
75.09999572	0.00000000	-62.73376000	-14.99139000
75.29999571	0.00000000	-60.03937000	-16.06791000
75.49999569	0.00000000	-56.92052000	-16.43701000
75.69999568	0.00000000	-53.85088000	-15.23130000
75.89999567	0.00000000	-51.52559000	-12.58612000
76.09999566	0.00000000	-50.73204000	-9.51648500
76.29999565	0.00000000	-51.06422000	-6.82209600
76.49999563	0.00000000	-52.22071000	-5.33341500
76.69999562	0.00000000	-53.75861000	-5.70866100
76.89999561	0.00000000	-55.29650000	-8.07086500
77.09999560	0.00000000	-56.40993000	-11.93405000
77.29999559	0.00000000	-56.45300000	-16.94759000
77.49999558	0.00000000	-55.80708000	-21.50590000
77.69999556	0.00000000	-55.80708000	-24.20029000
77.89999555	0.00000000	-56.50221000	-24.20029000
78.09999554	0.00000000	-56.92052000	-21.54897000
78.29999553	0.00000000	-57.33883000	-17.27362000
78.49999552	0.00000000	-58.08316000	-12.21087000
78.69999550	0.00000000	-58.45841000	-6.82209600
78.89999549	0.00000000	-58.40920000	-2.63902500
79.09999548	0.00000000	-57.57259000	-1.05807100
79.29999547	0.00000000	-55.29650000	-2.17765700
79.49999546	0.00000000	-52.64517000	-5.29035400
79.69999544	0.00000000	-50.73204000	-9.93479300
79.89999543	0.00000000	-49.94463000	-15.32357000
80.09999542	0.00000000	-50.73204000	-19.97416000
80.29999541	0.00000000	-52.64517000	-23.08686000
80.49999540	0.00000000	-55.33957000	-24.24335000
80.69999539	0.00000000	-58.03395000	-23.08686000
80.89999537	0.00000000	-59.99015000	-20.01722000
81.09999536	0.00000000	-61.15280000	-15.78494000
81.29999535	0.00000000	-61.10974000	-11.51575000
81.49999534	0.00000000	-59.57185000	-7.98474400
81.69999533	0.00000000	-56.92052000	-5.29035400
81.89999531	0.00000000	-54.22613000	-4.12770700
82.09999530	0.00000000	-52.26993000	-4.82283400
82.29999529	0.00000000	-51.10728000	-6.36072800
82.49999528	0.00000000	-51.10728000	-8.40305000
82.69999527	0.00000000	-52.22071000	-11.46653000
82.89999525	0.00000000	-53.80167000	-14.94833000
83.09999524	0.00000000	-55.71481000	-17.69808000
83.29999523	0.00000000	-57.61565000	-20.06029000
83.49999522	0.00000000	-58.40920000	-21.54897000
83.69999521	0.00000000	-58.45841000	-21.54897000
83.89999520	0.00000000	-58.08316000	-19.97416000
84.09999518	0.00000000	-57.29576000	-16.90453000
84.29999517	0.00000000	-56.54527000	-13.04749000
84.49999516	0.00000000	-55.75787000	-9.51648500
84.69999515	0.00000000	-55.38263000	-6.40378900
84.89999514	0.00000000	-55.33957000	-4.12770700
85.09999512	0.00000000	-55.33957000	-3.80167300
85.29999511	0.00000000	-55.29650000	-5.70866100
85.49999510	0.00000000	-54.92125000	-9.56569900
85.69999509	0.00000000	-54.17691000	-14.16708000
85.89999508	0.00000000	-53.80167000	-18.43627000
86.09999506	0.00000000	-53.80167000	-21.54897000
86.29999505	0.00000000	-54.22613000	-23.08686000
86.49999504	0.00000000	-55.38263000	-22.66855000
86.69999503	0.00000000	-56.87746000	-19.97416000
86.89999502	0.00000000	-58.08316000	-15.69882000
87.09999501	0.00000000	-58.83366000	-10.72219000
87.29999499	0.00000000	-59.24582000	-6.08390700
87.49999498	0.00000000	-58.74138000	-3.42642700
87.69999497	0.00000000	-57.28961000	-2.97121000
87.89999496	0.00000000	-54.97047000	-4.95816900
88.09999495	0.00000000	-53.47564000	-8.77829600
88.29999493	0.00000000	-52.59596000	-13.83489000
88.49999492	0.00000000	-52.26993000	-18.76845000
88.69999491	0.00000000	-52.64517000	-22.24409000
88.89999490	0.00000000	-53.80167000	-22.99459000
89.09999489	0.00000000	-55.33957000	-21.13066000
89.29999487	0.00000000	-56.87746000	-17.23056000
89.49999486	0.00000000	-58.03395000	-12.25394000
89.69999485	0.00000000	-58.45841000	-7.24040300
89.89999484	0.00000000	-58.45841000	-3.84473400
90.09999483	0.00000000	-58.03395000	-3.01427100
90.29999482	0.00000000	-56.87746000	-4.95816900
90.49999480	0.00000000	-55.38263000	-8.77829600
90.69999479	0.00000000	-54.22613000	-13.79183000
90.89999478	0.00000000	-53.80167000	-18.39321000
91.09999477	0.00000000	-53.80167000	-21.50590000
91.29999476	0.00000000	-54.17691000	-22.61934000
91.49999474	0.00000000	-54.92125000	-21.03838000
91.69999473	0.00000000	-55.29650000	-16.85531000
91.89999472	0.00000000	-55.33957000	-11.51575000
92.09999471	0.00000000	-55.33957000	-6.90821800
92.29999470	0.00000000	-55.33957000	-4.17076700
92.49999468	0.00000000	-55.33957000	-3.80167300
92.69999467	0.00000000	-55.38263000	-5.75172200
92.89999466	0.00000000	-55.75787000	-9.98400600
93.09999465	0.00000000	-56.54527000	-15.28051000
93.29999464	0.00000000	-57.29576000	-19.50664000
93.49999463	0.00000000	-58.08316000	-21.46284000
93.69999461	0.00000000	-58.40920000	-21.13066000
93.89999460	0.00000000	-57.99089000	-18.76845000
94.09999459	0.00000000	-56.45300000	-14.94833000
94.29999458	0.00000000	-54.17691000	-10.35310000
94.49999457	0.00000000	-52.22071000	-6.91437000
94.69999455	0.00000000	-50.68897000	-5.33341500
94.89999454	0.00000000	-49.94463000	-5.75172200
95.09999453	0.00000000	-50.73204000	-8.44611200
95.29999452	0.00000000	-52.64517000	-12.58612000
95.49999451	0.00000000	-55.38263000	-16.43701000
95.69999449	0.00000000	-58.45841000	-18.81152000
95.89999448	0.00000000	-61.15280000	-19.93110000
96.09999447	0.00000000	-62.64764000	-19.13140000
96.29999446	0.00000000	-62.31545000	-16.11712000
96.49999445	0.00000000	-60.41461000	-12.72146000
96.69999444	0.00000000	-58.03395000	-9.93479300
96.89999442	0.00000000	-54.87204000	-8.02780400
97.09999441	0.00000000	-51.06422000	-7.28346400
97.29999440	0.00000000	-48.03149000	-8.40305000
97.49999439	0.00000000	-46.82579000	-10.67298000
97.69999438	0.00000000	-47.57013000	-13.00443000
97.89999436	0.00000000	-49.52633000	-15.32357000
98.09999435	0.00000000	-52.68823000	-16.81225000
98.29999434	0.00000000	-56.87746000	-16.85531000
98.49999433	0.00000000	-60.73450000	-15.74188000
98.69999432	0.00000000	-63.06594000	-14.25320000
98.89999430	0.00000000	-63.85334000	-13.09670000
99.09999429	0.00000000	-62.69069000	-12.67224000
99.29999428	0.00000000	-60.03937000	-12.62918000
99.49999427	0.00000000	-56.87746000	-12.62918000
99.69999426	0.00000000	-53.38336000	-12.58612000
99.89999425	0.00000000	-49.94463000	-12.21087000
100.09999423	0.00000000	-48.03149000	-11.46653000
100.29999422	0.00000000	-47.94537000	-11.09129000
100.49999421	0.00000000	-49.10802000	-11.00517000
100.69999420	0.00000000	-51.06422000	-10.67298000
100.89999419	0.00000000	-53.80167000	-10.40231000
101.09999417	0.00000000	-56.87746000	-11.55881000
101.29999416	0.00000000	-59.57185000	-13.79183000
101.49999415	0.00000000	-61.10974000	-15.69882000
101.69999414	0.00000000	-61.15280000	-16.89837000
101.89999413	0.00000000	-60.03937000	-17.27362000
102.09999411	0.00000000	-58.45841000	-16.85531000
102.29999410	0.00000000	-56.50221000	-15.27436000
102.49999409	0.00000000	-54.17691000	-12.62918000
102.69999408	0.00000000	-52.26993000	-9.93479300
102.89999407	0.00000000	-51.06422000	-7.98474400
103.09999406	0.00000000	-50.68897000	-6.82209600
103.29999404	0.00000000	-51.10728000	-6.86515700
103.49999403	0.00000000	-52.64517000	-8.44611200
103.69999402	0.00000000	-54.92125000	-11.46653000
103.89999401	0.00000000	-56.87746000	-14.94833000
104.09999400	0.00000000	-58.45841000	-17.60581000
104.29999398	0.00000000	-59.57185000	-19.18061000
104.49999397	0.00000000	-59.57185000	-18.76845000
104.69999396	0.00000000	-58.45841000	-16.90453000
104.89999395	0.00000000	-56.92052000	-14.21014000
105.09999394	0.00000000	-55.33957000	-11.51575000
105.29999392	0.00000000	-53.80167000	-9.55954600
105.49999391	0.00000000	-52.68823000	-8.35998900
105.69999390	0.00000000	-52.64517000	-8.02780400
105.89999389	0.00000000	-53.38336000	-8.82135800
106.09999388	0.00000000	-54.17691000	-11.09744000
106.29999387	0.00000000	-55.33957000	-13.74262000
106.49999385	0.00000000	-56.45300000	-15.69882000
106.69999384	0.00000000	-56.87746000	-16.85531000
106.89999383	0.00000000	-56.87746000	-16.81225000
107.09999382	0.00000000	-56.45300000	-15.32357000
107.29999381	0.00000000	-55.33957000	-13.04749000
107.49999379	0.00000000	-54.22613000	-11.14050000
107.69999378	0.00000000	-53.80167000	-9.93479300
107.89999377	0.00000000	-53.80167000	-9.56569900
108.09999376	0.00000000	-54.17691000	-9.93479300
108.29999375	0.00000000	-54.96432000	-11.14050000
108.49999374	0.00000000	-55.75787000	-13.00443000
108.69999372	0.00000000	-56.87746000	-14.90526000
108.89999371	0.00000000	-57.61565000	-15.64960000
109.09999370	0.00000000	-57.25270000	-15.36663000
109.29999369	0.00000000	-56.54527000	-14.53617000
109.49999368	0.00000000	-55.71481000	-13.37352000
109.69999366	0.00000000	-54.92125000	-11.46653000
109.89999365	0.00000000	-53.80167000	-9.98400600
110.09999364	0.00000000	-53.06348000	-9.51648500
110.29999363	0.00000000	-53.38336000	-9.56569900
110.49999362	0.00000000	-53.80167000	-10.35310000
110.69999360	0.00000000	-54.55216000	-12.25394000
110.89999359	0.00000000	-55.70866000	-14.11786000
111.09999358	0.00000000	-56.09006000	-15.32357000
111.29999357	0.00000000	-56.54527000	-15.74188000
111.49999356	0.00000000	-56.87746000	-15.74188000
111.69999355	0.00000000	-56.87746000	-15.36663000
111.89999353	0.00000000	-56.50221000	-14.58538000
112.09999352	0.00000000	-55.71481000	-13.79183000
112.29999351	0.00000000	-54.96432000	-12.62918000
112.49999350	0.00000000	-54.17691000	-11.51575000
112.69999349	0.00000000	-53.80167000	-11.09129000
112.89999347	0.00000000	-53.80167000	-11.09129000
113.09999346	0.00000000	-54.17691000	-11.46653000
113.29999345	0.00000000	-54.92125000	-12.21087000
113.49999344	0.00000000	-55.29650000	-12.58612000
113.69999343	0.00000000	-55.33957000	-12.62918000
113.89999341	0.00000000	-55.33957000	-12.67224000
114.09999340	0.00000000	-55.33957000	-13.04749000
114.29999339	0.00000000	-55.33957000	-13.79183000
114.49999338	0.00000000	-55.33957000	-14.16708000
114.69999337	0.00000000	-55.33957000	-14.21014000
114.89999336	0.00000000	-55.33957000	-14.21014000
115.09999334	0.00000000	-55.33957000	-14.21014000
115.29999333	0.00000000	-55.33957000	-14.21014000
115.49999332	0.00000000	-55.33957000	-14.16708000
115.69999331	0.00000000	-55.33957000	-13.79183000
115.89999330	0.00000000	-55.33957000	-13.00443000
116.09999328	0.00000000	-55.33957000	-12.25394000
116.29999327	0.00000000	-55.33957000	-11.46653000
116.49999326	0.00000000	-55.33957000	-11.09129000
116.69999325	0.00000000	-55.33957000	-11.04823000
116.89999324	0.00000000	-55.33957000	-11.09129000
117.09999322	0.00000000	-55.33957000	-11.51575000
117.29999321	0.00000000	-55.29650000	-12.62918000
117.49999320	0.00000000	-54.92125000	-13.74262000
117.69999319	0.00000000	-54.17691000	-14.21014000
117.89999318	0.00000000	-53.80167000	-14.58538000
118.09999317	0.00000000	-53.75861000	-14.94833000
118.29999315	0.00000000	-53.75861000	-14.53617000
118.49999314	0.00000000	-53.80167000	-13.83489000
118.69999313	0.00000000	-54.22613000	-13.00443000
118.89999312	0.00000000	-55.33957000	-12.25394000
119.09999311	0.00000000	-56.50221000	-11.46653000
119.29999309	0.00000000	-57.25270000	-11.09129000
119.49999308	0.00000000	-57.66486000	-11.04823000
119.69999307	0.00000000	-57.25270000	-11.04823000
119.89999306	0.00000000	-56.50221000	-11.09129000
120.09999305	0.00000000	-55.29650000	-11.46653000
120.29999303	0.00000000	-53.80167000	-12.21087000
120.49999302	0.00000000	-52.64517000	-12.62918000
120.69999301	0.00000000	-52.22071000	-13.04749000
120.89999300	0.00000000	-52.22071000	-13.79183000
121.09999299	0.00000000	-52.64517000	-14.16708000
121.29999298	0.00000000	-53.80167000	-14.21014000
121.49999296	0.00000000	-55.29650000	-14.21014000
121.69999295	0.00000000	-56.50221000	-14.16708000
121.89999294	0.00000000	-57.29576000	-13.79183000
122.09999293	0.00000000	-58.03395000	-13.04749000
122.29999292	0.00000000	-58.03395000	-12.62918000
122.49999290	0.00000000	-57.29576000	-12.21087000
122.69999289	0.00000000	-56.50221000	-11.46653000
122.89999288	0.00000000	-55.29650000	-11.09129000
123.09999287	0.00000000	-53.80167000	-11.09129000
123.29999286	0.00000000	-52.64517000	-11.46653000
123.49999284	0.00000000	-52.22071000	-12.21087000
123.69999283	0.00000000	-52.22071000	-12.58612000
123.89999282	0.00000000	-52.59596000	-12.67224000
124.09999281	0.00000000	-53.38336000	-13.04749000
124.29999280	0.00000000	-54.13385000	-13.79183000
124.49999279	0.00000000	-54.96432000	-14.16708000
124.69999277	0.00000000	-55.71481000	-14.21014000
124.89999276	0.00000000	-56.54527000	-14.16708000
125.09999275	0.00000000	-57.25270000	-13.79183000
125.29999274	0.00000000	-57.66486000	-13.00443000
125.49999273	0.00000000	-57.25270000	-12.25394000
125.69999271	0.00000000	-56.50221000	-11.46653000
125.89999270	0.00000000	-55.33957000	-11.09129000
126.09999269	0.00000000	-54.17691000	-11.09129000
126.29999268	0.00000000	-53.38336000	-11.46653000
126.49999267	0.00000000	-52.59596000	-12.21087000
126.69999265	0.00000000	-52.26993000	-12.62918000
126.89999264	0.00000000	-52.64517000	-13.04749000
127.09999263	0.00000000	-53.75861000	-13.79183000
127.29999262	0.00000000	-54.92125000	-14.16708000
127.49999261	0.00000000	-55.71481000	-14.16708000
127.69999260	0.00000000	-56.50221000	-13.79183000
127.89999258	0.00000000	-56.87746000	-13.04749000
128.09999257	0.00000000	-56.87746000	-12.67224000
128.29999256	0.00000000	-56.45300000	-12.58612000
128.49999255	0.00000000	-55.29650000	-12.21087000
128.69999254	0.00000000	-53.80167000	-11.46653000
128.89999252	0.00000000	-52.64517000	-11.14050000
129.09999251	0.00000000	-52.26993000	-11.46653000
129.29999250	0.00000000	-52.59596000	-12.21087000
129.49999249	0.00000000	-53.38336000	-12.58612000
129.69999248	0.00000000	-54.17691000	-12.62918000
129.89999246	0.00000000	-55.33957000	-12.62918000
130.09999245	0.00000000	-56.45300000	-12.62918000
130.29999244	0.00000000	-56.87746000	-12.62918000
130.49999243	0.00000000	-56.87746000	-12.58612000
130.69999242	0.00000000	-56.45300000	-12.21087000
130.89999241	0.00000000	-55.33957000	-11.46653000
131.09999239	0.00000000	-54.22613000	-11.14050000
131.29999238	0.00000000	-53.75861000	-11.46653000
131.49999237	0.00000000	-53.38336000	-12.21087000
131.69999236	0.00000000	-53.01427000	-12.62918000
131.89999235	0.00000000	-53.38336000	-13.04749000
132.09999233	0.00000000	-53.75861000	-13.79183000
132.29999232	0.00000000	-54.17691000	-14.16708000
132.49999231	0.00000000	-54.92125000	-14.21014000
132.69999230	0.00000000	-55.29650000	-14.16708000
132.89999229	0.00000000	-55.33957000	-13.79183000
133.09999227	0.00000000	-55.33957000	-13.00443000
133.29999226	0.00000000	-55.33957000	-12.25394000
133.49999225	0.00000000	-55.29650000	-11.46653000
133.69999224	0.00000000	-54.96432000	-11.09129000
133.89999223	0.00000000	-54.59522000	-11.09129000
134.09999222	0.00000000	-54.96432000	-11.51575000
134.29999220	0.00000000	-55.29650000	-12.58612000
134.49999219	0.00000000	-55.33957000	-13.37352000
134.69999218	0.00000000	-55.29650000	-13.46580000
134.89999217	0.00000000	-54.92125000	-14.21014000
135.09999216	0.00000000	-54.17691000	-14.90526000
135.29999214	0.00000000	-53.80167000	-14.58538000
135.49999213	0.00000000	-53.75861000	-14.21014000
135.69999212	0.00000000	-53.80167000	-13.79183000
135.89999211	0.00000000	-54.17691000	-13.00443000
136.09999210	0.00000000	-54.92125000	-12.25394000
136.29999208	0.00000000	-55.29650000	-11.46653000
136.49999207	0.00000000	-55.38263000	-11.14050000
136.69999206	0.00000000	-55.71481000	-11.46653000
136.89999205	0.00000000	-56.08390000	-12.21087000
137.09999204	0.00000000	-55.67175000	-12.58612000
137.29999203	0.00000000	-54.96432000	-12.67224000
137.49999201	0.00000000	-54.17691000	-13.04749000
137.69999200	0.00000000	-53.80167000	-13.79183000
137.89999199	0.00000000	-53.75861000	-14.16708000
138.09999198	0.00000000	-53.75861000	-14.21014000
138.29999197	0.00000000	-53.80167000	-14.16708000
138.49999195	0.00000000	-54.17691000	-13.79183000
138.69999194	0.00000000	-54.92125000	-13.04749000
138.89999193	0.00000000	-55.29650000	-12.62918000
139.09999192	0.00000000	-55.33957000	-12.21087000
139.29999191	0.00000000	-55.33957000	-11.46653000
139.49999189	0.00000000	-55.29650000	-11.09129000
139.69999188	0.00000000	-54.92125000	-11.04823000
139.89999187	0.00000000	-54.17691000	-11.09129000
140.09999186	0.00000000	-53.80167000	-11.46653000
140.29999185	0.00000000	-53.75861000	-12.25394000
140.49999184	0.00000000	-53.75861000	-13.00443000
140.69999182	0.00000000	-53.75861000	-13.79183000
140.89999181	0.00000000	-53.80167000	-14.16708000
141.09999180	0.00000000	-54.17691000	-14.21014000
141.29999179	0.00000000	-54.92125000	-14.16708000
141.49999178	0.00000000	-55.29650000	-13.79183000
141.69999176	0.00000000	-55.29650000	-13.00443000
141.89999175	0.00000000	-54.92125000	-12.25394000
142.09999174	0.00000000	-54.17691000	-11.46653000
142.29999173	0.00000000	-53.80167000	-11.09129000
142.49999172	0.00000000	-53.75861000	-11.04823000
142.69999170	0.00000000	-53.75861000	-11.04823000
142.89999169	0.00000000	-53.80167000	-11.09129000
143.09999168	0.00000000	-54.17691000	-11.51575000
143.29999167	0.00000000	-54.92125000	-12.62918000
143.49999166	0.00000000	-55.29650000	-13.74262000
143.69999165	0.00000000	-55.33957000	-14.16708000
143.89999163	0.00000000	-55.29650000	-14.16708000
144.09999162	0.00000000	-54.96432000	-13.79183000
144.29999161	0.00000000	-54.55216000	-13.00443000
144.49999160	0.00000000	-54.54601000	-12.25394000
144.69999159	0.00000000	-54.13385000	-11.46653000
144.89999157	0.00000000	-53.80167000	-11.09129000
145.09999156	0.00000000	-53.75861000	-11.09129000
145.29999155	0.00000000	-53.75861000	-11.42347000
145.49999154	0.00000000	-53.80167000	-11.83563000
145.69999153	0.00000000	-54.17691000	-11.88484000
145.89999151	0.00000000	-54.92125000	-12.67224000
146.09999150	0.00000000	-55.29650000	-13.74262000
146.29999149	0.00000000	-55.33957000	-14.16708000
146.49999148	0.00000000	-55.29650000	-14.21014000
146.69999147	0.00000000	-54.92125000	-14.16708000
146.89999146	0.00000000	-54.17691000	-13.79183000
147.09999144	0.00000000	-53.80167000	-13.04749000
147.29999143	0.00000000	-53.75861000	-12.67224000
147.49999142	0.00000000	-53.75861000	-12.58612000
147.69999141	0.00000000	-53.80167000	-12.21087000
147.89999140	0.00000000	-54.17691000	-11.46653000
148.09999138	0.00000000	-54.92125000	-11.14050000
148.29999137	0.00000000	-55.29650000	-11.46653000
148.49999136	0.00000000	-55.33957000	-12.21087000
148.69999135	0.00000000	-55.33957000	-12.58612000
148.89999134	0.00000000	-55.33957000	-12.67224000
149.09999132	0.00000000	-55.29650000	-13.00443000
149.29999131	0.00000000	-54.92125000	-13.37352000
149.49999130	0.00000000	-54.17691000	-13.00443000
149.69999129	0.00000000	-53.75861000	-12.67224000
149.89999128	0.00000000	-53.38336000	-12.58612000
150.09999127	0.00000000	-53.01427000	-12.21087000
150.29999125	0.00000000	-53.38336000	-11.46653000
150.49999124	0.00000000	-53.71555000	-11.09129000
150.69999123	0.00000000	-53.80167000	-11.04823000
150.89999122	0.00000000	-54.17691000	-11.09129000
151.09999121	0.00000000	-54.92125000	-11.46653000
151.29999119	0.00000000	-55.29650000	-12.21087000
151.49999118	0.00000000	-55.33957000	-12.62918000
151.69999117	0.00000000	-55.33957000	-13.00443000
151.89999116	0.00000000	-55.29650000	-13.37352000
152.09999115	0.00000000	-54.92125000	-13.00443000
152.29999113	0.00000000	-54.17691000	-12.67224000
152.49999112	0.00000000	-53.80167000	-12.62918000
152.69999111	0.00000000	-53.75861000	-12.62918000
152.89999110	0.00000000	-53.75861000	-12.62918000
153.09999109	0.00000000	-53.75861000	-12.58612000
153.29999108	0.00000000	-53.75861000	-12.21087000
153.49999106	0.00000000	-53.75861000	-11.51575000
153.69999105	0.00000000	-53.80167000	-11.51575000
153.89999104	0.00000000	-54.17691000	-12.21087000
154.09999103	0.00000000	-54.92125000	-12.58612000
154.29999102	0.00000000	-55.29650000	-12.62918000
154.49999100	0.00000000	-55.33957000	-12.62918000
154.69999099	0.00000000	-55.29650000	-12.62918000
154.89999098	0.00000000	-54.92125000	-12.62918000
155.09999097	0.00000000	-54.17691000	-12.62918000
155.29999096	0.00000000	-53.80167000	-12.62918000
155.49999094	0.00000000	-53.75861000	-12.62918000
155.69999093	0.00000000	-53.75861000	-12.62918000
155.89999092	0.00000000	-53.75861000	-12.62918000
156.09999091	0.00000000	-53.75861000	-12.62918000
156.29999090	0.00000000	-53.80167000	-12.58612000
156.49999089	0.00000000	-54.17691000	-12.21087000
156.69999087	0.00000000	-54.92125000	-11.46653000
156.89999086	0.00000000	-55.29650000	-11.09129000
157.09999085	0.00000000	-55.33957000	-11.04823000
157.29999084	0.00000000	-55.33957000	-11.09129000
157.49999083	0.00000000	-55.33957000	-11.46653000
157.69999081	0.00000000	-55.29650000	-12.21087000
157.89999080	0.00000000	-54.92125000	-12.58612000
158.09999079	0.00000000	-54.17691000	-12.67224000
158.29999078	0.00000000	-53.80167000	-13.00443000
158.49999077	0.00000000	-53.75861000	-13.37352000
158.69999075	0.00000000	-53.75861000	-13.00443000
158.89999074	0.00000000	-53.75861000	-12.67224000
159.09999073	0.00000000	-53.75861000	-12.62918000
159.29999072	0.00000000	-53.75861000	-12.58612000
159.49999071	0.00000000	-53.75861000	-12.21087000
159.69999070	0.00000000	-53.80167000	-11.51575000
159.89999068	0.00000000	-54.17691000	-11.46653000
160.09999067	0.00000000	-54.92125000	-11.79257000
160.29999066	0.00000000	-55.29650000	-11.46653000
160.49999065	0.00000000	-55.33957000	-11.51575000
160.69999064	0.00000000	-55.29650000	-12.21087000
160.89999062	0.00000000	-54.92125000	-12.58612000
161.09999061	0.00000000	-54.17691000	-12.62918000
161.29999060	0.00000000	-53.80167000	-12.62918000
161.49999059	0.00000000	-53.75861000	-12.62918000
161.69999058	0.00000000	-53.75861000	-12.62918000
161.89999056	0.00000000	-53.75861000	-12.62918000
162.09999055	0.00000000	-53.75861000	-12.62918000
162.29999054	0.00000000	-53.75861000	-12.62918000
162.49999053	0.00000000	-53.75861000	-12.62918000
162.69999052	0.00000000	-53.75861000	-12.62918000
162.89999051	0.00000000	-53.80167000	-12.62918000
163.09999049	0.00000000	-54.17691000	-12.62918000
163.29999048	0.00000000	-54.92125000	-12.62918000
163.49999047	0.00000000	-55.29650000	-12.62918000
163.69999046	0.00000000	-55.33957000	-12.62918000
163.89999045	0.00000000	-55.33957000	-12.62918000
164.09999043	0.00000000	-55.29650000	-12.62918000
164.29999042	0.00000000	-54.92125000	-12.62918000
164.49999041	0.00000000	-54.17691000	-12.62918000
164.69999040	0.00000000	-53.80167000	-12.62918000
164.89999039	0.00000000	-53.75861000	-12.62918000
165.09999037	0.00000000	-53.75861000	-12.62918000
165.29999036	0.00000000	-53.75861000	-12.62918000
165.49999035	0.00000000	-53.75861000	-12.58612000
165.69999034	0.00000000	-53.75861000	-12.25394000
165.89999033	0.00000000	-53.75861000	-11.84178000
166.09999032	0.00000000	-53.80167000	-11.83563000
166.29999030	0.00000000	-54.17691000	-11.42347000
166.49999029	0.00000000	-54.92125000	-11.14050000
166.69999028	0.00000000	-55.29650000	-11.46653000
166.89999027	0.00000000	-55.29650000	-12.21087000
167.09999026	0.00000000	-54.92125000	-12.58612000
167.29999024	0.00000000	-54.17691000	-12.62918000
167.49999023	0.00000000	-53.80167000	-12.62918000
167.69999022	0.00000000	-53.75861000	-12.62918000
167.89999021	0.00000000	-53.75861000	-12.62918000
168.09999020	0.00000000	-53.75861000	-12.62918000
168.29999018	0.00000000	-53.75861000	-12.62918000
168.49999017	0.00000000	-53.75861000	-12.62918000
168.69999016	0.00000000	-53.75861000	-12.62918000
168.89999015	0.00000000	-53.75861000	-12.62918000
169.09999014	0.00000000	-53.75861000	-12.62918000
169.29999013	0.00000000	-53.80167000	-12.62918000
169.49999011	0.00000000	-54.17691000	-12.62918000
169.69999010	0.00000000	-54.92125000	-12.62918000
169.89999009	0.00000000	-55.29650000	-12.62918000
170.09999008	0.00000000	-55.29650000	-12.62918000
170.29999007	0.00000000	-54.92125000	-12.62918000
170.49999005	0.00000000	-54.17691000	-12.62918000
170.69999004	0.00000000	-53.80167000	-12.62918000
170.89999003	0.00000000	-53.75861000	-12.62918000
171.09999002	0.00000000	-53.75861000	-12.62918000
171.29999001	0.00000000	-53.75861000	-12.62918000
171.49998999	0.00000000	-53.75861000	-12.62918000
171.69998998	0.00000000	-53.75861000	-12.62918000
171.89998997	0.00000000	-53.75861000	-12.62918000
172.09998996	0.00000000	-53.75861000	-12.62918000
172.29998995	0.00000000	-53.75861000	-12.62918000
172.49998994	0.00000000	-53.75861000	-12.62918000
172.69998992	0.00000000	-53.75861000	-12.62918000
172.89998991	0.00000000	-53.75861000	-12.62918000
173.09998990	0.00000000	-53.75861000	-12.62918000
173.29998989	0.00000000	-53.75861000	-12.58612000
173.49998988	0.00000000	-53.75861000	-12.25394000
173.69998986	0.00000000	-53.75861000	-11.88484000
173.89998985	0.00000000	-53.75861000	-12.25394000
174.09998984	0.00000000	-53.75861000	-12.58612000
174.29998983	0.00000000	-53.75861000	-12.62918000
174.49998982	0.00000000	-53.75861000	-12.62918000
174.69998980	0.00000000	-53.80167000	-12.62918000
174.89998979	0.00000000	-54.13385000	-12.62918000
175.09998978	0.00000000	-54.50295000	-12.62918000
175.29998977	0.00000000	-54.13385000	-12.62918000
175.49998976	0.00000000	-53.80167000	-12.62918000
175.69998975	0.00000000	-53.75861000	-12.62918000
175.89998973	0.00000000	-53.75861000	-12.62918000
176.09998972	0.00000000	-53.75861000	-12.62918000
176.29998971	0.00000000	-53.75861000	-12.62918000
176.49998970	0.00000000	-53.75861000	-12.62918000
176.69998969	0.00000000	-53.75861000	-12.62918000
176.89998967	0.00000000	-53.75861000	-12.62918000
177.09998966	0.00000000	-53.75861000	-12.62918000
177.29998965	0.00000000	-53.75861000	-12.62918000
177.49998964	0.00000000	-53.75861000	-12.62918000
177.69998963	0.00000000	-53.75861000	-12.62918000
177.89998961	0.00000000	-53.75861000	-12.62918000
178.09998960	0.00000000	-53.75861000	-12.62918000
178.29998959	0.00000000	-53.75861000	-12.62918000
178.49998958	0.00000000	-53.75861000	-12.62918000
178.69998957	0.00000000	-53.75861000	-12.58612000
178.89998956	0.00000000	-53.75861000	-12.25394000
179.09998954	0.00000000	-53.75861000	-11.88484000
179.29998953	0.00000000	-53.75861000	-12.25394000
179.49998952	0.00000000	-53.75861000	-12.58612000
179.69998951	0.00000000	-53.75861000	-12.62918000
179.89998950	0.00000000	-53.75861000	-12.62918000
180.09998948	0.00000000	-53.75861000	-12.62918000
180.29998947	0.00000000	-53.75861000	-12.62918000
180.49998946	0.00000000	-53.75861000	-12.62918000
180.69998945	0.00000000	-53.80167000	-12.62918000
180.89998944	0.00000000	-54.13385000	-12.62918000
181.09998942	0.00000000	-54.50295000	-12.62918000
181.29998941	0.00000000	-54.13385000	-12.62918000
181.49998940	0.00000000	-53.80167000	-12.62918000
181.69998939	0.00000000	-53.75861000	-12.62918000
181.89998938	0.00000000	-53.75861000	-12.58612000
182.09998937	0.00000000	-53.75861000	-12.25394000
182.29998935	0.00000000	-53.75861000	-11.88484000
182.49998934	0.00000000	-53.75861000	-12.25394000
182.69998933	0.00000000	-53.75861000	-12.58612000
182.89998932	0.00000000	-53.71555000	-12.62918000
183.09998931	0.00000000	-53.38336000	-12.62918000
183.29998929	0.00000000	-53.01427000	-12.62918000
183.49998928	0.00000000	-53.38336000	-12.62918000
183.69998927	0.00000000	-53.75861000	-12.62918000
183.89998926	0.00000000	-54.13385000	-12.62918000
184.09998925	0.00000000	-54.50295000	-12.62918000
184.29998923	0.00000000	-54.13385000	-12.62918000
184.49998922	0.00000000	-53.80167000	-12.58612000
184.69998921	0.00000000	-53.75861000	-12.21087000
184.89998920	0.00000000	-53.75861000	-11.46653000
185.09998919	0.00000000	-53.75861000	-11.09129000
185.29998918	0.00000000	-53.75861000	-11.09129000
185.49998916	0.00000000	-53.75861000	-11.46653000
185.69998915	0.00000000	-53.75861000	-12.21087000
185.89998914	0.00000000	-53.75861000	-12.58612000
186.09998913	0.00000000	-53.75861000	-12.62918000
186.29998912	0.00000000	-53.75861000	-12.62918000
186.49998910	0.00000000	-53.75861000	-12.62918000
186.69998909	0.00000000	-53.75861000	-12.62918000
186.89998908	0.00000000	-53.75861000	-12.58612000
187.09998907	0.00000000	-53.75861000	-12.21087000
187.29998906	0.00000000	-53.75861000	-11.46653000
187.49998904	0.00000000	-53.75861000	-11.09129000
187.69998903	0.00000000	-53.75861000	-11.04823000
187.89998902	0.00000000	-53.75861000	-11.04823000
188.09998901	0.00000000	-53.75861000	-11.09129000
188.29998900	0.00000000	-53.75861000	-11.46653000
188.49998899	0.00000000	-53.75861000	-12.21087000
188.69998897	0.00000000	-53.75861000	-12.58612000
188.89998896	0.00000000	-53.75861000	-12.62918000
189.09998895	0.00000000	-53.75861000	-12.62918000
189.29998894	0.00000000	-53.75861000	-12.62918000
189.49998893	0.00000000	-53.75861000	-12.62918000
189.69998891	0.00000000	-53.75861000	-12.62918000
189.89998890	0.00000000	-53.75861000	-12.62918000
190.09998889	0.00000000	-53.75861000	-12.62918000
190.29998888	0.00000000	-53.75861000	-12.62918000
190.49998887	0.00000000	-53.75861000	-12.62918000
190.69998885	0.00000000	-53.75861000	-12.62918000
190.89998884	0.00000000	-53.75861000	-12.62918000
191.09998883	0.00000000	-53.75861000	-12.62918000
191.29998882	0.00000000	-53.75861000	-12.62918000
191.49998881	0.00000000	-53.71555000	-12.62918000
191.69998880	0.00000000	-53.38336000	-12.62918000
191.89998878	0.00000000	-53.01427000	-12.62918000
192.09998877	0.00000000	-53.38336000	-12.62918000
192.29998876	0.00000000	-53.71555000	-12.62918000
192.49998875	0.00000000	-53.75861000	-12.62918000
192.69998874	0.00000000	-53.75861000	-12.62918000
192.89998872	0.00000000	-53.75861000	-12.62918000
193.09998871	0.00000000	-53.75861000	-12.62918000
193.29998870	0.00000000	-53.75861000	-12.62918000
193.49998869	0.00000000	-53.75861000	-12.62918000
193.69998868	0.00000000	-53.75861000	-12.62918000
193.89998866	0.00000000	-53.75861000	-12.62918000
194.09998865	0.00000000	-53.75861000	-12.62918000
194.29998864	0.00000000	-53.75861000	-12.62918000
194.49998863	0.00000000	-53.75861000	-12.58612000
194.69998862	0.00000000	-53.75861000	-12.21087000
194.89998861	0.00000000	-53.75861000	-11.51575000
195.09998859	0.00000000	-53.75861000	-11.51575000
195.29998858	0.00000000	-53.75861000	-12.21087000
195.49998857	0.00000000	-53.75861000	-12.58612000
195.69998856	0.00000000	-53.75861000	-12.62918000
195.89998855	0.00000000	-53.75861000	-12.62918000
196.09998853	0.00000000	-53.75861000	-12.62918000
