Time	Channel A	Channel B	Channel C
(us)	(V)	(mV)	(mV)

-4.53333289	0.00000000	-60.08243000	-14.21014000
-4.33333290	0.00000000	-60.03937000	-14.25320000
-4.13333291	0.00000000	-59.70718000	-14.58538000
-3.93333293	0.00000000	-59.33809000	-14.99139000
-3.73333294	0.00000000	-59.70718000	-14.95448000
-3.53333295	0.00000000	-60.03937000	-15.04060000
-3.33333296	0.00000000	-60.08243000	-15.00369000
-3.13333297	0.00000000	-60.08243000	-15.36663000
-2.93333299	0.00000000	-60.03937000	-15.32357000
-2.73333300	0.00000000	-59.70718000	-14.62844000
-2.53333301	0.00000000	-59.33809000	-14.25320000
-2.33333302	0.00000000	-59.70718000	-14.25320000
-2.13333303	0.00000000	-60.03937000	-14.62844000
-1.93333304	0.00000000	-60.08243000	-15.32357000
-1.73333306	0.00000000	-60.08243000	-15.32357000
-1.53333307	0.00000000	-60.08243000	-14.62844000
-1.33333308	0.00000000	-60.08243000	-14.30241000
-1.13333309	0.00000000	-60.03937000	-14.58538000
-0.93333310	0.00000000	-59.70718000	-14.94833000
-0.73333312	0.00000000	-59.33809000	-14.58538000
-0.53333313	0.00000000	-59.70718000	-14.30241000
-0.33333314	0.15871060	-60.03937000	-14.58538000
-0.13333315	0.47736220	-60.08243000	-14.94833000
0.06666684	0.95533960	-60.08243000	-14.62844000
0.26666682	0.95533960	-60.08243000	-14.67150000
0.46666681	0.95533960	-60.08243000	-15.36663000
0.66666680	0.47736220	-60.08243000	-15.74188000
0.86666679	-0.31803640	-60.03937000	-15.78494000
1.06666678	-1.27399100	-59.66412000	-15.78494000
1.26666677	-2.22994600	-58.96899000	-15.74188000
1.46666675	-2.70792300	-58.91978000	-15.36663000
1.66666674	-2.54859700	-59.24582000	-14.62844000
1.86666673	-1.59264300	-58.87672000	-14.25320000
2.06666672	0.00000000	-58.59375000	-14.21014000
2.26666671	2.07062000	-58.91978000	-14.21014000
2.46666669	4.14124000	-59.66412000	-14.25320000
2.66666668	5.25652100	-60.03937000	-14.62844000
2.86666667	5.09719500	-60.08243000	-15.36663000
3.06666666	3.50393700	-60.08243000	-15.74188000
3.26666665	0.79601380	-60.08243000	-15.78494000
3.46666663	-2.70792300	-60.03937000	-15.74188000
3.66666662	-5.73449800	-59.66412000	-15.36663000
3.86666661	-7.64579200	-58.96899000	-14.62844000
4.06666660	-7.80511800	-58.91978000	-14.25320000
4.26666659	-5.73449800	-59.24582000	-14.21014000
4.46666658	-2.22994600	-58.87672000	-14.21014000
4.66666656	2.22994600	-58.54454000	-14.21014000
4.86666655	6.37180100	-58.54454000	-14.25320000
5.06666654	8.92039900	-58.91978000	-14.62844000
5.26666653	9.39837600	-59.66412000	-15.36663000
5.46666652	7.48646600	-60.03937000	-15.69267000
5.66666650	3.66326300	-60.08243000	-15.40969000
5.86666649	-1.11466500	-60.03937000	-15.00369000
6.06666648	-5.57517200	-59.70718000	-14.99139000
6.26666647	-8.60174700	-59.29502000	-14.58538000
6.46666646	-9.39837600	-59.28888000	-14.25320000
6.66666644	-7.96444400	-58.87672000	-14.21014000
6.86666643	-4.45989200	-58.54454000	-14.21014000
7.06666642	-0.15871060	-58.54454000	-14.25320000
7.26666641	3.98191400	-58.91978000	-14.58538000
7.46666640	6.84916400	-59.61491000	-14.94833000
7.66666639	7.80511800	-59.61491000	-14.62844000
7.86666637	6.84916400	-58.96899000	-14.67150000
8.06666636	4.14124000	-58.96899000	-15.36663000
8.26666635	0.95533960	-59.66412000	-15.69267000
8.46666634	-2.07062000	-59.99015000	-15.36663000
8.66666633	-4.30056600	-59.66412000	-14.62844000
8.86666631	-5.25652100	-58.96899000	-14.25320000
9.06666630	-4.61921700	-58.96899000	-14.21014000
9.26666629	-3.18590100	-59.61491000	-14.21014000
9.46666628	-1.27399100	-59.61491000	-14.21014000
9.66666627	0.63668800	-58.91978000	-14.21014000
9.86666625	2.07062000	-58.54454000	-14.21014000
10.06666624	2.54859700	-58.54454000	-14.25320000
10.26666623	2.38927200	-58.87672000	-14.58538000
10.46666622	1.75196900	-59.24582000	-14.94833000
10.66666621	0.79601380	-58.91978000	-14.58538000
10.86666620	0.00000000	-58.91978000	-14.25320000
11.06666618	-0.63668800	-59.24582000	-14.21014000
11.26666617	-0.95533960	-58.87672000	-14.21014000
11.46666616	-0.95533960	-58.59375000	-14.25320000
11.66666615	-0.79601380	-58.91978000	-14.62844000
11.86666614	-0.47736220	-59.61491000	-15.32357000
12.06666612	-0.15871060	-59.61491000	-15.32357000
12.26666611	-0.15871060	-58.91978000	-14.62844000
12.46666610	-0.15871060	-58.54454000	-14.25320000
12.66666609	0.00000000	-58.50147000	-14.21014000
12.86666608	0.00000000	-58.50147000	-14.21014000
13.06666606	0.00000000	-58.50147000	-14.21014000
13.26666605	0.15871060	-58.50147000	-14.21014000
13.46666604	0.00000000	-58.50147000	-14.21014000
13.66666603	0.00000000	-58.50147000	-14.21014000
13.86666602	0.00000000	-58.50147000	-14.21014000
14.06666601	0.00000000	-58.50147000	-14.21014000
14.26666599	-0.15871060	-58.50147000	-14.21014000
14.46666598	-0.15871060	-58.50147000	-14.21014000
14.66666597	-0.15871060	-58.54454000	-14.21014000
14.86666596	0.00000000	-58.91978000	-14.21014000
15.06666595	0.00000000	-59.66412000	-14.21014000
15.26666593	0.00000000	-60.03937000	-14.25320000
15.46666592	0.00000000	-60.08243000	-14.58538000
15.66666591	0.00000000	-60.03937000	-14.94833000
15.86666590	0.00000000	-59.70718000	-14.58538000
16.06666589	0.00000000	-59.33809000	-14.25320000
16.26666587	0.00000000	-59.70718000	-14.21014000
16.46666586	-0.15871060	-59.99015000	-14.21014000
16.66666585	0.00000000	-59.66412000	-14.21014000
16.86666584	0.00000000	-58.87672000	-14.21014000
17.06666583	0.00000000	-58.12622000	-14.21014000
17.26666582	0.00000000	-57.33883000	-14.21014000
17.46666580	0.00000000	-56.96358000	-14.21014000
17.66666579	0.00000000	-56.96358000	-14.21014000
17.86666578	0.00000000	-57.38804000	-14.21014000
18.06666577	0.00000000	-58.54454000	-14.21014000
18.26666576	0.00000000	-60.08243000	-14.21014000
18.46666574	0.00000000	-61.66338000	-14.21014000
18.66666573	0.00000000	-63.20127000	-14.21014000
18.86666572	0.00000000	-64.31471000	-14.21014000
19.06666571	0.00000000	-64.31471000	-14.21014000
19.26666570	0.00000000	-63.15207000	-14.21014000
19.46666568	0.00000000	-61.15280000	-14.21014000
19.66666567	0.00000000	-57.99089000	-14.21014000
19.86666566	0.00000000	-53.80167000	-14.21014000
20.06666565	0.00000000	-49.98769000	-14.25320000
20.26666564	0.00000000	-48.03149000	-14.58538000
20.46666563	0.00000000	-48.08071000	-14.94833000
20.66666561	0.00000000	-50.49828000	-14.58538000
20.86666560	0.00000000	-55.93627000	-14.25320000
21.06666559	0.00000000	-63.29355000	-14.21014000
21.26666558	0.00000000	-70.97687000	-14.21014000
21.46666557	0.00000000	-77.10999000	-14.25320000
21.66666555	0.00000000	-79.34915000	-14.58538000
21.86666554	0.00000000	-77.02386000	-14.99139000
22.06666553	0.00000000	-69.99876000	-15.00369000
22.26666552	0.00000000	-59.52879000	-15.40969000
22.46666551	0.00000000	-47.47785000	-15.69267000
22.66666549	0.00000000	-35.98671000	-15.36663000
22.86666548	0.00000000	-28.35261000	-14.62844000
23.06666547	0.00000000	-27.65133000	-14.25320000
23.26666546	0.00000000	-34.25812000	-14.16708000
23.46666545	0.00000000	-47.47170000	-13.79183000
23.66666544	0.00000000	-64.82529000	-13.04749000
23.86666542	0.00000000	-82.22810000	-12.67224000
24.06666541	0.00000000	-95.68159000	-12.67224000
24.26666540	0.00000000	-101.72860000	-13.04749000
24.46666539	0.00000000	-97.45324000	-13.87795000
24.66666538	0.00000000	-83.58759000	-15.04675000
24.86666536	0.00000000	-63.81028000	-16.99065000
25.06666535	0.00000000	-41.75689000	-18.85458000
25.26666534	0.00000000	-22.12106000	-20.01722000
25.46666533	0.00000000	-10.20546000	-20.01722000
25.66666532	0.00000000	-9.09202700	-18.85458000
25.86666530	0.00000000	-19.55585000	-16.85531000
26.06666529	0.00000000	-39.60999000	-13.69956000
26.26666528	0.00000000	-64.31471000	-9.51648500
26.46666527	0.00000000	-87.90600000	-5.66560000
26.66666526	0.00000000	-105.26570000	-3.38336600
26.86666525	0.00000000	-112.19860000	-3.01427100
27.06666523	0.00000000	-106.80360000	-5.42568800
27.26666522	0.00000000	-90.60654000	-10.44537000
27.46666521	0.00000000	-67.43970000	-17.45817000
27.66666520	0.00000000	-42.72884000	-25.12918000
27.86666519	0.00000000	-22.25640000	-31.67446000
28.06666517	0.00000000	-10.62377000	-35.07013000
28.26666516	0.00000000	-10.16240000	-34.27657000
28.46666515	0.00000000	-20.16486000	-28.80167000
28.66666514	0.00000000	-37.94291000	-19.50664000
28.86666513	0.00000000	-59.57185000	-7.89247000
29.06666511	0.00000000	-80.04429000	3.62942900
29.26666510	0.00000000	-94.79577000	12.08169000
29.46666509	0.00000000	-101.07650000	15.10827000
29.66666508	0.00000000	-98.38213000	11.62032000
29.86666507	0.00000000	-87.57997000	1.91314000
30.06666506	0.00000000	-71.01993000	-11.97711000
30.26666504	0.00000000	-53.24187000	-27.44832000
30.46666503	0.00000000	-38.07825000	-40.92643000
30.66666502	0.00000000	-27.97736000	-49.42790000
30.86666501	0.00000000	-24.85851000	-50.91658000
31.06666500	0.00000000	-29.05389000	-44.69119000
31.26666498	0.00000000	-39.05635000	-31.53912000
31.46666497	0.00000000	-52.17765000	-14.21014000
31.66666496	0.00000000	-65.39124000	3.16190900
31.86666495	0.00000000	-76.27953000	16.73228000
32.06666494	0.00000000	-83.25540000	24.07111000
32.26666492	0.00000000	-84.79330000	23.65280000
32.46666491	0.00000000	-80.60408000	15.10827000
32.66666490	0.00000000	-72.13335000	0.09227362
32.86666489	0.00000000	-61.66338000	-18.06717000
33.06666488	0.00000000	-51.24261000	-35.07013000
33.26666487	0.00000000	-43.10408000	-47.84694000
33.46666485	0.00000000	-39.19168000	-53.61097000
33.66666484	0.00000000	-39.56693000	-50.95964000
33.86666483	0.00000000	-44.17446000	-40.92643000
34.06666482	0.00000000	-51.89468000	-25.86737000
34.26666481	0.00000000	-60.32234000	-8.86441900
34.46666479	0.00000000	-67.71654000	6.23154500
34.66666478	0.00000000	-71.95497000	16.68922000
34.86666477	0.00000000	-72.78542000	20.49705000
35.06666476	0.00000000	-70.09104000	16.31397000
35.26666475	0.00000000	-64.73917000	5.53641700
35.46666473	0.00000000	-58.54454000	-8.73523500
35.66666472	0.00000000	-52.77436000	-23.78199000
35.86666471	0.00000000	-48.91732000	-35.72219000
36.06666470	0.00000000	-48.16683000	-41.94759000
36.26666469	0.00000000	-50.41215000	-41.62155000
36.46666468	0.00000000	-55.00738000	-35.07013000
36.66666466	0.00000000	-59.99015000	-24.28642000
36.86666465	0.00000000	-64.31471000	-11.60802000
37.06666464	0.00000000	-67.34743000	-0.50442900
37.26666463	0.00000000	-68.08563000	5.72096400
37.46666462	0.00000000	-65.80955000	6.13927100
37.66666460	0.00000000	-61.62032000	1.16879900
37.86666459	0.00000000	-56.96358000	-8.02780400
38.06666458	0.00000000	-52.73130000	-18.35015000
38.26666457	0.00000000	-50.03691000	-26.80241000
38.46666456	0.00000000	-49.61245000	-31.02854000
38.66666454	0.00000000	-51.15034000	-29.87205000
38.86666453	0.00000000	-54.26919000	-23.73892000
39.06666452	0.00000000	-58.50147000	-14.21014000
39.26666451	0.00000000	-62.73376000	-4.68134800
39.46666450	0.00000000	-65.89567000	1.49483300
39.66666449	0.00000000	-67.80880000	3.02657500
39.86666447	0.00000000	-68.17789000	-0.46136810
40.06666446	0.00000000	-66.22785000	-8.49532500
40.26666445	0.00000000	-62.82603000	-18.43627000
40.46666444	0.00000000	-58.91978000	-27.26993000
40.66666443	0.00000000	-55.38263000	-32.65871000
40.86666441	0.00000000	-52.26993000	-33.03395000
41.06666440	0.00000000	-49.94463000	-28.42643000
41.26666439	0.00000000	-49.24335000	-19.97416000
41.46666438	0.00000000	-50.36294000	-10.02707000
41.66666437	0.00000000	-53.47564000	-1.57480300
41.86666435	0.00000000	-57.29576000	3.07578700
42.06666434	0.00000000	-61.19586000	3.11884800
42.26666433	0.00000000	-64.27164000	-1.10728300
42.46666432	0.00000000	-65.89567000	-8.40305000
42.66666431	0.00000000	-66.27091000	-16.85531000
42.86666430	0.00000000	-65.47736000	-24.20029000
43.06666428	0.00000000	-63.20127000	-28.80167000
43.26666427	0.00000000	-60.50073000	-29.63213000
43.46666426	0.00000000	-58.12622000	-26.56865000
43.66666425	0.00000000	-55.80708000	-21.22293000
43.86666424	0.00000000	-54.26919000	-14.67150000
44.06666422	0.00000000	-53.85088000	-8.91363100
44.26666421	0.00000000	-54.17691000	-5.37647600
44.46666420	0.00000000	-54.92125000	-4.17691900
44.66666419	0.00000000	-55.33957000	-5.33341500
44.86666418	0.00000000	-55.75787000	-8.35998900
45.06666416	0.00000000	-56.50221000	-12.21087000
45.26666415	0.00000000	-56.92052000	-15.69882000
45.46666414	0.00000000	-57.43110000	-18.43627000
45.66666413	0.00000000	-59.01205000	-19.97416000
45.86666412	0.00000000	-61.70644000	-19.97416000
46.06666411	0.00000000	-64.78223000	-18.47933000
46.26666409	0.00000000	-67.43970000	-16.16018000
46.46666408	0.00000000	-68.55315000	-13.83489000
46.66666407	0.00000000	-67.34743000	-11.51575000
46.86666406	0.00000000	-63.85334000	-9.98400600
47.06666405	0.00000000	-58.40920000	-9.56569900
47.26666403	0.00000000	-52.22071000	-9.98400600
47.46666402	0.00000000	-46.49975000	-11.51575000
47.66666401	0.00000000	-43.01181000	-13.83489000
47.86666400	0.00000000	-43.04872000	-16.16018000
48.06666399	0.00000000	-46.13066000	-18.47933000
48.26666397	0.00000000	-52.40526000	-19.97416000
48.46666396	0.00000000	-60.45767000	-19.97416000
48.66666395	0.00000000	-68.59621000	-18.43627000
48.86666394	0.00000000	-74.74163000	-15.74188000
49.06666393	0.00000000	-77.39911000	-12.67224000
49.26666392	0.00000000	-75.44291000	-9.93479300
49.46666390	0.00000000	-68.88533000	-8.02780400
49.66666389	0.00000000	-59.66412000	-7.28346400
49.86666388	0.00000000	-50.03691000	-8.44611200
50.06666387	0.00000000	-42.68578000	-11.14050000
50.26666386	0.00000000	-39.19168000	-14.62844000
50.46666384	0.00000000	-39.98523000	-18.47933000
50.66666383	0.00000000	-45.42937000	-21.54897000
50.86666382	0.00000000	-54.22613000	-23.08686000
51.06666381	0.00000000	-63.85334000	-22.71161000
51.26666380	0.00000000	-71.53666000	-20.39247000
51.46666379	0.00000000	-75.44291000	-16.90453000
51.66666377	0.00000000	-74.65550000	-12.62918000
51.86666376	0.00000000	-69.71580000	-8.44611200
52.06666375	0.00000000	-61.99557000	-5.75172200
52.26666374	0.00000000	-53.93700000	-5.37647600
52.46666373	0.00000000	-47.38558000	-7.24040300
52.66666371	0.00000000	-44.30979000	-10.72219000
52.86666370	0.00000000	-45.42937000	-14.58538000
53.06666369	0.00000000	-49.98769000	-18.43627000
53.26666368	0.00000000	-56.54527000	-21.08760000
53.46666367	0.00000000	-63.10900000	-21.54897000
53.66666365	0.00000000	-68.51008000	-20.43553000
53.86666364	0.00000000	-71.11835000	-18.47933000
54.06666363	0.00000000	-69.62352000	-15.74188000
54.26666362	0.00000000	-64.68996000	-12.72146000
54.46666361	0.00000000	-58.54454000	-10.44537000
54.66666360	0.00000000	-52.73130000	-10.02707000
54.86666358	0.00000000	-48.54207000	-11.09744000
55.06666357	0.00000000	-47.38558000	-12.62918000
55.26666356	0.00000000	-49.66166000	-14.21014000
55.46666355	0.00000000	-54.22613000	-15.69882000
55.66666354	0.00000000	-59.61491000	-16.39395000
55.86666352	0.00000000	-64.22859000	-15.27436000
56.06666351	0.00000000	-66.97219000	-13.04749000
56.26666350	0.00000000	-67.30437000	-11.14050000
56.46666349	0.00000000	-65.05905000	-10.02707000
56.66666348	0.00000000	-60.83292000	-10.44537000
56.86666346	0.00000000	-56.58833000	-12.72146000
57.06666345	0.00000000	-52.73130000	-15.78494000
57.26666344	0.00000000	-50.45521000	-18.85458000
57.46666343	0.00000000	-50.77510000	-21.17372000
57.66666342	0.00000000	-52.64517000	-21.88115000
57.86666341	0.00000000	-55.38263000	-20.71235000
58.06666339	0.00000000	-58.45841000	-17.18750000
58.26666338	0.00000000	-61.15280000	-12.25394000
58.46666337	0.00000000	-62.69069000	-7.24040300
58.66666336	0.00000000	-62.73376000	-3.79552100
58.86666335	0.00000000	-61.62032000	-2.63902500
59.06666333	0.00000000	-60.08243000	-4.26304100
59.26666332	0.00000000	-58.50147000	-8.86441900
59.46666331	0.00000000	-56.96358000	-15.36663000
59.66666330	0.00000000	-55.85014000	-21.54897000
59.86666329	0.00000000	-55.80708000	-26.19955000
60.06666327	0.00000000	-56.54527000	-28.42643000
60.26666326	0.00000000	-57.33883000	-26.89468000
60.46666325	0.00000000	-58.50147000	-21.88115000
60.66666324	0.00000000	-59.61491000	-14.94833000
60.86666323	0.00000000	-59.99015000	-7.24040300
61.06666322	0.00000000	-59.61491000	-1.15034400
61.26666320	0.00000000	-58.50147000	1.58710600
61.46666319	0.00000000	-57.38804000	0.42445860
61.66666318	0.00000000	-56.96358000	-4.21998000
61.86666317	0.00000000	-56.96358000	-11.55881000
62.06666316	0.00000000	-57.38804000	-19.97416000
62.26666314	0.00000000	-58.54454000	-26.89468000
62.46666313	0.00000000	-60.03937000	-30.42569000
62.66666312	0.00000000	-61.19586000	-30.42569000
62.86666311	0.00000000	-61.57111000	-26.93774000
63.06666310	0.00000000	-61.19586000	-20.39247000
63.26666308	0.00000000	-60.03937000	-12.72146000
63.46666307	0.00000000	-58.50147000	-5.75172200
63.66666306	0.00000000	-56.92052000	-1.10728300
63.86666305	0.00000000	-55.38263000	0.46751960
64.06666304	0.00000000	-54.26919000	-1.10728300
64.26666303	0.00000000	-54.26919000	-5.70866100
64.46666301	0.00000000	-55.43184000	-12.25394000
64.66666300	0.00000000	-57.33883000	-18.81152000
64.86666299	0.00000000	-59.61491000	-24.24335000
65.06666298	0.00000000	-61.15280000	-27.31299000
65.26666297	0.00000000	-61.57111000	-27.35605000
65.46666295	0.00000000	-61.19586000	-24.71087000
65.66666294	0.00000000	-60.03937000	-20.47859000
65.86666293	0.00000000	-58.50147000	-15.78494000
66.06666292	0.00000000	-56.96358000	-11.14050000
66.26666291	0.00000000	-55.85014000	-7.28346400
66.46666289	0.00000000	-55.85014000	-5.29035400
66.66666288	0.00000000	-56.96358000	-4.87204700
66.86666287	0.00000000	-58.50147000	-5.66560000
67.06666286	0.00000000	-60.03937000	-7.98474400
67.26666285	0.00000000	-61.15280000	-11.04823000
67.46666284	0.00000000	-61.10974000	-14.16092000
67.66666282	0.00000000	-59.61491000	-16.94759000
67.86666281	0.00000000	-57.29576000	-19.32210000
68.06666280	0.00000000	-55.00738000	-21.64124000
68.26666279	0.00000000	-53.06348000	-23.12992000
68.46666278	0.00000000	-52.35605000	-23.12992000
68.66666276	0.00000000	-53.10654000	-21.59203000
68.86666275	0.00000000	-55.47490000	-18.85458000
69.06666274	0.00000000	-58.91978000	-15.32357000
69.26666273	0.00000000	-62.77681000	-11.04823000
69.46666272	0.00000000	-65.80955000	-6.82209600
69.66666270	0.00000000	-67.01525000	-3.75246000
69.86666269	0.00000000	-66.18479000	-2.63902500
70.06666268	0.00000000	-63.47809000	-4.17076700
70.26666267	0.00000000	-58.83366000	-7.98474400
70.46666266	0.00000000	-53.85088000	-12.62918000
70.66666265	0.00000000	-49.56939000	-17.32283000
70.86666263	0.00000000	-46.91806000	-21.59203000
71.06666262	0.00000000	-46.91806000	-24.61860000
71.26666261	0.00000000	-49.61245000	-25.35679000
71.46666260	0.00000000	-54.26919000	-23.08686000
71.66666259	0.00000000	-60.03937000	-18.90379000
71.86666257	0.00000000	-65.43430000	-14.25320000
72.06666256	0.00000000	-68.92839000	-9.98400600
72.26666255	0.00000000	-70.13410000	-6.91437000
72.46666254	0.00000000	-68.92839000	-5.70866100
72.66666253	0.00000000	-65.43430000	-6.48991100
72.86666251	0.00000000	-60.03937000	-8.77214500
73.06666250	0.00000000	-54.26919000	-12.21087000
73.26666249	0.00000000	-49.61245000	-15.27436000
73.46666248	0.00000000	-46.91806000	-17.23056000
73.66666247	0.00000000	-46.91806000	-18.01796000
73.86666246	0.00000000	-49.56939000	-17.27362000
74.06666244	0.00000000	-53.80167000	-15.83415000
74.26666243	0.00000000	-58.45841000	-14.67150000
74.46666242	0.00000000	-62.69069000	-14.25320000
74.66666241	0.00000000	-65.43430000	-14.25320000
74.86666240	0.00000000	-66.22785000	-14.67150000
75.06666238	0.00000000	-65.47736000	-15.78494000
75.26666237	0.00000000	-63.15207000	-16.89837000
75.46666236	0.00000000	-60.08243000	-17.23056000
75.66666235	0.00000000	-56.96358000	-16.43701000
75.86666234	0.00000000	-54.31225000	-14.11786000
76.06666232	0.00000000	-53.14960000	-11.09744000
76.26666231	0.00000000	-53.80167000	-8.40305000
76.46666230	0.00000000	-54.92125000	-6.86515700
76.66666229	0.00000000	-55.75787000	-6.86515700
76.86666228	0.00000000	-56.92052000	-8.44611200
77.06666227	0.00000000	-58.03395000	-11.60187000
77.26666225	0.00000000	-58.45841000	-16.20325000
77.46666224	0.00000000	-58.50147000	-21.17372000
77.66666223	0.00000000	-58.50147000	-24.61860000
77.86666222	0.00000000	-58.54454000	-25.78125000
78.06666221	0.00000000	-58.91978000	-24.20029000
78.26666219	0.00000000	-59.70718000	-20.01722000
78.46666218	0.00000000	-60.45767000	-14.62844000
78.66666217	0.00000000	-61.19586000	-9.56569900
78.86666216	0.00000000	-61.15280000	-5.29035400
79.06666215	0.00000000	-59.99015000	-2.63902500
79.26666213	0.00000000	-58.08316000	-2.63902500
79.46666212	0.00000000	-55.71481000	-5.29035400
79.66666211	0.00000000	-53.47564000	-9.56569900
79.86666210	0.00000000	-51.94389000	-14.58538000
80.06666209	0.00000000	-52.31299000	-19.59892000
80.26666208	0.00000000	-53.80167000	-23.08686000
80.46666206	0.00000000	-55.80708000	-24.66781000
80.66666205	0.00000000	-58.50147000	-24.24335000
80.86666204	0.00000000	-61.15280000	-21.59203000
81.06666203	0.00000000	-62.73376000	-17.74114000
81.26666202	0.00000000	-63.10900000	-13.83489000
81.46666200	0.00000000	-62.31545000	-9.93479300
81.66666199	0.00000000	-59.99015000	-6.86515700
81.86666198	0.00000000	-57.01279000	-5.29035400
82.06666197	0.00000000	-54.64444000	-5.29035400
82.26666196	0.00000000	-53.42642000	-6.77903500
82.46666194	0.00000000	-52.68823000	-9.14124000
82.66666193	0.00000000	-53.10654000	-11.88484000
82.86666192	0.00000000	-55.00738000	-15.36663000
83.06666191	0.00000000	-57.25270000	-18.43627000
83.26666190	0.00000000	-59.19660000	-20.43553000
83.46666189	0.00000000	-59.99015000	-21.64124000
83.66666187	0.00000000	-60.08243000	-21.96727000
83.86666186	0.00000000	-60.03937000	-21.13066000
84.06666185	0.00000000	-59.66412000	-18.43627000
84.26666184	0.00000000	-58.87672000	-14.62844000
84.46666183	0.00000000	-58.12622000	-11.09744000
84.66666181	0.00000000	-57.33883000	-7.93553100
84.86666180	0.00000000	-56.96358000	-5.29035400
85.06666179	0.00000000	-56.92052000	-4.17691900
85.26666178	0.00000000	-56.92052000	-5.33341500
85.46666177	0.00000000	-56.92052000	-8.44611200
85.66666175	0.00000000	-56.87746000	-13.04749000
85.86666174	0.00000000	-56.50221000	-18.06102000
86.06666173	0.00000000	-55.80708000	-21.92421000
86.26666172	0.00000000	-55.85014000	-24.29257000
86.46666171	0.00000000	-56.96358000	-24.61860000
86.66666170	0.00000000	-58.45841000	-22.66855000
86.86666168	0.00000000	-59.66412000	-18.43627000
87.06666167	0.00000000	-60.45767000	-13.09670000
87.26666166	0.00000000	-61.19586000	-8.44611200
87.46666165	0.00000000	-61.15280000	-5.33341500
87.66666164	0.00000000	-60.03937000	-4.17691900
87.86666162	0.00000000	-58.50147000	-5.37647600
88.06666161	0.00000000	-56.92052000	-8.82135800
88.26666160	0.00000000	-55.38263000	-13.83489000
88.46666159	0.00000000	-54.22613000	-18.81152000
88.66666158	0.00000000	-53.89394000	-22.66855000
88.86666156	0.00000000	-54.64444000	-24.20029000
89.06666155	0.00000000	-56.54527000	-23.04380000
89.26666154	0.00000000	-58.40920000	-19.59892000
89.46666153	0.00000000	-59.66412000	-14.58538000
89.66666152	0.00000000	-60.41461000	-9.60875900
89.86666151	0.00000000	-60.77756000	-5.75172200
90.06666149	0.00000000	-59.99015000	-4.21998000
90.26666148	0.00000000	-58.54454000	-5.37647600
90.46666147	0.00000000	-57.33883000	-8.82135800
90.66666146	0.00000000	-56.54527000	-13.83489000
90.86666145	0.00000000	-55.75787000	-18.81152000
91.06666143	0.00000000	-55.43184000	-22.66855000
91.26666142	0.00000000	-55.75787000	-24.15723000
91.46666141	0.00000000	-56.50221000	-22.66855000
91.66666140	0.00000000	-56.87746000	-18.81152000
91.86666139	0.00000000	-56.92052000	-13.83489000
92.06666137	0.00000000	-56.92052000	-8.82135800
92.26666136	0.00000000	-56.92052000	-5.37647600
92.46666135	0.00000000	-56.92052000	-4.21998000
92.66666134	0.00000000	-56.96358000	-5.75172200
92.86666133	0.00000000	-57.38804000	-9.60875900
93.06666132	0.00000000	-58.50147000	-14.58538000
93.26666130	0.00000000	-59.61491000	-19.55585000
93.46666129	0.00000000	-60.03937000	-22.61934000
93.66666128	0.00000000	-60.03937000	-23.03765000
93.86666127	0.00000000	-59.61491000	-21.13066000
94.06666126	0.00000000	-58.45841000	-17.27362000
94.26666124	0.00000000	-56.92052000	-12.72146000
94.46666123	0.00000000	-55.33957000	-8.82135800
94.66666122	0.00000000	-53.80167000	-6.53912400
94.86666121	0.00000000	-52.68823000	-6.17002900
95.06666120	0.00000000	-52.68823000	-8.48917200
95.26666118	0.00000000	-53.85088000	-12.62918000
95.46666117	0.00000000	-55.80708000	-16.85531000
95.66666116	0.00000000	-58.54454000	-19.92495000
95.86666115	0.00000000	-61.57111000	-21.13066000
96.06666114	0.00000000	-63.89641000	-20.34941000
96.26666113	0.00000000	-64.64690000	-18.06102000
96.46666111	0.00000000	-63.89641000	-14.62844000
96.66666110	0.00000000	-61.52805000	-11.55881000
96.86666109	0.00000000	-58.08316000	-9.60875900
97.06666108	0.00000000	-54.22613000	-8.82135800
97.26666107	0.00000000	-51.10728000	-9.55954600
97.46666105	0.00000000	-49.19414000	-11.09744000
97.66666104	0.00000000	-48.83120000	-13.04749000
97.86666103	0.00000000	-50.73204000	-15.32357000
98.06666102	0.00000000	-53.80167000	-16.85531000
98.26666101	0.00000000	-57.33883000	-17.27362000
98.46666099	0.00000000	-61.19586000	-16.89837000
98.66666098	0.00000000	-64.27164000	-15.74188000
98.86666097	0.00000000	-65.80955000	-14.29626000
99.06666096	0.00000000	-65.43430000	-13.51501000
99.26666095	0.00000000	-63.10900000	-13.83489000
99.46666094	0.00000000	-59.66412000	-14.16708000
99.66666092	0.00000000	-55.80708000	-14.16708000
99.86666091	0.00000000	-52.68823000	-13.79183000
100.06666090	0.00000000	-50.73204000	-13.04749000
100.26666089	0.00000000	-49.94463000	-12.62918000
100.46666088	0.00000000	-50.73204000	-12.25394000
100.66666086	0.00000000	-52.64517000	-11.88484000
100.86666085	0.00000000	-55.38263000	-12.29700000
101.06666084	0.00000000	-58.45841000	-13.04749000
101.26666083	0.00000000	-61.15280000	-14.25320000
101.46666082	0.00000000	-62.73376000	-15.78494000
101.66666080	0.00000000	-63.15207000	-17.32283000
101.86666079	0.00000000	-62.73376000	-18.43627000
102.06666078	0.00000000	-61.19586000	-18.39321000
102.26666077	0.00000000	-58.87672000	-16.85531000
102.46666076	0.00000000	-56.54527000	-14.16092000
102.66666075	0.00000000	-54.22613000	-11.14050000
102.86666073	0.00000000	-52.68823000	-8.82135800
103.06666072	0.00000000	-52.26993000	-8.02780400
103.26666071	0.00000000	-52.64517000	-8.40305000
103.46666070	0.00000000	-53.85088000	-9.98400600
103.66666069	0.00000000	-55.75787000	-12.67224000
103.86666067	0.00000000	-58.03395000	-15.74188000
104.06666066	0.00000000	-59.61491000	-18.43627000
104.26666065	0.00000000	-60.45767000	-19.97416000
104.46666064	0.00000000	-61.19586000	-19.97416000
104.66666063	0.00000000	-61.10974000	-18.43627000
104.86666061	0.00000000	-59.66412000	-15.78494000
105.06666060	0.00000000	-57.75713000	-13.04749000
105.26666059	0.00000000	-56.58833000	-10.72219000
105.46666058	0.00000000	-55.75787000	-8.82135800
105.66666057	0.00000000	-55.38263000	-8.44611200
105.86666056	0.00000000	-55.38263000	-9.55954600
106.06666054	0.00000000	-55.80708000	-11.46653000
106.26666053	0.00000000	-56.92052000	-13.79183000
106.46666052	0.00000000	-58.03395000	-15.69882000
106.66666051	0.00000000	-58.45841000	-16.89837000
106.86666050	0.00000000	-58.50147000	-17.23056000
107.06666048	0.00000000	-58.45841000	-16.48622000
107.26666047	0.00000000	-58.03395000	-14.58538000
107.46666046	0.00000000	-56.92052000	-12.72146000
107.66666045	0.00000000	-55.80708000	-11.51575000
107.86666044	0.00000000	-55.43184000	-11.14050000
108.06666042	0.00000000	-55.75787000	-11.51575000
108.26666041	0.00000000	-56.54527000	-12.67224000
108.46666040	0.00000000	-57.33883000	-14.21014000
108.66666039	0.00000000	-58.50147000	-15.74188000
108.86666038	0.00000000	-59.61491000	-16.89837000
109.06666037	0.00000000	-59.99015000	-17.27362000
109.26666035	0.00000000	-59.61491000	-16.89837000
109.46666034	0.00000000	-58.45841000	-15.74188000
109.66666033	0.00000000	-56.96358000	-14.21014000
109.86666032	0.00000000	-55.75787000	-12.67224000
110.06666031	0.00000000	-55.00738000	-11.51575000
110.26666029	0.00000000	-54.64444000	-11.14050000
110.46666028	0.00000000	-55.38263000	-11.51575000
110.66666027	0.00000000	-56.50221000	-12.67224000
110.86666026	0.00000000	-57.29576000	-14.21014000
111.06666025	0.00000000	-58.12622000	-15.74188000
111.26666023	0.00000000	-58.83366000	-16.89837000
111.46666022	0.00000000	-59.24582000	-17.27362000
111.66666021	0.00000000	-58.83366000	-16.94759000
111.86666020	0.00000000	-58.12622000	-16.16018000
112.06666019	0.00000000	-57.33883000	-15.36663000
112.26666018	0.00000000	-56.96358000	-14.21014000
112.46666016	0.00000000	-56.92052000	-13.09670000
112.66666015	0.00000000	-56.92052000	-12.67224000
112.86666014	0.00000000	-56.92052000	-12.62918000
113.06666013	0.00000000	-56.92052000	-12.67224000
113.26666012	0.00000000	-56.92052000	-13.04749000
113.46666010	0.00000000	-56.92052000	-13.79183000
113.66666009	0.00000000	-56.96358000	-14.16708000
113.86666008	0.00000000	-57.29576000	-14.21014000
114.06666007	0.00000000	-57.66486000	-14.21014000
114.26666006	0.00000000	-57.29576000	-14.21014000
114.46666004	0.00000000	-56.96358000	-14.25320000
114.66666003	0.00000000	-56.92052000	-14.62844000
114.86666002	0.00000000	-56.92052000	-15.36663000
115.06666001	0.00000000	-56.92052000	-15.69267000
115.26666000	0.00000000	-56.92052000	-15.36663000
115.46665999	0.00000000	-56.92052000	-14.62844000
115.66665997	0.00000000	-56.92052000	-14.21014000
115.86665996	0.00000000	-56.92052000	-13.79183000
116.06665995	0.00000000	-56.92052000	-13.00443000
116.26665994	0.00000000	-56.92052000	-12.25394000
116.46665993	0.00000000	-56.96358000	-11.46653000
116.66665991	0.00000000	-57.29576000	-11.14050000
116.86665990	0.00000000	-57.66486000	-11.46653000
117.06665989	0.00000000	-57.29576000	-12.25394000
117.26665988	0.00000000	-56.92052000	-13.04749000
117.46665987	0.00000000	-56.50221000	-14.21014000
117.66665985	0.00000000	-55.75787000	-15.32357000
117.86665984	0.00000000	-55.38263000	-15.74188000
118.06665983	0.00000000	-55.33957000	-15.78494000
118.26665982	0.00000000	-55.38263000	-15.74188000
118.46665981	0.00000000	-55.75787000	-15.36663000
118.66665980	0.00000000	-56.54527000	-14.58538000
118.86665978	0.00000000	-57.33883000	-13.83489000
119.06665977	0.00000000	-58.50147000	-13.04749000
119.26665976	0.00000000	-59.61491000	-12.62918000
119.46665975	0.00000000	-59.99015000	-12.25394000
119.66665974	0.00000000	-59.61491000	-11.88484000
119.86665972	0.00000000	-58.45841000	-12.25394000
120.06665971	0.00000000	-56.96358000	-12.62918000
120.26665970	0.00000000	-55.75787000	-13.04749000
120.46665969	0.00000000	-54.96432000	-13.79183000
120.66665968	0.00000000	-54.17691000	-14.21014000
120.86665966	0.00000000	-53.85088000	-14.62844000
121.06665965	0.00000000	-54.22613000	-15.36663000
121.26665964	0.00000000	-55.38263000	-15.74188000
121.46665963	0.00000000	-56.92052000	-15.74188000
121.66665962	0.00000000	-58.45841000	-15.36663000
121.86665961	0.00000000	-59.61491000	-14.62844000
122.06665959	0.00000000	-60.03937000	-14.21014000
122.26665958	0.00000000	-60.03937000	-13.79183000
122.46665957	0.00000000	-59.61491000	-13.04749000
122.66665956	0.00000000	-58.50147000	-12.67224000
122.86665955	0.00000000	-57.33883000	-12.62918000
123.06665953	0.00000000	-56.54527000	-12.62918000
123.26665952	0.00000000	-55.75787000	-12.67224000
123.46665951	0.00000000	-55.38263000	-13.04749000
123.66665950	0.00000000	-55.33957000	-13.79183000
123.86665949	0.00000000	-55.33957000	-14.21014000
124.06665947	0.00000000	-55.38263000	-14.62844000
124.26665946	0.00000000	-55.80708000	-15.36663000
124.46665945	0.00000000	-56.92052000	-15.74188000
124.66665944	0.00000000	-58.03395000	-15.74188000
124.86665943	0.00000000	-58.50147000	-15.36663000
125.06665942	0.00000000	-58.87672000	-14.62844000
125.26665940	0.00000000	-59.24582000	-14.21014000
125.46665939	0.00000000	-58.87672000	-13.79183000
125.66665938	0.00000000	-58.50147000	-13.04749000
125.86665937	0.00000000	-58.03395000	-12.67224000
126.06665936	0.00000000	-56.92052000	-12.62918000
126.26665934	0.00000000	-55.80708000	-12.62918000
126.46665933	0.00000000	-55.38263000	-12.67224000
126.66665932	0.00000000	-55.33957000	-13.04749000
126.86665931	0.00000000	-55.38263000	-13.79183000
127.06665930	0.00000000	-55.80708000	-14.16708000
127.26665928	0.00000000	-56.92052000	-14.21014000
127.46665927	0.00000000	-58.03395000	-14.21014000
127.66665926	0.00000000	-58.50147000	-14.21014000
127.86665925	0.00000000	-58.87672000	-14.21014000
128.06665924	0.00000000	-59.24582000	-14.16708000
128.26665923	0.00000000	-58.83366000	-13.79183000
128.46665921	0.00000000	-58.08316000	-13.04749000
128.66665920	0.00000000	-56.92052000	-12.67224000
128.86665919	0.00000000	-55.80708000	-12.62918000
129.06665918	0.00000000	-55.38263000	-12.67224000
129.26665917	0.00000000	-55.33957000	-13.04749000
129.46665915	0.00000000	-55.38263000	-13.79183000
129.66665914	0.00000000	-55.80708000	-14.16708000
129.86665913	0.00000000	-56.92052000	-14.21014000
130.06665912	0.00000000	-58.03395000	-14.21014000
130.26665911	0.00000000	-58.45841000	-14.21014000
130.46665909	0.00000000	-58.50147000	-14.16708000
130.66665908	0.00000000	-58.45841000	-13.79183000
130.86665907	0.00000000	-58.08316000	-13.04749000
131.06665906	0.00000000	-57.29576000	-12.67224000
131.26665905	0.00000000	-56.54527000	-12.62918000
131.46665904	0.00000000	-55.75787000	-12.67224000
131.66665902	0.00000000	-55.38263000	-13.04749000
131.86665901	0.00000000	-55.38263000	-13.83489000
132.06665900	0.00000000	-55.75787000	-14.58538000
132.26665899	0.00000000	-56.54527000	-15.36663000
132.46665898	0.00000000	-57.25270000	-15.69267000
132.66665896	0.00000000	-57.70792000	-15.36663000
132.86665895	0.00000000	-57.67101000	-14.58538000
133.06665894	0.00000000	-57.70792000	-13.83489000
133.26665893	0.00000000	-57.29576000	-13.04749000
133.46665892	0.00000000	-56.96358000	-12.67224000
133.66665890	0.00000000	-56.92052000	-12.62918000
133.86665889	0.00000000	-56.92052000	-12.62918000
134.06665888	0.00000000	-56.92052000	-12.67224000
134.26665887	0.00000000	-56.92052000	-13.04749000
134.46665886	0.00000000	-56.92052000	-13.83489000
134.66665885	0.00000000	-56.92052000	-14.58538000
134.86665883	0.00000000	-56.87746000	-15.36663000
135.06665882	0.00000000	-56.54527000	-15.74188000
135.26665881	0.00000000	-56.13312000	-15.74188000
135.46665880	0.00000000	-56.17002000	-15.36663000
135.66665879	0.00000000	-56.13312000	-14.58538000
135.86665877	0.00000000	-56.54527000	-13.83489000
136.06665876	0.00000000	-56.92052000	-13.04749000
136.26665875	0.00000000	-57.33883000	-12.67224000
136.46665874	0.00000000	-58.08316000	-12.62918000
136.66665873	0.00000000	-58.45841000	-12.62918000
136.86665871	0.00000000	-58.45841000	-12.67224000
137.06665870	0.00000000	-58.08316000	-13.04749000
137.26665869	0.00000000	-57.33883000	-13.79183000
137.46665868	0.00000000	-56.92052000	-14.21014000
137.66665867	0.00000000	-56.50221000	-14.62844000
137.86665866	0.00000000	-55.75787000	-15.36663000
138.06665864	0.00000000	-55.43184000	-15.74188000
138.26665863	0.00000000	-55.75787000	-15.74188000
138.46665862	0.00000000	-56.50221000	-15.36663000
138.66665861	0.00000000	-56.92052000	-14.58538000
138.86665860	0.00000000	-57.33883000	-13.83489000
139.06665858	0.00000000	-58.08316000	-13.04749000
139.26665857	0.00000000	-58.40920000	-12.67224000
139.46665856	0.00000000	-58.08316000	-12.62918000
139.66665855	0.00000000	-57.33883000	-12.62918000
139.86665854	0.00000000	-56.92052000	-12.62918000
140.06665852	0.00000000	-56.54527000	-12.67224000
140.26665851	0.00000000	-56.13312000	-13.04749000
140.46665850	0.00000000	-56.12696000	-13.83489000
140.66665849	0.00000000	-55.75787000	-14.58538000
140.86665848	0.00000000	-55.80708000	-15.36663000
141.06665847	0.00000000	-56.50221000	-15.69267000
141.26665845	0.00000000	-56.87746000	-15.36663000
141.46665844	0.00000000	-56.92052000	-14.58538000
141.66665843	0.00000000	-56.92052000	-13.83489000
141.86665842	0.00000000	-56.92052000	-13.04749000
142.06665841	0.00000000	-56.87746000	-12.62918000
142.26665839	0.00000000	-56.50221000	-12.21087000
142.46665838	0.00000000	-55.75787000	-11.51575000
142.66665837	0.00000000	-55.43184000	-11.51575000
142.86665836	0.00000000	-55.75787000	-12.25394000
143.06665835	0.00000000	-56.50221000	-13.00443000
143.26665834	0.00000000	-56.87746000	-13.83489000
143.46665832	0.00000000	-56.92052000	-14.58538000
143.66665831	0.00000000	-56.92052000	-15.32357000
143.86665830	0.00000000	-56.92052000	-15.32357000
144.06665829	0.00000000	-56.92052000	-14.62844000
144.26665828	0.00000000	-56.92052000	-14.21014000
144.46665826	0.00000000	-56.87746000	-13.79183000
144.66665825	0.00000000	-56.50221000	-13.04749000
144.86665824	0.00000000	-55.75787000	-12.67224000
145.06665823	0.00000000	-55.43184000	-12.62918000
145.26665822	0.00000000	-55.75787000	-12.62918000
145.46665820	0.00000000	-56.50221000	-12.67224000
145.66665819	0.00000000	-56.87746000	-13.04749000
145.86665818	0.00000000	-56.96358000	-13.79183000
146.06665817	0.00000000	-57.29576000	-14.16708000
146.26665816	0.00000000	-57.66486000	-14.25320000
146.46665815	0.00000000	-57.29576000	-14.58538000
146.66665813	0.00000000	-56.92052000	-14.94833000
146.86665812	0.00000000	-56.50221000	-14.58538000
147.06665811	0.00000000	-55.75787000	-14.21014000
147.26665810	0.00000000	-55.43184000	-13.79183000
147.46665809	0.00000000	-55.75787000	-13.04749000
147.66665807	0.00000000	-56.50221000	-12.67224000
147.86665806	0.00000000	-56.87746000	-12.62918000
148.06665805	0.00000000	-56.92052000	-12.62918000
148.26665804	0.00000000	-56.92052000	-12.67224000
148.46665803	0.00000000	-56.92052000	-13.04749000
148.66665801	0.00000000	-56.92052000	-13.79183000
148.86665800	0.00000000	-56.92052000	-14.16708000
149.06665799	0.00000000	-56.92052000	-14.21014000
149.26665798	0.00000000	-56.92052000	-14.21014000
149.46665797	0.00000000	-56.87746000	-14.21014000
149.66665796	0.00000000	-56.50221000	-14.21014000
149.86665794	0.00000000	-55.75787000	-14.16708000
150.06665793	0.00000000	-55.43184000	-13.83489000
150.26665792	0.00000000	-55.75787000	-13.42274000
150.46665791	0.00000000	-56.50221000	-13.41658000
150.66665790	0.00000000	-56.87746000	-13.00443000
150.86665788	0.00000000	-56.92052000	-12.67224000
151.06665787	0.00000000	-56.92052000	-12.62918000
151.26665786	0.00000000	-56.92052000	-12.67224000
151.46665785	0.00000000	-56.92052000	-13.04749000
151.66665784	0.00000000	-56.96358000	-13.79183000
151.86665782	0.00000000	-57.29576000	-14.16708000
152.06665781	0.00000000	-57.66486000	-14.21014000
152.26665780	0.00000000	-57.25270000	-14.21014000
152.46665779	0.00000000	-56.58833000	-14.21014000
152.66665778	0.00000000	-56.13312000	-14.16708000
152.86665777	0.00000000	-56.12696000	-13.83489000
153.06665775	0.00000000	-55.71481000	-13.42274000
153.26665774	0.00000000	-55.38263000	-13.41658000
153.46665773	0.00000000	-55.38263000	-13.00443000
153.66665772	0.00000000	-55.75787000	-12.67224000
153.86665771	0.00000000	-56.50221000	-12.62918000
154.06665769	0.00000000	-56.92052000	-12.62918000
154.26665768	0.00000000	-57.29576000	-12.62918000
154.46665767	0.00000000	-57.66486000	-12.62918000
154.66665766	0.00000000	-57.29576000	-12.67224000
154.86665765	0.00000000	-56.96358000	-13.04749000
155.06665763	0.00000000	-56.87746000	-13.79183000
155.26665762	0.00000000	-56.50221000	-14.16708000
155.46665761	0.00000000	-55.75787000	-14.21014000
155.66665760	0.00000000	-55.38263000	-14.21014000
155.86665759	0.00000000	-55.33957000	-14.21014000
156.06665758	0.00000000	-55.38263000	-14.21014000
156.26665756	0.00000000	-55.75787000	-14.16708000
156.46665755	0.00000000	-56.50221000	-13.79183000
156.66665754	0.00000000	-56.87746000	-13.04749000
156.86665753	0.00000000	-56.92052000	-12.67224000
157.06665752	0.00000000	-56.92052000	-12.62918000
157.26665750	0.00000000	-56.92052000	-12.62918000
157.46665749	0.00000000	-56.92052000	-12.62918000
157.66665748	0.00000000	-56.92052000	-12.67224000
157.86665747	0.00000000	-56.92052000	-13.04749000
158.06665746	0.00000000	-56.87746000	-13.79183000
158.26665744	0.00000000	-56.50221000	-14.16708000
158.46665743	0.00000000	-55.75787000	-14.21014000
158.66665742	0.00000000	-55.38263000	-14.21014000
158.86665741	0.00000000	-55.33957000	-14.16708000
159.06665740	0.00000000	-55.33957000	-13.79183000
159.26665739	0.00000000	-55.38263000	-13.04749000
159.46665737	0.00000000	-55.75787000	-12.67224000
159.66665736	0.00000000	-56.50221000	-12.62918000
159.86665735	0.00000000	-56.87746000	-12.62918000
160.06665734	0.00000000	-56.92052000	-12.62918000
160.26665733	0.00000000	-56.92052000	-12.62918000
160.46665731	0.00000000	-56.92052000	-12.67224000
160.66665730	0.00000000	-56.92052000	-13.04749000
160.86665729	0.00000000	-56.92052000	-13.79183000
161.06665728	0.00000000	-56.92052000	-14.16708000
161.26665727	0.00000000	-56.92052000	-14.21014000
161.46665725	0.00000000	-56.87746000	-14.21014000
161.66665724	0.00000000	-56.50221000	-14.21014000
161.86665723	0.00000000	-55.75787000	-14.21014000
162.06665722	0.00000000	-55.38263000	-14.16708000
162.26665721	0.00000000	-55.33957000	-13.79183000
162.46665720	0.00000000	-55.38263000	-13.04749000
162.66665718	0.00000000	-55.75787000	-12.67224000
162.86665717	0.00000000	-56.50221000	-12.62918000
163.06665716	0.00000000	-56.87746000	-12.67224000
163.26665715	0.00000000	-56.92052000	-13.04749000
163.46665714	0.00000000	-56.92052000	-13.74262000
163.66665712	0.00000000	-56.92052000	-13.74262000
163.86665711	0.00000000	-56.92052000	-13.09670000
164.06665710	0.00000000	-56.92052000	-13.09670000
164.26665709	0.00000000	-56.87746000	-13.79183000
164.46665708	0.00000000	-56.50221000	-14.16708000
164.66665706	0.00000000	-55.75787000	-14.21014000
164.86665705	0.00000000	-55.38263000	-14.21014000
165.06665704	0.00000000	-55.33957000	-14.21014000
165.26665703	0.00000000	-55.33957000	-14.16708000
165.46665702	0.00000000	-55.33957000	-13.79183000
165.66665701	0.00000000	-55.33957000	-13.04749000
165.86665699	0.00000000	-55.38263000	-12.67224000
166.06665698	0.00000000	-55.75787000	-12.62918000
166.26665697	0.00000000	-56.50221000	-12.62918000
166.46665696	0.00000000	-56.82825000	-12.62918000
166.66665695	0.00000000	-56.54527000	-12.62918000
166.86665693	0.00000000	-56.17618000	-12.62918000
167.06665692	0.00000000	-56.54527000	-12.67224000
167.26665691	0.00000000	-56.82825000	-13.04749000
167.46665690	0.00000000	-56.54527000	-13.79183000
167.66665689	0.00000000	-56.13312000	-14.16708000
167.86665687	0.00000000	-56.12696000	-14.21014000
168.06665686	0.00000000	-55.71481000	-14.21014000
168.26665685	0.00000000	-55.38263000	-14.16708000
168.46665684	0.00000000	-55.33957000	-13.83489000
168.66665683	0.00000000	-55.38263000	-13.46580000
168.86665682	0.00000000	-55.75787000	-13.83489000
169.06665680	0.00000000	-56.50221000	-14.16708000
169.26665679	0.00000000	-56.87746000	-14.21014000
169.46665678	0.00000000	-56.92052000	-14.21014000
169.66665677	0.00000000	-56.92052000	-14.21014000
169.86665676	0.00000000	-56.92052000	-14.21014000
170.06665674	0.00000000	-56.92052000	-14.21014000
170.26665673	0.00000000	-56.92052000	-14.21014000
170.46665672	0.00000000	-56.87746000	-14.16708000
170.66665671	0.00000000	-56.50221000	-13.83489000
170.86665670	0.00000000	-55.80708000	-13.46580000
171.06665668	0.00000000	-55.75787000	-13.83489000
171.26665667	0.00000000	-56.08390000	-14.16708000
171.46665666	0.00000000	-55.71481000	-14.21014000
171.66665665	0.00000000	-55.38263000	-14.21014000
171.86665664	0.00000000	-55.38263000	-14.21014000
172.06665663	0.00000000	-55.75787000	-14.21014000
172.26665661	0.00000000	-56.50221000	-14.21014000
172.46665660	0.00000000	-56.87746000	-14.21014000
172.66665659	0.00000000	-56.92052000	-14.21014000
172.86665658	0.00000000	-56.92052000	-14.21014000
173.06665657	0.00000000	-56.92052000	-14.16708000
173.26665655	0.00000000	-56.92052000	-13.83489000
173.46665654	0.00000000	-56.92052000	-13.46580000
173.66665653	0.00000000	-56.87746000	-13.83489000
173.86665652	0.00000000	-56.50221000	-14.16708000
174.06665651	0.00000000	-55.75787000	-14.21014000
174.26665649	0.00000000	-55.38263000	-14.21014000
174.46665648	0.00000000	-55.33957000	-14.21014000
174.66665647	0.00000000	-55.33957000	-14.21014000
174.86665646	0.00000000	-55.38263000	-14.21014000
175.06665645	0.00000000	-55.71481000	-14.16708000
175.26665644	0.00000000	-56.08390000	-13.79183000
175.46665642	0.00000000	-55.71481000	-13.04749000
175.66665641	0.00000000	-55.38263000	-12.67224000
175.86665640	0.00000000	-55.33957000	-12.62918000
176.06665639	0.00000000	-55.38263000	-12.62918000
176.26665638	0.00000000	-55.71481000	-12.67224000
176.46665636	0.00000000	-56.08390000	-13.00443000
176.66665635	0.00000000	-55.71481000	-13.37352000
176.86665634	0.00000000	-55.38263000	-13.00443000
177.06665633	0.00000000	-55.33957000	-12.67224000
177.26665632	0.00000000	-55.33957000	-12.67224000
177.46665630	0.00000000	-55.33957000	-13.00443000
177.66665629	0.00000000	-55.38263000	-13.41658000
177.86665628	0.00000000	-55.71481000	-13.37967000
178.06665627	0.00000000	-56.12696000	-13.41658000
178.26665626	0.00000000	-56.09006000	-13.00443000
178.46665625	0.00000000	-56.12696000	-12.67224000
178.66665623	0.00000000	-55.71481000	-12.67224000
178.86665622	0.00000000	-55.38263000	-13.00443000
179.06665621	0.00000000	-55.33957000	-13.37352000
179.26665620	0.00000000	-55.33957000	-13.00443000
179.46665619	0.00000000	-55.33957000	-12.67224000
179.66665617	0.00000000	-55.33957000	-12.67224000
179.86665616	0.00000000	-55.33957000	-13.04749000
180.06665615	0.00000000	-55.33957000	-13.79183000
180.26665614	0.00000000	-55.33957000	-14.16708000
180.46665613	0.00000000	-55.33957000	-14.21014000
180.66665611	0.00000000	-55.33957000	-14.21014000
180.86665610	0.00000000	-55.38263000	-14.21014000
181.06665609	0.00000000	-55.75787000	-14.16708000
181.26665608	0.00000000	-56.45300000	-13.79183000
181.46665607	0.00000000	-56.45300000	-13.04749000
181.66665606	0.00000000	-55.80708000	-12.67224000
181.86665604	0.00000000	-55.75787000	-12.62918000
182.06665603	0.00000000	-56.08390000	-12.62918000
182.26665602	0.00000000	-55.71481000	-12.67224000
182.46665601	0.00000000	-55.38263000	-13.04749000
182.66665600	0.00000000	-55.33957000	-13.74262000
182.86665598	0.00000000	-55.33957000	-13.79183000
183.06665597	0.00000000	-55.33957000	-13.46580000
183.26665596	0.00000000	-55.33957000	-13.83489000
183.46665595	0.00000000	-55.33957000	-14.16708000
183.66665594	0.00000000	-55.33957000	-14.21014000
183.86665592	0.00000000	-55.38263000	-14.16708000
184.06665591	0.00000000	-55.71481000	-13.83489000
184.26665590	0.00000000	-56.12696000	-13.42274000
184.46665589	0.00000000	-56.13312000	-13.41658000
184.66665588	0.00000000	-56.54527000	-13.00443000
184.86665587	0.00000000	-56.82825000	-12.67224000
185.06665585	0.00000000	-56.50221000	-12.62918000
185.26665584	0.00000000	-55.75787000	-12.67224000
185.46665583	0.00000000	-55.38263000	-13.04749000
185.66665582	0.00000000	-55.33957000	-13.79183000
185.86665581	0.00000000	-55.33957000	-14.16708000
186.06665579	0.00000000	-55.33957000	-14.21014000
186.26665578	0.00000000	-55.38263000	-14.21014000
186.46665577	0.00000000	-55.71481000	-14.21014000
186.66665576	0.00000000	-56.08390000	-14.21014000
186.86665575	0.00000000	-55.71481000	-14.16708000
187.06665573	0.00000000	-55.43184000	-13.79183000
187.26665572	0.00000000	-55.71481000	-13.04749000
187.46665571	0.00000000	-56.08390000	-12.67224000
187.66665570	0.00000000	-55.75787000	-12.62918000
187.86665569	0.00000000	-55.75787000	-12.62918000
188.06665568	0.00000000	-56.08390000	-12.62918000
188.26665566	0.00000000	-55.71481000	-12.62918000
188.46665565	0.00000000	-55.38263000	-12.67224000
188.66665564	0.00000000	-55.33957000	-13.04749000
188.86665563	0.00000000	-55.33957000	-13.79183000
189.06665562	0.00000000	-55.33957000	-14.16708000
189.26665560	0.00000000	-55.33957000	-14.21014000
189.46665559	0.00000000	-55.33957000	-14.21014000
189.66665558	0.00000000	-55.33957000	-14.16708000
189.86665557	0.00000000	-55.33957000	-13.79183000
190.06665556	0.00000000	-55.33957000	-13.04749000
190.26665554	0.00000000	-55.33957000	-12.67224000
190.46665553	0.00000000	-55.33957000	-12.62918000
190.66665552	0.00000000	-55.33957000	-12.62918000
190.86665551	0.00000000	-55.33957000	-12.62918000
191.06665550	0.00000000	-55.33957000	-12.62918000
191.26665549	0.00000000	-55.33957000	-12.62918000
191.46665547	0.00000000	-55.33957000	-12.62918000
191.66665546	0.00000000	-55.33957000	-12.62918000
191.86665545	0.00000000	-55.33957000	-12.67224000
192.06665544	0.00000000	-55.33957000	-13.04749000
192.26665543	0.00000000	-55.33957000	-13.74262000
192.46665541	0.00000000	-55.33957000	-13.79183000
192.66665540	0.00000000	-55.33957000	-13.42274000
192.86665539	0.00000000	-55.38263000	-13.45964000
193.06665538	0.00000000	-55.75787000	-13.37967000
193.26665537	0.00000000	-56.45300000	-13.41658000
193.46665535	0.00000000	-56.50221000	-13.04749000
193.66665534	0.00000000	-56.13312000	-13.04749000
193.86665533	0.00000000	-56.12696000	-13.37352000
194.06665532	0.00000000	-55.71481000	-13.00443000
194.26665531	0.00000000	-55.38263000	-12.67224000
194.46665530	0.00000000	-55.33957000	-12.62918000
194.66665528	0.00000000	-55.33957000	-12.62918000
194.86665527	0.00000000	-55.33957000	-12.67224000
195.06665526	0.00000000	-55.33957000	-13.00443000
195.26665525	0.00000000	-55.33957000	-13.37352000
195.46665524	0.00000000	-55.33957000	-13.04749000
195.66665522	0.00000000	-55.38263000	-13.09670000
195.86665521	0.00000000	-55.71481000	-13.74262000
196.06665520	0.00000000	-56.08390000	-13.79183000
