Time	Channel A	Channel B	Channel C
(us)	(V)	(mV)	(mV)

-4.49999956	0.00000000	-71.15526000	-18.94685000
-4.29999957	0.00000000	-71.15526000	-18.94685000
-4.09999958	0.00000000	-71.15526000	-18.94685000
-3.89999959	0.00000000	-71.15526000	-18.98991000
-3.69999960	0.00000000	-71.15526000	-19.36516000
-3.49999962	0.00000000	-71.15526000	-20.06029000
-3.29999963	0.00000000	-71.15526000	-20.10950000
-3.09999964	0.00000000	-71.15526000	-19.74040000
-2.89999965	0.00000000	-71.15526000	-19.77731000
-2.69999966	0.00000000	-71.15526000	-19.69734000
-2.49999968	0.00000000	-71.15526000	-19.73425000
-2.29999969	0.00000000	-71.15526000	-19.32210000
-2.09999970	0.00000000	-71.15526000	-18.98991000
-1.89999971	0.00000000	-71.15526000	-18.94685000
-1.69999972	0.00000000	-71.15526000	-18.94685000
-1.49999973	0.00000000	-71.15526000	-18.94685000
-1.29999975	0.00000000	-71.15526000	-18.94685000
-1.09999976	0.00000000	-71.15526000	-18.94685000
-0.89999977	0.00000000	-71.15526000	-18.94685000
-0.69999978	0.00000000	-71.15526000	-18.94685000
-0.49999979	0.00000000	-71.15526000	-18.98991000
-0.29999981	0.31803640	-71.15526000	-19.32210000
-0.09999982	0.63668800	-71.15526000	-19.69119000
0.10000017	0.95533960	-71.15526000	-19.32210000
0.30000016	1.11466500	-71.15526000	-18.98991000
0.50000015	0.95533960	-71.15526000	-18.98991000
0.70000013	0.47736220	-71.15526000	-19.32210000
0.90000012	-0.31803640	-71.15526000	-19.69119000
1.10000011	-1.27399100	-71.15526000	-19.32210000
1.30000010	-2.22994600	-71.15526000	-19.03912000
1.50000009	-2.70792300	-71.15526000	-19.32210000
1.70000008	-2.54859700	-71.15526000	-19.69119000
1.90000006	-1.59264300	-71.15526000	-19.32210000
2.10000005	0.15871060	-71.15526000	-18.98991000
2.30000004	2.22994600	-71.15526000	-18.98991000
2.50000003	4.14124000	-71.15526000	-19.36516000
2.70000002	5.25652100	-71.15526000	-20.10950000
2.90000000	5.09719500	-71.15526000	-20.48474000
3.09999999	3.34522600	-71.15526000	-20.52780000
3.29999998	0.47736220	-71.15526000	-20.52780000
3.49999997	-2.86724900	-71.15526000	-20.48474000
3.69999996	-5.89382400	-71.15526000	-20.10950000
3.89999994	-7.80511800	-71.15526000	-19.36516000
4.09999993	-7.64579200	-71.15526000	-18.98991000
4.29999992	-5.57517200	-71.15526000	-18.94685000
4.49999991	-1.91129400	-71.15526000	-18.94685000
4.69999990	2.54859700	-71.15526000	-18.94685000
4.89999989	6.53112700	-71.15526000	-18.94685000
5.09999987	9.07972400	-71.15526000	-18.98991000
5.29999986	9.39837600	-71.15526000	-19.36516000
5.49999985	7.16781500	-71.15526000	-20.10950000
5.69999984	3.18590100	-71.15526000	-20.48474000
5.89999983	-1.59264300	-71.15526000	-20.48474000
6.09999981	-6.05315000	-71.15526000	-20.10950000
6.29999980	-8.76107300	-71.15526000	-19.36516000
6.49999979	-9.39837600	-71.15526000	-18.98991000
6.69999978	-7.64579200	-71.15526000	-18.90379000
6.89999977	-4.14124000	-71.15526000	-18.57160000
7.09999975	0.31803640	-71.15526000	-18.20251000
7.29999974	4.30056600	-71.15526000	-18.57160000
7.49999973	6.84916400	-71.15526000	-18.90379000
7.69999972	7.80511800	-71.15526000	-18.94685000
7.89999971	6.53112700	-71.15526000	-18.98991000
8.09999970	3.98191400	-71.15526000	-19.32210000
8.29999968	0.79601380	-71.11221000	-19.69119000
8.49999967	-2.38927200	-70.78001000	-19.32210000
8.69999966	-4.45989200	-70.41092000	-18.98991000
8.89999965	-5.25652100	-70.78001000	-18.94685000
9.09999964	-4.61921700	-71.11221000	-18.94685000
9.29999962	-3.02657500	-71.15526000	-18.94685000
9.49999961	-1.11466500	-71.15526000	-18.94685000
9.69999960	0.79601380	-71.15526000	-18.94685000
9.89999959	2.07062000	-71.15526000	-18.94685000
10.09999958	2.54859700	-71.15526000	-18.94685000
10.29999956	2.22994600	-71.15526000	-18.94685000
10.49999955	1.59264300	-71.11221000	-18.94685000
10.69999954	0.63668800	-70.78001000	-18.94685000
10.89999953	-0.15871060	-70.41092000	-18.94685000
11.09999952	-0.63668800	-70.78001000	-18.94685000
11.29999951	-0.95533960	-71.11221000	-18.94685000
11.49999949	-0.95533960	-71.15526000	-18.94685000
11.69999948	-0.79601380	-71.15526000	-18.94685000
11.89999947	-0.47736220	-71.15526000	-18.98991000
12.09999946	-0.15871060	-71.15526000	-19.32210000
12.29999945	-0.15871060	-71.15526000	-19.69119000
12.49999943	0.00000000	-71.15526000	-19.32210000
12.69999942	0.00000000	-71.15526000	-18.98991000
12.89999941	0.00000000	-71.15526000	-18.94685000
13.09999940	0.00000000	-71.15526000	-18.94685000
13.29999939	0.15871060	-71.15526000	-18.98991000
13.49999937	0.00000000	-71.15526000	-19.36516000
13.69999936	0.00000000	-71.15526000	-20.10950000
13.89999935	0.00000000	-71.15526000	-20.48474000
14.09999934	-0.15871060	-71.15526000	-20.52780000
14.29999933	-0.15871060	-71.15526000	-20.48474000
14.49999932	0.00000000	-71.15526000	-20.10950000
14.69999930	0.00000000	-71.15526000	-19.36516000
14.89999929	0.00000000	-71.15526000	-18.98991000
15.09999928	0.00000000	-71.15526000	-18.98991000
15.29999927	0.00000000	-71.15526000	-19.32210000
15.49999926	0.00000000	-71.15526000	-19.73425000
15.69999924	0.00000000	-71.15526000	-19.69734000
15.89999923	0.00000000	-71.15526000	-19.73425000
16.09999922	0.00000000	-71.15526000	-19.32210000
16.29999921	0.00000000	-71.15526000	-18.98991000
16.49999920	0.00000000	-71.11221000	-18.94685000
16.69999919	0.00000000	-70.73695000	-18.94685000
16.89999917	0.00000000	-69.99261000	-18.94685000
17.09999916	0.00000000	-69.57431000	-18.94685000
17.29999915	0.00000000	-69.19906000	-18.94685000
17.49999914	0.00000000	-68.82996000	-18.94685000
17.69999913	0.00000000	-69.19906000	-18.94685000
17.89999911	0.00000000	-69.57431000	-18.94685000
18.09999910	0.00000000	-70.08488000	-18.94685000
18.29999909	0.00000000	-71.62278000	-18.94685000
18.49999908	0.00000000	-73.84965000	-18.94685000
18.69999907	0.00000000	-75.38755000	-18.94685000
18.89999905	0.00000000	-75.85506000	-18.94685000
19.09999904	0.00000000	-75.80585000	-18.94685000
19.29999903	0.00000000	-74.96924000	-18.94685000
19.49999902	0.00000000	-72.60088000	-18.94685000
19.69999901	0.00000000	-69.10678000	-18.94685000
19.89999900	0.00000000	-64.87450000	-18.94685000
20.09999898	0.00000000	-61.05437000	-18.94685000
20.29999897	0.00000000	-59.14739000	-18.94685000
20.49999896	0.00000000	-59.56569000	-18.94685000
20.69999895	0.00000000	-62.72760000	-18.94685000
20.89999894	0.00000000	-68.54699000	-18.94685000
21.09999892	0.00000000	-75.89813000	-18.94685000
21.29999891	0.00000000	-83.24926000	-18.94685000
21.49999890	0.00000000	-88.97022000	-18.94685000
21.69999889	0.00000000	-91.20325000	-18.94685000
21.89999888	0.00000000	-88.46579000	-18.94685000
22.09999886	0.00000000	-81.06544000	-18.98991000
22.29999885	0.00000000	-70.17716000	-19.32210000
22.49999884	0.00000000	-57.43110000	-19.69119000
22.69999883	0.00000000	-45.93381000	-19.32210000
22.89999882	0.00000000	-39.05019000	-18.98991000
23.09999881	0.00000000	-39.09325000	-18.94685000
23.29999879	0.00000000	-46.49360000	-18.90379000
23.49999878	0.00000000	-60.07627000	-18.52854000
23.69999877	0.00000000	-77.47908000	-17.78420000
23.89999876	0.00000000	-94.83266000	-17.40895000
24.09999875	0.00000000	-107.95400000	-17.40895000
24.29999873	0.00000000	-113.63800000	-17.83341000
24.49999872	0.00000000	-109.67640000	-18.98991000
24.69999871	0.00000000	-95.72465000	-20.52780000
24.89999870	0.00000000	-74.92002000	-22.10261000
25.09999869	0.00000000	-52.12844000	-23.64050000
25.29999867	0.00000000	-32.85556000	-24.75394000
25.49999866	0.00000000	-21.64739000	-24.75394000
25.69999865	0.00000000	-21.31520000	-23.59129000
25.89999864	0.00000000	-32.16043000	-21.59203000
26.09999863	0.00000000	-52.25763000	-18.43627000
26.29999862	0.00000000	-76.96850000	-14.21014000
26.49999860	0.00000000	-100.51670000	-10.07013000
26.69999859	0.00000000	-117.45200000	-7.75098400
26.89999858	0.00000000	-123.26530000	-8.12007800
27.09999857	0.00000000	-116.79990000	-10.48843000
27.29999856	0.00000000	-100.55980000	-15.27436000
27.49999854	0.00000000	-78.08808000	-22.57013000
27.69999853	0.00000000	-53.75246000	-30.60408000
27.89999852	0.00000000	-33.36614000	-36.74335000
28.09999851	0.00000000	-22.10876000	-39.48080000
28.29999850	0.00000000	-22.39173000	-38.23203000
28.49999848	0.00000000	-32.81250000	-32.79404000
28.69999847	0.00000000	-50.96579000	-23.46210000
28.89999846	0.00000000	-72.96382000	-12.25394000
29.09999845	0.00000000	-93.07332000	-1.06422200
29.29999844	0.00000000	-107.44340000	7.34498000
29.49999843	0.00000000	-113.26280000	10.37155000
29.69999841	0.00000000	-109.49190000	6.84055100
29.89999840	0.00000000	-97.90231000	-3.19266700
30.09999839	0.00000000	-81.33611000	-17.50123000
30.29999838	0.00000000	-63.52116000	-32.93553000
30.49999837	0.00000000	-48.76968000	-46.45054000
30.69999835	0.00000000	-39.05019000	-54.49680000
30.89999834	0.00000000	-36.30659000	-55.27805000
31.09999833	0.00000000	-40.90797000	-48.26525000
31.29999832	0.00000000	-50.91658000	-34.74409000
31.49999831	0.00000000	-64.45004000	-17.36589000
31.69999829	0.00000000	-77.99581000	0.00615157
31.89999828	0.00000000	-88.88409000	13.52731000
32.09999827	0.00000000	-95.48473000	20.49089000
32.29999826	0.00000000	-96.27829000	19.29134000
32.49999825	0.00000000	-91.71383000	10.03937000
32.69999824	0.00000000	-83.20619000	-5.42568800
32.89999822	0.00000000	-72.73621000	-23.54823000
33.09999821	0.00000000	-62.30930000	-40.59424000
33.29999820	0.00000000	-54.17076000	-52.91584000
33.49999819	0.00000000	-50.30758000	-57.97244000
33.69999818	0.00000000	-51.00885000	-54.53986000
33.89999816	0.00000000	-56.02854000	-44.13140000
34.09999815	0.00000000	-63.71186000	-29.02928000
34.29999814	0.00000000	-72.22563000	-12.02633000
34.49999813	0.00000000	-79.53371000	3.03272600
34.69999812	0.00000000	-83.80905000	13.06594000
34.89999810	0.00000000	-84.22736000	15.80339000
35.09999809	0.00000000	-81.20078000	10.83292000
35.29999808	0.00000000	-75.80585000	0.00615157
35.49999807	0.00000000	-69.61736000	-14.67766000
35.69999806	0.00000000	-63.84719000	-30.05044000
35.89999805	0.00000000	-60.03321000	-41.99680000
36.09999803	0.00000000	-59.60876000	-47.84694000
36.29999802	0.00000000	-62.26008000	-46.73351000
36.49999801	0.00000000	-66.87376000	-39.43774000
36.69999800	0.00000000	-72.26870000	-27.86663000
36.89999799	0.00000000	-76.88238000	-14.84990000
37.09999797	0.00000000	-79.57676000	-4.07849400
37.29999796	0.00000000	-79.57676000	1.35949800
37.49999795	0.00000000	-76.92544000	1.03346500
37.69999794	0.00000000	-72.69316000	-4.73056000
37.89999793	0.00000000	-68.03641000	-14.30241000
38.09999791	0.00000000	-63.79798000	-24.61860000
38.29999790	0.00000000	-61.10359000	-32.70177000
38.49999789	0.00000000	-60.67913000	-36.14050000
38.69999788	0.00000000	-62.21702000	-34.23351000
38.89999787	0.00000000	-65.33588000	-27.35605000
39.09999786	0.00000000	-69.57431000	-17.83341000
39.29999784	0.00000000	-73.84965000	-8.99975300
39.49999783	0.00000000	-77.34374000	-3.23572800
39.69999782	0.00000000	-79.66904000	-2.12229300
39.89999781	0.00000000	-79.99508000	-6.35457700
40.09999780	0.00000000	-78.13115000	-14.72072000
40.29999778	0.00000000	-74.64935000	-24.33563000
40.49999777	0.00000000	-70.73695000	-32.42495000
40.69999776	0.00000000	-66.45546000	-37.39542000
40.89999775	0.00000000	-62.63533000	-37.34621000
41.09999774	0.00000000	-60.67913000	-32.00664000
41.29999772	0.00000000	-60.63607000	-23.17298000
41.49999771	0.00000000	-62.21702000	-13.18282000
41.69999770	0.00000000	-65.29281000	-4.77362200
41.89999769	0.00000000	-69.15600000	-0.50442900
42.09999768	0.00000000	-72.69316000	-1.24261800
42.29999767	0.00000000	-75.80585000	-6.17618100
42.49999765	0.00000000	-78.08808000	-13.87795000
42.69999764	0.00000000	-78.46333000	-21.96727000
42.89999763	0.00000000	-76.96850000	-28.93701000
43.09999762	0.00000000	-74.31717000	-33.16314000
43.29999761	0.00000000	-71.57356000	-33.58144000
43.49999759	0.00000000	-69.24213000	-30.56102000
43.69999758	0.00000000	-67.24901000	-25.17224000
43.89999757	0.00000000	-66.12328000	-18.98991000
44.09999756	0.00000000	-65.66190000	-13.22589000
44.29999755	0.00000000	-66.03100000	-9.37500000
44.49999753	0.00000000	-66.36318000	-8.53838500
44.69999752	0.00000000	-66.44931000	-10.02707000
44.89999751	0.00000000	-66.82455000	-13.13976000
45.09999750	0.00000000	-67.61810000	-17.32283000
45.29999749	0.00000000	-68.41166000	-21.17372000
45.49999748	0.00000000	-69.61736000	-23.54823000
45.69999746	0.00000000	-71.24754000	-24.75394000
45.89999745	0.00000000	-73.57283000	-24.71087000
46.09999744	0.00000000	-76.64246000	-23.22219000
46.29999743	0.00000000	-78.92471000	-20.90305000
46.49999742	0.00000000	-80.04429000	-18.57160000
46.69999740	0.00000000	-79.15845000	-16.25246000
46.89999739	0.00000000	-75.30142000	-14.72072000
47.09999738	0.00000000	-69.52509000	-14.34547000
47.29999737	0.00000000	-63.33661000	-15.08981000
47.49999736	0.00000000	-57.89247000	-16.99065000
47.69999734	0.00000000	-54.49065000	-18.94685000
47.89999733	0.00000000	-54.12770000	-20.94611000
48.09999732	0.00000000	-57.65256000	-23.17298000
48.29999731	0.00000000	-64.22243000	-24.29257000
48.49999730	0.00000000	-72.73621000	-23.59129000
48.69999729	0.00000000	-81.20078000	-22.05955000
48.89999727	0.00000000	-87.34621000	-20.06029000
49.09999726	0.00000000	-89.62229000	-17.36589000
49.29999725	0.00000000	-86.92790000	-14.67150000
49.49999724	0.00000000	-79.99508000	-12.76452000
49.69999723	0.00000000	-70.73695000	-12.02018000
49.89999721	0.00000000	-61.10359000	-13.18282000
50.09999720	0.00000000	-53.75246000	-15.87721000
50.29999719	0.00000000	-50.30758000	-19.36516000
50.49999718	0.00000000	-51.47638000	-23.21604000
50.69999717	0.00000000	-57.60949000	-26.28568000
50.89999715	0.00000000	-66.45546000	-27.82357000
51.09999714	0.00000000	-75.71973000	-27.40526000
51.29999713	0.00000000	-83.39075000	-24.71087000
51.49999712	0.00000000	-86.83562000	-20.52780000
51.69999711	0.00000000	-85.39001000	-16.25246000
51.89999710	0.00000000	-79.99508000	-12.76452000
52.09999708	0.00000000	-72.31791000	-10.44537000
52.29999707	0.00000000	-64.22243000	-10.07013000
52.49999706	0.00000000	-58.07701000	-11.60187000
52.69999705	0.00000000	-55.33341000	-14.72072000
52.89999704	0.00000000	-56.49606000	-18.94685000
53.09999702	0.00000000	-61.10359000	-23.12992000
53.29999701	0.00000000	-67.99335000	-25.82431000
53.49999700	0.00000000	-74.87697000	-26.28568000
53.69999699	0.00000000	-79.53371000	-25.12918000
53.89999698	0.00000000	-81.11466000	-22.79773000
54.09999696	0.00000000	-79.57676000	-19.36516000
54.29999695	0.00000000	-75.34448000	-16.33858000
54.49999694	0.00000000	-69.57431000	-14.76378000
54.69999693	0.00000000	-63.84719000	-14.72072000
54.89999692	0.00000000	-59.98400000	-15.83415000
55.09999691	0.00000000	-59.19045000	-17.36589000
55.29999689	0.00000000	-61.10359000	-18.90379000
55.49999688	0.00000000	-65.33588000	-20.06029000
55.69999687	0.00000000	-70.68774000	-20.39247000
55.89999686	0.00000000	-75.34448000	-19.64198000
56.09999685	0.00000000	-78.41412000	-17.74114000
56.29999683	0.00000000	-79.15845000	-15.92027000
56.49999682	0.00000000	-76.88238000	-15.13902000
56.69999681	0.00000000	-72.69316000	-15.92027000
56.89999680	0.00000000	-68.07948000	-17.83341000
57.09999679	0.00000000	-64.22243000	-20.57087000
57.29999677	0.00000000	-62.26008000	-23.59129000
57.49999676	0.00000000	-62.21702000	-25.86737000
57.69999675	0.00000000	-63.79798000	-26.24262000
57.89999674	0.00000000	-66.82455000	-24.66166000
58.09999673	0.00000000	-70.31249000	-21.22293000
58.29999672	0.00000000	-73.01919000	-16.57849000
58.49999670	0.00000000	-74.96924000	-12.34621000
58.69999669	0.00000000	-75.30142000	-8.86441900
58.89999668	0.00000000	-73.84965000	-7.46801100
59.09999667	0.00000000	-71.57356000	-9.37500000
59.29999666	0.00000000	-69.61736000	-14.34547000
59.49999664	0.00000000	-68.03641000	-20.47859000
59.69999663	0.00000000	-66.91682000	-26.32874000
59.89999662	0.00000000	-66.91682000	-30.93627000
60.09999661	0.00000000	-67.99335000	-33.16314000
60.29999660	0.00000000	-69.15600000	-31.58218000
60.49999658	0.00000000	-69.94955000	-26.19955000
60.69999657	0.00000000	-70.68774000	-18.57160000
60.89999656	0.00000000	-70.68774000	-10.86368000
61.09999655	0.00000000	-69.94955000	-5.46875000
61.29999654	0.00000000	-69.19906000	-3.10039400
61.49999653	0.00000000	-68.41166000	-4.35531500
61.69999651	0.00000000	-68.03641000	-9.33193800
61.89999650	0.00000000	-68.03641000	-17.03986000
62.09999649	0.00000000	-68.46087000	-25.08612000
62.29999648	0.00000000	-69.61736000	-31.67446000
62.49999647	0.00000000	-71.11221000	-35.11319000
62.69999645	0.00000000	-72.26870000	-34.78716000
62.89999644	0.00000000	-72.64394000	-30.88705000
63.09999643	0.00000000	-72.26870000	-24.33563000
63.29999642	0.00000000	-71.11221000	-16.25246000
63.49999641	0.00000000	-69.57431000	-8.95669300
63.69999639	0.00000000	-67.99335000	-4.30610200
63.89999638	0.00000000	-66.45546000	-3.10039400
64.09999637	0.00000000	-65.33588000	-5.42568800
64.29999636	0.00000000	-65.37893000	-10.40231000
64.49999635	0.00000000	-66.87376000	-16.99065000
64.69999634	0.00000000	-69.15600000	-23.54823000
64.89999632	0.00000000	-71.11221000	-28.98007000
65.09999631	0.00000000	-72.64394000	-32.04970000
65.29999630	0.00000000	-73.38828000	-32.09276000
65.49999629	0.00000000	-72.64394000	-29.44759000
65.69999628	0.00000000	-71.15526000	-25.22145000
65.89999626	0.00000000	-69.57431000	-20.52780000
66.09999625	0.00000000	-68.03641000	-15.87721000
66.29999624	0.00000000	-66.91682000	-12.02018000
66.49999623	0.00000000	-66.91682000	-10.02707000
66.69999622	0.00000000	-68.03641000	-9.60875900
66.89999620	0.00000000	-69.57431000	-10.40231000
67.09999619	0.00000000	-71.11221000	-12.72146000
67.29999618	0.00000000	-72.22563000	-15.78494000
67.49999617	0.00000000	-72.18258000	-18.89764000
67.69999616	0.00000000	-70.68774000	-21.68430000
67.89999615	0.00000000	-68.41166000	-24.05881000
68.09999613	0.00000000	-66.45546000	-26.37795000
68.29999612	0.00000000	-64.91756000	-27.86663000
68.49999611	0.00000000	-64.17323000	-27.86663000
68.69999610	0.00000000	-65.00369000	-26.28568000
68.89999609	0.00000000	-67.29208000	-23.17298000
69.09999607	0.00000000	-70.78001000	-18.94685000
69.29999606	0.00000000	-74.22490000	-14.67150000
69.49999605	0.00000000	-76.92544000	-11.14050000
69.69999604	0.00000000	-78.03887000	-8.48917200
69.89999603	0.00000000	-76.88238000	-7.75098400
70.09999601	0.00000000	-73.80659000	-9.65182000
70.29999600	0.00000000	-69.52509000	-13.13976000
70.49999599	0.00000000	-64.87450000	-17.83341000
70.69999598	0.00000000	-60.63607000	-23.17298000
70.89999597	0.00000000	-57.98474000	-27.40526000
71.09999596	0.00000000	-58.02780000	-29.40452000
71.29999594	0.00000000	-61.10359000	-29.40452000
71.49999593	0.00000000	-66.45546000	-27.44832000
71.69999592	0.00000000	-72.26870000	-23.59129000
71.89999591	0.00000000	-77.34374000	-18.98991000
72.09999590	0.00000000	-81.15772000	-14.72072000
72.29999588	0.00000000	-82.32037000	-11.65108000
72.49999587	0.00000000	-80.41338000	-10.44537000
72.69999586	0.00000000	-76.55019000	-11.22662000
72.89999585	0.00000000	-71.10605000	-13.51501000
73.09999584	0.00000000	-65.33588000	-16.94759000
73.29999582	0.00000000	-60.72834000	-20.01722000
73.49999581	0.00000000	-58.35999000	-21.96727000
73.69999580	0.00000000	-58.72908000	-22.75467000
73.89999579	0.00000000	-61.01131000	-22.01649000
74.09999578	0.00000000	-64.91756000	-20.52780000
74.29999577	0.00000000	-69.52509000	-19.03912000
74.49999575	0.00000000	-73.76353000	-18.25172000
74.69999574	0.00000000	-76.50713000	-18.61466000
74.89999573	0.00000000	-77.30068000	-19.36516000
75.09999572	0.00000000	-76.55019000	-20.52780000
75.29999571	0.00000000	-74.22490000	-21.64124000
75.49999569	0.00000000	-71.15526000	-21.96727000
75.69999568	0.00000000	-68.07948000	-21.17372000
75.89999567	0.00000000	-65.71111000	-18.85458000
76.09999566	0.00000000	-64.58537000	-15.83415000
76.29999565	0.00000000	-64.54848000	-13.13976000
76.49999563	0.00000000	-66.03100000	-11.60187000
76.69999562	0.00000000	-67.52583000	-11.60187000
76.89999561	0.00000000	-68.36859000	-13.18282000
77.09999560	0.00000000	-69.15600000	-16.33858000
77.29999559	0.00000000	-69.53124000	-20.94611000
77.49999558	0.00000000	-69.57431000	-25.91043000
77.69999556	0.00000000	-69.57431000	-29.31225000
77.89999555	0.00000000	-69.61736000	-30.14272000
78.09999554	0.00000000	-69.99261000	-28.19882000
78.29999553	0.00000000	-70.78001000	-24.33563000
78.49999552	0.00000000	-71.53051000	-18.90379000
78.69999550	0.00000000	-72.26870000	-13.18282000
78.89999549	0.00000000	-72.22563000	-8.90747900
79.09999548	0.00000000	-71.06299000	-6.95743000
79.29999547	0.00000000	-69.15600000	-7.33267600
79.49999546	0.00000000	-66.82455000	-10.07013000
79.69999544	0.00000000	-64.91756000	-14.67766000
79.89999543	0.00000000	-63.75492000	-20.06029000
80.09999542	0.00000000	-63.79798000	-24.71087000
80.29999541	0.00000000	-65.33588000	-27.86663000
80.49999540	0.00000000	-68.03641000	-29.40452000
80.69999539	0.00000000	-71.11221000	-28.98007000
80.89999537	0.00000000	-73.80659000	-26.28568000
81.09999536	0.00000000	-75.34448000	-22.10261000
81.29999535	0.00000000	-75.34448000	-17.83341000
81.49999534	0.00000000	-73.80659000	-14.29626000
81.69999533	0.00000000	-71.11221000	-11.55881000
81.89999531	0.00000000	-68.03641000	-10.02707000
82.09999530	0.00000000	-65.33588000	-10.02707000
82.29999529	0.00000000	-63.79798000	-11.51575000
82.49999528	0.00000000	-63.75492000	-13.87795000
82.69999527	0.00000000	-64.86835000	-16.62770000
82.89999525	0.00000000	-66.45546000	-20.15256000
83.09999524	0.00000000	-68.41166000	-23.54823000
83.29999523	0.00000000	-70.68774000	-25.95964000
83.49999522	0.00000000	-72.18258000	-27.07923000
83.69999521	0.00000000	-72.26870000	-27.11614000
83.89999520	0.00000000	-71.53051000	-25.50443000
84.09999518	0.00000000	-70.78001000	-22.84695000
84.29999517	0.00000000	-69.94955000	-19.27288000
84.49999516	0.00000000	-69.19906000	-15.45891000
84.69999515	0.00000000	-68.41166000	-11.93405000
84.89999514	0.00000000	-68.03641000	-9.65182000
85.09999512	0.00000000	-67.99335000	-8.86441900
85.29999511	0.00000000	-67.99335000	-10.07013000
85.49999510	0.00000000	-67.95029000	-13.18282000
85.69999509	0.00000000	-67.57505000	-17.78420000
85.89999508	0.00000000	-66.82455000	-22.79773000
86.09999506	0.00000000	-66.49852000	-26.66092000
86.29999505	0.00000000	-66.82455000	-28.98007000
86.49999504	0.00000000	-67.66117000	-28.93701000
86.69999503	0.00000000	-68.78691000	-26.28568000
86.89999502	0.00000000	-70.36171000	-22.05955000
87.09999501	0.00000000	-71.48744000	-17.36589000
87.29999499	0.00000000	-72.26870000	-12.76452000
87.49999498	0.00000000	-72.22563000	-9.33193800
87.69999497	0.00000000	-71.11221000	-8.53838500
87.89999496	0.00000000	-69.57431000	-10.07013000
88.09999495	0.00000000	-67.99335000	-13.55807000
88.29999493	0.00000000	-66.45546000	-18.57160000
88.49999492	0.00000000	-65.33588000	-23.54823000
88.69999491	0.00000000	-65.33588000	-27.40526000
88.89999490	0.00000000	-66.45546000	-28.89395000
89.09999489	0.00000000	-67.99335000	-27.40526000
89.29999487	0.00000000	-69.57431000	-23.54823000
89.49999486	0.00000000	-71.11221000	-18.57160000
89.69999485	0.00000000	-72.22563000	-13.55807000
89.89999484	0.00000000	-72.22563000	-10.11319000
90.09999483	0.00000000	-71.15526000	-8.91363100
90.29999482	0.00000000	-69.99261000	-10.07013000
90.49999480	0.00000000	-69.15600000	-13.18282000
90.69999479	0.00000000	-67.99335000	-17.83341000
90.89999478	0.00000000	-66.87376000	-23.17298000
91.09999477	0.00000000	-66.49852000	-27.35605000
91.29999476	0.00000000	-66.82455000	-28.89395000
91.49999474	0.00000000	-67.61810000	-27.35605000
91.69999473	0.00000000	-68.32554000	-23.17298000
91.89999472	0.00000000	-68.73769000	-17.78420000
92.09999471	0.00000000	-68.36859000	-12.80758000
92.29999470	0.00000000	-68.03641000	-9.33193800
92.49999468	0.00000000	-67.99335000	-8.58144600
92.69999467	0.00000000	-68.03641000	-10.44537000
92.89999466	0.00000000	-68.46087000	-14.34547000
93.09999465	0.00000000	-69.57431000	-19.32210000
93.29999464	0.00000000	-70.68774000	-24.29257000
93.49999463	0.00000000	-71.11221000	-27.31299000
93.69999461	0.00000000	-71.11221000	-27.40526000
93.89999460	0.00000000	-70.68774000	-25.08612000
94.09999459	0.00000000	-69.53124000	-21.26599000
94.29999458	0.00000000	-67.94415000	-16.62155000
94.49999457	0.00000000	-66.03100000	-12.80758000
94.69999455	0.00000000	-64.13016000	-10.48843000
94.89999454	0.00000000	-63.37967000	-10.48843000
95.09999453	0.00000000	-63.71186000	-12.76452000
95.29999452	0.00000000	-64.96062000	-16.25246000
95.49999451	0.00000000	-67.29208000	-20.47859000
95.69999449	0.00000000	-70.73695000	-24.29257000
95.89999448	0.00000000	-73.76353000	-26.19955000
96.09999447	0.00000000	-75.38755000	-25.86737000
96.29999446	0.00000000	-75.76279000	-23.54823000
96.49999445	0.00000000	-74.92618000	-20.10950000
96.69999444	0.00000000	-72.22563000	-16.29552000
96.89999442	0.00000000	-68.41166000	-13.64419000
97.09999441	0.00000000	-64.91756000	-13.18282000
97.29999440	0.00000000	-62.17396000	-14.29626000
97.49999439	0.00000000	-60.63607000	-16.20325000
97.69999438	0.00000000	-60.63607000	-18.52854000
97.89999436	0.00000000	-62.21702000	-20.43553000
98.09999435	0.00000000	-65.33588000	-21.64124000
98.29999434	0.00000000	-69.57431000	-22.01033000
98.49999433	0.00000000	-73.76353000	-21.64124000
98.69999432	0.00000000	-76.50713000	-20.47859000
98.89999430	0.00000000	-77.30068000	-18.98991000
99.09999429	0.00000000	-76.55019000	-17.83341000
99.29999428	0.00000000	-74.22490000	-17.40895000
99.49999427	0.00000000	-71.11221000	-17.36589000
99.69999426	0.00000000	-67.57505000	-17.36589000
99.89999425	0.00000000	-63.75492000	-17.32283000
100.09999423	0.00000000	-61.10359000	-16.94759000
100.29999422	0.00000000	-60.63607000	-16.20325000
100.49999421	0.00000000	-61.75566000	-15.82800000
100.69999420	0.00000000	-63.71186000	-15.82800000
100.89999419	0.00000000	-66.45546000	-16.25246000
101.09999417	0.00000000	-69.52509000	-17.40895000
101.29999416	0.00000000	-72.22563000	-18.94685000
101.49999415	0.00000000	-73.80659000	-20.52780000
101.69999414	0.00000000	-74.22490000	-22.01649000
101.89999413	0.00000000	-73.84965000	-22.75467000
102.09999411	0.00000000	-72.64394000	-22.01649000
102.29999410	0.00000000	-70.68774000	-20.47859000
102.49999409	0.00000000	-67.99335000	-18.47933000
102.69999408	0.00000000	-65.33588000	-15.78494000
102.89999407	0.00000000	-63.75492000	-13.18282000
103.09999406	0.00000000	-63.33661000	-12.02018000
103.29999404	0.00000000	-63.71186000	-12.72146000
103.49999403	0.00000000	-64.91756000	-14.29626000
103.69999402	0.00000000	-66.82455000	-16.67077000
103.89999401	0.00000000	-69.15600000	-20.10950000
104.09999400	0.00000000	-71.06299000	-23.12992000
104.29999398	0.00000000	-72.22563000	-24.71087000
104.49999397	0.00000000	-72.22563000	-24.71087000
104.69999396	0.00000000	-71.15526000	-23.17298000
104.89999395	0.00000000	-69.99261000	-20.47859000
105.09999394	0.00000000	-69.15600000	-17.45817000
105.29999392	0.00000000	-67.94415000	-15.08981000
105.49999391	0.00000000	-66.49852000	-13.92717000
105.69999390	0.00000000	-65.71111000	-13.51501000
105.89999389	0.00000000	-66.07406000	-14.34547000
106.09999388	0.00000000	-66.82455000	-16.25246000
106.29999387	0.00000000	-67.99335000	-18.89764000
106.49999385	0.00000000	-69.10678000	-21.17372000
106.69999384	0.00000000	-69.57431000	-22.01033000
106.89999383	0.00000000	-69.90649000	-22.05955000
107.09999382	0.00000000	-69.89419000	-21.59203000
107.29999381	0.00000000	-68.78691000	-20.06029000
107.49999379	0.00000000	-68.03641000	-17.83341000
107.69999378	0.00000000	-67.61810000	-16.29552000
107.89999377	0.00000000	-67.24901000	-15.87721000
108.09999376	0.00000000	-67.61810000	-16.25246000
108.29999375	0.00000000	-67.99335000	-17.40895000
108.49999374	0.00000000	-68.46087000	-18.94685000
108.69999372	0.00000000	-69.57431000	-20.47859000
108.89999371	0.00000000	-70.68774000	-21.64124000
109.09999370	0.00000000	-71.06299000	-21.96727000
109.29999369	0.00000000	-70.68774000	-21.22293000
109.49999368	0.00000000	-69.53124000	-19.32210000
109.69999366	0.00000000	-68.03641000	-17.40895000
109.89999365	0.00000000	-66.87376000	-15.83415000
110.09999364	0.00000000	-66.44931000	-14.72072000
110.29999363	0.00000000	-66.44931000	-14.72072000
110.49999362	0.00000000	-66.82455000	-15.83415000
110.69999360	0.00000000	-67.61810000	-17.36589000
110.89999359	0.00000000	-68.36859000	-18.94685000
111.09999358	0.00000000	-69.15600000	-20.47859000
111.29999357	0.00000000	-69.53124000	-21.59203000
111.49999356	0.00000000	-69.57431000	-21.64124000
111.69999355	0.00000000	-69.53124000	-20.90305000
111.89999353	0.00000000	-69.15600000	-20.10950000
112.09999352	0.00000000	-68.36859000	-18.94685000
112.29999351	0.00000000	-67.61810000	-17.78420000
112.49999350	0.00000000	-66.87376000	-16.99065000
112.69999349	0.00000000	-66.87376000	-16.25246000
112.89999347	0.00000000	-67.57505000	-16.25246000
113.09999346	0.00000000	-67.95029000	-16.94759000
113.29999345	0.00000000	-67.99335000	-17.32283000
113.49999344	0.00000000	-67.99335000	-17.36589000
113.69999343	0.00000000	-67.99335000	-17.40895000
113.89999341	0.00000000	-67.99335000	-17.78420000
114.09999340	0.00000000	-67.99335000	-18.52854000
114.29999339	0.00000000	-68.03641000	-18.90379000
114.49999338	0.00000000	-68.36859000	-18.98991000
114.69999337	0.00000000	-68.73769000	-19.32210000
114.89999336	0.00000000	-68.36859000	-19.69119000
115.09999334	0.00000000	-68.03641000	-19.32210000
115.29999333	0.00000000	-67.95029000	-18.98991000
115.49999332	0.00000000	-67.61810000	-18.90379000
115.69999331	0.00000000	-67.24901000	-18.52854000
115.89999330	0.00000000	-67.61810000	-17.78420000
116.09999328	0.00000000	-67.95029000	-17.36589000
116.29999327	0.00000000	-67.99335000	-16.94759000
116.49999326	0.00000000	-68.03641000	-16.20325000
116.69999325	0.00000000	-68.41166000	-15.87721000
116.89999324	0.00000000	-69.10678000	-16.20325000
117.09999322	0.00000000	-69.10678000	-16.99065000
117.29999321	0.00000000	-68.41166000	-17.78420000
117.49999320	0.00000000	-67.99335000	-18.94685000
117.69999319	0.00000000	-67.57505000	-20.10950000
117.89999318	0.00000000	-66.82455000	-20.85384000
118.09999317	0.00000000	-66.44931000	-21.26599000
118.29999315	0.00000000	-66.44931000	-20.85384000
118.49999314	0.00000000	-66.87376000	-20.10950000
118.69999313	0.00000000	-67.99335000	-18.94685000
118.89999312	0.00000000	-69.15600000	-17.83341000
119.09999311	0.00000000	-69.94955000	-17.36589000
119.29999309	0.00000000	-70.73695000	-16.94759000
119.49999308	0.00000000	-71.06299000	-16.25246000
119.69999307	0.00000000	-70.73695000	-16.25246000
119.89999306	0.00000000	-69.90649000	-16.94759000
120.09999305	0.00000000	-68.78075000	-17.36589000
120.29999303	0.00000000	-67.19980000	-17.78420000
120.49999302	0.00000000	-66.07406000	-18.52854000
120.69999301	0.00000000	-65.24360000	-18.90379000
120.89999300	0.00000000	-64.91756000	-18.98991000
121.09999299	0.00000000	-65.29281000	-19.36516000
121.29999298	0.00000000	-66.45546000	-20.06029000
121.49999296	0.00000000	-67.99335000	-20.06029000
121.69999295	0.00000000	-69.53124000	-19.36516000
121.89999294	0.00000000	-70.68774000	-18.94685000
122.09999293	0.00000000	-71.11221000	-18.47933000
122.29999292	0.00000000	-71.11221000	-17.40895000
122.49999290	0.00000000	-70.68774000	-16.62155000
122.69999289	0.00000000	-69.57431000	-16.57234000
122.89999288	0.00000000	-68.41166000	-16.20325000
123.09999287	0.00000000	-67.61810000	-16.29552000
123.29999286	0.00000000	-66.78149000	-17.32283000
123.49999284	0.00000000	-66.07406000	-18.11024000
123.69999283	0.00000000	-65.66190000	-18.15945000
123.89999282	0.00000000	-66.03100000	-18.57160000
124.09999281	0.00000000	-66.40624000	-18.90379000
124.29999280	0.00000000	-66.87376000	-18.94685000
124.49999279	0.00000000	-67.99335000	-18.94685000
124.69999277	0.00000000	-69.10678000	-18.94685000
124.89999276	0.00000000	-69.53124000	-18.94685000
125.09999275	0.00000000	-69.57431000	-18.90379000
125.29999274	0.00000000	-69.57431000	-18.52854000
125.49999273	0.00000000	-69.53124000	-17.78420000
125.69999271	0.00000000	-69.15600000	-17.36589000
125.89999270	0.00000000	-68.36859000	-16.99065000
126.09999269	0.00000000	-67.57505000	-16.62155000
126.29999268	0.00000000	-66.40624000	-16.99065000
126.49999267	0.00000000	-65.33588000	-17.36589000
126.69999265	0.00000000	-65.29281000	-17.78420000
126.89999264	0.00000000	-66.03100000	-18.52854000
127.09999263	0.00000000	-66.82455000	-18.90379000
127.29999262	0.00000000	-67.99335000	-18.94685000
127.49999261	0.00000000	-69.15600000	-18.94685000
127.69999260	0.00000000	-69.94955000	-18.94685000
127.89999258	0.00000000	-70.68774000	-18.90379000
128.09999257	0.00000000	-70.68774000	-18.52854000
128.29999256	0.00000000	-69.94955000	-17.78420000
128.49999255	0.00000000	-69.15600000	-17.40895000
128.69999254	0.00000000	-67.99335000	-17.36589000
128.89999252	0.00000000	-66.82455000	-17.40895000
129.09999251	0.00000000	-66.07406000	-17.78420000
129.29999250	0.00000000	-65.66190000	-18.52854000
129.49999249	0.00000000	-66.07406000	-18.90379000
129.69999248	0.00000000	-66.82455000	-18.94685000
129.89999246	0.00000000	-67.99335000	-18.94685000
130.09999245	0.00000000	-69.10678000	-18.94685000
130.29999244	0.00000000	-69.53124000	-18.90379000
130.49999243	0.00000000	-69.57431000	-18.52854000
130.69999242	0.00000000	-69.53124000	-17.78420000
130.89999241	0.00000000	-69.10678000	-17.40895000
131.09999239	0.00000000	-67.99335000	-17.36589000
131.29999238	0.00000000	-66.87376000	-17.40895000
131.49999237	0.00000000	-66.44931000	-17.74114000
131.69999236	0.00000000	-66.40624000	-18.15330000
131.89999235	0.00000000	-66.44931000	-18.15945000
132.09999233	0.00000000	-66.82455000	-18.61466000
132.29999232	0.00000000	-67.57505000	-19.27903000
132.49999231	0.00000000	-67.99335000	-19.69119000
132.69999230	0.00000000	-68.41166000	-19.32210000
132.89999229	0.00000000	-69.10678000	-18.94685000
133.09999227	0.00000000	-69.10678000	-18.52854000
133.29999226	0.00000000	-68.41166000	-17.74114000
133.49999225	0.00000000	-68.03641000	-16.99065000
133.69999224	0.00000000	-67.99335000	-16.25246000
133.89999223	0.00000000	-67.99335000	-16.25246000
134.09999222	0.00000000	-67.99335000	-16.94759000
134.29999220	0.00000000	-67.99335000	-17.36589000
134.49999219	0.00000000	-67.99335000	-17.83341000
134.69999218	0.00000000	-67.95029000	-18.94685000
134.89999217	0.00000000	-67.57505000	-20.06029000
135.09999216	0.00000000	-66.82455000	-20.43553000
135.29999214	0.00000000	-66.44931000	-20.10950000
135.49999213	0.00000000	-66.44931000	-19.36516000
135.69999212	0.00000000	-66.82455000	-18.94685000
135.89999211	0.00000000	-67.57505000	-18.52854000
136.09999210	0.00000000	-67.99335000	-17.74114000
136.29999208	0.00000000	-68.41166000	-16.99065000
136.49999207	0.00000000	-69.15600000	-16.25246000
136.69999206	0.00000000	-69.48203000	-16.25246000
136.89999205	0.00000000	-69.15600000	-16.94759000
137.09999204	0.00000000	-68.41166000	-17.36589000
137.29999203	0.00000000	-67.99335000	-17.78420000
137.49999201	0.00000000	-67.57505000	-18.57160000
137.69999200	0.00000000	-66.82455000	-19.27903000
137.89999199	0.00000000	-66.44931000	-19.69119000
138.09999198	0.00000000	-66.40624000	-19.32210000
138.29999197	0.00000000	-66.44931000	-18.98991000
138.49999195	0.00000000	-66.82455000	-18.94685000
138.69999194	0.00000000	-67.57505000	-18.90379000
138.89999193	0.00000000	-67.99335000	-18.52854000
139.09999192	0.00000000	-68.41166000	-17.74114000
139.29999191	0.00000000	-69.10678000	-16.99065000
139.49999189	0.00000000	-69.10678000	-16.25246000
139.69999188	0.00000000	-68.36859000	-16.25246000
139.89999187	0.00000000	-67.61810000	-16.94759000
140.09999186	0.00000000	-66.82455000	-17.32283000
140.29999185	0.00000000	-66.44931000	-17.40895000
140.49999184	0.00000000	-66.40624000	-17.83341000
140.69999182	0.00000000	-66.44931000	-18.94685000
140.89999181	0.00000000	-66.82455000	-20.06029000
141.09999180	0.00000000	-67.57505000	-20.43553000
141.29999179	0.00000000	-67.95029000	-20.10950000
141.49999178	0.00000000	-67.99335000	-19.32210000
141.69999176	0.00000000	-67.99335000	-18.57160000
141.89999175	0.00000000	-67.95029000	-17.74114000
142.09999174	0.00000000	-67.57505000	-16.99065000
142.29999173	0.00000000	-66.82455000	-16.20325000
142.49999172	0.00000000	-66.44931000	-15.87721000
142.69999170	0.00000000	-66.44931000	-16.20325000
142.89999169	0.00000000	-66.82455000	-16.99065000
143.09999168	0.00000000	-67.57505000	-17.74114000
143.29999167	0.00000000	-67.95029000	-18.57160000
143.49999166	0.00000000	-67.99335000	-19.32210000
143.69999165	0.00000000	-67.99335000	-20.06029000
143.89999163	0.00000000	-67.99335000	-20.06029000
144.09999162	0.00000000	-67.95029000	-19.32210000
144.29999161	0.00000000	-67.57505000	-18.57160000
144.49999160	0.00000000	-66.82455000	-17.74114000
144.69999159	0.00000000	-66.44931000	-16.99065000
144.89999157	0.00000000	-66.40624000	-16.20325000
145.09999156	0.00000000	-66.40624000	-15.87721000
145.29999155	0.00000000	-66.44931000	-16.20325000
145.49999154	0.00000000	-66.82455000	-16.99065000
145.69999153	0.00000000	-67.57505000	-17.74114000
145.89999151	0.00000000	-67.95029000	-18.57160000
146.09999150	0.00000000	-67.99335000	-19.27903000
146.29999149	0.00000000	-67.99335000	-19.73425000
146.49999148	0.00000000	-67.95029000	-19.69734000
146.69999147	0.00000000	-67.57505000	-19.73425000
146.89999146	0.00000000	-66.82455000	-19.27903000
147.09999144	0.00000000	-66.44931000	-18.57160000
147.29999143	0.00000000	-66.44931000	-17.78420000
147.49999142	0.00000000	-66.82455000	-17.40895000
147.69999141	0.00000000	-67.57505000	-17.36589000
147.89999140	0.00000000	-67.95029000	-17.36589000
148.09999138	0.00000000	-67.99335000	-17.36589000
148.29999137	0.00000000	-67.99335000	-17.36589000
148.49999136	0.00000000	-67.99335000	-17.36589000
148.69999135	0.00000000	-67.99335000	-17.40895000
148.89999134	0.00000000	-67.99335000	-17.78420000
149.09999132	0.00000000	-67.99335000	-18.52854000
149.29999131	0.00000000	-67.95029000	-18.90379000
149.49999130	0.00000000	-67.57505000	-18.94685000
149.69999129	0.00000000	-66.82455000	-18.90379000
149.89999128	0.00000000	-66.44931000	-18.52854000
150.09999127	0.00000000	-66.40624000	-17.78420000
150.29999125	0.00000000	-66.40624000	-17.40895000
150.49999124	0.00000000	-66.40624000	-17.32283000
150.69999123	0.00000000	-66.44931000	-16.99065000
150.89999122	0.00000000	-66.82455000	-16.62155000
151.09999121	0.00000000	-67.57505000	-16.99065000
151.29999119	0.00000000	-67.95029000	-17.32283000
151.49999118	0.00000000	-67.99335000	-17.36589000
151.69999117	0.00000000	-67.99335000	-17.36589000
151.89999116	0.00000000	-67.95029000	-17.36589000
152.09999115	0.00000000	-67.57505000	-17.36589000
152.29999113	0.00000000	-66.82455000	-17.36589000
152.49999112	0.00000000	-66.44931000	-17.36589000
152.69999111	0.00000000	-66.36318000	-17.36589000
152.89999110	0.00000000	-66.03100000	-17.36589000
153.09999109	0.00000000	-65.66190000	-17.36589000
153.29999108	0.00000000	-66.03100000	-17.36589000
153.49999106	0.00000000	-66.40624000	-17.36589000
153.69999105	0.00000000	-66.82455000	-17.36589000
153.89999104	0.00000000	-67.57505000	-17.36589000
154.09999103	0.00000000	-67.95029000	-17.36589000
154.29999102	0.00000000	-67.99335000	-17.36589000
154.49999100	0.00000000	-67.99335000	-17.36589000
154.69999099	0.00000000	-67.99335000	-17.36589000
154.89999098	0.00000000	-67.95029000	-17.40895000
155.09999097	0.00000000	-67.57505000	-17.74114000
155.29999096	0.00000000	-66.82455000	-18.15330000
155.49999094	0.00000000	-66.44931000	-18.15945000
155.69999093	0.00000000	-66.40624000	-18.57160000
155.89999092	0.00000000	-66.40624000	-18.85458000
156.09999091	0.00000000	-66.40624000	-18.52854000
156.29999090	0.00000000	-66.44931000	-17.78420000
156.49999089	0.00000000	-66.82455000	-17.40895000
156.69999087	0.00000000	-67.57505000	-17.36589000
156.89999086	0.00000000	-67.95029000	-17.36589000
157.09999085	0.00000000	-67.99335000	-17.36589000
157.29999084	0.00000000	-67.99335000	-17.36589000
157.49999083	0.00000000	-67.99335000	-17.36589000
157.69999081	0.00000000	-67.99335000	-17.40895000
157.89999080	0.00000000	-67.95029000	-17.78420000
158.09999079	0.00000000	-67.57505000	-18.52854000
158.29999078	0.00000000	-66.82455000	-18.90379000
158.49999077	0.00000000	-66.44931000	-18.94685000
158.69999075	0.00000000	-66.40624000	-18.94685000
158.89999074	0.00000000	-66.40624000	-18.90379000
159.09999073	0.00000000	-66.40624000	-18.52854000
159.29999072	0.00000000	-66.44931000	-17.78420000
159.49999071	0.00000000	-66.82455000	-17.40895000
159.69999070	0.00000000	-67.57505000	-17.36589000
159.89999068	0.00000000	-67.95029000	-17.36589000
160.09999067	0.00000000	-67.99335000	-17.36589000
160.29999066	0.00000000	-67.99335000	-17.36589000
160.49999065	0.00000000	-67.99335000	-17.36589000
160.69999064	0.00000000	-67.95029000	-17.36589000
160.89999062	0.00000000	-67.57505000	-17.36589000
161.09999061	0.00000000	-66.82455000	-17.40895000
161.29999060	0.00000000	-66.44931000	-17.78420000
161.49999059	0.00000000	-66.40624000	-18.47933000
161.69999058	0.00000000	-66.40624000	-18.47933000
161.89999056	0.00000000	-66.40624000	-17.78420000
162.09999055	0.00000000	-66.40624000	-17.40895000
162.29999054	0.00000000	-66.40624000	-17.36589000
162.49999053	0.00000000	-66.40624000	-17.36589000
162.69999052	0.00000000	-66.44931000	-17.36589000
162.89999051	0.00000000	-66.82455000	-17.36589000
163.09999049	0.00000000	-67.57505000	-17.36589000
163.29999048	0.00000000	-67.95029000	-17.36589000
163.49999047	0.00000000	-67.99335000	-17.36589000
163.69999046	0.00000000	-67.99335000	-17.40895000
163.89999045	0.00000000	-67.99335000	-17.74114000
164.09999043	0.00000000	-67.95029000	-18.11024000
164.29999042	0.00000000	-67.57505000	-17.74114000
164.49999041	0.00000000	-66.82455000	-17.40895000
164.69999040	0.00000000	-66.44931000	-17.36589000
164.89999039	0.00000000	-66.40624000	-17.36589000
165.09999037	0.00000000	-66.40624000	-17.36589000
165.29999036	0.00000000	-66.40624000	-17.36589000
165.49999035	0.00000000	-66.40624000	-17.36589000
165.69999034	0.00000000	-66.40624000	-17.36589000
165.89999033	0.00000000	-66.44931000	-17.36589000
166.09999032	0.00000000	-66.82455000	-17.36589000
166.29999030	0.00000000	-67.57505000	-17.36589000
166.49999029	0.00000000	-67.95029000	-17.36589000
166.69999028	0.00000000	-67.99335000	-17.36589000
166.89999027	0.00000000	-67.99335000	-17.36589000
167.09999026	0.00000000	-67.95029000	-17.36589000
167.29999024	0.00000000	-67.57505000	-17.36589000
167.49999023	0.00000000	-66.82455000	-17.36589000
167.69999022	0.00000000	-66.44931000	-17.40895000
167.89999021	0.00000000	-66.40624000	-17.74114000
168.09999020	0.00000000	-66.40624000	-18.11024000
168.29999018	0.00000000	-66.40624000	-17.78420000
168.49999017	0.00000000	-66.40624000	-17.78420000
168.69999016	0.00000000	-66.40624000	-18.15330000
168.89999015	0.00000000	-66.40624000	-18.11639000
169.09999014	0.00000000	-66.40624000	-18.15330000
169.29999013	0.00000000	-66.44931000	-17.74114000
169.49999011	0.00000000	-66.78149000	-17.40895000
169.69999010	0.00000000	-67.19365000	-17.36589000
169.89999009	0.00000000	-67.15674000	-17.36589000
170.09999008	0.00000000	-67.19365000	-17.36589000
170.29999007	0.00000000	-66.78149000	-17.36589000
170.49999005	0.00000000	-66.44931000	-17.36589000
170.69999004	0.00000000	-66.40624000	-17.36589000
170.89999003	0.00000000	-66.40624000	-17.36589000
171.09999002	0.00000000	-66.40624000	-17.36589000
171.29999001	0.00000000	-66.40624000	-17.36589000
171.49998999	0.00000000	-66.40624000	-17.36589000
171.69998998	0.00000000	-66.40624000	-17.36589000
171.89998997	0.00000000	-66.40624000	-17.36589000
172.09998996	0.00000000	-66.44931000	-17.36589000
172.29998995	0.00000000	-66.82455000	-17.36589000
172.49998994	0.00000000	-67.52583000	-17.36589000
172.69998992	0.00000000	-67.52583000	-17.36589000
172.89998991	0.00000000	-66.82455000	-17.36589000
173.09998990	0.00000000	-66.44931000	-17.36589000
173.29998989	0.00000000	-66.40624000	-17.36589000
173.49998988	0.00000000	-66.40624000	-17.36589000
173.69998986	0.00000000	-66.40624000	-17.36589000
173.89998985	0.00000000	-66.40624000	-17.36589000
174.09998984	0.00000000	-66.40624000	-17.36589000
174.29998983	0.00000000	-66.40624000	-17.36589000
174.49998982	0.00000000	-66.40624000	-17.36589000
174.69998980	0.00000000	-66.40624000	-17.36589000
174.89998979	0.00000000	-66.40624000	-17.40895000
175.09998978	0.00000000	-66.40624000	-17.74114000
175.29998977	0.00000000	-66.40624000	-18.11024000
175.49998976	0.00000000	-66.40624000	-17.74114000
175.69998975	0.00000000	-66.40624000	-17.40895000
175.89998973	0.00000000	-66.40624000	-17.36589000
176.09998972	0.00000000	-66.40624000	-17.36589000
176.29998971	0.00000000	-66.40624000	-17.36589000
176.49998970	0.00000000	-66.40624000	-17.36589000
176.69998969	0.00000000	-66.40624000	-17.36589000
176.89998967	0.00000000	-66.40624000	-17.36589000
177.09998966	0.00000000	-66.40624000	-17.36589000
177.29998965	0.00000000	-66.40624000	-17.36589000
177.49998964	0.00000000	-66.40624000	-17.36589000
177.69998963	0.00000000	-66.44931000	-17.40895000
177.89998961	0.00000000	-66.78149000	-17.74114000
178.09998960	0.00000000	-67.15059000	-18.11024000
178.29998959	0.00000000	-66.78149000	-17.78420000
178.49998958	0.00000000	-66.44931000	-17.78420000
178.69998957	0.00000000	-66.40624000	-18.11024000
178.89998956	0.00000000	-66.40624000	-17.74114000
179.09998954	0.00000000	-66.40624000	-17.40895000
179.29998953	0.00000000	-66.40624000	-17.36589000
179.49998952	0.00000000	-66.40624000	-17.36589000
179.69998951	0.00000000	-66.40624000	-17.36589000
179.89998950	0.00000000	-66.40624000	-17.36589000
180.09998948	0.00000000	-66.40624000	-17.40895000
180.29998947	0.00000000	-66.40624000	-17.74114000
180.49998946	0.00000000	-66.40624000	-18.11024000
180.69998945	0.00000000	-66.40624000	-17.74114000
180.89998944	0.00000000	-66.40624000	-17.40895000
181.09998942	0.00000000	-66.40624000	-17.36589000
181.29998941	0.00000000	-66.40624000	-17.36589000
181.49998940	0.00000000	-66.40624000	-17.36589000
181.69998939	0.00000000	-66.40624000	-17.36589000
181.89998938	0.00000000	-66.40624000	-17.36589000
182.09998937	0.00000000	-66.40624000	-17.36589000
182.29998935	0.00000000	-66.40624000	-17.36589000
182.49998934	0.00000000	-66.40624000	-17.36589000
182.69998933	0.00000000	-66.40624000	-17.36589000
182.89998932	0.00000000	-66.40624000	-17.36589000
183.09998931	0.00000000	-66.40624000	-17.40895000
183.29998929	0.00000000	-66.40624000	-17.78420000
183.49998928	0.00000000	-66.40624000	-18.47933000
183.69998927	0.00000000	-66.40624000	-18.47933000
183.89998926	0.00000000	-66.40624000	-17.78420000
184.09998925	0.00000000	-66.40624000	-17.40895000
184.29998923	0.00000000	-66.40624000	-17.36589000
184.49998922	0.00000000	-66.40624000	-17.36589000
184.69998921	0.00000000	-66.40624000	-17.36589000
184.89998920	0.00000000	-66.40624000	-17.36589000
185.09998919	0.00000000	-66.40624000	-17.36589000
185.29998918	0.00000000	-66.40624000	-17.36589000
185.49998916	0.00000000	-66.40624000	-17.36589000
185.69998915	0.00000000	-66.40624000	-17.40895000
185.89998914	0.00000000	-66.40624000	-17.78420000
186.09998913	0.00000000	-66.40624000	-18.52854000
186.29998912	0.00000000	-66.40624000	-18.90379000
186.49998910	0.00000000	-66.40624000	-18.90379000
186.69998909	0.00000000	-66.40624000	-18.52854000
186.89998908	0.00000000	-66.40624000	-17.78420000
187.09998907	0.00000000	-66.40624000	-17.40895000
187.29998906	0.00000000	-66.40624000	-17.32283000
187.49998904	0.00000000	-66.44931000	-16.99065000
187.69998903	0.00000000	-66.78149000	-16.57849000
187.89998902	0.00000000	-67.15059000	-16.61540000
188.09998901	0.00000000	-66.78149000	-16.57849000
188.29998900	0.00000000	-66.44931000	-16.99065000
188.49998899	0.00000000	-66.40624000	-17.32283000
188.69998897	0.00000000	-66.40624000	-17.36589000
188.89998896	0.00000000	-66.40624000	-17.40895000
189.09998895	0.00000000	-66.40624000	-17.78420000
189.29998894	0.00000000	-66.40624000	-18.52854000
189.49998893	0.00000000	-66.40624000	-18.90379000
189.69998891	0.00000000	-66.40624000	-18.90379000
189.89998890	0.00000000	-66.40624000	-18.52854000
190.09998889	0.00000000	-66.40624000	-17.78420000
190.29998888	0.00000000	-66.40624000	-17.40895000
190.49998887	0.00000000	-66.40624000	-17.36589000
190.69998885	0.00000000	-66.40624000	-17.36589000
190.89998884	0.00000000	-66.40624000	-17.36589000
191.09998883	0.00000000	-66.40624000	-17.36589000
191.29998882	0.00000000	-66.40624000	-17.36589000
191.49998881	0.00000000	-66.40624000	-17.36589000
191.69998880	0.00000000	-66.40624000	-17.36589000
191.89998878	0.00000000	-66.40624000	-17.36589000
192.09998877	0.00000000	-66.40624000	-17.36589000
192.29998876	0.00000000	-66.40624000	-17.36589000
192.49998875	0.00000000	-66.40624000	-17.36589000
192.69998874	0.00000000	-66.40624000	-17.36589000
192.89998872	0.00000000	-66.40624000	-17.36589000
193.09998871	0.00000000	-66.40624000	-17.36589000
193.29998870	0.00000000	-66.40624000	-17.36589000
193.49998869	0.00000000	-66.40624000	-17.36589000
193.69998868	0.00000000	-66.40624000	-17.36589000
193.89998866	0.00000000	-66.40624000	-17.36589000
194.09998865	0.00000000	-66.40624000	-17.36589000
194.29998864	0.00000000	-66.40624000	-17.36589000
194.49998863	0.00000000	-66.40624000	-17.36589000
194.69998862	0.00000000	-66.40624000	-17.36589000
194.89998861	0.00000000	-66.40624000	-17.36589000
195.09998859	0.00000000	-66.40624000	-17.36589000
195.29998858	0.00000000	-66.40624000	-17.36589000
195.49998857	0.00000000	-66.40624000	-17.36589000
195.69998856	0.00000000	-66.40624000	-17.36589000
195.89998855	0.00000000	-66.40624000	-17.36589000
196.09998853	0.00000000	-66.40624000	-17.36589000
