Time	Channel A	Channel B	Channel C
(us)	(V)	(mV)	(mV)

-4.59999956	0.00000000	-9.48572700	3.53100400
-4.39999957	0.00000000	-9.48572700	3.19881900
-4.19999958	0.00000000	-9.48572700	3.19881900
-3.99999959	0.00000000	-9.48572700	3.57406500
-3.79999960	0.00000000	-9.48572700	4.26919300
-3.59999962	0.00000000	-9.48572700	4.26919300
-3.39999963	0.00000000	-9.48572700	3.57406500
-3.19999964	0.00000000	-9.48572700	3.24803100
-2.99999965	0.00000000	-9.48572700	3.53100400
-2.79999966	0.00000000	-9.48572700	3.94315900
-2.59999968	0.00000000	-9.48572700	3.90625000
-2.39999969	0.00000000	-9.48572700	3.94315900
-2.19999970	0.00000000	-9.48572700	3.53100400
-1.99999971	0.00000000	-9.48572700	3.19881900
-1.79999972	0.00000000	-9.48572700	3.15575800
-1.59999973	0.00000000	-9.48572700	3.15575800
-1.39999975	0.00000000	-9.48572700	3.19881900
-1.19999976	0.00000000	-9.48572700	3.53100400
-0.99999977	0.00000000	-9.48572700	3.90009800
-0.79999978	0.00000000	-9.48572700	3.53100400
-0.59999979	0.00000000	-9.48572700	3.19881900
-0.39999981	0.15871060	-9.48572700	3.19881900
-0.19999982	0.47736220	-9.48572700	3.53100400
0.00000017	0.79601380	-9.48572700	3.90009800
0.20000016	1.11466500	-9.48572700	3.53100400
0.40000015	0.95533960	-9.48572700	3.19881900
0.60000013	0.63668800	-9.48572700	3.15575800
0.80000012	-0.15871060	-9.48572700	3.15575800
1.00000011	-0.95533960	-9.48572700	3.19881900
1.20000010	-2.07062000	-9.48572700	3.53100400
1.40000009	-2.70792300	-9.48572700	3.94315900
1.60000008	-2.70792300	-9.48572700	3.94931100
1.80000006	-1.91129400	-9.48572700	4.36146600
2.00000005	-0.47736220	-9.48572700	4.69365100
2.20000004	1.59264300	-9.48572700	4.69365100
2.40000003	3.66326300	-9.48572700	4.31840500
2.60000002	5.09719500	-9.48572700	3.57406500
2.80000000	5.25652100	-9.52879000	3.19881900
2.99999999	4.14124000	-9.90403500	3.15575800
3.19999998	1.43331700	-10.64838000	3.15575800
3.39999997	-1.91129400	-10.97441000	3.15575800
3.59999996	-5.09719500	-10.64838000	3.19881900
3.79999994	-7.32714100	-9.90403500	3.57406500
3.99999993	-7.96444400	-9.52879000	4.31840500
4.19999992	-6.37180100	-9.48572700	4.69365100
4.39999991	-3.02657500	-9.48572700	4.73671200
4.59999990	1.27399100	-9.48572700	4.73671200
4.79999989	5.41584600	-9.48572700	4.73671200
4.99999987	8.60174700	-9.52879000	4.69365100
5.19999986	9.39837600	-9.86097400	4.31840500
5.39999985	8.12377000	-10.23007000	3.57406500
5.59999984	4.61921700	-9.86097400	3.19881900
5.79999983	0.00000000	-9.52879000	3.15575800
5.99999981	-4.61921700	-9.48572700	3.19881900
6.19999980	-8.12377000	-9.48572700	3.57406500
6.39999979	-9.55770200	-9.48572700	4.31840500
6.59999978	-8.44242100	-9.48572700	4.69365100
6.79999977	-5.41584600	-9.48572700	4.73671200
6.99999975	-1.11466500	-9.48572700	4.73671200
7.19999974	3.02657500	-9.48572700	4.73671200
7.39999973	6.37180100	-9.48572700	4.69365100
7.59999972	7.80511800	-9.48572700	4.31840500
7.79999971	7.16781500	-9.52879000	3.57406500
7.99999970	4.93786900	-9.86097400	3.19881900
8.19999968	1.75196900	-10.23007000	3.15575800
8.39999967	-1.43331700	-9.86097400	3.19881900
8.59999966	-3.98191400	-9.52879000	3.57406500
8.79999965	-5.09719500	-9.48572700	4.31840500
8.99999964	-4.93786900	-9.48572700	4.69365100
9.19999962	-3.66326300	-9.48572700	4.73671200
9.39999961	-1.59264300	-9.48572700	4.73671200
9.59999960	0.31803640	-9.48572700	4.73671200
9.79999959	1.75196900	-9.48572700	4.73671200
9.99999958	2.54859700	-9.48572700	4.69365100
10.19999956	2.38927200	-9.48572700	4.31840500
10.39999955	1.75196900	-9.48572700	3.62327700
10.59999954	0.95533960	-9.48572700	3.62327700
10.79999953	0.15871060	-9.48572700	4.31840500
10.99999952	-0.47736220	-9.48572700	4.69365100
11.19999951	-0.95533960	-9.48572700	4.73671200
11.39999949	-0.95533960	-9.48572700	4.69365100
11.59999948	-0.79601380	-9.48572700	4.31840500
11.79999947	-0.63668800	-9.48572700	3.62327700
11.99999946	-0.31803640	-9.48572700	3.62327700
12.19999945	-0.15871060	-9.48572700	4.31840500
12.39999943	0.00000000	-9.48572700	4.64443900
12.59999942	0.00000000	-9.48572700	4.36146600
12.79999941	0.00000000	-9.48572700	3.99237200
12.99999940	0.15871060	-9.48572700	4.36146600
13.19999939	0.00000000	-9.48572700	4.69365100
13.39999937	0.00000000	-9.48572700	4.69365100
13.59999936	0.00000000	-9.48572700	4.36146600
13.79999935	0.00000000	-9.48572700	3.94931100
13.99999934	0.00000000	-9.48572700	3.94315900
14.19999933	-0.15871060	-9.48572700	3.53100400
14.39999932	-0.15871060	-9.48572700	3.19881900
14.59999930	0.00000000	-9.48572700	3.19881900
14.79999929	0.00000000	-9.48572700	3.57406500
14.99999928	0.00000000	-9.48572700	4.31840500
15.19999927	0.00000000	-9.52879000	4.64443900
15.39999926	0.00000000	-9.86097400	4.36146600
15.59999924	0.00000000	-10.23007000	3.99237200
15.79999923	0.00000000	-9.90403500	4.31840500
15.99999922	0.00000000	-9.90403500	4.31840500
16.19999921	0.00000000	-10.23007000	3.94931100
16.39999920	-0.15871060	-9.86097400	3.94315900
16.59999919	0.00000000	-9.52879000	3.57406500
16.79999917	-0.15871060	-9.44266700	3.57406500
16.99999916	0.00000000	-9.06742000	3.90009800
17.19999915	0.00000000	-8.32308000	3.57406500
17.39999914	0.00000000	-7.94783400	3.57406500
17.59999913	0.00000000	-7.94783400	3.94315900
17.79999911	0.00000000	-8.32308000	3.94931100
17.99999910	0.00000000	-9.11048200	4.31840500
18.19999909	0.00000000	-9.90403500	4.26919300
18.39999908	0.00000000	-11.10974000	3.57406500
18.59999907	0.00000000	-12.64764000	3.24803100
18.79999905	0.00000000	-14.13632000	3.57406500
18.99999904	0.00000000	-14.88066000	4.26919300
19.19999903	0.00000000	-14.09326000	4.31840500
19.39999902	0.00000000	-12.13706000	3.94931100
19.59999901	0.00000000	-9.01820900	3.98622000
19.79999900	0.00000000	-5.16117100	3.94931100
19.99999898	0.00000000	-1.67322800	4.31840500
20.19999897	0.00000000	0.98425190	4.31840500
20.39999896	0.00000000	1.67938000	3.99237200
20.59999895	0.00000000	-0.68897630	4.36146600
20.79999894	0.00000000	-5.71481200	4.64443900
20.99999892	0.00000000	-12.73991000	4.31840500
21.19999891	0.00000000	-20.41708000	3.57406500
21.39999890	0.00000000	-26.97465000	3.19881900
21.59999889	0.00000000	-30.37647000	3.15575800
21.79999888	0.00000000	-29.53371000	3.15575800
21.99999886	0.00000000	-23.67741000	3.15575800
22.19999885	0.00000000	-13.58268000	3.15575800
22.39999884	0.00000000	-1.20570900	3.15575800
22.59999883	0.00000000	11.11590000	3.15575800
22.79999882	0.00000000	19.91265000	3.19881900
22.99999881	0.00000000	22.52091000	3.57406500
23.19999879	0.00000000	17.45202000	4.31840500
23.39999878	0.00000000	5.08120100	4.73671200
23.59999877	0.00000000	-11.53420000	5.15501900
23.79999876	0.00000000	-29.02313000	5.85014700
23.99999875	0.00000000	-43.96531000	5.85014700
24.19999873	0.00000000	-52.33144000	5.15501900
24.39999872	0.00000000	-50.38755000	4.73671200
24.59999871	0.00000000	-38.80413000	4.26919300
24.79999870	0.00000000	-20.18947000	3.11269700
24.99999869	0.00000000	2.23302100	1.57480300
25.19999867	0.00000000	23.03149000	0.09227362
25.39999866	0.00000000	37.27239000	-0.65206690
25.59999865	0.00000000	41.08636000	0.13533460
25.79999864	0.00000000	32.94783000	2.04232300
25.99999863	0.00000000	14.80069000	4.82283400
26.19999862	0.00000000	-9.48572700	8.31077700
26.39999860	0.00000000	-33.82136000	12.11860000
26.59999859	0.00000000	-52.42987000	14.76993000
26.79999858	0.00000000	-62.05708000	15.14518000
26.99999857	0.00000000	-60.05782000	13.14591000
27.19999856	0.00000000	-46.19833000	8.50147600
27.39999854	0.00000000	-24.23105000	1.90698800
27.59999853	0.00000000	0.51673230	-5.06889700
27.79999852	0.00000000	22.52707000	-11.61417000
27.99999851	0.00000000	36.85408000	-15.74803000
28.19999850	0.00000000	40.34818000	-15.74803000
28.39999848	0.00000000	32.70792000	-11.42962000
28.59999847	0.00000000	16.10482000	-3.25418300
28.79999846	0.00000000	-5.11811000	7.94168200
28.99999845	0.00000000	-26.37795000	19.50664000
29.19999844	0.00000000	-42.66117000	28.75861000
29.39999843	0.00000000	-50.89813000	33.67987000
29.59999841	0.00000000	-50.52288000	32.05585000
29.79999840	0.00000000	-41.63386000	23.55438000
29.99999839	0.00000000	-26.23647000	10.07628000
30.19999838	0.00000000	-8.45841400	-5.38877900
30.39999837	0.00000000	7.82480200	-19.28519000
30.59999835	0.00000000	19.45128000	-28.94316000
30.79999834	0.00000000	24.15108000	-31.96973000
30.99999833	0.00000000	21.54281000	-27.31914000
31.19999832	0.00000000	13.02903000	-15.74803000
31.39999831	0.00000000	0.65206690	0.17839570
31.59999829	0.00000000	-13.25664000	17.51353000
31.79999828	0.00000000	-25.25836000	32.92938000
31.99999827	0.00000000	-33.07701000	41.76919000
32.19999826	0.00000000	-35.82062000	42.64886000
32.39999825	0.00000000	-33.12008000	35.63607000
32.59999824	0.00000000	-25.76895000	22.11491000
32.79999822	0.00000000	-15.34203000	4.73671200
32.99999821	0.00000000	-4.18307100	-12.63533000
33.19999820	0.00000000	4.70595500	-26.20571000
33.39999819	0.00000000	9.44881800	-33.54453000
33.59999818	0.00000000	9.86712600	-33.16929000
33.79999816	0.00000000	6.37303100	-25.04306000
33.99999815	0.00000000	-0.55364170	-11.14665000
34.19999814	0.00000000	-9.01820900	5.85014700
34.39999813	0.00000000	-16.74459000	22.02264000
34.59999812	0.00000000	-22.13952000	33.67987000
34.79999810	0.00000000	-23.72047000	38.70571000
34.99999809	0.00000000	-21.48745000	36.42347000
35.19999808	0.00000000	-16.87992000	27.13459000
35.39999807	0.00000000	-11.06668000	13.28125000
35.59999806	0.00000000	-5.29650500	-2.14074800
35.79999805	0.00000000	-1.06422200	-15.24360000
35.99999803	0.00000000	0.51673230	-23.00074000
36.19999802	0.00000000	-0.64591530	-24.20645000
36.39999801	0.00000000	-4.13385800	-18.81767000
36.59999800	0.00000000	-9.48572700	-8.45841400
36.79999799	0.00000000	-14.78838000	4.26919300
36.99999797	0.00000000	-17.90723000	16.16634000
37.19999796	0.00000000	-18.32554000	24.24951000
37.39999795	0.00000000	-16.46161000	26.20571000
37.59999794	0.00000000	-12.93061000	22.02264000
37.79999793	0.00000000	-8.69217500	13.18898000
37.99999791	0.00000000	-4.09079700	2.12844500
38.19999790	0.00000000	-1.02116100	-7.43725300
38.39999789	0.00000000	-0.17839570	-12.45694000
38.59999788	0.00000000	-0.97194880	-12.13091000
38.79999787	0.00000000	-3.71555100	-6.74212600
38.99999786	0.00000000	-7.90477300	2.04232300
39.19999784	0.00000000	-12.18012000	11.61417000
39.39999783	0.00000000	-15.67421000	18.86688000
39.59999782	0.00000000	-18.04257000	21.56127000
39.79999781	0.00000000	-18.79306000	18.86688000
39.99999780	0.00000000	-17.99951000	11.61417000
40.19999778	0.00000000	-15.25591000	1.99926200
40.39999777	0.00000000	-11.06668000	-7.20349400
40.59999776	0.00000000	-6.79133800	-13.70571000
40.79999775	0.00000000	-3.25418300	-15.19439000
40.99999774	0.00000000	-0.55364170	-11.06053000
41.19999772	0.00000000	0.55979330	-2.97736200
41.39999771	0.00000000	-0.55364170	6.64370100
41.59999770	0.00000000	-3.25418300	15.88336000
41.79999769	0.00000000	-6.74212600	21.97957000
41.99999768	0.00000000	-10.64838000	23.18528000
42.19999767	0.00000000	-14.13632000	19.37131000
42.39999765	0.00000000	-16.83686000	12.07554000
42.59999764	0.00000000	-17.95029000	3.24803100
42.79999763	0.00000000	-16.87992000	-4.82898600
42.99999762	0.00000000	-14.60384000	-9.84867000
43.19999761	0.00000000	-12.27239000	-11.10359000
43.39999759	0.00000000	-9.90403500	-8.78444900
43.59999758	0.00000000	-7.94783400	-3.80782500
43.79999757	0.00000000	-6.36687900	2.73745100
43.99999756	0.00000000	-5.25344500	8.87672100
44.19999755	0.00000000	-5.21038300	13.14591000
44.39999753	0.00000000	-5.90551100	14.72687000
44.59999752	0.00000000	-6.28075700	13.60728000
44.79999751	0.00000000	-6.32381900	10.58686000
44.99999750	0.00000000	-6.36687900	6.72982200
45.19999749	0.00000000	-6.79133800	3.24803100
45.39999748	0.00000000	-7.99704600	0.46751960
45.59999746	0.00000000	-9.95324800	-1.39640700
45.79999745	0.00000000	-12.64764000	-1.80856300
45.99999744	0.00000000	-15.39124000	-0.28297240
46.19999743	0.00000000	-17.72268000	1.95004900
46.39999742	0.00000000	-19.58046000	4.31840500
46.59999740	0.00000000	-19.44513000	6.22539300
46.79999739	0.00000000	-16.36934000	7.42495000
46.99999738	0.00000000	-10.93135000	7.80019600
47.19999737	0.00000000	-4.41067900	7.42495000
47.39999736	0.00000000	1.76550200	6.26845500
47.59999734	0.00000000	5.63484200	4.68750000
47.79999733	0.00000000	6.79749000	2.73745100
47.99999732	0.00000000	4.74901600	0.46751960
48.19999731	0.00000000	-1.06422200	-1.02116100
48.39999730	0.00000000	-9.52879000	-1.06422200
48.59999729	0.00000000	-18.37475000	0.09227362
48.79999727	0.00000000	-25.30143000	2.04232300
48.99999726	0.00000000	-28.42027000	4.77977300
49.19999725	0.00000000	-27.25763000	7.80019600
49.39999724	0.00000000	-22.18258000	10.11934000
49.59999723	0.00000000	-13.67495000	10.91289000
49.79999721	0.00000000	-3.71555100	10.49459000
49.99999720	0.00000000	4.74901600	8.54453700
50.19999719	0.00000000	9.40575800	5.06274600
50.39999718	0.00000000	9.40575800	1.24877000
50.59999717	0.00000000	4.79207600	-2.22687000
50.79999715	0.00000000	-3.29724400	-4.14000900
50.99999714	0.00000000	-12.51230000	-4.18307100
51.19999713	0.00000000	-20.65084000	-2.60211600
51.39999712	0.00000000	-25.63361000	0.51058070
51.59999711	0.00000000	-26.42101000	4.73671200
51.79999710	0.00000000	-22.55782000	8.96284400
51.99999708	0.00000000	-15.29897000	12.03248000
52.19999707	0.00000000	-6.87746000	13.18898000
52.39999706	0.00000000	0.09842519	12.03248000
52.59999705	0.00000000	3.96161400	8.96284400
52.79999704	0.00000000	4.33070900	4.73671200
52.99999702	0.00000000	0.47367120	0.51058070
53.19999701	0.00000000	-6.36687900	-2.55905500
53.39999700	0.00000000	-13.63189000	-3.76476400
53.59999699	0.00000000	-19.06988000	-2.97736200
53.79999698	0.00000000	-21.40133000	-0.69512790
53.99999696	0.00000000	-20.65084000	2.73745100
54.19999695	0.00000000	-16.79380000	5.80093500
54.39999694	0.00000000	-11.06668000	7.75713500
54.59999693	0.00000000	-5.25344500	8.54453700
54.79999692	0.00000000	-0.64591530	7.75713500
54.99999691	0.00000000	1.63016700	5.89320800
55.19999689	0.00000000	0.47367120	3.61712600
55.39999688	0.00000000	-3.67249000	2.08538400
55.59999687	0.00000000	-9.06742000	1.71013800
55.79999686	0.00000000	-14.05020000	2.46063000
55.99999685	0.00000000	-17.53199000	4.36146600
56.19999683	0.00000000	-18.32554000	6.22539300
56.39999682	0.00000000	-16.83686000	7.38188900
56.59999681	0.00000000	-13.67495000	7.33882900
56.79999680	0.00000000	-9.11048200	5.80093500
56.99999679	0.00000000	-4.50910400	3.11269700
57.19999677	0.00000000	-1.80856300	0.04306102
57.39999676	0.00000000	-0.97194880	-2.60211600
57.59999675	0.00000000	-2.17765700	-3.71555100
57.79999674	0.00000000	-5.21038300	-2.55905500
57.99999673	0.00000000	-9.06742000	0.55364170
58.19999672	0.00000000	-12.51230000	5.15501900
58.39999670	0.00000000	-14.83760000	10.16855000
58.59999669	0.00000000	-15.21284000	13.98253000
58.79999668	0.00000000	-13.76107000	15.88336000
58.99999667	0.00000000	-11.48499000	14.67766000
59.19999666	0.00000000	-9.52879000	10.49459000
59.39999664	0.00000000	-7.94783400	4.69365100
59.59999663	0.00000000	-6.83439900	-1.48868100
59.79999662	0.00000000	-6.79133800	-6.87130900
59.99999661	0.00000000	-7.52952700	-9.89788300
60.19999660	0.00000000	-8.32308000	-9.47957600
60.39999658	0.00000000	-9.48572700	-5.25344500
60.59999657	0.00000000	-10.55610000	1.66707700
60.79999656	0.00000000	-10.59916000	9.33809000
60.99999655	0.00000000	-9.86097400	15.88336000
61.19999654	0.00000000	-9.11048200	19.37131000
61.39999653	0.00000000	-8.32308000	19.37131000
61.59999651	0.00000000	-7.94783400	15.84030000
61.79999650	0.00000000	-7.94783400	8.91978400
61.99999649	0.00000000	-8.37229300	0.51058070
62.19999648	0.00000000	-9.48572700	-6.82824800
62.39999647	0.00000000	-10.64838000	-11.47884000
62.59999645	0.00000000	-11.44193000	-12.63533000
62.79999644	0.00000000	-12.18012000	-9.89788300
62.99999643	0.00000000	-12.13706000	-3.76476400
63.19999642	0.00000000	-11.02362000	4.31840500
63.39999641	0.00000000	-9.48572700	11.98942000
63.59999639	0.00000000	-7.90477300	17.42126000
63.79999638	0.00000000	-6.36687900	19.37131000
63.99999637	0.00000000	-5.25344500	17.88263000
64.19999636	0.00000000	-5.25344500	13.65650000
64.39999635	0.00000000	-6.41609200	7.84940900
64.59999634	0.00000000	-8.32308000	1.62401600
64.79999632	0.00000000	-10.59916000	-4.14000900
64.99999631	0.00000000	-12.13706000	-7.99089500
65.19999630	0.00000000	-12.60458000	-8.78444900
65.39999629	0.00000000	-12.55536000	-6.92052100
65.59999628	0.00000000	-11.76181000	-3.06963600
65.79999626	0.00000000	-9.86097400	1.57480300
65.99999625	0.00000000	-7.99704600	6.21924200
66.19999624	0.00000000	-6.83439900	10.11934000
66.39999623	0.00000000	-6.79133800	12.49385000
66.59999622	0.00000000	-7.57258800	13.65650000
66.79999620	0.00000000	-8.74138700	13.28125000
66.99999619	0.00000000	-10.64838000	11.38041000
67.19999618	0.00000000	-12.09400000	9.00590400
67.39999617	0.00000000	-12.13706000	5.89320800
67.59999616	0.00000000	-10.97441000	2.41141700
67.79999615	0.00000000	-9.06742000	-0.33218500
67.99999613	0.00000000	-6.74212600	-2.69439000
68.19999612	0.00000000	-4.83513700	-4.22613100
68.39999611	0.00000000	-3.71555100	-4.60137700
68.59999610	0.00000000	-4.13385800	-3.80782500
68.79999609	0.00000000	-6.41609200	-1.44562000
68.99999607	0.00000000	-9.52879000	2.04232300
69.19999606	0.00000000	-13.02288000	6.31151500
69.39999605	0.00000000	-16.46161000	10.53765000
69.59999604	0.00000000	-18.32554000	13.60728000
69.79999603	0.00000000	-17.95029000	14.81299000
69.99999601	0.00000000	-15.25591000	14.03174000
70.19999600	0.00000000	-11.02362000	11.65723000
70.39999599	0.00000000	-6.36687900	7.38188900
70.59999598	0.00000000	-2.09153500	2.04232300
70.79999597	0.00000000	0.98425190	-2.60211600
70.99999596	0.00000000	2.09768700	-5.71481200
71.19999594	0.00000000	0.51673230	-6.82824800
71.39999593	0.00000000	-3.71555100	-5.29650500
71.59999592	0.00000000	-9.48572700	-1.48868100
71.79999591	0.00000000	-15.25591000	3.11269700
71.99999590	0.00000000	-19.53125000	7.38188900
72.19999588	0.00000000	-21.48745000	10.49459000
72.39999587	0.00000000	-21.06914000	12.07554000
72.59999586	0.00000000	-17.95029000	12.03248000
72.79999585	0.00000000	-12.60458000	10.16855000
72.99999584	0.00000000	-6.83439900	7.06200700
73.19999582	0.00000000	-2.13459600	4.02928100
73.39999581	0.00000000	0.98425190	1.30413400
73.59999580	0.00000000	2.09768700	0.17839570
73.79999579	0.00000000	0.55979330	0.46136810
73.99999578	0.00000000	-3.29724400	1.62401600
74.19999577	0.00000000	-8.28001900	3.11269700
74.39999575	0.00000000	-13.25664000	4.26919300
74.59999574	0.00000000	-16.36934000	4.64443900
74.79999573	0.00000000	-17.25517000	4.26919300
74.99999572	0.00000000	-16.83686000	3.11269700
75.19999571	0.00000000	-14.88066000	1.66707700
75.39999569	0.00000000	-11.48499000	0.92888770
75.59999568	0.00000000	-8.41535400	1.71013800
75.79999567	0.00000000	-6.41609200	3.61712600
75.99999566	0.00000000	-5.21038300	6.36072800
76.19999565	0.00000000	-4.83513700	9.38115100
76.39999563	0.00000000	-5.21038300	11.65723000
76.59999562	0.00000000	-6.36687900	12.03248000
76.79999561	0.00000000	-7.86171200	10.45152000
76.99999560	0.00000000	-9.01820900	7.00664300
77.19999559	0.00000000	-9.44266700	2.36835600
77.39999558	0.00000000	-9.48572700	-1.86392700
77.59999556	0.00000000	-9.48572700	-5.38262700
77.79999555	0.00000000	-9.48572700	-7.20349400
77.99999554	0.00000000	-9.52879000	-6.45300100
78.19999553	0.00000000	-9.95324800	-2.93430100
78.39999552	0.00000000	-11.06668000	2.36835600
78.59999550	0.00000000	-12.13706000	8.21235200
78.79999549	0.00000000	-12.13706000	12.82603000
78.99999548	0.00000000	-11.02362000	15.92642000
79.19999547	0.00000000	-9.44266700	16.25861000
79.39999546	0.00000000	-7.48646600	13.65650000
79.59999544	0.00000000	-5.21038300	9.43036400
79.79999543	0.00000000	-3.71555100	4.73671200
79.99999542	0.00000000	-3.67249000	0.04306102
80.19999541	0.00000000	-4.83513700	-4.14000900
80.39999540	0.00000000	-6.79133800	-6.45300100
80.59999539	0.00000000	-9.48572700	-6.09005900
80.79999537	0.00000000	-12.18012000	-3.85088600
80.99999536	0.00000000	-14.09326000	-0.33218500
81.19999535	0.00000000	-14.88066000	3.53100400
81.39999534	0.00000000	-14.09326000	7.42495000
81.59999533	0.00000000	-12.18012000	10.53765000
81.79999531	0.00000000	-9.48572700	12.49385000
81.99999530	0.00000000	-6.79133800	13.23819000
82.19999529	0.00000000	-4.87819900	12.07554000
82.39999528	0.00000000	-4.09079700	9.42421200
82.59999527	0.00000000	-4.83513700	6.31151500
82.79999525	0.00000000	-6.32381900	3.19881900
82.99999524	0.00000000	-7.90477300	0.41830710
83.19999523	0.00000000	-9.48572700	-1.90698800
83.39999522	0.00000000	-11.02362000	-3.80782500
83.59999521	0.00000000	-12.13706000	-4.18307100
83.79999520	0.00000000	-12.13706000	-3.06348400
83.99999518	0.00000000	-11.06668000	-1.07037400
84.19999517	0.00000000	-9.90403500	2.04232300
84.39999516	0.00000000	-9.11048200	5.89320800
84.59999515	0.00000000	-8.32308000	9.38115100
84.79999514	0.00000000	-7.94783400	12.11860000
84.99999512	0.00000000	-7.90477300	13.61343000
85.19999511	0.00000000	-7.90477300	13.18898000
85.39999510	0.00000000	-7.90477300	10.49459000
85.59999509	0.00000000	-7.90477300	6.26845500
85.79999508	0.00000000	-7.90477300	1.62401600
85.99999506	0.00000000	-7.90477300	-2.60211600
86.19999505	0.00000000	-7.94783400	-5.29650500
86.39999504	0.00000000	-8.32308000	-5.71481200
86.59999503	0.00000000	-9.11048200	-4.13385800
86.79999502	0.00000000	-9.90403500	-0.64591530
86.99999501	0.00000000	-11.06668000	4.36146600
87.19999499	0.00000000	-12.13706000	9.33809000
87.39999498	0.00000000	-12.13706000	13.18898000
87.59999497	0.00000000	-11.02362000	14.72687000
87.79999496	0.00000000	-9.48572700	13.60728000
87.99999495	0.00000000	-7.94783400	10.49459000
88.19999493	0.00000000	-6.74212600	5.85014700
88.39999492	0.00000000	-5.99163300	0.51058070
88.59999491	0.00000000	-5.62869100	-3.71555100
88.79999490	0.00000000	-6.41609200	-5.67175200
88.99999489	0.00000000	-7.90477300	-5.24729300
89.19999487	0.00000000	-9.44266700	-2.18380900
89.39999486	0.00000000	-10.64838000	2.78051200
89.59999485	0.00000000	-11.39887000	7.80019600
89.79999484	0.00000000	-11.81102000	12.03248000
89.99999483	0.00000000	-11.39887000	14.30241000
90.19999482	0.00000000	-10.64838000	13.56422000
90.39999480	0.00000000	-9.48572700	10.49459000
90.59999479	0.00000000	-8.32308000	5.85014700
90.79999478	0.00000000	-7.57258800	0.51058070
90.99999477	0.00000000	-7.16043300	-3.71555100
91.19999476	0.00000000	-7.52952700	-5.62253900
91.39999474	0.00000000	-7.86171200	-4.87204700
91.59999473	0.00000000	-7.90477300	-1.39640700
91.79999472	0.00000000	-7.90477300	3.53100400
91.99999471	0.00000000	-7.90477300	8.54453700
92.19999470	0.00000000	-7.90477300	12.03248000
92.39999468	0.00000000	-7.90477300	13.61343000
92.59999467	0.00000000	-7.94783400	13.14591000
92.79999466	0.00000000	-8.37229300	10.07628000
92.99999465	0.00000000	-9.48572700	5.11195900
93.19999464	0.00000000	-10.59916000	0.17839570
93.39999463	0.00000000	-11.06668000	-3.34645700
93.59999461	0.00000000	-11.44193000	-4.46604300
93.79999460	0.00000000	-11.76181000	-3.34645700
93.99999459	0.00000000	-10.93135000	0.13533460
94.19999458	0.00000000	-9.06742000	4.69365100
94.39999457	0.00000000	-6.74212600	8.91978400
94.59999455	0.00000000	-4.83513700	11.61417000
94.79999454	0.00000000	-3.67249000	12.03248000
94.99999453	0.00000000	-3.67249000	10.49459000
95.19999452	0.00000000	-4.83513700	7.38188900
95.39999451	0.00000000	-6.79133800	3.20497000
95.59999449	0.00000000	-9.52879000	-0.60285430
95.79999448	0.00000000	-12.60458000	-2.55905500
95.99999447	0.00000000	-15.25591000	-2.60211600
96.19999446	0.00000000	-16.41855000	-1.02116100
96.39999445	0.00000000	-15.63115000	2.04232300
96.59999444	0.00000000	-13.34276000	5.80093500
96.79999442	0.00000000	-9.86097400	8.50147600
96.99999441	0.00000000	-6.36687900	9.33809000
97.19999440	0.00000000	-3.25418300	9.00590400
97.39999439	0.00000000	-0.97194880	7.80019600
97.59999438	0.00000000	-0.55364170	5.89320800
97.79999436	0.00000000	-1.71628900	3.61712600
97.99999435	0.00000000	-4.09079700	2.08538400
98.19999434	0.00000000	-7.94783400	1.61786400
98.39999433	0.00000000	-12.18012000	1.61786400
98.59999432	0.00000000	-15.63115000	1.99311000
98.79999430	0.00000000	-17.57505000	2.78051200
98.99999429	0.00000000	-17.21210000	3.53100400
99.19999428	0.00000000	-15.29897000	4.31840500
99.39999427	0.00000000	-12.18012000	4.69365100
99.59999426	0.00000000	-8.32308000	4.73671200
99.79999425	0.00000000	-4.83513700	4.77977300
99.99999423	0.00000000	-2.13459600	5.15501900
100.19999422	0.00000000	-0.97194880	5.89320800
100.39999421	0.00000000	-1.71628900	6.26845500
100.59999420	0.00000000	-3.62942900	6.31151500
100.79999419	0.00000000	-6.36687900	6.26845500
100.99999417	0.00000000	-9.44266700	5.85014700
101.19999416	0.00000000	-12.18012000	4.64443900
101.39999415	0.00000000	-14.09326000	2.78051200
101.59999414	0.00000000	-14.88066000	0.87967510
101.79999413	0.00000000	-14.13632000	0.09227362
101.99999411	0.00000000	-12.64764000	0.09227362
102.19999410	0.00000000	-11.02362000	0.92888770
102.39999409	0.00000000	-9.06742000	3.24803100
102.59999408	0.00000000	-6.74212600	6.26845500
102.79999407	0.00000000	-4.83513700	8.96284400
102.99999406	0.00000000	-3.67249000	10.49459000
103.19999404	0.00000000	-3.67249000	10.53765000
103.39999403	0.00000000	-4.83513700	9.33809000
103.59999402	0.00000000	-6.74212600	7.01279500
103.79999401	0.00000000	-9.06742000	3.57406500
103.99999400	0.00000000	-10.97441000	0.51058070
104.19999398	0.00000000	-12.18012000	-1.43946800
104.39999397	0.00000000	-12.55536000	-2.22687000
104.59999396	0.00000000	-12.18012000	-1.43946800
104.79999395	0.00000000	-11.02362000	0.51058070
104.99999394	0.00000000	-9.48572700	3.57406500
105.19999392	0.00000000	-7.94783400	6.96358300
105.39999391	0.00000000	-6.79133800	8.91978400
105.59999390	0.00000000	-6.36687900	9.38115100
105.79999389	0.00000000	-6.36687900	8.96284400
105.99999388	0.00000000	-6.79133800	7.38188900
106.19999387	0.00000000	-7.94783400	4.73671200
106.39999385	0.00000000	-9.44266700	2.08538400
106.59999384	0.00000000	-10.59916000	0.51058070
106.79999383	0.00000000	-10.97441000	0.09227362
106.99999382	0.00000000	-10.59916000	0.51058070
107.19999381	0.00000000	-9.44266700	2.04232300
107.39999379	0.00000000	-7.94783400	4.36146600
107.59999378	0.00000000	-6.83439900	6.60063900
107.79999377	0.00000000	-6.79133800	8.12622900
107.99999376	0.00000000	-7.52952700	7.75713500
108.19999375	0.00000000	-8.28001900	6.31151500
108.39999374	0.00000000	-9.11048200	4.73671200
108.59999372	0.00000000	-9.86097400	3.15575800
108.79999371	0.00000000	-10.64838000	1.66707700
108.99999370	0.00000000	-10.97441000	0.92888770
109.19999369	0.00000000	-10.59916000	1.66707700
109.39999368	0.00000000	-9.48572700	3.15575800
109.59999366	0.00000000	-8.32308000	4.73671200
109.79999365	0.00000000	-7.52952700	6.26845500
109.99999364	0.00000000	-6.74212600	7.42495000
110.19999363	0.00000000	-6.41609200	7.80019600
110.39999362	0.00000000	-6.74212600	7.42495000
110.59999360	0.00000000	-7.52952700	6.26845500
110.79999359	0.00000000	-8.28001900	4.73671200
110.99999358	0.00000000	-9.11048200	3.15575800
111.19999357	0.00000000	-9.81791200	1.66707700
111.39999356	0.00000000	-10.23007000	0.87967510
111.59999355	0.00000000	-9.86097400	1.24877000
111.79999353	0.00000000	-9.48572700	1.99311000
111.99999352	0.00000000	-9.06742000	3.15575800
112.19999351	0.00000000	-8.32308000	4.31840500
112.39999350	0.00000000	-7.94783400	5.11195900
112.59999349	0.00000000	-7.90477300	5.89320800
112.79999347	0.00000000	-7.90477300	6.21924200
112.99999346	0.00000000	-7.94783400	5.89320800
113.19999345	0.00000000	-8.32308000	5.15501900
113.39999344	0.00000000	-9.06742000	4.73671200
113.59999343	0.00000000	-9.39345400	4.36146600
113.79999341	0.00000000	-9.11048200	3.94931100
113.99999340	0.00000000	-8.74138700	3.94315900
114.19999339	0.00000000	-9.11048200	3.53100400
114.39999338	0.00000000	-9.44266700	3.19881900
114.59999337	0.00000000	-9.44266700	3.15575800
114.79999336	0.00000000	-9.06742000	3.15575800
114.99999334	0.00000000	-8.32308000	3.15575800
115.19999333	0.00000000	-7.94783400	3.15575800
115.39999332	0.00000000	-7.90477300	3.15575800
115.59999331	0.00000000	-7.90477300	3.19881900
115.79999330	0.00000000	-7.90477300	3.62327700
115.99999328	0.00000000	-7.94783400	4.73671200
116.19999327	0.00000000	-8.32308000	5.85014700
116.39999326	0.00000000	-9.06742000	6.26845500
116.59999325	0.00000000	-9.44266700	6.31151500
116.79999324	0.00000000	-9.48572700	6.26845500
116.99999322	0.00000000	-9.48572700	5.85014700
117.19999321	0.00000000	-9.44266700	4.73671200
117.39999320	0.00000000	-9.06742000	3.57406500
117.59999319	0.00000000	-8.28001900	2.78051200
117.79999318	0.00000000	-7.52952700	1.99311000
117.99999317	0.00000000	-6.74212600	1.66707700
118.19999315	0.00000000	-6.41609200	1.99311000
118.39999314	0.00000000	-6.74212600	2.78051200
118.59999313	0.00000000	-7.52952700	3.53100400
118.79999312	0.00000000	-8.32308000	4.36146600
118.99999311	0.00000000	-9.48572700	5.11195900
119.19999309	0.00000000	-10.59916000	5.89320800
119.39999308	0.00000000	-11.02362000	6.26845500
119.59999307	0.00000000	-11.02362000	6.31151500
119.79999306	0.00000000	-10.59916000	6.26845500
119.99999305	0.00000000	-9.44266700	5.89320800
120.19999303	0.00000000	-7.94783400	5.15501900
120.39999302	0.00000000	-6.74212600	4.73671200
120.59999301	0.00000000	-5.99163300	4.31840500
120.79999300	0.00000000	-5.57947800	3.57406500
120.99999299	0.00000000	-5.99163300	3.19881900
121.19999298	0.00000000	-6.74212600	3.15575800
121.39999296	0.00000000	-7.94783400	3.15575800
121.59999295	0.00000000	-9.44266700	3.15575800
121.79999294	0.00000000	-10.59916000	3.19881900
121.99999293	0.00000000	-11.02362000	3.57406500
122.19999292	0.00000000	-11.06668000	4.36146600
122.39999290	0.00000000	-11.02362000	5.11195900
122.59999289	0.00000000	-10.59916000	5.89320800
122.79999288	0.00000000	-9.44266700	6.26845500
122.99999287	0.00000000	-7.94783400	6.26845500
123.19999286	0.00000000	-6.79133800	5.89320800
123.39999284	0.00000000	-6.36687900	5.15501900
123.59999283	0.00000000	-6.32381900	4.73671200
123.79999282	0.00000000	-6.36687900	4.31840500
123.99999281	0.00000000	-6.74212600	3.57406500
124.19999280	0.00000000	-7.52952700	3.19881900
124.39999279	0.00000000	-8.28001900	3.15575800
124.59999277	0.00000000	-9.11048200	3.15575800
124.79999276	0.00000000	-9.86097400	3.19881900
124.99999275	0.00000000	-10.64838000	3.57406500
125.19999274	0.00000000	-11.02362000	4.31840500
125.39999273	0.00000000	-11.02362000	4.73671200
125.59999271	0.00000000	-10.59916000	5.15501900
125.79999270	0.00000000	-9.44266700	5.89320800
125.99999269	0.00000000	-7.94783400	6.21924200
126.19999268	0.00000000	-6.79133800	5.89320800
126.39999267	0.00000000	-6.36687900	5.15501900
126.59999265	0.00000000	-6.32381900	4.73671200
126.79999264	0.00000000	-6.36687900	4.31840500
126.99999263	0.00000000	-6.79133800	3.57406500
127.19999262	0.00000000	-7.90477300	3.19881900
127.39999261	0.00000000	-9.06742000	3.15575800
127.59999260	0.00000000	-9.86097400	3.15575800
127.79999258	0.00000000	-10.64838000	3.19881900
127.99999257	0.00000000	-10.97441000	3.57406500
128.19999256	0.00000000	-10.59916000	4.31840500
128.39999255	0.00000000	-9.48572700	4.69365100
128.59999254	0.00000000	-8.32308000	4.73671200
128.79999252	0.00000000	-7.52952700	4.73671200
128.99999251	0.00000000	-6.74212600	4.73671200
129.19999250	0.00000000	-6.36687900	4.73671200
129.39999249	0.00000000	-6.36687900	4.69365100
129.59999248	0.00000000	-6.79133800	4.31840500
129.79999246	0.00000000	-7.90477300	3.57406500
129.99999245	0.00000000	-9.06742000	3.19881900
130.19999244	0.00000000	-9.86097400	3.19881900
130.39999243	0.00000000	-10.59916000	3.57406500
130.59999242	0.00000000	-10.59916000	4.31840500
130.79999241	0.00000000	-9.86097400	4.69365100
130.99999239	0.00000000	-9.11048200	4.73671200
131.19999238	0.00000000	-8.28001900	4.73671200
131.39999237	0.00000000	-7.52952700	4.69365100
131.59999236	0.00000000	-6.79133800	4.31840500
131.79999235	0.00000000	-6.79133800	3.57406500
131.99999233	0.00000000	-7.52952700	3.19881900
132.19999232	0.00000000	-8.28001900	3.15575800
132.39999231	0.00000000	-9.06742000	3.15575800
132.59999230	0.00000000	-9.44266700	3.15575800
132.79999229	0.00000000	-9.48572700	3.19881900
132.99999227	0.00000000	-9.48572700	3.62327700
133.19999226	0.00000000	-9.48572700	4.73671200
133.39999225	0.00000000	-9.44266700	5.85014700
133.59999224	0.00000000	-9.06742000	6.26845500
133.79999223	0.00000000	-8.32308000	6.26845500
133.99999222	0.00000000	-7.94783400	5.89320800
134.19999220	0.00000000	-7.94783400	5.11195900
134.39999219	0.00000000	-8.28001900	4.36146600
134.59999218	0.00000000	-8.64911400	3.53100400
134.79999217	0.00000000	-8.28001900	2.78051200
134.99999216	0.00000000	-7.94783400	2.04232300
135.19999214	0.00000000	-7.90477300	2.04232300
135.39999213	0.00000000	-7.90477300	2.73745100
135.59999212	0.00000000	-7.90477300	3.15575800
135.79999211	0.00000000	-7.90477300	3.62327700
135.99999210	0.00000000	-7.94783400	4.73671200
136.19999208	0.00000000	-8.32308000	5.85014700
136.39999207	0.00000000	-9.06742000	6.21924200
136.59999206	0.00000000	-9.44266700	5.89320800
136.79999205	0.00000000	-9.48572700	5.15501900
136.99999204	0.00000000	-9.44266700	4.73671200
137.19999203	0.00000000	-9.06742000	4.31840500
137.39999201	0.00000000	-8.28001900	3.57406500
137.59999200	0.00000000	-7.52952700	3.19881900
137.79999199	0.00000000	-6.74212600	3.15575800
137.99999198	0.00000000	-6.41609200	3.15575800
138.19999197	0.00000000	-6.74212600	3.15575800
138.39999195	0.00000000	-7.52952700	3.19881900
138.59999194	0.00000000	-8.28001900	3.57406500
138.79999193	0.00000000	-9.06742000	4.31840500
138.99999192	0.00000000	-9.44266700	4.69365100
139.19999191	0.00000000	-9.48572700	4.77977300
139.39999189	0.00000000	-9.44266700	5.15501900
139.59999188	0.00000000	-9.06742000	5.89320800
139.79999187	0.00000000	-8.32308000	6.21924200
139.99999186	0.00000000	-7.94783400	5.89320800
140.19999185	0.00000000	-7.90477300	5.11195900
140.39999184	0.00000000	-7.90477300	4.36146600
140.59999182	0.00000000	-7.90477300	3.57406500
140.79999181	0.00000000	-7.90477300	3.19881900
140.99999180	0.00000000	-7.94783400	3.15575800
141.19999179	0.00000000	-8.32308000	3.15575800
141.39999178	0.00000000	-9.06742000	3.19881900
141.59999176	0.00000000	-9.44266700	3.57406500
141.79999175	0.00000000	-9.44266700	4.36146600
141.99999174	0.00000000	-9.06742000	5.11195900
142.19999173	0.00000000	-8.32308000	5.89320800
142.39999172	0.00000000	-7.94783400	6.26845500
142.59999170	0.00000000	-7.90477300	6.26845500
142.79999169	0.00000000	-7.90477300	5.85014700
142.99999168	0.00000000	-7.90477300	4.73671200
143.19999167	0.00000000	-7.94783400	3.62327700
143.39999166	0.00000000	-8.28001900	3.15575800
143.59999165	0.00000000	-8.69217500	2.78051200
143.79999163	0.00000000	-8.65526600	2.41141700
143.99999162	0.00000000	-8.69217500	2.78051200
144.19999161	0.00000000	-8.28001900	3.15575800
144.39999160	0.00000000	-7.94783400	3.62327700
144.59999159	0.00000000	-7.90477300	4.73671200
144.79999157	0.00000000	-7.90477300	5.85014700
144.99999156	0.00000000	-7.90477300	6.26845500
145.19999155	0.00000000	-7.90477300	6.26845500
145.39999154	0.00000000	-7.94783400	5.89320800
145.59999153	0.00000000	-8.32308000	5.11195900
145.79999151	0.00000000	-9.06742000	4.36146600
145.99999150	0.00000000	-9.44266700	3.57406500
146.19999149	0.00000000	-9.44266700	3.19881900
146.39999148	0.00000000	-9.06742000	3.15575800
146.59999147	0.00000000	-8.32308000	3.15575800
146.79999146	0.00000000	-7.94783400	3.19881900
146.99999144	0.00000000	-7.90477300	3.57406500
147.19999143	0.00000000	-7.86171200	4.36146600
147.39999142	0.00000000	-7.52952700	5.06274600
147.59999141	0.00000000	-7.16043300	5.47490100
147.79999140	0.00000000	-7.52952700	5.15501900
147.99999138	0.00000000	-7.90477300	5.15501900
148.19999137	0.00000000	-8.32308000	5.47490100
148.39999136	0.00000000	-9.06742000	5.06274600
148.59999135	0.00000000	-9.44266700	4.36146600
148.79999134	0.00000000	-9.44266700	3.57406500
148.99999132	0.00000000	-9.06742000	3.19881900
149.19999131	0.00000000	-8.32308000	3.15575800
149.39999130	0.00000000	-7.94783400	3.15575800
149.59999129	0.00000000	-7.90477300	3.15575800
149.79999128	0.00000000	-7.90477300	3.19881900
149.99999127	0.00000000	-7.90477300	3.57406500
150.19999125	0.00000000	-7.90477300	4.31840500
150.39999124	0.00000000	-7.90477300	4.69365100
150.59999123	0.00000000	-7.90477300	4.73671200
150.79999122	0.00000000	-7.90477300	4.73671200
150.99999121	0.00000000	-7.94783400	4.73671200
151.19999119	0.00000000	-8.32308000	4.73671200
151.39999118	0.00000000	-9.06742000	4.73671200
151.59999117	0.00000000	-9.44266700	4.73671200
151.79999116	0.00000000	-9.44266700	4.69365100
151.99999115	0.00000000	-9.06742000	4.36146600
152.19999113	0.00000000	-8.37229300	3.99237200
152.39999112	0.00000000	-8.28001900	4.36146600
152.59999111	0.00000000	-8.27386800	4.69365100
152.79999110	0.00000000	-7.53567900	4.73671200
152.99999109	0.00000000	-7.57258800	4.73671200
153.19999108	0.00000000	-7.86171200	4.73671200
153.39999106	0.00000000	-7.94783400	4.73671200
153.59999105	0.00000000	-8.32308000	4.73671200
153.79999104	0.00000000	-9.06742000	4.73671200
153.99999103	0.00000000	-9.44266700	4.73671200
154.19999102	0.00000000	-9.48572700	4.73671200
154.39999100	0.00000000	-9.48572700	4.73671200
154.59999099	0.00000000	-9.44266700	4.73671200
154.79999098	0.00000000	-9.06742000	4.73671200
154.99999097	0.00000000	-8.32308000	4.73671200
155.19999096	0.00000000	-7.94783400	4.69365100
155.39999094	0.00000000	-7.90477300	4.36146600
155.59999093	0.00000000	-7.86171200	3.94931100
155.79999092	0.00000000	-7.52952700	3.98622000
155.99999091	0.00000000	-7.16043300	3.94931100
156.19999090	0.00000000	-7.52952700	4.36146600
156.39999089	0.00000000	-7.86171200	4.69365100
156.59999087	0.00000000	-7.94783400	4.73671200
156.79999086	0.00000000	-8.32308000	4.73671200
156.99999085	0.00000000	-9.06742000	4.73671200
157.19999084	0.00000000	-9.44266700	4.73671200
157.39999083	0.00000000	-9.48572700	4.73671200
157.59999081	0.00000000	-9.44266700	4.73671200
157.79999080	0.00000000	-9.06742000	4.69365100
157.99999079	0.00000000	-8.32308000	4.31840500
158.19999078	0.00000000	-7.94783400	3.57406500
158.39999077	0.00000000	-7.90477300	3.19881900
158.59999075	0.00000000	-7.90477300	3.15575800
158.79999074	0.00000000	-7.90477300	3.19881900
158.99999073	0.00000000	-7.90477300	3.57406500
159.19999072	0.00000000	-7.90477300	4.31840500
159.39999071	0.00000000	-7.90477300	4.73671200
159.59999070	0.00000000	-7.90477300	5.15501900
159.79999068	0.00000000	-7.90477300	5.89320800
159.99999067	0.00000000	-7.94783400	6.21924200
160.19999066	0.00000000	-8.32308000	5.89320800
160.39999065	0.00000000	-9.06742000	5.15501900
160.59999064	0.00000000	-9.39345400	4.77977300
160.79999062	0.00000000	-9.06742000	4.69365100
160.99999061	0.00000000	-8.32308000	4.31840500
161.19999060	0.00000000	-7.94783400	3.57406500
161.39999059	0.00000000	-7.90477300	3.19881900
161.59999058	0.00000000	-7.90477300	3.19881900
161.79999056	0.00000000	-7.90477300	3.57406500
161.99999055	0.00000000	-7.90477300	4.31840500
162.19999054	0.00000000	-7.90477300	4.69365100
162.39999053	0.00000000	-7.90477300	4.73671200
162.59999052	0.00000000	-7.90477300	4.73671200
162.79999051	0.00000000	-7.90477300	4.73671200
162.99999049	0.00000000	-7.94783400	4.73671200
163.19999048	0.00000000	-8.32308000	4.73671200
163.39999047	0.00000000	-9.06742000	4.73671200
163.59999046	0.00000000	-9.39345400	4.73671200
163.79999045	0.00000000	-9.11048200	4.73671200
163.99999043	0.00000000	-8.69832600	4.73671200
164.19999042	0.00000000	-8.69217500	4.73671200
164.39999041	0.00000000	-8.28001900	4.73671200
164.59999040	0.00000000	-7.94783400	4.73671200
164.79999039	0.00000000	-7.90477300	4.73671200
164.99999037	0.00000000	-7.86171200	4.73671200
165.19999036	0.00000000	-7.52952700	4.73671200
165.39999035	0.00000000	-7.16043300	4.73671200
165.59999034	0.00000000	-7.52952700	4.73671200
165.79999033	0.00000000	-7.86171200	4.73671200
165.99999032	0.00000000	-7.90477300	4.73671200
166.19999030	0.00000000	-7.94783400	4.73671200
166.39999029	0.00000000	-8.32308000	4.73671200
166.59999028	0.00000000	-9.01820900	4.73671200
166.79999027	0.00000000	-9.01820900	4.73671200
166.99999026	0.00000000	-8.32308000	4.73671200
167.19999024	0.00000000	-7.94783400	4.73671200
167.39999023	0.00000000	-7.90477300	4.73671200
167.59999022	0.00000000	-7.86171200	4.73671200
167.79999021	0.00000000	-7.52952700	4.73671200
167.99999020	0.00000000	-7.16043300	4.73671200
168.19999018	0.00000000	-7.52952700	4.73671200
168.39999017	0.00000000	-7.86171200	4.73671200
168.59999016	0.00000000	-7.90477300	4.73671200
168.79999015	0.00000000	-7.90477300	4.69365100
168.99999014	0.00000000	-7.90477300	4.36146600
169.19999013	0.00000000	-7.90477300	3.99237200
169.39999011	0.00000000	-7.90477300	4.36146600
169.59999010	0.00000000	-7.90477300	4.69365100
169.79999009	0.00000000	-7.90477300	4.73671200
169.99999008	0.00000000	-7.90477300	4.73671200
170.19999007	0.00000000	-7.90477300	4.73671200
170.39999005	0.00000000	-7.90477300	4.73671200
170.59999004	0.00000000	-7.90477300	4.73671200
170.79999003	0.00000000	-7.86171200	4.73671200
170.99999002	0.00000000	-7.52952700	4.73671200
171.19999001	0.00000000	-7.16043300	4.73671200
171.39998999	0.00000000	-7.52952700	4.73671200
171.59998998	0.00000000	-7.86171200	4.73671200
171.79998997	0.00000000	-7.90477300	4.73671200
171.99998996	0.00000000	-7.90477300	4.73671200
172.19998995	0.00000000	-7.90477300	4.73671200
172.39998994	0.00000000	-7.90477300	4.73671200
172.59998992	0.00000000	-7.90477300	4.73671200
172.79998991	0.00000000	-7.90477300	4.73671200
172.99998990	0.00000000	-7.90477300	4.73671200
173.19998989	0.00000000	-7.90477300	4.73671200
173.39998988	0.00000000	-7.90477300	4.73671200
173.59998986	0.00000000	-7.90477300	4.73671200
173.79998985	0.00000000	-7.90477300	4.73671200
173.99998984	0.00000000	-7.90477300	4.73671200
174.19998983	0.00000000	-7.90477300	4.69365100
174.39998982	0.00000000	-7.90477300	4.36146600
174.59998980	0.00000000	-7.90477300	3.99237200
174.79998979	0.00000000	-7.90477300	4.36146600
174.99998978	0.00000000	-7.90477300	4.69365100
175.19998977	0.00000000	-7.90477300	4.73671200
175.39998976	0.00000000	-7.94783400	4.73671200
175.59998975	0.00000000	-8.28001900	4.73671200
175.79998973	0.00000000	-8.64911400	4.73671200
175.99998972	0.00000000	-8.28001900	4.73671200
176.19998971	0.00000000	-7.94783400	4.73671200
176.39998970	0.00000000	-7.90477300	4.73671200
176.59998969	0.00000000	-7.94783400	4.73671200
176.79998967	0.00000000	-8.28001900	4.73671200
176.99998966	0.00000000	-8.64911400	4.73671200
177.19998965	0.00000000	-8.28001900	4.73671200
177.39998964	0.00000000	-7.94783400	4.69365100
177.59998963	0.00000000	-7.90477300	4.36146600
177.79998961	0.00000000	-7.90477300	3.94931100
177.99998960	0.00000000	-7.90477300	3.98622000
178.19998959	0.00000000	-7.90477300	3.94931100
178.39998958	0.00000000	-7.90477300	4.36146600
178.59998957	0.00000000	-7.90477300	4.69365100
178.79998956	0.00000000	-7.90477300	4.73671200
178.99998954	0.00000000	-7.90477300	4.73671200
179.19998953	0.00000000	-7.90477300	4.73671200
179.39998952	0.00000000	-7.86171200	4.73671200
179.59998951	0.00000000	-7.52952700	4.73671200
179.79998950	0.00000000	-7.16043300	4.73671200
179.99998948	0.00000000	-7.52952700	4.69365100
180.19998947	0.00000000	-7.86171200	4.36146600
180.39998946	0.00000000	-7.90477300	3.94931100
180.59998945	0.00000000	-7.90477300	3.98622000
180.79998944	0.00000000	-7.90477300	3.94931100
180.99998942	0.00000000	-7.90477300	4.36146600
181.19998941	0.00000000	-7.90477300	4.69365100
181.39998940	0.00000000	-7.90477300	4.73671200
181.59998939	0.00000000	-7.90477300	4.73671200
181.79998938	0.00000000	-7.90477300	4.73671200
181.99998937	0.00000000	-7.90477300	4.73671200
182.19998935	0.00000000	-7.90477300	4.73671200
182.39998934	0.00000000	-7.90477300	4.73671200
182.59998933	0.00000000	-7.90477300	4.73671200
182.79998932	0.00000000	-7.90477300	4.73671200
182.99998931	0.00000000	-7.90477300	4.69365100
183.19998929	0.00000000	-7.90477300	4.31840500
183.39998928	0.00000000	-7.90477300	3.62327700
183.59998927	0.00000000	-7.90477300	3.62327700
183.79998926	0.00000000	-7.90477300	4.31840500
183.99998925	0.00000000	-7.94783400	4.64443900
184.19998923	0.00000000	-8.23695900	4.40452700
184.39998922	0.00000000	-8.31692900	4.36761800
184.59998921	0.00000000	-7.91092400	5.09965500
184.79998920	0.00000000	-8.31692900	5.06274600
184.99998919	0.00000000	-8.23695900	4.77977300
185.19998918	0.00000000	-7.94783400	4.73671200
185.39998916	0.00000000	-7.90477300	4.69365100
185.59998915	0.00000000	-7.90477300	4.36146600
185.79998914	0.00000000	-7.90477300	3.94931100
185.99998913	0.00000000	-7.90477300	3.94315900
186.19998912	0.00000000	-7.90477300	3.53100400
186.39998910	0.00000000	-7.90477300	3.19881900
186.59998909	0.00000000	-7.90477300	3.19881900
186.79998908	0.00000000	-7.90477300	3.57406500
186.99998907	0.00000000	-7.90477300	4.31840500
187.19998906	0.00000000	-7.90477300	4.69365100
187.39998904	0.00000000	-7.90477300	4.73671200
187.59998903	0.00000000	-7.90477300	4.73671200
187.79998902	0.00000000	-7.90477300	4.73671200
187.99998901	0.00000000	-7.90477300	4.73671200
188.19998900	0.00000000	-7.90477300	4.73671200
188.39998899	0.00000000	-7.90477300	4.69365100
188.59998897	0.00000000	-7.90477300	4.31840500
188.79998896	0.00000000	-7.90477300	3.62327700
188.99998895	0.00000000	-7.90477300	3.57406500
189.19998894	0.00000000	-7.90477300	3.90009800
189.39998893	0.00000000	-7.90477300	3.53100400
189.59998891	0.00000000	-7.90477300	3.24803100
189.79998890	0.00000000	-7.90477300	3.57406500
189.99998889	0.00000000	-7.90477300	4.31840500
190.19998888	0.00000000	-7.90477300	4.69365100
190.39998887	0.00000000	-7.90477300	4.73671200
190.59998885	0.00000000	-7.90477300	4.73671200
190.79998884	0.00000000	-7.90477300	4.73671200
190.99998883	0.00000000	-7.90477300	4.73671200
191.19998882	0.00000000	-7.90477300	4.73671200
191.39998881	0.00000000	-7.90477300	4.73671200
191.59998880	0.00000000	-7.90477300	4.73671200
191.79998878	0.00000000	-7.90477300	4.73671200
191.99998877	0.00000000	-7.90477300	4.73671200
192.19998876	0.00000000	-7.90477300	4.73671200
192.39998875	0.00000000	-7.90477300	4.69365100
192.59998874	0.00000000	-7.90477300	4.36146600
192.79998872	0.00000000	-7.90477300	3.99237200
192.99998871	0.00000000	-7.90477300	4.36146600
193.19998870	0.00000000	-7.90477300	4.69365100
193.39998869	0.00000000	-7.90477300	4.73671200
193.59998868	0.00000000	-7.90477300	4.73671200
193.79998866	0.00000000	-7.90477300	4.73671200
193.99998865	0.00000000	-7.90477300	4.73671200
194.19998864	0.00000000	-7.90477300	4.73671200
194.39998863	0.00000000	-7.90477300	4.73671200
194.59998862	0.00000000	-7.90477300	4.73671200
194.79998861	0.00000000	-7.90477300	4.73671200
194.99998859	0.00000000	-7.90477300	4.73671200
195.19998858	0.00000000	-7.90477300	4.73671200
195.39998857	0.00000000	-7.90477300	4.73671200
195.59998856	0.00000000	-7.90477300	4.73671200
195.79998855	0.00000000	-7.90477300	4.73671200
195.99998853	0.00000000	-7.90477300	4.73671200
