Time	Channel A	Channel B	Channel C
(us)	(V)	(mV)	(mV)

-4.53333289	0.00000000	28.45718000	3.15575800
-4.33333290	0.00000000	28.45718000	3.15575800
-4.13333291	0.00000000	28.45718000	3.15575800
-3.93333293	0.00000000	28.45718000	3.15575800
-3.73333294	0.00000000	28.45718000	3.15575800
-3.53333295	0.00000000	28.45718000	3.11269700
-3.33333296	0.00000000	28.45718000	2.78051200
-3.13333297	0.00000000	28.45718000	2.41141700
-2.93333299	0.00000000	28.45718000	2.78051200
-2.73333300	0.00000000	28.45718000	3.11269700
-2.53333301	0.00000000	28.45718000	3.15575800
-2.33333302	0.00000000	28.45718000	3.15575800
-2.13333303	0.00000000	28.45718000	3.15575800
-1.93333304	0.00000000	28.45718000	3.15575800
-1.73333306	0.00000000	28.45718000	3.15575800
-1.53333307	0.00000000	28.45718000	3.15575800
-1.33333308	0.00000000	28.45718000	3.15575800
-1.13333309	0.00000000	28.45718000	3.15575800
-0.93333310	0.00000000	28.45718000	3.15575800
-0.73333312	0.00000000	28.45718000	3.15575800
-0.53333313	0.00000000	28.45718000	3.15575800
-0.33333314	0.15871060	28.45718000	3.15575800
-0.13333315	0.47736220	28.45718000	3.15575800
0.06666684	0.95533960	28.45718000	3.15575800
0.26666682	1.11466500	28.45718000	3.11269700
0.46666681	0.95533960	28.45718000	2.73745100
0.66666680	0.63668800	28.45718000	1.99311000
0.86666679	-0.15871060	28.45718000	1.66707700
1.06666678	-1.11466500	28.45718000	1.99311000
1.26666677	-2.07062000	28.45718000	2.73745100
1.46666675	-2.70792300	28.45718000	3.11269700
1.66666674	-2.70792300	28.45718000	3.15575800
1.86666673	-1.91129400	28.45718000	3.15575800
2.06666672	-0.31803640	28.45718000	3.15575800
2.26666671	1.75196900	28.45718000	3.15575800
2.46666669	3.82258900	28.45718000	3.11269700
2.66666668	5.09719500	28.41412000	2.73745100
2.86666667	5.25652100	28.08194000	1.99311000
3.06666666	3.82258900	27.66978000	1.61786400
3.26666665	1.11466500	27.70669000	1.61786400
3.46666663	-2.22994600	27.66978000	1.99311000
3.66666662	-5.41584600	28.08194000	2.73745100
3.86666661	-7.48646600	28.41412000	3.11269700
4.06666660	-7.96444400	28.45718000	3.15575800
4.26666659	-6.21247500	28.45718000	3.15575800
4.46666658	-2.70792300	28.45718000	3.15575800
4.66666656	1.59264300	28.45718000	3.15575800
4.86666655	5.73449800	28.41412000	3.15575800
5.06666654	8.60174700	28.03888000	3.11269700
5.26666653	9.39837600	27.29453000	2.73745100
5.46666652	7.80511800	26.91929000	1.99311000
5.66666650	4.30056600	26.91929000	1.66707700
5.86666649	-0.47736220	27.29453000	1.99311000
6.06666648	-5.09719500	28.03888000	2.73745100
6.26666647	-8.28309500	28.41412000	3.11269700
6.46666646	-9.39837600	28.45718000	3.15575800
6.66666644	-8.28309500	28.45718000	3.15575800
6.86666643	-5.09719500	28.45718000	3.15575800
7.06666642	-0.79601380	28.45718000	3.15575800
7.26666641	3.34522600	28.45718000	3.15575800
7.46666640	6.53112700	28.45718000	3.11269700
7.66666639	7.80511800	28.41412000	2.78051200
7.86666637	7.00848900	28.03888000	2.36835600
8.06666636	4.61921700	27.34375000	2.36220500
8.26666635	1.43331700	27.34375000	1.95004900
8.46666634	-1.75196900	28.03888000	1.66707700
8.66666633	-4.14124000	28.41412000	1.99311000
8.86666631	-5.09719500	28.45718000	2.73745100
9.06666630	-4.77854300	28.45718000	3.11269700
9.26666629	-3.50393700	28.45718000	3.15575800
9.46666628	-1.43331700	28.45718000	3.15575800
9.66666627	0.47736220	28.45718000	3.15575800
9.86666625	1.91129400	28.45718000	3.15575800
10.06666624	2.54859700	28.45718000	3.15575800
10.26666623	2.38927200	28.45718000	3.15575800
10.46666622	1.75196900	28.45718000	3.15575800
10.66666621	0.95533960	28.41412000	3.15575800
10.86666620	0.15871060	28.08194000	3.15575800
11.06666618	-0.47736220	27.71284000	3.15575800
11.26666617	-0.95533960	28.08194000	3.15575800
11.46666616	-0.95533960	28.41412000	3.15575800
11.66666615	-0.79601380	28.45718000	3.15575800
11.86666614	-0.47736220	28.45718000	3.15575800
12.06666612	-0.15871060	28.45718000	3.15575800
12.26666611	-0.15871060	28.45718000	3.15575800
12.46666610	-0.15871060	28.45718000	3.15575800
12.66666609	0.00000000	28.45718000	3.15575800
12.86666608	0.00000000	28.45718000	3.11269700
13.06666606	0.00000000	28.45718000	2.78051200
13.26666605	0.00000000	28.45718000	2.41141700
13.46666604	0.00000000	28.45718000	2.73745100
13.66666603	0.00000000	28.45718000	2.73745100
13.86666602	0.00000000	28.41412000	2.41141700
14.06666601	-0.15871060	28.08194000	2.78051200
14.26666599	-0.15871060	27.71284000	3.11269700
14.46666598	-0.15871060	28.03888000	3.15575800
14.66666597	0.00000000	27.98966000	3.15575800
14.86666596	0.00000000	27.29453000	3.15575800
15.06666595	0.00000000	26.96850000	3.15575800
15.26666593	0.00000000	27.25147000	3.15575800
15.46666592	0.15871060	27.62057000	3.11269700
15.66666591	0.00000000	27.25147000	2.78051200
15.86666590	0.00000000	26.91929000	2.41141700
16.06666589	0.00000000	26.87623000	2.78051200
16.26666587	0.00000000	26.87623000	3.11269700
16.46666586	0.00000000	26.87623000	3.15575800
16.66666585	0.00000000	26.91929000	3.15575800
16.86666584	-0.15871060	27.29453000	3.15575800
17.06666583	0.00000000	28.08194000	3.15575800
17.26666582	0.00000000	28.83243000	3.15575800
17.46666580	0.00000000	29.61983000	3.15575800
17.66666579	0.00000000	29.94586000	3.15575800
17.86666578	0.00000000	29.61983000	3.15575800
18.06666577	0.00000000	28.78937000	3.15575800
18.26666576	0.00000000	27.62057000	3.15575800
18.46666574	0.00000000	25.67052000	3.15575800
18.66666573	0.00000000	23.80659000	3.15575800
18.86666572	0.00000000	22.60088000	3.15575800
19.06666571	0.00000000	22.26870000	3.15575800
19.26666570	0.00000000	23.06225000	3.15575800
19.46666568	0.00000000	25.38755000	3.15575800
19.66666567	0.00000000	28.50024000	3.15575800
19.86666566	0.00000000	32.03740000	3.15575800
20.06666565	0.00000000	35.85752000	3.15575800
20.26666564	0.00000000	38.50886000	3.15575800
20.46666563	0.00000000	38.88410000	3.15575800
20.66666561	0.00000000	36.88484000	3.15575800
20.86666560	0.00000000	32.18504000	3.15575800
21.06666559	0.00000000	25.20300000	3.15575800
21.26666558	0.00000000	17.48277000	3.15575800
21.46666557	0.00000000	10.59301000	3.15575800
21.66666555	0.00000000	6.82824800	3.15575800
21.86666554	0.00000000	8.03395600	3.11269700
22.06666553	0.00000000	14.22244000	2.73745100
22.26666552	0.00000000	24.36024000	1.99311000
22.46666551	0.00000000	36.74335000	1.61786400
22.66666549	0.00000000	49.02190000	1.61786400
22.86666548	0.00000000	57.44340000	1.99311000
23.06666547	0.00000000	59.35654000	2.73745100
23.26666546	0.00000000	54.28149000	3.15575800
23.46666545	0.00000000	42.60580000	3.57406500
23.66666544	0.00000000	26.32259000	4.31840500
23.86666542	0.00000000	8.59375000	4.69365100
24.06666541	0.00000000	-6.38533400	4.69365100
24.26666540	0.00000000	-14.06250000	4.31840500
24.46666539	0.00000000	-12.48154000	3.53100400
24.66666538	0.00000000	-1.59325800	2.73745100
24.86666536	0.00000000	16.96604000	1.53174200
25.06666535	0.00000000	38.97638000	0.00000000
25.26666534	0.00000000	59.44881000	-1.48868100
25.46666533	0.00000000	73.68356000	-2.26993100
25.66666532	0.00000000	77.87278000	-1.85777500
25.86666530	0.00000000	70.47859000	-0.64591530
26.06666529	0.00000000	52.74360000	2.12844500
26.26666528	0.00000000	28.78937000	6.31151500
26.46666527	0.00000000	4.49680100	10.53765000
26.66666526	0.00000000	-14.84990000	13.60728000
26.86666525	0.00000000	-24.48326000	14.72687000
27.06666523	0.00000000	-22.57628000	13.14591000
27.26666522	0.00000000	-9.41190900	8.82750900
27.46666521	0.00000000	12.18012000	2.27608300
27.66666520	0.00000000	36.88484000	-5.47490100
27.86666519	0.00000000	58.89518000	-12.40773000
28.06666517	0.00000000	73.26525000	-17.37205000
28.26666516	0.00000000	77.13459000	-18.44242000
28.46666515	0.00000000	70.23868000	-14.54232000
28.66666514	0.00000000	54.04773000	-6.36687900
28.86666513	0.00000000	33.20005000	5.20423200
29.06666511	0.00000000	12.26624000	17.50738000
29.26666510	0.00000000	-4.75516700	27.17766000
29.46666509	0.00000000	-14.06250000	32.56643000
29.66666508	0.00000000	-14.10556000	32.05585000
29.86666507	0.00000000	-5.26574800	24.66781000
30.06666506	0.00000000	10.13164000	11.52190000
30.26666504	0.00000000	27.90354000	-4.64443900
30.46666503	0.00000000	44.18676000	-20.06643000
30.66666502	0.00000000	55.86245000	-30.85015000
30.86666501	0.00000000	60.93750000	-34.75024000
31.06666500	0.00000000	59.06742000	-30.85015000
31.26666498	0.00000000	50.97810000	-19.98031000
31.46666497	0.00000000	38.97638000	-3.72170300
31.66666496	0.00000000	25.43061000	14.76993000
31.86666495	0.00000000	13.05979000	30.98548000
32.06666494	0.00000000	4.87204700	41.39394000
32.26666492	0.00000000	1.71013800	43.71309000
32.46666491	0.00000000	3.66633800	37.16781000
32.66666490	0.00000000	10.64222000	23.64665000
32.86666489	0.00000000	21.01993000	5.85014700
33.06666488	0.00000000	32.18504000	-12.68455000
33.26666487	0.00000000	41.11712000	-27.74360000
33.46666485	0.00000000	46.23523000	-36.28814000
33.66666484	0.00000000	47.39788000	-36.65723000
33.86666483	0.00000000	44.27903000	-28.94316000
34.06666482	0.00000000	37.34621000	-14.67766000
34.26666481	0.00000000	28.54946000	2.69439000
34.46666479	0.00000000	20.41092000	19.32825000
34.66666478	0.00000000	15.00984000	32.10507000
34.86666477	0.00000000	13.01673000	38.23819000
35.06666476	0.00000000	14.96063000	36.37426000
35.26666475	0.00000000	19.90034000	27.13459000
35.46666473	0.00000000	26.45792000	13.23819000
35.66666472	0.00000000	32.60334000	-2.55905500
35.86666471	0.00000000	36.88484000	-16.44316000
36.06666470	0.00000000	38.42273000	-24.95694000
36.26666469	0.00000000	36.88484000	-26.94390000
36.46666468	0.00000000	32.68946000	-21.93036000
36.66666466	0.00000000	27.29453000	-11.57111000
36.86666465	0.00000000	22.26870000	1.48868100
37.06666464	0.00000000	18.45472000	13.79798000
37.26666463	0.00000000	17.29208000	21.88730000
37.46666462	0.00000000	19.19906000	24.24951000
37.66666460	0.00000000	23.01919000	20.44168000
37.86666459	0.00000000	28.03888000	12.03248000
38.06666458	0.00000000	32.64640000	1.66707700
38.26666457	0.00000000	35.76525000	-7.89862200
38.46666456	0.00000000	36.92790000	-13.66265000
38.66666454	0.00000000	35.76525000	-14.03174000
38.86666453	0.00000000	32.68946000	-9.10433000
39.06666452	0.00000000	28.45718000	-0.28297240
39.26666451	0.00000000	24.18184000	9.25196800
39.46666450	0.00000000	20.68774000	16.91068000
39.66666449	0.00000000	18.36245000	19.98031000
39.86666447	0.00000000	17.98720000	17.70423000
40.06666446	0.00000000	19.48204000	11.14665000
40.26666445	0.00000000	22.22564000	1.53174200
40.46666444	0.00000000	25.71358000	-8.36614100
40.66666443	0.00000000	29.61983000	-15.28666000
40.86666441	0.00000000	33.06471000	-17.19365000
41.06666440	0.00000000	35.43922000	-13.74877000
41.26666439	0.00000000	36.18971000	-5.67175200
41.46666438	0.00000000	35.43922000	4.64443900
41.66666437	0.00000000	33.11393000	14.25935000
41.86666435	0.00000000	30.03814000	20.44168000
42.06666434	0.00000000	26.87623000	22.02264000
42.26666433	0.00000000	23.80659000	18.95300000
42.46666432	0.00000000	21.48130000	12.03248000
42.66666431	0.00000000	20.68774000	3.15575800
42.86666430	0.00000000	21.01993000	-5.67175200
43.06666428	0.00000000	22.22564000	-12.17397000
43.26666427	0.00000000	24.13263000	-14.16708000
43.46666426	0.00000000	26.45792000	-11.94021000
43.66666425	0.00000000	28.36491000	-6.92052100
43.86666424	0.00000000	29.57062000	0.00000000
44.06666422	0.00000000	29.99508000	6.87746000
44.26666421	0.00000000	30.08120000	11.56496000
44.46666420	0.00000000	30.45644000	13.56422000
44.66666419	0.00000000	31.20078000	13.18898000
44.86666418	0.00000000	31.57603000	10.49459000
45.06666416	0.00000000	31.57603000	6.31151500
45.26666415	0.00000000	31.15157000	2.04232300
45.46666414	0.00000000	29.94586000	-1.44562000
45.66666413	0.00000000	27.98966000	-3.76476400
45.86666412	0.00000000	25.20300000	-4.18307100
46.06666411	0.00000000	21.75812000	-3.06348400
46.26666409	0.00000000	18.27633000	-1.11343500
46.46666408	0.00000000	16.03715000	1.58095500
46.66666407	0.00000000	15.71112000	4.26919300
46.86666406	0.00000000	18.45472000	6.22539300
47.06666405	0.00000000	23.84965000	7.38188900
47.26666403	0.00000000	30.41338000	7.38188900
47.46666402	0.00000000	37.02018000	6.22539300
47.66666401	0.00000000	42.00295000	4.31840500
47.86666400	0.00000000	44.27903000	1.99311000
48.06666399	0.00000000	42.65502000	0.04306102
48.26666397	0.00000000	36.88484000	-1.53174200
48.46666396	0.00000000	28.41412000	-2.64517700
48.66666395	0.00000000	19.52510000	-2.60211600
48.86666394	0.00000000	12.17397000	-1.07037400
49.06666393	0.00000000	7.94168200	1.62401600
49.26666392	0.00000000	7.98474400	4.68750000
49.46666390	0.00000000	12.64149000	7.38188900
49.66666389	0.00000000	21.10605000	8.91978400
49.86666388	0.00000000	31.10851000	8.91978400
50.06666387	0.00000000	39.99754000	7.38188900
50.26666386	0.00000000	45.77386000	4.64443900
50.46666384	0.00000000	46.93036000	1.15649600
50.66666383	0.00000000	43.11638000	-2.64517700
50.86666382	0.00000000	35.81446000	-5.29650500
51.06666381	0.00000000	26.87623000	-5.71481200
51.26666380	0.00000000	18.03642000	-4.22613100
51.46666379	0.00000000	11.52190000	-1.44562000
51.66666377	0.00000000	9.61491000	2.41756900
51.86666376	0.00000000	12.59842000	7.00664300
52.06666375	0.00000000	19.10679000	10.40846000
52.26666374	0.00000000	26.83317000	11.60802000
52.46666373	0.00000000	34.18430000	10.49459000
52.66666371	0.00000000	39.53617000	7.80019600
52.86666370	0.00000000	41.07406000	4.26919300
53.06666369	0.00000000	38.41658000	0.04306102
53.26666368	0.00000000	32.68946000	-3.71555100
53.46666367	0.00000000	25.80585000	-5.29650500
53.66666365	0.00000000	20.03568000	-4.60137700
53.86666364	0.00000000	16.91683000	-2.69439000
54.06666363	0.00000000	16.87377000	0.04306102
54.26666362	0.00000000	19.56816000	3.06348400
54.46666361	0.00000000	24.18184000	5.38262700
54.66666360	0.00000000	29.52756000	6.17618100
54.86666358	0.00000000	33.76599000	5.80093500
55.06666357	0.00000000	35.72219000	4.26919300
55.26666356	0.00000000	35.30389000	2.04232300
55.46666355	0.00000000	32.27116000	0.55364170
55.66666354	0.00000000	27.71284000	0.51058070
55.86666352	0.00000000	23.84965000	1.62401600
56.06666351	0.00000000	21.06299000	3.15575800
56.26666350	0.00000000	19.56816000	4.68750000
56.46666349	0.00000000	19.99262000	5.80093500
56.66666348	0.00000000	22.68701000	5.75787400
56.86666346	0.00000000	26.83317000	4.22613100
57.06666345	0.00000000	30.64714000	1.48868100
57.26666344	0.00000000	32.64640000	-1.95004900
57.46666343	0.00000000	33.06471000	-5.33956700
57.66666342	0.00000000	32.27116000	-6.82824800
57.86666341	0.00000000	29.94586000	-5.67175200
58.06666339	0.00000000	26.91929000	-2.18380900
58.26666338	0.00000000	24.22490000	3.20497000
58.46666337	0.00000000	22.68701000	8.96284400
58.66666336	0.00000000	22.64394000	13.56422000
58.86666335	0.00000000	23.75738000	15.84030000
59.06666333	0.00000000	25.33834000	14.63459000
59.26666332	0.00000000	27.25147000	10.03322000
59.46666331	0.00000000	29.15231000	3.11269700
59.66666330	0.00000000	29.90280000	-4.18307100
59.86666329	0.00000000	29.57062000	-9.99015700
60.06666327	0.00000000	28.41412000	-13.05364000
60.26666326	0.00000000	26.87623000	-12.63533000
60.46666325	0.00000000	25.33834000	-8.36614100
60.66666324	0.00000000	24.22490000	-1.07037400
60.86666323	0.00000000	24.22490000	7.38188900
61.06666322	0.00000000	25.33834000	14.67766000
61.26666320	0.00000000	26.87623000	18.95300000
61.46666319	0.00000000	28.41412000	19.28519000
61.66666318	0.00000000	29.57062000	15.42200000
61.86666317	0.00000000	29.90280000	7.75713500
62.06666316	0.00000000	29.20152000	-1.07037400
62.26666314	0.00000000	27.62672000	-8.82750900
62.46666313	0.00000000	26.08268000	-14.21629000
62.66666312	0.00000000	24.13263000	-15.74803000
62.86666311	0.00000000	22.64394000	-13.05364000
63.06666310	0.00000000	22.22564000	-6.92052100
63.26666308	0.00000000	22.64394000	1.20570900
63.46666307	0.00000000	24.22490000	9.24581600
63.66666306	0.00000000	26.87623000	15.46506000
63.86666305	0.00000000	29.57062000	18.16560000
64.06666304	0.00000000	31.52682000	17.46432000
64.26666303	0.00000000	32.64640000	13.56422000
64.46666301	0.00000000	32.22810000	7.43110200
64.66666300	0.00000000	29.94586000	0.46751960
64.86666299	0.00000000	26.91929000	-5.71481200
65.06666298	0.00000000	24.18184000	-9.98400600
65.26666297	0.00000000	22.26870000	-11.52190000
65.46666295	0.00000000	21.48130000	-10.03322000
65.66666294	0.00000000	22.26870000	-6.21924200
65.86666293	0.00000000	24.13263000	-1.57480300
66.06666292	0.00000000	26.45792000	3.11269700
66.26666291	0.00000000	28.36491000	7.38188900
66.46666289	0.00000000	29.52756000	10.49459000
66.66666288	0.00000000	29.52756000	12.07554000
66.86666287	0.00000000	28.41412000	12.07554000
67.06666286	0.00000000	26.87623000	10.53765000
67.26666285	0.00000000	25.33834000	7.84940900
67.46666284	0.00000000	24.22490000	4.73671200
67.66666282	0.00000000	24.22490000	1.58095500
67.86666281	0.00000000	25.38755000	-1.53174200
68.06666280	0.00000000	27.29453000	-4.26919300
68.26666279	0.00000000	29.57062000	-6.22539300
68.46666278	0.00000000	31.06545000	-7.33882900
68.66666276	0.00000000	31.10851000	-6.87746000
68.86666275	0.00000000	29.94586000	-4.18307100
69.06666274	0.00000000	27.94660000	0.04306102
69.26666273	0.00000000	24.87697000	4.69365100
69.46666272	0.00000000	21.43824000	8.96284400
69.66666270	0.00000000	19.14985000	12.07554000
69.86666269	0.00000000	18.41166000	13.61343000
70.06666268	0.00000000	19.99262000	13.18898000
70.26666267	0.00000000	23.80659000	10.45152000
70.46666266	0.00000000	28.45718000	5.85014700
70.66666265	0.00000000	33.06471000	0.41830710
70.86666263	0.00000000	36.55265000	-4.55831700
71.06666262	0.00000000	37.67839000	-8.03395600
71.26666261	0.00000000	36.50959000	-8.82750900
71.46666260	0.00000000	32.64640000	-7.33882900
71.66666259	0.00000000	27.29453000	-4.18307100
71.86666257	0.00000000	22.22564000	0.41830710
72.06666256	0.00000000	17.94414000	5.38262700
72.26666255	0.00000000	15.29281000	8.87057000
72.46666254	0.00000000	15.29281000	10.45152000
72.66666253	0.00000000	17.98720000	10.07628000
72.86666251	0.00000000	22.60088000	7.80019600
73.06666250	0.00000000	27.98966000	4.73671200
73.26666249	0.00000000	32.64640000	1.66707700
73.46666248	0.00000000	35.76525000	-0.64591530
73.66666247	0.00000000	36.92790000	-1.43946800
73.86666246	0.00000000	35.76525000	-1.11343500
74.06666244	0.00000000	32.68946000	0.04306102
74.26666243	0.00000000	28.41412000	1.53174200
74.46666242	0.00000000	23.80659000	2.64517700
74.66666241	0.00000000	19.99262000	2.64517700
74.86666240	0.00000000	18.41166000	1.53174200
75.06666238	0.00000000	19.10679000	0.04306102
75.26666237	0.00000000	21.01993000	-1.11343500
75.46666236	0.00000000	23.75738000	-1.48253000
75.66666235	0.00000000	26.83317000	-1.06422200
75.86666234	0.00000000	29.52756000	0.51058070
76.06666232	0.00000000	31.06545000	3.24803100
76.26666231	0.00000000	31.10851000	6.64370100
76.46666230	0.00000000	29.99508000	9.70103300
76.66666229	0.00000000	28.50024000	10.82677000
76.86666228	0.00000000	27.34375000	10.07628000
77.06666227	0.00000000	26.91929000	7.29576700
77.26666225	0.00000000	26.87623000	2.69439000
77.46666224	0.00000000	26.87623000	-2.69439000
77.66666223	0.00000000	26.87623000	-7.24655500
77.86666222	0.00000000	26.83317000	-9.61491000
78.06666221	0.00000000	26.45792000	-9.20275500
78.26666219	0.00000000	25.67052000	-6.54527500
78.46666218	0.00000000	24.87697000	-1.86392700
78.66666217	0.00000000	23.75738000	3.53100400
78.86666216	0.00000000	23.06225000	8.96284400
79.06666215	0.00000000	23.80659000	13.14591000
79.26666213	0.00000000	25.29527000	14.72687000
79.46666212	0.00000000	26.91929000	13.56422000
79.66666211	0.00000000	28.83243000	10.11934000
79.86666210	0.00000000	30.73326000	5.06274600
80.06666209	0.00000000	31.48376000	-0.32603340
80.26666208	0.00000000	31.10851000	-5.33956700
80.46666206	0.00000000	29.52756000	-8.40920300
80.66666205	0.00000000	26.87623000	-8.87672100
80.86666204	0.00000000	24.18184000	-7.33882900
81.06666203	0.00000000	22.22564000	-4.26919300
81.26666202	0.00000000	21.06299000	-0.37524600
81.46666200	0.00000000	21.10605000	3.53100400
81.66666199	0.00000000	22.64394000	7.38188900
81.86666198	0.00000000	25.29527000	10.07628000
82.06666197	0.00000000	27.98966000	10.91289000
82.26666196	0.00000000	29.94586000	10.58686000
82.46666194	0.00000000	31.10851000	9.33809000
82.66666193	0.00000000	31.10851000	7.01279500
82.86666192	0.00000000	29.99508000	3.53100400
83.06666191	0.00000000	28.45718000	0.04306102
83.26666190	0.00000000	26.87623000	-3.11269700
83.46666189	0.00000000	25.33834000	-5.80093500
83.66666187	0.00000000	24.22490000	-7.29576700
83.86666186	0.00000000	24.18184000	-6.92052100
84.06666185	0.00000000	24.87697000	-4.60137700
84.26666184	0.00000000	25.25221000	-1.11343500
84.46666183	0.00000000	25.33834000	3.15575800
84.66666181	0.00000000	25.71358000	7.43110200
84.86666180	0.00000000	26.40871000	10.86983000
85.06666179	0.00000000	26.45792000	12.81373000
85.26666178	0.00000000	26.13189000	12.40157000
85.46666177	0.00000000	26.54404000	10.11934000
85.66666175	0.00000000	27.25147000	6.17618100
85.86666174	0.00000000	28.03888000	1.19955700
86.06666173	0.00000000	28.41412000	-3.80782500
86.26666172	0.00000000	28.41412000	-7.29576700
86.46666171	0.00000000	27.98966000	-8.82750900
86.66666170	0.00000000	26.83317000	-8.03395600
86.86666168	0.00000000	25.29527000	-4.60137700
87.06666167	0.00000000	23.75738000	0.00000000
87.26666166	0.00000000	22.60088000	4.69365100
87.46666165	0.00000000	22.22564000	8.91978400
87.66666164	0.00000000	22.60088000	11.61417000
87.86666162	0.00000000	23.80659000	11.98327000
88.06666161	0.00000000	25.71358000	10.07628000
88.26666160	0.00000000	27.98966000	6.21924200
88.46666159	0.00000000	29.52756000	1.57480300
88.66666158	0.00000000	29.99508000	-3.02042300
88.86666156	0.00000000	29.94586000	-6.45300100
89.06666155	0.00000000	29.15231000	-7.20349400
89.26666154	0.00000000	27.25147000	-5.33956700
89.46666153	0.00000000	25.33834000	-1.48868100
89.66666152	0.00000000	23.75738000	3.11269700
89.86666151	0.00000000	22.64394000	7.33882900
90.06666149	0.00000000	22.64394000	10.03322000
90.26666148	0.00000000	23.71432000	10.45152000
90.46666147	0.00000000	24.87697000	8.91978400
90.66666146	0.00000000	25.71358000	5.80093500
90.86666145	0.00000000	26.87623000	1.57480300
91.06666143	0.00000000	27.98966000	-2.64517700
91.26666142	0.00000000	28.41412000	-5.67175200
91.46666141	0.00000000	28.41412000	-6.40994000
91.66666140	0.00000000	28.03888000	-4.14000900
91.86666139	0.00000000	27.29453000	0.04306102
92.06666137	0.00000000	26.91929000	4.64443900
92.26666136	0.00000000	26.87623000	8.50147600
92.46666135	0.00000000	26.83317000	10.40846000
92.66666134	0.00000000	26.45792000	10.03322000
92.86666133	0.00000000	25.71358000	7.33882900
93.06666132	0.00000000	25.29527000	3.11269700
93.26666130	0.00000000	24.87697000	-1.43946800
93.46666129	0.00000000	24.13263000	-4.92125900
93.66666128	0.00000000	23.80659000	-6.04084600
93.86666127	0.00000000	24.18184000	-4.96432100
94.06666126	0.00000000	25.33834000	-1.81471400
94.26666124	0.00000000	26.87623000	2.36835600
94.46666123	0.00000000	28.45718000	6.96358300
94.66666122	0.00000000	30.03814000	9.98400600
94.86666121	0.00000000	31.52682000	10.45152000
95.06666120	0.00000000	32.22810000	8.91978400
95.26666118	0.00000000	31.06545000	5.80093500
95.46666117	0.00000000	28.41412000	1.62401600
95.66666116	0.00000000	25.29527000	-2.22687000
95.86666115	0.00000000	22.17643000	-4.55831700
96.06666114	0.00000000	19.52510000	-5.29650500
96.26666113	0.00000000	18.36245000	-3.76476400
96.46666111	0.00000000	19.10679000	-0.37524600
96.66666110	0.00000000	21.06299000	3.06348400
96.86666109	0.00000000	24.18184000	5.80093500
97.06666108	0.00000000	28.03888000	7.33882900
97.26666107	0.00000000	31.53297000	7.33882900
97.46666105	0.00000000	34.23351000	5.80093500
97.66666104	0.00000000	35.34695000	3.15575800
97.86666103	0.00000000	34.18430000	0.46751960
98.06666102	0.00000000	31.10851000	-1.43946800
98.26666101	0.00000000	26.87623000	-2.22687000
98.46666099	0.00000000	22.64394000	-1.48868100
98.66666098	0.00000000	19.52510000	0.00000000
98.86666097	0.00000000	17.94414000	1.57480300
99.06666096	0.00000000	17.94414000	3.11269700
99.26666095	0.00000000	19.52510000	4.26919300
99.46666094	0.00000000	22.60088000	4.64443900
99.66666092	0.00000000	26.45792000	4.31840500
99.86666091	0.00000000	29.94586000	3.57406500
100.06666090	0.00000000	32.68946000	3.19881900
100.26666089	0.00000000	34.23351000	3.15575800
100.46666088	0.00000000	34.23351000	3.15575800
100.66666086	0.00000000	32.68946000	3.15575800
100.86666085	0.00000000	29.99508000	3.15575800
101.06666084	0.00000000	26.87623000	3.11269700
101.26666083	0.00000000	23.75738000	2.68823800
101.46666082	0.00000000	21.06299000	1.53174200
101.66666080	0.00000000	19.48204000	0.04306102
101.86666079	0.00000000	19.14985000	-1.11343500
102.06666078	0.00000000	20.27559000	-1.48253000
102.26666077	0.00000000	22.96383000	-1.06422200
102.46666076	0.00000000	25.62746000	0.51058070
102.66666075	0.00000000	28.03888000	3.15575800
102.86666073	0.00000000	29.94586000	5.80093500
103.06666072	0.00000000	31.10851000	7.38188900
103.26666071	0.00000000	31.10851000	7.75713500
103.46666070	0.00000000	29.94586000	6.96358300
103.66666069	0.00000000	28.03888000	4.68750000
103.86666067	0.00000000	25.71358000	1.99311000
104.06666066	0.00000000	23.80659000	-0.37524600
104.26666065	0.00000000	22.60088000	-2.64517700
104.46666064	0.00000000	22.17643000	-3.76476400
104.66666063	0.00000000	22.22564000	-3.02042300
104.86666061	0.00000000	23.01919000	-1.11343500
105.06666060	0.00000000	24.92003000	1.58095500
105.26666059	0.00000000	26.78395000	4.26919300
105.46666058	0.00000000	27.98966000	6.17618100
105.66666057	0.00000000	28.41412000	6.96358300
105.86666056	0.00000000	28.41412000	6.22539300
106.06666054	0.00000000	27.98966000	4.68750000
106.26666053	0.00000000	26.83317000	2.73745100
106.46666052	0.00000000	25.33834000	0.46751960
106.66666051	0.00000000	24.18184000	-1.06422200
106.86666050	0.00000000	23.80659000	-1.48253000
107.06666048	0.00000000	24.18184000	-1.06422200
107.26666047	0.00000000	25.33834000	0.46751960
107.46666046	0.00000000	26.83317000	2.69439000
107.66666045	0.00000000	27.94660000	4.26919300
107.86666044	0.00000000	27.98966000	5.06274600
108.06666042	0.00000000	27.25147000	5.38262700
108.26666041	0.00000000	26.45792000	4.22613100
108.46666040	0.00000000	25.29527000	1.99311000
108.66666039	0.00000000	24.18184000	0.09227362
108.86666038	0.00000000	23.75738000	-1.11343500
109.06666037	0.00000000	23.71432000	-1.48253000
109.26666035	0.00000000	23.80659000	-1.11343500
109.46666034	0.00000000	24.60015000	0.09227362
109.66666033	0.00000000	26.45792000	1.99311000
109.86666032	0.00000000	27.94660000	4.26919300
110.06666031	0.00000000	28.41412000	5.80093500
110.26666029	0.00000000	28.41412000	6.21924200
110.46666028	0.00000000	28.03888000	5.85014700
110.66666027	0.00000000	27.20841000	4.64443900
110.86666026	0.00000000	26.08268000	2.73745100
111.06666025	0.00000000	24.55093000	0.46751960
111.26666023	0.00000000	23.80659000	-1.06422200
111.46666022	0.00000000	23.71432000	-1.53174200
111.66666021	0.00000000	23.75738000	-1.53174200
111.86666020	0.00000000	24.18184000	-1.11343500
112.06666019	0.00000000	25.29527000	0.04306102
112.26666018	0.00000000	26.45792000	1.53174200
112.46666016	0.00000000	27.20841000	2.73745100
112.66666015	0.00000000	27.62057000	3.48794300
112.86666014	0.00000000	27.25147000	3.90009800
113.06666013	0.00000000	26.87623000	3.48794300
113.26666012	0.00000000	26.45792000	2.78051200
113.46666010	0.00000000	25.71358000	1.99311000
113.66666009	0.00000000	25.33834000	1.61786400
113.86666008	0.00000000	25.29527000	1.57480300
114.06666007	0.00000000	25.29527000	1.57480300
114.26666006	0.00000000	25.29527000	1.53174200
114.46666004	0.00000000	25.33834000	1.19955700
114.66666003	0.00000000	25.71358000	0.83661410
114.86666002	0.00000000	26.45792000	1.15649600
115.06666001	0.00000000	26.83317000	1.11343500
115.26666000	0.00000000	26.87623000	0.46136810
115.46665999	0.00000000	26.87623000	0.46136810
115.66665997	0.00000000	26.83317000	1.15649600
115.86665996	0.00000000	26.45792000	1.57480300
116.06665995	0.00000000	25.71358000	1.99311000
116.26665994	0.00000000	25.33834000	2.73745100
116.46665993	0.00000000	25.29527000	3.11269700
116.66665991	0.00000000	25.29527000	3.15575800
116.86665990	0.00000000	25.29527000	3.15575800
117.06665989	0.00000000	25.33834000	3.11269700
117.26665988	0.00000000	25.71358000	2.73745100
117.46665987	0.00000000	26.50098000	1.95004900
117.66665985	0.00000000	27.25147000	1.19955700
117.86665984	0.00000000	28.03888000	0.41830710
118.06665983	0.00000000	28.36491000	0.04306102
118.26665982	0.00000000	28.03888000	0.00000000
118.46665981	0.00000000	27.25147000	0.04306102
118.66665980	0.00000000	26.45792000	0.46136810
118.86665978	0.00000000	25.29527000	1.57480300
119.06665977	0.00000000	24.13263000	2.68823800
119.26665976	0.00000000	23.33907000	3.11269700
119.46665975	0.00000000	22.60088000	3.15575800
119.66665974	0.00000000	22.64394000	3.15575800
119.86665972	0.00000000	23.75738000	3.15575800
120.06665971	0.00000000	25.29527000	3.15575800
120.26665970	0.00000000	26.83317000	3.11269700
120.46665969	0.00000000	27.98966000	2.73745100
120.66665968	0.00000000	28.45718000	1.99311000
120.86665966	0.00000000	28.78937000	1.57480300
121.06665965	0.00000000	28.77707000	1.15649600
121.26665964	0.00000000	27.62672000	0.46136810
121.46665963	0.00000000	26.50098000	0.41830710
121.66665962	0.00000000	25.29527000	0.78124990
121.86665961	0.00000000	24.13263000	0.79355310
122.06665959	0.00000000	23.38214000	1.19955700
122.26665958	0.00000000	22.96998000	1.57480300
122.46665957	0.00000000	23.38214000	1.99311000
122.66665956	0.00000000	24.08957000	2.73745100
122.86665955	0.00000000	24.92003000	3.11269700
123.06665953	0.00000000	25.67052000	3.15575800
123.26665952	0.00000000	26.50098000	3.15575800
123.46665951	0.00000000	27.20841000	3.11269700
123.66665950	0.00000000	27.62057000	2.73745100
123.86665949	0.00000000	27.25147000	1.95004900
124.06665947	0.00000000	26.87623000	1.19955700
124.26665946	0.00000000	26.45792000	0.41830710
124.46665945	0.00000000	25.71358000	0.04306102
124.66665944	0.00000000	25.29527000	0.04306102
124.86665943	0.00000000	24.87697000	0.41830710
125.06665942	0.00000000	24.13263000	1.15649600
125.26665940	0.00000000	23.75738000	1.57480300
125.46665939	0.00000000	23.71432000	1.99311000
125.66665938	0.00000000	23.75738000	2.73745100
125.86665937	0.00000000	24.13263000	3.11269700
126.06665936	0.00000000	24.92003000	3.15575800
126.26665934	0.00000000	25.71358000	3.11269700
126.46665933	0.00000000	26.87623000	2.73745100
126.66665932	0.00000000	27.94660000	1.99311000
126.86665931	0.00000000	27.98966000	1.61786400
127.06665930	0.00000000	27.25147000	1.57480300
127.26665928	0.00000000	26.45792000	1.53174200
127.46665927	0.00000000	25.29527000	1.19955700
127.66665926	0.00000000	24.18184000	0.83661410
127.86665925	0.00000000	23.75738000	1.19955700
128.06665924	0.00000000	23.71432000	1.53174200
128.26665923	0.00000000	23.75738000	1.61786400
128.46665921	0.00000000	24.18184000	1.99311000
128.66665920	0.00000000	25.29527000	2.73745100
128.86665919	0.00000000	26.40871000	3.06348400
129.06665918	0.00000000	26.83317000	2.73745100
129.26665917	0.00000000	26.87623000	1.99311000
129.46665915	0.00000000	26.83317000	1.61786400
129.66665914	0.00000000	26.45792000	1.57480300
129.86665913	0.00000000	25.67052000	1.57480300
130.06665912	0.00000000	24.92003000	1.57480300
130.26665911	0.00000000	24.13263000	1.57480300
130.46665909	0.00000000	23.75738000	1.57480300
130.66665908	0.00000000	23.75738000	1.61786400
130.86665907	0.00000000	24.13263000	1.99311000
131.06665906	0.00000000	24.92003000	2.73745100
131.26665905	0.00000000	25.67052000	3.11269700
131.46665904	0.00000000	26.45792000	3.11269700
131.66665902	0.00000000	26.83317000	2.73745100
131.86665901	0.00000000	26.87623000	1.95004900
132.06665900	0.00000000	26.83317000	1.19955700
132.26665899	0.00000000	26.45792000	0.41830710
132.46665898	0.00000000	25.67052000	0.04306102
132.66665896	0.00000000	24.92003000	0.04306102
132.86665895	0.00000000	24.18184000	0.41830710
133.06665894	0.00000000	24.18184000	1.19955700
133.26665893	0.00000000	24.87697000	1.95004900
133.46665892	0.00000000	25.25221000	2.73745100
133.66665890	0.00000000	25.29527000	3.11269700
133.86665889	0.00000000	25.33834000	3.15575800
134.06665888	0.00000000	25.67052000	3.11269700
134.26665887	0.00000000	26.03961000	2.73745100
134.46665886	0.00000000	25.67052000	1.95004900
134.66665885	0.00000000	25.33834000	1.19955700
134.86665883	0.00000000	25.29527000	0.41830710
135.06665882	0.00000000	25.29527000	0.00000000
135.26665881	0.00000000	25.33834000	-0.37524600
135.46665880	0.00000000	25.71358000	-0.69512790
135.66665879	0.00000000	26.40871000	0.04306102
135.86665877	0.00000000	26.40871000	1.15649600
136.06665876	0.00000000	25.71358000	1.95004900
136.26665875	0.00000000	25.29527000	2.73745100
136.46665874	0.00000000	24.87697000	3.11269700
136.66665873	0.00000000	24.13263000	3.15575800
136.86665871	0.00000000	23.75738000	3.15575800
137.06665870	0.00000000	23.75738000	3.11269700
137.26665869	0.00000000	24.13263000	2.73745100
137.46665868	0.00000000	24.92003000	1.95004900
137.66665867	0.00000000	25.67052000	1.19955700
137.86665866	0.00000000	26.45792000	0.41830710
138.06665864	0.00000000	26.83317000	0.04306102
138.26665863	0.00000000	26.83317000	0.00000000
138.46665862	0.00000000	26.45792000	0.00000000
138.66665861	0.00000000	25.67052000	0.04306102
138.86665860	0.00000000	24.92003000	0.41830710
139.06665858	0.00000000	24.13263000	1.19955700
139.26665857	0.00000000	23.75738000	1.95004900
139.46665856	0.00000000	23.75738000	2.73745100
139.66665855	0.00000000	24.13263000	3.11269700
139.86665854	0.00000000	24.87697000	3.15575800
140.06665852	0.00000000	25.29527000	3.15575800
140.26665851	0.00000000	25.71358000	3.11269700
140.46665850	0.00000000	26.45792000	2.68823800
140.66665849	0.00000000	26.78395000	1.57480300
140.86665848	0.00000000	26.45792000	0.41830710
141.06665847	0.00000000	25.71358000	-0.32603340
141.26665845	0.00000000	25.33834000	-0.73818890
141.46665844	0.00000000	25.25221000	-0.32603340
141.66665843	0.00000000	24.92003000	0.41830710
141.86665842	0.00000000	24.55093000	1.57480300
142.06665841	0.00000000	24.92003000	2.68823800
142.26665839	0.00000000	25.25221000	3.15575800
142.46665838	0.00000000	25.29527000	3.53100400
142.66665837	0.00000000	25.29527000	3.90009800
142.86665836	0.00000000	25.29527000	3.48794300
143.06665835	0.00000000	25.29527000	2.78051200
143.26665834	0.00000000	25.29527000	1.95004900
143.46665832	0.00000000	25.29527000	1.19955700
143.66665831	0.00000000	25.25221000	0.41830710
143.86665830	0.00000000	24.92003000	0.09227362
144.06665829	0.00000000	24.55093000	0.41830710
144.26665828	0.00000000	24.92003000	1.15649600
144.46665826	0.00000000	25.25221000	1.57480300
144.66665825	0.00000000	25.29527000	1.99311000
144.86665824	0.00000000	25.29527000	2.73745100
145.06665823	0.00000000	25.29527000	3.11269700
145.26665822	0.00000000	25.29527000	3.11269700
145.46665820	0.00000000	25.29527000	2.73745100
145.66665819	0.00000000	25.29527000	1.99311000
145.86665818	0.00000000	25.25221000	1.57480300
146.06665817	0.00000000	24.87697000	1.15649600
146.26665816	0.00000000	24.18184000	0.41830710
146.46665815	0.00000000	24.18184000	0.04306102
146.66665813	0.00000000	24.87697000	0.00000000
146.86665812	0.00000000	25.29527000	0.04306102
147.06665811	0.00000000	25.71358000	0.41830710
147.26665810	0.00000000	26.45792000	1.15649600
147.46665809	0.00000000	26.78395000	1.57480300
147.66665807	0.00000000	26.45792000	1.99311000
147.86665806	0.00000000	25.71358000	2.73745100
148.06665805	0.00000000	25.33834000	3.06348400
148.26665804	0.00000000	25.25221000	2.73745100
148.46665803	0.00000000	24.87697000	1.99311000
148.66665801	0.00000000	24.13263000	1.61786400
148.86665800	0.00000000	23.80659000	1.57480300
149.06665799	0.00000000	24.13263000	1.57480300
149.26665798	0.00000000	24.87697000	1.57480300
149.46665797	0.00000000	25.29527000	1.57480300
149.66665796	0.00000000	25.67052000	1.57480300
149.86665794	0.00000000	26.03961000	1.57480300
150.06665793	0.00000000	25.67052000	1.57480300
150.26665792	0.00000000	25.33834000	1.61786400
150.46665791	0.00000000	25.29527000	1.95004900
150.66665790	0.00000000	25.29527000	2.31914400
150.86665788	0.00000000	25.25221000	1.99311000
151.06665787	0.00000000	24.87697000	1.99311000
151.26665786	0.00000000	24.13263000	2.31914400
151.46665785	0.00000000	23.75738000	1.95004900
151.66665784	0.00000000	23.75738000	1.61786400
151.86665782	0.00000000	24.13263000	1.57480300
152.06665781	0.00000000	24.87697000	1.57480300
152.26665780	0.00000000	25.25221000	1.57480300
152.46665779	0.00000000	25.29527000	1.57480300
152.66665778	0.00000000	25.29527000	1.57480300
152.86665777	0.00000000	25.29527000	1.57480300
153.06665775	0.00000000	25.29527000	1.57480300
153.26665774	0.00000000	25.29527000	1.57480300
153.46665773	0.00000000	25.29527000	1.57480300
153.66665772	0.00000000	25.29527000	1.57480300
153.86665771	0.00000000	25.25221000	1.61786400
154.06665769	0.00000000	24.87697000	1.95004900
154.26665768	0.00000000	24.13263000	2.31914400
154.46665767	0.00000000	23.75738000	1.95004900
154.66665766	0.00000000	23.75738000	1.61786400
154.86665765	0.00000000	24.13263000	1.57480300
155.06665763	0.00000000	24.87697000	1.57480300
155.26665762	0.00000000	25.25221000	1.57480300
155.46665761	0.00000000	25.29527000	1.57480300
155.66665760	0.00000000	25.29527000	1.57480300
155.86665759	0.00000000	25.29527000	1.57480300
156.06665758	0.00000000	25.29527000	1.57480300
156.26665756	0.00000000	25.29527000	1.57480300
156.46665755	0.00000000	25.25221000	1.57480300
156.66665754	0.00000000	24.92003000	1.57480300
156.86665753	0.00000000	24.50787000	1.61786400
157.06665752	0.00000000	24.50172000	1.99311000
157.26665750	0.00000000	24.08957000	2.68823800
157.46665749	0.00000000	23.75738000	2.68823800
157.66665748	0.00000000	23.75738000	1.99311000
157.86665747	0.00000000	24.13263000	1.61786400
158.06665746	0.00000000	24.87697000	1.57480300
158.26665744	0.00000000	25.25221000	1.53174200
158.46665743	0.00000000	25.29527000	1.15649600
158.66665742	0.00000000	25.29527000	0.41830710
158.86665741	0.00000000	25.29527000	0.09227362
159.06665740	0.00000000	25.29527000	0.41830710
159.26665739	0.00000000	25.29527000	1.15649600
159.46665737	0.00000000	25.29527000	1.53174200
159.66665736	0.00000000	25.25221000	1.61786400
159.86665735	0.00000000	24.92003000	1.99311000
160.06665734	0.00000000	24.50787000	2.73745100
160.26665733	0.00000000	24.50172000	3.11269700
160.46665731	0.00000000	24.08957000	3.11269700
160.66665730	0.00000000	23.80659000	2.73745100
160.86665729	0.00000000	24.08957000	1.99311000
161.06665728	0.00000000	24.50172000	1.61786400
161.26665727	0.00000000	24.50787000	1.53174200
161.46665725	0.00000000	24.92003000	1.19955700
161.66665724	0.00000000	25.25221000	0.83661410
161.86665723	0.00000000	25.29527000	1.19955700
162.06665722	0.00000000	25.29527000	1.53174200
162.26665721	0.00000000	25.29527000	1.57480300
162.46665720	0.00000000	25.29527000	1.61786400
162.66665718	0.00000000	25.29527000	1.95004900
162.86665717	0.00000000	25.25221000	2.31914400
163.06665716	0.00000000	24.87697000	1.95004900
163.26665715	0.00000000	24.13263000	1.61786400
163.46665714	0.00000000	23.75738000	1.61786400
163.66665712	0.00000000	23.71432000	1.95004900
163.86665711	0.00000000	23.71432000	2.31914400
164.06665710	0.00000000	23.75738000	1.95004900
164.26665709	0.00000000	24.13263000	1.61786400
164.46665708	0.00000000	24.87697000	1.57480300
164.66665706	0.00000000	25.25221000	1.57480300
164.86665705	0.00000000	25.29527000	1.57480300
165.06665704	0.00000000	25.29527000	1.53174200
165.26665703	0.00000000	25.29527000	1.19955700
165.46665702	0.00000000	25.29527000	0.83661410
165.66665701	0.00000000	25.25221000	1.19955700
165.86665699	0.00000000	24.87697000	1.53174200
166.06665698	0.00000000	24.18184000	1.57480300
166.26665697	0.00000000	24.13263000	1.57480300
166.46665696	0.00000000	24.45866000	1.57480300
166.66665695	0.00000000	24.08957000	1.57480300
166.86665693	0.00000000	23.75738000	1.57480300
167.06665692	0.00000000	23.71432000	1.57480300
167.26665691	0.00000000	23.75738000	1.53174200
167.46665690	0.00000000	24.13263000	1.19955700
167.66665689	0.00000000	24.87697000	0.83661410
167.86665687	0.00000000	25.25221000	1.19955700
168.06665686	0.00000000	25.29527000	1.53174200
168.26665685	0.00000000	25.29527000	1.57480300
168.46665684	0.00000000	25.29527000	1.57480300
168.66665683	0.00000000	25.29527000	1.57480300
168.86665682	0.00000000	25.29527000	1.57480300
169.06665680	0.00000000	25.29527000	1.57480300
169.26665679	0.00000000	25.25221000	1.57480300
169.46665678	0.00000000	24.87697000	1.57480300
169.66665677	0.00000000	24.13263000	1.57480300
169.86665676	0.00000000	23.75738000	1.57480300
170.06665674	0.00000000	23.71432000	1.57480300
170.26665673	0.00000000	23.75738000	1.57480300
170.46665672	0.00000000	24.13263000	1.57480300
170.66665671	0.00000000	24.87697000	1.57480300
170.86665670	0.00000000	25.25221000	1.57480300
171.06665668	0.00000000	25.29527000	1.57480300
171.26665667	0.00000000	25.29527000	1.57480300
171.46665666	0.00000000	25.29527000	1.57480300
171.66665665	0.00000000	25.29527000	1.57480300
171.86665664	0.00000000	25.29527000	1.57480300
172.06665663	0.00000000	25.29527000	1.57480300
172.26665661	0.00000000	25.25221000	1.57480300
172.46665660	0.00000000	24.92003000	1.57480300
172.66665659	0.00000000	24.55093000	1.57480300
172.86665658	0.00000000	24.92003000	1.57480300
173.06665657	0.00000000	25.20300000	1.57480300
173.26665655	0.00000000	24.87697000	1.57480300
173.46665654	0.00000000	24.18184000	1.57480300
173.66665653	0.00000000	24.18184000	1.57480300
173.86665652	0.00000000	24.87697000	1.57480300
174.06665651	0.00000000	25.25221000	1.57480300
174.26665649	0.00000000	25.29527000	1.57480300
174.46665648	0.00000000	25.29527000	1.57480300
174.66665647	0.00000000	25.29527000	1.57480300
174.86665646	0.00000000	25.25221000	1.57480300
175.06665645	0.00000000	24.87697000	1.57480300
175.26665644	0.00000000	24.13263000	1.53174200
175.46665642	0.00000000	23.75738000	1.19955700
175.66665641	0.00000000	23.75738000	0.83661410
175.86665640	0.00000000	24.13263000	1.19955700
176.06665639	0.00000000	24.87697000	1.53174200
176.26665638	0.00000000	25.25221000	1.57480300
176.46665636	0.00000000	25.29527000	1.57480300
176.66665635	0.00000000	25.29527000	1.57480300
176.86665634	0.00000000	25.29527000	1.57480300
177.06665633	0.00000000	25.29527000	1.57480300
177.26665632	0.00000000	25.29527000	1.57480300
177.46665630	0.00000000	25.25221000	1.57480300
177.66665629	0.00000000	24.87697000	1.57480300
177.86665628	0.00000000	24.13263000	1.57480300
178.06665627	0.00000000	23.75738000	1.57480300
178.26665626	0.00000000	23.71432000	1.57480300
178.46665625	0.00000000	23.71432000	1.57480300
178.66665623	0.00000000	23.71432000	1.57480300
178.86665622	0.00000000	23.75738000	1.57480300
179.06665621	0.00000000	24.13263000	1.57480300
179.26665620	0.00000000	24.87697000	1.57480300
179.46665619	0.00000000	25.25221000	1.57480300
179.66665617	0.00000000	25.29527000	1.57480300
179.86665616	0.00000000	25.25221000	1.53174200
180.06665615	0.00000000	24.92003000	1.15649600
180.26665614	0.00000000	24.55093000	0.41830710
180.46665613	0.00000000	24.87697000	0.09227362
180.66665611	0.00000000	24.82775000	0.41830710
180.86665610	0.00000000	24.13263000	1.15649600
181.06665609	0.00000000	23.75738000	1.53174200
181.26665608	0.00000000	23.71432000	1.57480300
181.46665607	0.00000000	23.71432000	1.57480300
181.66665606	0.00000000	23.71432000	1.57480300
181.86665604	0.00000000	23.75738000	1.57480300
182.06665603	0.00000000	24.13263000	1.57480300
182.26665602	0.00000000	24.87697000	1.57480300
182.46665601	0.00000000	25.25221000	1.57480300
182.66665600	0.00000000	25.29527000	1.57480300
182.86665598	0.00000000	25.29527000	1.57480300
183.06665597	0.00000000	25.29527000	1.57480300
183.26665596	0.00000000	25.25221000	1.53174200
183.46665595	0.00000000	24.87697000	1.19955700
183.66665594	0.00000000	24.13263000	0.83661410
183.86665592	0.00000000	23.75738000	1.19955700
184.06665591	0.00000000	23.71432000	1.53174200
184.26665590	0.00000000	23.71432000	1.57480300
184.46665589	0.00000000	23.71432000	1.57480300
184.66665588	0.00000000	23.71432000	1.57480300
184.86665587	0.00000000	23.71432000	1.57480300
185.06665585	0.00000000	23.71432000	1.57480300
185.26665584	0.00000000	23.75738000	1.57480300
185.46665583	0.00000000	24.13263000	1.57480300
185.66665582	0.00000000	24.87697000	1.57480300
185.86665581	0.00000000	25.25221000	1.57480300
186.06665579	0.00000000	25.25221000	1.53174200
186.26665578	0.00000000	24.92003000	1.15649600
186.46665577	0.00000000	24.55093000	0.41830710
186.66665576	0.00000000	24.87697000	0.09227362
186.86665575	0.00000000	24.82775000	0.41830710
187.06665573	0.00000000	24.13263000	1.15649600
187.26665572	0.00000000	23.75738000	1.53174200
187.46665571	0.00000000	23.71432000	1.57480300
187.66665570	0.00000000	23.71432000	1.57480300
187.86665569	0.00000000	23.71432000	1.57480300
188.06665568	0.00000000	23.71432000	1.57480300
188.26665566	0.00000000	23.71432000	1.57480300
188.46665565	0.00000000	23.71432000	1.57480300
188.66665564	0.00000000	23.75738000	1.53174200
188.86665563	0.00000000	24.13263000	1.15649600
189.06665562	0.00000000	24.87697000	0.41830710
189.26665560	0.00000000	25.25221000	0.04306102
189.46665559	0.00000000	25.25221000	0.04306102
189.66665558	0.00000000	24.87697000	0.41830710
189.86665557	0.00000000	24.13263000	1.15649600
190.06665556	0.00000000	23.75738000	1.53174200
190.26665554	0.00000000	23.71432000	1.57480300
190.46665553	0.00000000	23.71432000	1.57480300
190.66665552	0.00000000	23.71432000	1.57480300
190.86665551	0.00000000	23.71432000	1.57480300
191.06665550	0.00000000	23.71432000	1.57480300
191.26665549	0.00000000	23.75738000	1.57480300
191.46665547	0.00000000	24.08957000	1.57480300
191.66665546	0.00000000	24.50172000	1.57480300
191.86665545	0.00000000	24.50787000	1.57480300
192.06665544	0.00000000	24.87697000	1.57480300
192.26665543	0.00000000	24.87697000	1.57480300
192.46665541	0.00000000	24.55093000	1.57480300
192.66665540	0.00000000	24.87697000	1.57480300
192.86665539	0.00000000	24.87697000	1.57480300
193.06665538	0.00000000	24.50787000	1.53174200
193.26665537	0.00000000	24.50172000	1.19955700
193.46665535	0.00000000	24.08957000	0.83661410
193.66665534	0.00000000	23.75738000	1.19955700
193.86665533	0.00000000	23.71432000	1.53174200
194.06665532	0.00000000	23.71432000	1.57480300
194.26665531	0.00000000	23.75738000	1.57480300
194.46665530	0.00000000	24.13263000	1.57480300
194.66665528	0.00000000	24.87697000	1.57480300
194.86665527	0.00000000	25.25221000	1.57480300
195.06665526	0.00000000	25.29527000	1.57480300
195.26665525	0.00000000	25.25221000	1.57480300
195.46665524	0.00000000	24.87697000	1.57480300
195.66665522	0.00000000	24.13263000	1.57480300
195.86665521	0.00000000	23.75738000	1.57480300
196.06665520	0.00000000	23.71432000	1.57480300
