Time	Channel A	Channel B	Channel C
(us)	(V)	(mV)	(mV)

-4.49999956	0.00000000	44.27288000	9.47342500
-4.29999957	0.00000000	44.27288000	9.47342500
-4.09999958	0.00000000	44.27288000	9.47342500
-3.89999959	0.00000000	44.27288000	9.47342500
-3.69999960	0.00000000	44.27288000	9.47342500
-3.49999962	0.00000000	44.27288000	9.47342500
-3.29999963	0.00000000	44.27288000	9.47342500
-3.09999964	0.00000000	44.27288000	9.47342500
-2.89999965	0.00000000	44.27288000	9.47342500
-2.69999966	0.00000000	44.27288000	9.47342500
-2.49999968	0.00000000	44.27288000	9.47342500
-2.29999969	0.00000000	44.27288000	9.47342500
-2.09999970	0.00000000	44.27288000	9.47342500
-1.89999971	0.00000000	44.27288000	9.47342500
-1.69999972	0.00000000	44.27288000	9.47342500
-1.49999973	0.00000000	44.27288000	9.47342500
-1.29999975	0.00000000	44.27288000	9.47342500
-1.09999976	0.00000000	44.22982000	9.47342500
-0.89999977	0.00000000	43.85457000	9.47342500
-0.69999978	0.00000000	43.15945000	9.43036400
-0.49999979	0.00000000	43.15945000	9.09817800
-0.29999981	0.15871060	43.85457000	8.68602300
-0.09999982	0.63668800	44.18061000	8.67987200
0.10000017	0.95533960	43.89763000	8.31077700
0.30000016	0.95533960	43.48548000	8.35998900
0.50000015	0.95533960	43.47933000	9.00590400
0.70000013	0.47736220	43.06717000	9.00590400
0.90000012	-0.31803640	42.73499000	8.35998900
1.10000011	-1.27399100	42.69193000	8.35998900
1.30000010	-2.22994600	42.73499000	9.05511800
1.50000009	-2.70792300	43.11023000	9.43036400
1.70000008	-2.54859700	43.85457000	9.47342500
1.90000006	-1.59264300	44.22982000	9.47342500
2.10000005	0.15871060	44.22982000	9.47342500
2.30000004	2.22994600	43.89763000	9.47342500
2.50000003	4.14124000	43.52854000	9.47342500
2.70000002	5.25652100	43.85457000	9.47342500
2.90000000	5.09719500	43.80536000	9.43036400
3.09999999	3.50393700	43.11023000	9.05511800
3.29999998	0.63668800	42.78420000	8.35998900
3.49999997	-2.86724900	43.11023000	8.35998900
3.69999996	-5.89382400	43.85457000	9.05511800
3.89999994	-7.80511800	44.22982000	9.47342500
4.09999993	-7.80511800	44.27288000	9.84867000
4.29999992	-5.73449800	44.27288000	10.21161000
4.49999991	-1.91129400	44.27288000	9.84867000
4.69999990	2.38927200	44.22982000	9.51648500
4.89999989	6.37180100	43.85457000	9.47342500
5.09999987	8.92039900	43.11023000	9.43036400
5.29999986	9.23905000	42.73499000	9.05511800
5.49999985	7.32714100	42.69193000	8.31077700
5.69999984	3.34522600	42.69193000	7.93553100
5.89999983	-1.43331700	42.69193000	7.93553100
6.09999981	-5.73449800	42.73499000	8.31077700
6.29999980	-8.76107300	43.11023000	9.05511800
6.49999979	-9.39837600	43.85457000	9.43036400
6.69999978	-7.80511800	44.22982000	9.47342500
6.89999977	-4.30056600	44.27288000	9.47342500
7.09999975	0.00000000	44.27288000	9.47342500
7.29999974	4.14124000	44.22982000	9.47342500
7.49999973	6.84916400	43.89763000	9.47342500
7.69999972	7.80511800	43.52854000	9.47342500
7.89999971	6.69045300	43.85457000	9.43036400
8.09999970	4.14124000	43.80536000	9.05511800
8.29999968	0.79601380	43.11023000	8.31077700
8.49999967	-2.22994600	42.78420000	7.93553100
8.69999966	-4.45989200	43.11023000	7.93553100
8.89999965	-5.25652100	43.80536000	8.31077700
9.09999964	-4.61921700	43.85457000	9.05511800
9.29999962	-3.02657500	43.48548000	9.43036400
9.49999961	-1.11466500	43.47933000	9.47342500
9.69999960	0.79601380	43.06717000	9.47342500
9.89999959	2.07062000	42.73499000	9.47342500
10.09999958	2.54859700	42.73499000	9.47342500
10.29999956	2.38927200	43.06717000	9.47342500
10.49999955	1.59264300	43.47933000	9.47342500
10.69999954	0.79601380	43.44242000	9.47342500
10.89999953	0.00000000	43.47933000	9.47342500
11.09999952	-0.63668800	43.06717000	9.47342500
11.29999951	-0.95533960	42.73499000	9.47342500
11.49999949	-0.95533960	42.69193000	9.43036400
11.69999948	-0.79601380	42.69193000	9.09817800
11.89999947	-0.47736220	42.73499000	8.72908400
12.09999946	-0.15871060	43.06717000	9.09817800
12.29999945	-0.15871060	43.43627000	9.43036400
12.49999943	-0.15871060	43.11023000	9.47342500
12.69999942	0.00000000	43.11023000	9.47342500
12.89999941	0.00000000	43.43627000	9.47342500
13.09999940	0.00000000	43.06717000	9.47342500
13.29999939	0.00000000	42.78420000	9.47342500
13.49999937	0.00000000	43.06717000	9.47342500
13.69999936	0.00000000	43.47933000	9.47342500
13.89999935	0.00000000	43.44242000	9.43036400
14.09999934	-0.15871060	43.52239000	9.09817800
14.29999933	-0.15871060	43.44242000	8.72908400
14.49999932	-0.15871060	43.47933000	9.09817800
14.69999930	0.00000000	43.06717000	9.43036400
14.89999929	0.00000000	42.73499000	9.47342500
15.09999928	0.00000000	42.69193000	9.47342500
15.29999927	0.15871060	42.69193000	9.47342500
15.49999926	0.00000000	42.69193000	9.43036400
15.69999924	0.00000000	42.69193000	9.09817800
15.89999923	0.00000000	42.69193000	8.72908400
16.09999922	0.00000000	42.69193000	9.09817800
16.29999921	0.00000000	42.69193000	9.43036400
16.49999920	-0.15871060	42.73499000	9.47342500
16.69999919	-0.15871060	43.11023000	9.47342500
16.89999917	0.00000000	43.85457000	9.43036400
17.09999916	0.00000000	44.27288000	9.05511800
17.29999915	0.00000000	44.64813000	8.35998900
17.49999914	0.00000000	45.01722000	8.35998900
17.69999913	0.00000000	44.64813000	9.05511800
17.89999911	0.00000000	44.27288000	9.43036400
18.09999910	0.00000000	43.80536000	9.47342500
18.29999909	0.00000000	42.64886000	9.47342500
18.49999908	0.00000000	41.11097000	9.43036400
18.69999907	0.00000000	39.57308000	9.09817800
18.89999905	0.00000000	38.41658000	8.72908400
19.09999904	0.00000000	38.08440000	9.09817800
19.29999903	0.00000000	38.87795000	9.38115100
19.49999902	0.00000000	41.24631000	9.09817800
19.69999901	0.00000000	44.69119000	8.72908400
19.89999900	0.00000000	48.59744000	9.09817800
20.09999898	0.00000000	52.04232000	9.43036400
20.29999897	0.00000000	54.31840000	9.47342500
20.49999896	0.00000000	54.23228000	9.43036400
20.69999895	0.00000000	51.15649000	9.09817800
20.89999894	0.00000000	45.67544000	8.72908400
21.09999892	0.00000000	38.68725000	9.09817800
21.29999891	0.00000000	30.96703000	9.43036400
21.49999890	0.00000000	24.87082000	9.43036400
21.69999889	0.00000000	22.17027000	9.05511800
21.89999888	0.00000000	23.84350000	8.31077700
22.09999886	0.00000000	30.45029000	7.98474400
22.29999885	0.00000000	41.33243000	8.26771600
22.49999884	0.00000000	54.04773000	8.63681000
22.69999883	0.00000000	66.00024000	8.31077700
22.89999882	0.00000000	73.63435000	8.35998900
23.09999881	0.00000000	74.75394000	9.09817800
23.29999879	-0.15871060	68.51624000	9.84867000
23.49999878	0.00000000	55.67790000	10.62992000
23.69999877	0.00000000	38.68725000	11.00517000
23.89999876	0.00000000	20.92150000	11.04823000
24.09999875	0.00000000	7.09891700	11.00517000
24.29999873	0.00000000	0.58439960	10.62992000
24.49999872	0.00000000	3.78937000	9.84867000
24.69999871	0.00000000	16.91068000	9.00590400
24.89999870	0.00000000	36.96481000	7.43110200
25.09999869	0.00000000	59.01821000	5.19808000
25.29999867	0.00000000	78.33414000	3.66633800
25.49999866	0.00000000	90.65575000	3.29109200
25.69999865	0.00000000	92.47662000	4.03543200
25.89999864	0.00000000	82.84325000	6.02854300
26.09999863	0.00000000	63.49040000	8.77214500
26.29999862	0.00000000	39.19783000	12.67224000
26.49999860	0.00000000	15.24360000	16.85531000
26.69999859	0.00000000	-2.48523600	19.88189000
26.89999858	0.00000000	-9.83636800	20.62008000
27.09999857	0.00000000	-5.22883800	18.30093000
27.29999856	0.00000000	10.21161000	13.61343000
27.49999854	0.00000000	32.59719000	6.96358300
27.69999853	0.00000000	56.96973000	-1.07037400
27.89999852	0.00000000	77.82357000	-7.99089500
28.09999851	0.00000000	90.61269000	-11.80487000
28.29999850	0.00000000	92.52583000	-11.75566000
28.49999848	0.00000000	83.35384000	-6.64985200
28.69999847	0.00000000	65.63115000	2.59596400
28.89999846	0.00000000	44.35900000	14.21014000
29.09999845	0.00000000	23.80044000	25.77510000
29.29999844	0.00000000	7.97859100	34.65182000
29.49999843	0.00000000	0.58439960	38.84104000
29.69999841	0.00000000	2.81742100	36.84178000
29.89999840	0.00000000	13.19513000	28.29109000
30.09999839	0.00000000	29.01082000	14.76993000
30.29999838	0.00000000	46.45669000	-1.07037400
30.49999837	0.00000000	61.95866000	-15.70497000
30.69999835	0.00000000	72.84079000	-25.69513000
30.89999834	0.00000000	76.70399000	-28.38951000
31.09999833	0.00000000	73.35137000	-22.95768000
31.29999832	0.00000000	64.09325000	-10.59301000
31.49999831	0.00000000	51.71013000	6.40378900
31.69999829	0.00000000	38.50270000	24.20029000
31.89999828	0.00000000	26.87008000	39.25935000
32.09999827	0.00000000	19.14370000	48.49901000
32.29999826	0.00000000	16.77534000	49.24335000
32.49999825	0.00000000	20.21407000	41.52928000
32.69999824	0.00000000	27.94045000	26.85162000
32.89999822	0.00000000	38.36737000	8.31077700
33.09999821	0.00000000	49.15723000	-9.85482200
33.29999820	0.00000000	57.30192000	-24.11417000
33.49999819	0.00000000	61.66953000	-31.12697000
33.69999818	0.00000000	62.00172000	-29.60138000
33.89999816	0.00000000	58.13238000	-20.71850000
34.09999815	0.00000000	50.46136000	-5.62253900
34.29999814	0.00000000	41.66461000	12.07554000
34.49999813	0.00000000	34.26427000	28.34030000
34.69999812	0.00000000	29.61368000	39.95448000
34.89999810	0.00000000	28.45103000	44.55585000
35.09999809	0.00000000	31.10236000	41.11097000
35.29999808	0.00000000	36.45423000	30.37647000
35.49999807	0.00000000	42.64886000	15.74188000
35.69999806	0.00000000	48.46210000	0.63976370
35.89999805	0.00000000	52.65133000	-12.08169000
36.09999803	0.00000000	53.80782000	-19.42667000
36.29999802	0.00000000	51.53174000	-19.84498000
36.49999801	0.00000000	46.96727000	-13.70571000
36.69999800	0.00000000	41.57849000	-2.55905500
36.89999799	0.00000000	36.92175000	10.49459000
37.09999797	0.00000000	33.84596000	22.06570000
37.29999796	0.00000000	33.10777000	29.36146000
37.49999795	0.00000000	35.38385000	30.56717000
37.69999794	0.00000000	39.57308000	25.59670000
37.89999793	0.00000000	44.22982000	16.43701000
38.09999791	0.00000000	48.46210000	5.66560000
38.29999790	0.00000000	51.20571000	-3.49409400
38.49999789	0.00000000	51.95005000	-8.50762700
38.69999788	0.00000000	50.83046000	-7.72022600
38.89999787	0.00000000	47.71776000	-1.67322800
39.09999786	0.00000000	43.85457000	7.51722400
39.29999784	0.00000000	39.57308000	16.72613000
39.49999783	0.00000000	35.75910000	23.64665000
39.69999782	0.00000000	33.80290000	26.24877000
39.89999781	0.00000000	33.75369000	23.17913000
40.09999780	0.00000000	35.29773000	15.18824000
40.29999778	0.00000000	38.04134000	5.19808000
40.49999777	0.00000000	41.52928000	-4.00467500
40.69999776	0.00000000	45.38631000	-10.13164000
40.89999775	0.00000000	48.50517000	-10.87598000
41.09999774	0.00000000	50.46136000	-6.27460600
41.29999772	0.00000000	51.20571000	2.55290300
41.49999771	0.00000000	50.04306000	13.23819000
41.69999770	0.00000000	47.39173000	22.10876000
41.89999769	0.00000000	44.27288000	27.17766000
42.09999768	0.00000000	41.15403000	27.96506000
42.29999767	0.00000000	38.41658000	24.02190000
42.49999765	0.00000000	36.50344000	16.06791000
42.69999764	0.00000000	35.71604000	6.45915300
42.89999763	0.00000000	36.46038000	-1.26107300
43.09999762	0.00000000	37.99213000	-6.36687900
43.29999761	0.00000000	39.94832000	-7.85556000
43.49999759	0.00000000	42.22441000	-5.20423200
43.69999758	0.00000000	43.80536000	0.51058070
43.89999757	0.00000000	44.64813000	7.43110200
44.09999756	0.00000000	45.43553000	13.61343000
44.29999755	0.00000000	45.81078000	17.88263000
44.49999753	0.00000000	45.85384000	19.46358000
44.69999752	0.00000000	45.89690000	18.35015000
44.89999751	0.00000000	46.22908000	15.27436000
45.09999750	0.00000000	46.59818000	11.09129000
45.29999749	0.00000000	46.18602000	7.19734200
45.49999748	0.00000000	45.34325000	4.44758800
45.69999746	0.00000000	43.30093000	2.50369100
45.89999745	0.00000000	39.48696000	2.12844500
46.09999744	0.00000000	35.29773000	3.24803100
46.29999743	0.00000000	32.17273000	5.19808000
46.49999742	0.00000000	30.63484000	7.89247000
46.69999740	0.00000000	31.10236000	10.53765000
46.89999739	0.00000000	34.26427000	12.11860000
47.09999738	0.00000000	40.04060000	12.58612000
47.29999737	0.00000000	46.96727000	12.58612000
47.49999736	0.00000000	53.16190000	12.11860000
47.69999734	0.00000000	57.43725000	10.53765000
47.89999733	0.00000000	58.92593000	7.89247000
48.09999732	0.00000000	56.88361000	5.24729300
48.29999731	0.00000000	50.73819000	3.66633800
48.49999730	0.00000000	41.90453000	3.24803100
48.69999729	0.00000000	33.37844000	3.66633800
48.89999727	0.00000000	26.40256000	5.24729300
49.09999726	0.00000000	22.63779000	7.93553100
49.29999725	0.00000000	23.79429000	11.00517000
49.49999724	0.00000000	29.57062000	13.69956000
49.69999723	0.00000000	38.41043000	15.23130000
49.89999721	0.00000000	48.08686000	15.23130000
50.09999720	0.00000000	56.18848000	13.65650000
50.29999719	0.00000000	61.20817000	10.53765000
50.49999718	0.00000000	61.53420000	6.35457700
50.69999717	0.00000000	56.96973000	2.50369100
50.89999715	0.00000000	48.88041000	0.17839570
51.09999714	0.00000000	39.61614000	-0.55979330
51.29999713	0.00000000	31.15157000	1.02116100
51.49999712	0.00000000	25.79970000	4.82898600
51.69999711	0.00000000	25.33218000	9.43036400
51.89999710	0.00000000	29.14616000	13.69956000
52.09999708	0.00000000	35.71604000	16.76919000
52.29999707	0.00000000	43.76230000	17.92569000
52.49999706	0.00000000	50.69513000	16.76919000
52.69999705	0.00000000	54.60752000	13.69956000
52.89999704	0.00000000	55.38877000	9.47342500
53.09999702	0.00000000	52.65133000	5.24729300
53.29999701	0.00000000	46.92421000	2.17765700
53.49999700	0.00000000	40.04060000	0.97194880
53.69999699	0.00000000	34.31348000	1.71013800
53.89999698	0.00000000	31.56988000	3.61712600
54.09999696	0.00000000	32.30807000	6.36072800
54.29999695	0.00000000	35.75910000	9.38115100
54.49999694	0.00000000	41.11097000	11.65723000
54.69999693	0.00000000	46.46284000	12.07554000
54.89999692	0.00000000	49.95078000	11.00517000
55.09999691	0.00000000	51.15649000	9.47342500
55.29999689	0.00000000	50.00000000	7.93553100
55.49999688	0.00000000	46.92421000	6.82209600
55.69999687	0.00000000	42.69193000	6.82209600
55.89999686	0.00000000	38.45964000	7.93553100
56.09999685	0.00000000	35.38385000	9.47342500
56.29999683	0.00000000	34.22121000	11.00517000
56.49999682	0.00000000	35.38385000	12.11860000
56.69999681	0.00000000	38.45964000	12.07554000
56.89999680	0.00000000	42.64886000	10.49459000
57.09999679	0.00000000	46.46284000	7.42495000
57.29999677	0.00000000	48.41904000	3.62327700
57.49999676	0.00000000	48.46210000	0.59670270
57.69999675	0.00000000	46.92421000	-0.51673230
57.89999674	0.00000000	44.27288000	1.02116100
58.09999673	0.00000000	41.57849000	4.87204700
58.29999672	0.00000000	39.62229000	9.89173200
58.49999670	0.00000000	38.45964000	15.28051000
58.69999669	0.00000000	38.45964000	19.46358000
58.89999668	0.00000000	39.57308000	20.99532000
59.09999667	0.00000000	41.11097000	19.42052000
59.29999666	0.00000000	42.69193000	14.76993000
59.49999664	0.00000000	44.18061000	7.84940900
59.69999663	0.00000000	44.92495000	0.55364170
59.89999662	0.00000000	44.18061000	-5.20423200
60.09999661	0.00000000	42.69193000	-7.85556000
60.29999660	0.00000000	41.15403000	-6.32381900
60.49999658	0.00000000	39.99754000	-0.93503930
60.69999657	0.00000000	39.62229000	6.77903500
60.89999656	0.00000000	39.99754000	15.23130000
61.09999655	0.00000000	41.15403000	22.15797000
61.29999654	0.00000000	42.69193000	25.63976000
61.49999653	0.00000000	44.22982000	25.22145000
61.69999651	0.00000000	45.34325000	20.57702000
61.89999650	0.00000000	45.34325000	12.53691000
62.09999649	0.00000000	44.22982000	3.70939900
62.29999648	0.00000000	42.69193000	-3.67249000
62.49999647	0.00000000	41.06791000	-8.31692900
62.69999645	0.00000000	39.15477000	-9.43036400
62.89999644	0.00000000	37.29700000	-6.32381900
63.09999643	0.00000000	36.92175000	0.55364170
63.29999642	0.00000000	38.04134000	9.00590400
63.49999641	0.00000000	39.99754000	16.72613000
63.69999639	0.00000000	42.69193000	22.15797000
63.89999638	0.00000000	45.34325000	24.10802000
64.09999637	0.00000000	46.92421000	22.61934000
64.29999636	0.00000000	47.29946000	18.35015000
64.49999635	0.00000000	46.50590000	12.16781000
64.69999634	0.00000000	44.18061000	5.24729300
64.89999632	0.00000000	41.15403000	-0.55979330
65.09999631	0.00000000	38.45964000	-4.04773600
65.29999630	0.00000000	36.92175000	-4.87819900
65.49999629	0.00000000	36.87869000	-2.97736200
65.69999628	0.00000000	37.99213000	0.51058070
65.89999626	0.00000000	39.57308000	5.15501900
66.09999625	0.00000000	41.52928000	10.16855000
66.29999624	0.00000000	43.80536000	14.07480000
66.49999623	0.00000000	45.30019000	16.85531000
66.69999622	0.00000000	45.34325000	18.35015000
66.89999620	0.00000000	44.18061000	18.01796000
67.09999619	0.00000000	42.31668000	16.11712000
67.29999618	0.00000000	40.41584000	13.74262000
67.49999617	0.00000000	39.62229000	10.58686000
67.69999616	0.00000000	39.62229000	6.72982200
67.89999615	0.00000000	40.41584000	3.24803100
68.09999613	0.00000000	42.31668000	0.51058070
68.29999612	0.00000000	44.22982000	-1.06422200
68.49999611	0.00000000	45.71850000	-1.43946800
68.69999610	0.00000000	46.08759000	-0.60285430
68.89999609	0.00000000	44.55585000	2.12844500
69.09999607	0.00000000	42.22441000	6.35457700
69.29999606	0.00000000	39.11171000	11.00517000
69.49999605	0.00000000	35.71604000	15.32357000
69.69999604	0.00000000	33.80290000	18.71924000
69.89999603	0.00000000	33.80290000	20.24483000
70.09999601	0.00000000	35.75910000	18.71924000
70.29999600	0.00000000	39.62229000	15.27436000
70.49999599	0.00000000	44.22982000	10.58686000
70.69999598	0.00000000	48.50517000	5.19808000
70.89999597	0.00000000	51.58095000	0.59670270
71.09999596	0.00000000	52.69439000	-2.14074800
71.29999594	0.00000000	51.11343000	-2.55905500
71.49999593	0.00000000	46.92421000	-0.97810030
71.69999592	0.00000000	41.52928000	2.50369100
71.89999591	0.00000000	36.45423000	7.47416300
72.09999590	0.00000000	32.22195000	12.07554000
72.29999588	0.00000000	29.93971000	15.18824000
72.49999587	0.00000000	30.68405000	16.39395000
72.69999586	0.00000000	33.75369000	15.60654000
72.89999585	0.00000000	38.41043000	13.32431000
73.09999584	0.00000000	43.80536000	9.89173200
73.29999582	0.00000000	48.46210000	6.86515700
73.49999581	0.00000000	51.53174000	5.24729300
73.69999580	0.00000000	52.31914000	4.82898600
73.89999579	0.00000000	50.41830000	5.19808000
74.09999578	0.00000000	46.96727000	6.36072800
74.29999577	0.00000000	42.69193000	7.84940900
74.49999575	0.00000000	38.45964000	8.96284400
74.69999574	0.00000000	35.34079000	8.96284400
74.89999573	0.00000000	33.80290000	7.84940900
75.09999572	0.00000000	34.17815000	6.31151500
75.29999571	0.00000000	36.45423000	4.82283400
75.49999569	0.00000000	39.48696000	4.08464600
75.69999568	0.00000000	42.22441000	4.87204700
75.89999567	0.00000000	44.18061000	6.82209600
76.09999566	0.00000000	45.34325000	9.89173200
76.29999565	0.00000000	45.38631000	13.32431000
76.49999563	0.00000000	44.64813000	15.60654000
76.69999562	0.00000000	43.85457000	16.39395000
76.89999561	0.00000000	42.69193000	15.14518000
77.09999560	0.00000000	41.57849000	11.70029000
77.29999559	0.00000000	41.15403000	6.68676100
77.49999558	0.00000000	41.11097000	1.71013800
77.69999556	0.00000000	41.11097000	-2.18380900
77.89999555	0.00000000	41.11097000	-4.04773600
78.09999554	0.00000000	41.06791000	-3.29724400
78.29999553	0.00000000	40.64345000	0.17839570
78.49999552	0.00000000	39.53002000	5.19808000
78.69999550	0.00000000	38.41658000	11.00517000
78.89999549	0.00000000	38.04134000	16.39395000
79.09999548	0.00000000	38.45964000	19.88189000
79.29999547	0.00000000	39.99754000	21.04454000
79.49999546	0.00000000	42.27362000	19.46358000
79.69999544	0.00000000	44.22982000	15.28051000
79.89999543	0.00000000	45.76156000	9.89173200
80.09999542	0.00000000	46.50590000	4.82898600
80.29999541	0.00000000	45.71850000	0.55364170
80.49999540	0.00000000	43.80536000	-2.14074800
80.69999539	0.00000000	41.11097000	-2.55905500
80.89999537	0.00000000	38.41658000	-1.07037400
81.09999536	0.00000000	36.50344000	1.71013800
81.29999535	0.00000000	35.71604000	5.57332700
81.49999534	0.00000000	36.46038000	10.21161000
81.69999533	0.00000000	37.99213000	14.03174000
81.89999531	0.00000000	39.99754000	16.48622000
82.09999530	0.00000000	42.64886000	17.60581000
82.29999529	0.00000000	44.92495000	17.59966000
82.49999528	0.00000000	45.71850000	15.64960000
82.69999527	0.00000000	45.38631000	12.58612000
82.89999525	0.00000000	44.22982000	9.05511800
83.09999524	0.00000000	42.69193000	5.15501900
83.29999523	0.00000000	41.15403000	1.66707700
83.49999522	0.00000000	39.94832000	-1.02116100
83.69999521	0.00000000	39.19783000	-2.13459600
83.89999520	0.00000000	38.78568000	-1.02116100
84.09999518	0.00000000	39.19783000	1.66707700
84.29999517	0.00000000	39.90526000	5.19808000
84.49999516	0.00000000	40.69267000	9.43036400
84.69999515	0.00000000	41.06791000	13.32431000
84.89999514	0.00000000	41.11097000	16.11712000
85.09999512	0.00000000	41.11097000	18.35015000
85.29999511	0.00000000	41.15403000	18.62697000
85.49999510	0.00000000	41.52928000	15.60654000
85.69999509	0.00000000	42.31668000	11.00517000
85.89999508	0.00000000	43.06717000	5.98548200
86.09999506	0.00000000	43.85457000	1.34719500
86.29999505	0.00000000	44.18061000	-1.39640700
86.49999504	0.00000000	43.80536000	-2.55905500
86.69999503	0.00000000	42.59965000	-1.72244100
86.89999502	0.00000000	40.73573000	1.71013800
87.09999501	0.00000000	38.78568000	6.31151500
87.29999499	0.00000000	37.66609000	11.00517000
87.49999498	0.00000000	37.25394000	15.23130000
87.69999497	0.00000000	38.04134000	17.88263000
87.89999496	0.00000000	39.53002000	17.88263000
88.09999495	0.00000000	41.11097000	15.23130000
88.29999493	0.00000000	42.69193000	11.00517000
88.49999492	0.00000000	44.18061000	6.35457700
88.69999491	0.00000000	44.96801000	2.12844500
88.89999490	0.00000000	44.55585000	-0.55979330
89.09999489	0.00000000	43.43627000	-0.93503930
89.29999487	0.00000000	41.48622000	0.97194880
89.49999486	0.00000000	39.62229000	4.82898600
89.69999485	0.00000000	38.36737000	9.43036400
89.89999484	0.00000000	37.61687000	13.65650000
90.09999483	0.00000000	37.25394000	16.35089000
90.29999482	0.00000000	38.04134000	16.71998000
90.49999480	0.00000000	39.53002000	14.81299000
90.69999479	0.00000000	41.11097000	10.95595000
90.89999478	0.00000000	42.59965000	6.35457700
91.09999477	0.00000000	43.43627000	2.12844500
91.29999476	0.00000000	43.39936000	-0.51673230
91.49999474	0.00000000	43.10408000	-0.51673230
91.69999473	0.00000000	42.27977000	2.12844500
91.89999472	0.00000000	41.94144000	6.35457700
92.09999471	0.00000000	41.48622000	10.95595000
92.29999470	0.00000000	41.15403000	14.76993000
92.49999468	0.00000000	41.11097000	16.30167000
92.69999467	0.00000000	41.06791000	15.18824000
92.89999466	0.00000000	40.69267000	12.11860000
93.09999465	0.00000000	39.90526000	7.89247000
93.29999464	0.00000000	39.15477000	3.66633800
93.49999463	0.00000000	38.36737000	0.59670270
93.69999461	0.00000000	38.04134000	-0.55979330
93.89999460	0.00000000	38.41658000	0.59670270
94.09999459	0.00000000	39.57308000	3.66633800
94.29999458	0.00000000	41.15403000	7.89247000
94.49999457	0.00000000	43.06717000	12.07554000
94.69999455	0.00000000	44.96801000	14.76993000
94.89999454	0.00000000	45.76156000	15.18824000
95.09999453	0.00000000	45.76156000	13.65650000
95.29999452	0.00000000	44.92495000	10.53765000
95.49999451	0.00000000	42.59965000	6.35457700
95.69999449	0.00000000	39.57308000	2.54675200
95.89999448	0.00000000	36.83563000	0.63976370
96.09999447	0.00000000	34.87328000	0.97194880
96.29999446	0.00000000	33.75369000	3.24803100
96.49999445	0.00000000	34.17815000	6.36072800
96.69999444	0.00000000	36.50344000	9.79945900
96.89999442	0.00000000	39.94832000	12.86294000
97.09999441	0.00000000	43.85457000	13.98253000
97.29999440	0.00000000	47.29946000	13.28125000
97.49999439	0.00000000	49.62475000	11.00517000
97.69999438	0.00000000	50.00000000	8.31077700
97.89999436	0.00000000	48.46210000	5.93626900
98.09999435	0.00000000	45.34325000	3.70939900
98.29999434	0.00000000	41.11097000	2.92199800
98.49999433	0.00000000	36.87869000	4.02928100
98.69999432	0.00000000	33.75369000	5.48720400
98.89999430	0.00000000	32.22195000	7.09891700
99.09999429	0.00000000	32.59719000	8.22465500
99.29999428	0.00000000	34.87328000	9.05511800
99.49999427	0.00000000	37.99213000	9.43036400
99.69999426	0.00000000	41.52928000	9.43036400
99.89999425	0.00000000	45.34325000	9.05511800
100.09999423	0.00000000	48.04380000	8.35998900
100.29999422	0.00000000	48.88041000	8.35998900
100.49999421	0.00000000	48.50517000	9.05511800
100.69999420	0.00000000	46.88115000	9.43036400
100.89999419	0.00000000	43.80536000	9.43036400
101.09999417	0.00000000	39.99754000	9.00590400
101.29999416	0.00000000	36.87869000	7.84940900
101.49999415	0.00000000	34.87328000	6.31151500
101.69999414	0.00000000	33.75369000	4.77977300
101.89999413	0.00000000	34.12894000	3.66633800
102.09999411	0.00000000	36.03592000	3.66633800
102.29999410	0.00000000	38.36737000	4.82283400
102.49999409	0.00000000	41.11097000	6.72982200
102.69999408	0.00000000	43.76230000	9.09817800
102.89999407	0.00000000	45.34325000	11.38041000
103.09999406	0.00000000	45.76156000	13.28125000
103.29999404	0.00000000	45.38631000	13.65650000
103.49999403	0.00000000	44.18061000	12.53691000
103.69999402	0.00000000	42.27362000	10.58686000
103.89999401	0.00000000	39.94832000	7.89247000
104.09999400	0.00000000	38.04134000	5.19808000
104.29999398	0.00000000	36.83563000	3.24803100
104.49999397	0.00000000	36.46038000	2.12844500
104.69999396	0.00000000	36.83563000	2.54675200
104.89999395	0.00000000	37.99213000	4.82283400
105.09999394	0.00000000	39.53002000	7.84940900
105.29999392	0.00000000	41.06791000	10.53765000
105.49999391	0.00000000	42.22441000	12.11860000
105.69999390	0.00000000	42.64886000	12.53691000
105.89999389	0.00000000	42.64886000	12.11860000
106.09999388	0.00000000	42.22441000	10.58686000
106.29999387	0.00000000	41.06791000	8.31077700
106.49999385	0.00000000	39.57308000	6.36072800
106.69999384	0.00000000	38.45964000	4.82283400
106.89999383	0.00000000	38.45964000	4.08464600
107.09999382	0.00000000	39.53002000	4.82283400
107.29999381	0.00000000	40.69267000	6.36072800
107.49999379	0.00000000	41.48622000	8.26771600
107.69999378	0.00000000	42.27362000	10.16855000
107.89999377	0.00000000	42.59965000	10.91289000
108.09999376	0.00000000	42.22441000	10.58686000
108.29999375	0.00000000	41.06791000	9.42421200
108.49999374	0.00000000	39.57308000	7.89247000
108.69999372	0.00000000	38.41658000	6.36072800
108.89999371	0.00000000	37.99213000	5.19808000
109.09999370	0.00000000	37.99213000	4.82898600
109.29999369	0.00000000	38.41658000	5.19808000
109.49999368	0.00000000	39.57308000	6.36072800
109.69999366	0.00000000	41.06791000	7.89247000
109.89999365	0.00000000	42.27362000	9.47342500
110.09999364	0.00000000	43.02411000	10.96211000
110.29999363	0.00000000	43.38705000	11.70029000
110.49999362	0.00000000	42.59965000	10.96211000
110.69999360	0.00000000	41.15403000	9.47342500
110.89999359	0.00000000	39.94832000	7.89247000
111.09999358	0.00000000	39.15477000	6.31151500
111.29999357	0.00000000	38.36737000	4.82283400
111.49999356	0.00000000	38.04134000	4.04158400
111.69999355	0.00000000	38.41658000	4.40452700
111.89999353	0.00000000	39.53002000	5.15501900
112.09999352	0.00000000	40.64345000	6.31151500
112.29999351	0.00000000	41.11097000	7.47416300
112.49999350	0.00000000	41.52928000	8.26771600
112.69999349	0.00000000	42.22441000	9.09817800
112.89999347	0.00000000	42.22441000	9.79945900
113.09999346	0.00000000	41.48622000	10.21161000
113.29999345	0.00000000	40.73573000	9.79945900
113.49999344	0.00000000	39.94832000	9.05511800
113.69999343	0.00000000	39.57308000	7.93553100
113.89999341	0.00000000	39.53002000	7.14812900
114.09999340	0.00000000	39.53002000	7.14197800
114.29999339	0.00000000	39.57308000	7.06200700
114.49999338	0.00000000	39.90526000	7.09891700
114.69999337	0.00000000	40.31742000	6.68676100
114.89999336	0.00000000	40.32357000	6.35457700
115.09999334	0.00000000	40.73573000	6.31151500
115.29999333	0.00000000	41.06791000	6.31151500
115.49999332	0.00000000	41.11097000	6.35457700
115.69999331	0.00000000	41.11097000	6.72982200
115.89999330	0.00000000	41.06791000	7.47416300
116.09999328	0.00000000	40.69267000	7.89247000
116.29999327	0.00000000	39.94832000	8.31077700
116.49999326	0.00000000	39.57308000	9.05511800
116.69999325	0.00000000	39.53002000	9.43036400
116.89999324	0.00000000	39.53002000	9.43036400
117.09999322	0.00000000	39.53002000	9.00590400
117.29999321	0.00000000	39.57308000	7.89247000
117.49999320	0.00000000	39.99754000	6.77903500
117.69999319	0.00000000	41.11097000	6.35457700
117.89999318	0.00000000	42.22441000	6.31151500
118.09999317	0.00000000	42.64886000	6.31151500
118.29999315	0.00000000	42.64886000	6.31151500
118.49999314	0.00000000	42.22441000	6.35457700
118.69999313	0.00000000	41.06791000	6.72982200
118.89999312	0.00000000	39.57308000	7.47416300
119.09999311	0.00000000	38.41658000	7.89247000
119.29999309	0.00000000	37.99213000	8.31077700
119.49999308	0.00000000	37.94907000	9.05511800
119.69999307	0.00000000	37.99213000	9.43036400
119.89999306	0.00000000	38.41658000	9.43036400
120.09999305	0.00000000	39.57308000	9.05511800
120.29999303	0.00000000	41.06791000	8.31077700
120.49999302	0.00000000	42.22441000	7.93553100
120.69999301	0.00000000	42.64886000	7.84940900
120.89999300	0.00000000	42.64886000	7.47416300
121.09999299	0.00000000	42.27362000	6.72982200
121.29999298	0.00000000	41.48622000	6.35457700
121.49999296	0.00000000	40.69267000	6.31151500
121.69999295	0.00000000	39.53002000	6.31151500
121.89999294	0.00000000	38.41658000	6.35457700
122.09999293	0.00000000	37.99213000	6.72982200
122.29999292	0.00000000	37.94907000	7.47416300
122.49999290	0.00000000	37.99213000	7.89247000
122.69999289	0.00000000	38.41658000	8.31077700
122.89999288	0.00000000	39.53002000	9.05511800
123.09999287	0.00000000	40.69267000	9.43036400
123.29999286	0.00000000	41.48622000	9.43036400
123.49999284	0.00000000	42.27362000	9.05511800
123.69999283	0.00000000	42.59965000	8.26771600
123.89999282	0.00000000	42.27362000	7.51722400
124.09999281	0.00000000	41.48622000	6.72982200
124.29999280	0.00000000	40.73573000	6.35457700
124.49999279	0.00000000	39.94832000	6.31151500
124.69999277	0.00000000	39.53002000	6.31151500
124.89999276	0.00000000	39.11171000	6.35457700
125.09999275	0.00000000	38.36737000	6.72982200
125.29999274	0.00000000	37.99213000	7.47416300
125.49999273	0.00000000	37.99213000	7.89247000
125.69999271	0.00000000	38.36737000	8.31077700
125.89999270	0.00000000	39.15477000	9.05511800
126.09999269	0.00000000	39.94832000	9.38115100
126.29999268	0.00000000	41.11097000	9.05511800
126.49999267	0.00000000	42.22441000	8.31077700
126.69999265	0.00000000	42.59965000	7.93553100
126.89999264	0.00000000	42.27362000	7.84940900
127.09999263	0.00000000	41.48622000	7.47416300
127.29999262	0.00000000	40.69267000	6.72982200
127.49999261	0.00000000	39.53002000	6.35457700
127.69999260	0.00000000	38.41658000	6.31151500
127.89999258	0.00000000	37.99213000	6.35457700
128.09999257	0.00000000	37.99213000	6.72982200
128.29999256	0.00000000	38.36737000	7.47416300
128.49999255	0.00000000	39.15477000	7.84940900
128.69999254	0.00000000	39.90526000	7.89247000
128.89999252	0.00000000	40.73573000	7.89247000
129.09999251	0.00000000	41.48622000	7.89247000
129.29999250	0.00000000	42.22441000	7.89247000
129.49999249	0.00000000	42.18134000	7.84940900
129.69999248	0.00000000	41.11097000	7.47416300
129.89999246	0.00000000	39.94832000	6.72982200
130.09999245	0.00000000	39.15477000	6.35457700
130.29999244	0.00000000	38.36737000	6.31151500
130.49999243	0.00000000	37.99213000	6.35457700
130.69999242	0.00000000	37.99213000	6.72982200
130.89999241	0.00000000	38.41658000	7.47416300
131.09999239	0.00000000	39.53002000	7.84940900
131.29999238	0.00000000	40.64345000	7.89247000
131.49999237	0.00000000	41.06791000	7.84940900
131.69999236	0.00000000	41.11097000	7.47416300
131.89999235	0.00000000	41.06791000	6.72982200
132.09999233	0.00000000	40.69267000	6.31151500
132.29999232	0.00000000	39.94832000	5.93626900
132.49999231	0.00000000	39.53002000	5.57332700
132.69999230	0.00000000	39.11171000	5.93626900
132.89999229	0.00000000	38.41658000	6.31151500
133.09999227	0.00000000	38.41658000	6.77903500
133.29999226	0.00000000	39.11171000	7.89247000
133.49999225	0.00000000	39.53002000	9.00590400
133.69999224	0.00000000	39.90526000	9.43036400
133.89999223	0.00000000	40.27436000	9.47342500
134.09999222	0.00000000	39.90526000	9.43036400
134.29999220	0.00000000	39.57308000	9.00590400
134.49999219	0.00000000	39.53002000	7.84940900
134.69999218	0.00000000	39.53002000	6.36072800
134.89999217	0.00000000	39.53002000	5.19808000
135.09999216	0.00000000	39.53002000	4.77977300
135.29999214	0.00000000	39.57308000	4.77977300
135.49999213	0.00000000	39.94832000	5.15501900
135.69999212	0.00000000	40.64345000	5.93626900
135.89999211	0.00000000	40.64345000	6.68676100
136.09999210	0.00000000	39.94832000	7.51722400
136.29999208	0.00000000	39.57308000	8.26771600
136.49999207	0.00000000	39.48696000	9.05511800
136.69999206	0.00000000	39.11171000	9.38115100
136.89999205	0.00000000	38.36737000	9.05511800
137.09999204	0.00000000	38.04134000	8.26771600
137.29999203	0.00000000	38.36737000	7.51722400
137.49999201	0.00000000	39.15477000	6.72982200
137.69999200	0.00000000	39.90526000	6.31151500
137.89999199	0.00000000	40.69267000	5.93626900
138.09999198	0.00000000	41.06791000	5.53026500
138.29999197	0.00000000	41.06791000	5.56717500
138.49999195	0.00000000	40.69267000	5.53026500
138.69999194	0.00000000	39.90526000	5.98548200
138.89999193	0.00000000	39.15477000	6.68676100
139.09999192	0.00000000	38.36737000	7.47416300
139.29999191	0.00000000	37.99213000	7.89247000
139.49999189	0.00000000	37.99213000	8.31077700
139.69999188	0.00000000	38.36737000	9.05511800
139.89999187	0.00000000	39.15477000	9.43036400
140.09999186	0.00000000	39.90526000	9.43036400
140.29999185	0.00000000	40.69267000	9.00590400
140.49999184	0.00000000	41.01870000	7.84940900
140.69999182	0.00000000	40.69267000	6.31151500
140.89999181	0.00000000	39.94832000	4.82283400
141.09999180	0.00000000	39.57308000	4.08464600
141.29999179	0.00000000	39.48696000	4.77977300
141.49999178	0.00000000	39.15477000	5.89320800
141.69999176	0.00000000	38.74261000	6.68676100
141.89999175	0.00000000	38.77953000	7.51722400
142.09999174	0.00000000	38.74261000	8.26771600
142.29999173	0.00000000	39.15477000	9.05511800
142.49999172	0.00000000	39.48696000	9.43036400
142.69999170	0.00000000	39.53002000	9.43036400
142.89999169	0.00000000	39.53002000	9.05511800
143.09999168	0.00000000	39.53002000	8.26771600
143.29999167	0.00000000	39.53002000	7.47416300
143.49999166	0.00000000	39.48696000	6.31151500
143.69999165	0.00000000	39.15477000	5.19808000
143.89999163	0.00000000	38.78568000	4.82898600
144.09999162	0.00000000	39.15477000	5.15501900
144.29999161	0.00000000	39.48696000	5.93626900
144.49999160	0.00000000	39.57308000	6.68676100
144.69999159	0.00000000	39.90526000	7.47416300
144.89999157	0.00000000	40.27436000	7.84940900
145.09999156	0.00000000	39.90526000	7.93553100
145.29999155	0.00000000	39.57308000	8.26771600
145.49999154	0.00000000	39.53002000	8.63681000
145.69999153	0.00000000	39.48696000	8.22465500
145.89999151	0.00000000	39.11171000	7.51722400
146.09999150	0.00000000	38.41658000	6.72982200
146.29999149	0.00000000	38.41658000	6.35457700
146.49999148	0.00000000	39.11171000	6.31151500
146.69999147	0.00000000	39.48696000	6.35457700
146.89999146	0.00000000	39.57308000	6.72982200
147.09999144	0.00000000	39.90526000	7.47416300
147.29999143	0.00000000	40.27436000	7.84940900
147.49999142	0.00000000	39.90526000	7.89247000
147.69999141	0.00000000	39.57308000	7.89247000
147.89999140	0.00000000	39.53002000	7.89247000
148.09999138	0.00000000	39.48696000	7.89247000
148.29999137	0.00000000	39.11171000	7.89247000
148.49999136	0.00000000	38.36737000	7.89247000
148.69999135	0.00000000	37.99213000	7.84940900
148.89999134	0.00000000	37.99213000	7.47416300
149.09999132	0.00000000	38.36737000	6.72982200
149.29999131	0.00000000	39.15477000	6.35457700
149.49999130	0.00000000	39.90526000	6.31151500
149.69999129	0.00000000	40.64345000	6.31151500
149.89999128	0.00000000	40.64345000	6.35457700
150.09999127	0.00000000	39.94832000	6.72982200
150.29999125	0.00000000	39.57308000	7.47416300
150.49999124	0.00000000	39.53002000	7.84940900
150.69999123	0.00000000	39.48696000	7.89247000
150.89999122	0.00000000	39.11171000	7.89247000
151.09999121	0.00000000	38.41658000	7.89247000
151.29999119	0.00000000	38.36737000	7.89247000
151.49999118	0.00000000	38.69341000	7.84940900
151.69999117	0.00000000	38.36737000	7.47416300
151.89999116	0.00000000	38.41658000	6.72982200
152.09999115	0.00000000	39.11171000	6.35457700
152.29999113	0.00000000	39.48696000	6.31151500
152.49999112	0.00000000	39.53002000	6.31151500
152.69999111	0.00000000	39.53002000	6.35457700
152.89999110	0.00000000	39.53002000	6.72982200
153.09999109	0.00000000	39.53002000	7.47416300
153.29999108	0.00000000	39.53002000	7.84940900
153.49999106	0.00000000	39.53002000	7.89247000
153.69999105	0.00000000	39.48696000	7.89247000
153.89999104	0.00000000	39.11171000	7.89247000
154.09999103	0.00000000	38.36737000	7.89247000
154.29999102	0.00000000	37.99213000	7.89247000
154.49999100	0.00000000	37.94907000	7.89247000
154.69999099	0.00000000	37.94907000	7.89247000
154.89999098	0.00000000	37.99213000	7.84940900
155.09999097	0.00000000	38.36737000	7.47416300
155.29999096	0.00000000	39.11171000	6.72982200
155.49999094	0.00000000	39.48696000	6.35457700
155.69999093	0.00000000	39.53002000	6.31151500
155.89999092	0.00000000	39.53002000	6.31151500
156.09999091	0.00000000	39.53002000	6.31151500
156.29999090	0.00000000	39.53002000	6.35457700
156.49999089	0.00000000	39.53002000	6.72982200
156.69999087	0.00000000	39.48696000	7.47416300
156.89999086	0.00000000	39.11171000	7.84940900
157.09999085	0.00000000	38.36737000	7.89247000
157.29999084	0.00000000	37.99213000	7.89247000
157.49999083	0.00000000	37.94907000	7.89247000
157.69999081	0.00000000	37.94907000	7.84940900
157.89999080	0.00000000	37.99213000	7.47416300
158.09999079	0.00000000	38.36737000	6.72982200
158.29999078	0.00000000	39.11171000	6.35457700
158.49999077	0.00000000	39.48696000	6.31151500
158.69999075	0.00000000	39.53002000	6.31151500
158.89999074	0.00000000	39.53002000	6.31151500
159.09999073	0.00000000	39.53002000	6.31151500
159.29999072	0.00000000	39.53002000	6.35457700
159.49999071	0.00000000	39.48696000	6.72982200
159.69999070	0.00000000	39.11171000	7.47416300
159.89999068	0.00000000	38.36737000	7.84940900
160.09999067	0.00000000	37.99213000	7.89247000
160.29999066	0.00000000	37.94907000	7.89247000
160.49999065	0.00000000	37.94907000	7.89247000
160.69999064	0.00000000	37.94907000	7.89247000
160.89999062	0.00000000	37.94907000	7.84940900
161.09999061	0.00000000	37.99213000	7.47416300
161.29999060	0.00000000	38.36737000	6.72982200
161.49999059	0.00000000	39.11171000	6.35457700
161.69999058	0.00000000	39.48696000	6.31151500
161.89999056	0.00000000	39.53002000	6.31151500
162.09999055	0.00000000	39.53002000	6.31151500
162.29999054	0.00000000	39.53002000	6.35457700
162.49999053	0.00000000	39.53002000	6.72982200
162.69999052	0.00000000	39.53002000	7.47416300
162.89999051	0.00000000	39.53002000	7.84940900
163.09999049	0.00000000	39.48696000	7.89247000
163.29999048	0.00000000	39.11171000	7.89247000
163.49999047	0.00000000	38.36737000	7.89247000
163.69999046	0.00000000	37.99213000	7.84940900
163.89999045	0.00000000	37.94907000	7.47416300
164.09999043	0.00000000	37.94907000	6.72982200
164.29999042	0.00000000	37.94907000	6.35457700
164.49999041	0.00000000	37.99213000	6.31151500
164.69999040	0.00000000	38.36737000	6.31151500
164.89999039	0.00000000	39.11171000	6.31151500
165.09999037	0.00000000	39.48696000	6.31151500
165.29999036	0.00000000	39.53002000	6.31151500
165.49999035	0.00000000	39.53002000	6.31151500
165.69999034	0.00000000	39.53002000	6.35457700
165.89999033	0.00000000	39.48696000	6.72982200
166.09999032	0.00000000	39.11171000	7.47416300
166.29999030	0.00000000	38.36737000	7.80019600
166.49999029	0.00000000	37.99213000	7.47416300
166.69999028	0.00000000	37.94907000	6.72982200
166.89999027	0.00000000	37.94907000	6.35457700
167.09999026	0.00000000	37.94907000	6.31151500
167.29999024	0.00000000	37.94907000	6.31151500
167.49999023	0.00000000	37.99213000	6.31151500
167.69999022	0.00000000	38.36737000	6.31151500
167.89999021	0.00000000	39.11171000	6.31151500
168.09999020	0.00000000	39.48696000	6.31151500
168.29999018	0.00000000	39.53002000	6.31151500
168.49999017	0.00000000	39.53002000	6.31151500
168.69999016	0.00000000	39.53002000	6.31151500
168.89999015	0.00000000	39.53002000	6.31151500
169.09999014	0.00000000	39.48696000	6.31151500
169.29999013	0.00000000	39.11171000	6.35457700
169.49999011	0.00000000	38.36737000	6.68676100
169.69999010	0.00000000	37.99213000	7.05585600
169.89999009	0.00000000	37.94907000	6.72982200
170.09999008	0.00000000	37.94907000	6.77903500
170.29999007	0.00000000	37.94907000	7.47416300
170.49999005	0.00000000	37.99213000	7.84940900
170.69999004	0.00000000	38.36737000	7.84940900
170.89999003	0.00000000	39.11171000	7.47416300
171.09999002	0.00000000	39.48696000	6.72982200
171.29999001	0.00000000	39.53002000	6.35457700
171.49998999	0.00000000	39.53002000	6.31151500
171.69998998	0.00000000	39.53002000	6.31151500
171.89998997	0.00000000	39.48696000	6.31151500
172.09998996	0.00000000	39.11171000	6.31151500
172.29998995	0.00000000	38.36737000	6.31151500
172.49998994	0.00000000	37.99213000	6.31151500
172.69998992	0.00000000	37.94907000	6.31151500
172.89998991	0.00000000	37.94907000	6.35457700
173.09998990	0.00000000	37.94907000	6.68676100
173.29998989	0.00000000	37.94907000	7.05585600
173.49998988	0.00000000	37.99213000	6.72982200
173.69998986	0.00000000	38.32431000	6.72982200
173.89998985	0.00000000	38.73647000	7.09891700
174.09998984	0.00000000	38.74261000	7.06200700
174.29998983	0.00000000	39.15477000	7.14197800
174.49998982	0.00000000	39.48696000	7.06200700
174.69998980	0.00000000	39.48696000	7.09891700
174.89998979	0.00000000	39.11171000	6.68676100
175.09998978	0.00000000	38.36737000	6.35457700
175.29998977	0.00000000	37.99213000	6.31151500
175.49998976	0.00000000	37.94907000	6.31151500
175.69998975	0.00000000	37.94907000	6.35457700
175.89998973	0.00000000	37.99213000	6.68676100
176.09998972	0.00000000	38.36737000	7.09891700
176.29998971	0.00000000	39.06250000	7.10506800
176.49998970	0.00000000	39.06250000	7.47416300
176.69998969	0.00000000	38.41658000	7.42495000
176.89998967	0.00000000	38.36737000	6.72982200
177.09998966	0.00000000	38.69341000	6.35457700
177.29998965	0.00000000	38.32431000	6.31151500
177.49998964	0.00000000	37.99213000	6.31151500
177.69998963	0.00000000	37.94907000	6.31151500
177.89998961	0.00000000	37.94907000	6.31151500
178.09998960	0.00000000	37.94907000	6.31151500
178.29998959	0.00000000	37.94907000	6.31151500
178.49998958	0.00000000	37.94907000	6.31151500
178.69998957	0.00000000	37.94907000	6.35457700
178.89998956	0.00000000	37.94907000	6.72982200
179.09998954	0.00000000	37.99213000	7.42495000
179.29998953	0.00000000	38.36737000	7.47416300
179.49998952	0.00000000	39.11171000	7.10506800
179.69998951	0.00000000	39.48696000	7.09891700
179.89998950	0.00000000	39.53002000	6.68676100
180.09998948	0.00000000	39.48696000	6.35457700
180.29998947	0.00000000	39.11171000	6.31151500
180.49998946	0.00000000	38.36737000	6.31151500
180.69998945	0.00000000	37.99213000	6.31151500
180.89998944	0.00000000	37.94907000	6.31151500
181.09998942	0.00000000	37.94907000	6.31151500
181.29998941	0.00000000	37.94907000	6.35457700
181.49998940	0.00000000	37.94907000	6.72982200
181.69998939	0.00000000	37.94907000	7.47416300
181.89998938	0.00000000	37.94907000	7.84940900
182.09998937	0.00000000	37.99213000	7.89247000
182.29998935	0.00000000	38.36737000	7.84940900
182.49998934	0.00000000	39.11171000	7.51722400
182.69998933	0.00000000	39.43774000	7.10506800
182.89998932	0.00000000	39.15477000	7.09891700
183.09998931	0.00000000	38.74261000	6.68676100
183.29998929	0.00000000	38.73647000	6.35457700
183.49998928	0.00000000	38.32431000	6.31151500
183.69998927	0.00000000	37.99213000	6.31151500
183.89998926	0.00000000	37.94907000	6.31151500
184.09998925	0.00000000	37.94907000	6.31151500
184.29998923	0.00000000	37.94907000	6.35457700
184.49998922	0.00000000	37.94907000	6.68676100
184.69998921	0.00000000	37.94907000	7.09891700
184.89998920	0.00000000	37.94907000	7.10506800
185.09998919	0.00000000	37.94907000	7.51722400
185.29998918	0.00000000	37.94907000	7.80019600
185.49998916	0.00000000	37.94907000	7.47416300
185.69998915	0.00000000	37.94907000	6.72982200
185.89998914	0.00000000	37.94907000	6.35457700
186.09998913	0.00000000	37.94907000	6.31151500
186.29998912	0.00000000	37.94907000	6.31151500
186.49998910	0.00000000	37.94907000	6.31151500
186.69998909	0.00000000	37.94907000	6.31151500
186.89998908	0.00000000	37.94907000	6.31151500
187.09998907	0.00000000	37.94907000	6.35457700
187.29998906	0.00000000	37.94907000	6.72982200
187.49998904	0.00000000	37.94907000	7.47416300
187.69998903	0.00000000	37.94907000	7.84940900
187.89998902	0.00000000	37.94907000	7.89247000
188.09998901	0.00000000	37.94907000	7.89247000
188.29998900	0.00000000	37.94907000	7.84940900
188.49998899	0.00000000	37.94907000	7.47416300
188.69998897	0.00000000	37.94907000	6.72982200
188.89998896	0.00000000	37.99213000	6.35457700
189.09998895	0.00000000	38.32431000	6.31151500
189.29998894	0.00000000	38.69341000	6.31151500
189.49998893	0.00000000	38.32431000	6.31151500
189.69998891	0.00000000	37.99213000	6.31151500
189.89998890	0.00000000	37.94907000	6.31151500
190.09998889	0.00000000	37.94907000	6.31151500
190.29998888	0.00000000	37.94907000	6.31151500
190.49998887	0.00000000	37.94907000	6.35457700
190.69998885	0.00000000	37.94907000	6.72982200
190.89998884	0.00000000	37.94907000	7.47416300
191.09998883	0.00000000	37.94907000	7.84940900
191.29998882	0.00000000	37.94907000	7.84940900
191.49998881	0.00000000	37.99213000	7.47416300
191.69998880	0.00000000	38.32431000	6.72982200
191.89998878	0.00000000	38.69341000	6.35457700
192.09998877	0.00000000	38.32431000	6.31151500
192.29998876	0.00000000	37.99213000	6.31151500
192.49998875	0.00000000	37.94907000	6.31151500
192.69998874	0.00000000	37.94907000	6.31151500
192.89998872	0.00000000	37.94907000	6.31151500
193.09998871	0.00000000	37.94907000	6.31151500
193.29998870	0.00000000	37.94907000	6.31151500
193.49998869	0.00000000	37.94907000	6.31151500
193.69998868	0.00000000	37.94907000	6.31151500
193.89998866	0.00000000	37.94907000	6.35457700
194.09998865	0.00000000	37.94907000	6.72982200
194.29998864	0.00000000	37.94907000	7.42495000
194.49998863	0.00000000	37.94907000	7.42495000
194.69998862	0.00000000	37.99213000	6.72982200
194.89998861	0.00000000	38.32431000	6.35457700
195.09998859	0.00000000	38.73647000	6.31151500
195.29998858	0.00000000	38.69955000	6.31151500
195.49998857	0.00000000	38.73647000	6.31151500
195.69998856	0.00000000	38.32431000	6.31151500
195.89998855	0.00000000	37.99213000	6.31151500
196.09998853	0.00000000	37.94907000	6.31151500
