Time	Channel A	Channel B	Channel C
(us)	(V)	(mV)	(mV)

-4.49999956	0.00000000	36.36811000	6.31151500
-4.29999957	0.00000000	36.41117000	6.31151500
-4.09999958	0.00000000	36.74335000	6.31151500
-3.89999959	0.00000000	37.11245000	6.31151500
-3.69999960	0.00000000	36.74335000	6.31151500
-3.49999962	0.00000000	36.41117000	6.31151500
-3.29999963	0.00000000	36.36811000	6.31151500
-3.09999964	0.00000000	36.36811000	6.31151500
-2.89999965	0.00000000	36.36811000	6.31151500
-2.69999966	0.00000000	36.36811000	6.31151500
-2.49999968	0.00000000	36.36811000	6.31151500
-2.29999969	0.00000000	36.36811000	6.31151500
-2.09999970	0.00000000	36.36811000	6.31151500
-1.89999971	0.00000000	36.36811000	6.31151500
-1.69999972	0.00000000	36.36811000	6.31151500
-1.49999973	0.00000000	36.36811000	6.31151500
-1.29999975	0.00000000	36.36811000	6.31151500
-1.09999976	0.00000000	36.36811000	6.31151500
-0.89999977	0.00000000	36.36811000	6.31151500
-0.69999978	0.00000000	36.36811000	6.31151500
-0.49999979	0.00000000	36.36811000	6.31151500
-0.29999981	0.31803640	36.36811000	6.31151500
-0.09999982	0.63668800	36.36811000	6.31151500
0.10000017	0.95533960	36.36811000	6.31151500
0.30000016	0.95533960	36.36811000	6.31151500
0.50000015	0.95533960	36.36811000	6.31151500
0.70000013	0.31803640	36.36811000	6.26845500
0.90000012	-0.31803640	36.32505000	5.93626900
1.10000011	-1.43331700	35.99286000	5.57332700
1.30000010	-2.22994600	35.62377000	5.93626900
1.50000009	-2.70792300	35.99286000	6.26845500
1.70000008	-2.54859700	36.32505000	6.31151500
1.90000006	-1.43331700	36.36811000	6.31151500
2.10000005	0.31803640	36.36811000	6.31151500
2.30000004	2.38927200	36.36811000	6.31151500
2.50000003	4.30056600	36.36811000	6.26845500
2.70000002	5.25652100	36.36811000	5.89320800
2.90000000	4.93786900	36.36811000	5.15501900
3.09999999	3.18590100	36.36811000	4.82898600
3.29999998	0.31803640	36.36811000	5.15501900
3.49999997	-3.18590100	36.36811000	5.89320800
3.69999996	-6.21247500	36.36811000	6.26845500
3.89999994	-7.80511800	36.36811000	6.31151500
4.09999993	-7.64579200	36.36811000	6.31151500
4.29999992	-5.41584600	36.36811000	6.31151500
4.49999991	-1.59264300	36.36811000	6.31151500
4.69999990	2.86724900	36.36811000	6.35457700
4.89999989	6.84916400	36.36811000	6.68676100
5.09999987	9.07972400	36.36811000	7.00664300
5.29999986	9.23905000	36.36811000	6.26845500
5.49999985	7.00848900	36.36811000	5.19808000
5.69999984	2.86724900	36.36811000	4.77977300
5.89999983	-1.91129400	36.36811000	4.77977300
6.09999981	-6.21247500	36.36811000	5.15501900
6.29999980	-8.92039900	36.36811000	5.89320800
6.49999979	-9.39837600	36.36811000	6.26845500
6.69999978	-7.48646600	36.36811000	6.31151500
6.89999977	-3.82258900	36.36811000	6.31151500
7.09999975	0.47736220	36.36811000	6.31151500
7.29999974	4.45989200	36.36811000	6.31151500
7.49999973	7.00848900	36.36811000	6.31151500
7.69999972	7.80511800	36.36811000	6.26845500
7.89999971	6.53112700	36.36811000	5.89320800
8.09999970	3.82258900	36.36811000	5.19808000
8.29999968	0.47736220	36.36811000	5.19808000
8.49999967	-2.54859700	36.36811000	5.89320800
8.69999966	-4.61921700	36.36811000	6.26845500
8.89999965	-5.25652100	36.36811000	6.31151500
9.09999964	-4.45989200	36.36811000	6.31151500
9.29999962	-2.86724900	36.36811000	6.31151500
9.49999961	-0.95533960	36.36811000	6.31151500
9.69999960	0.95533960	36.36811000	6.31151500
9.89999959	2.07062000	36.36811000	6.26845500
10.09999958	2.54859700	36.36811000	5.93626900
10.29999956	2.22994600	36.36811000	5.57332700
10.49999955	1.59264300	36.36811000	5.93626900
10.69999954	0.63668800	36.36811000	6.26845500
10.89999953	-0.15871060	36.36811000	6.31151500
11.09999952	-0.63668800	36.36811000	6.31151500
11.29999951	-0.95533960	36.36811000	6.31151500
11.49999949	-0.95533960	36.36811000	6.31151500
11.69999948	-0.79601380	36.36811000	6.31151500
11.89999947	-0.47736220	36.36811000	6.31151500
12.09999946	-0.15871060	36.36811000	6.26845500
12.29999945	-0.15871060	36.36811000	5.93626900
12.49999943	-0.15871060	36.36811000	5.57332700
12.69999942	0.00000000	36.32505000	5.93626900
12.89999941	0.00000000	35.99286000	6.26845500
13.09999940	0.15871060	35.62377000	6.31151500
13.29999939	0.15871060	35.99286000	6.31151500
13.49999937	0.00000000	36.32505000	6.31151500
13.69999936	0.00000000	36.36811000	6.31151500
13.89999935	0.00000000	36.36811000	6.31151500
14.09999934	-0.15871060	36.36811000	6.31151500
14.29999933	-0.15871060	36.36811000	6.31151500
14.49999932	-0.15871060	36.36811000	6.31151500
14.69999930	0.00000000	36.36811000	6.31151500
14.89999929	0.00000000	36.36811000	6.31151500
15.09999928	0.00000000	36.36811000	6.31151500
15.29999927	0.00000000	36.36811000	6.31151500
15.49999926	0.00000000	36.36811000	6.31151500
15.69999924	0.00000000	36.36811000	6.31151500
15.89999923	0.00000000	36.36811000	6.31151500
16.09999922	0.00000000	36.36811000	6.31151500
16.29999921	0.00000000	36.36811000	6.31151500
16.49999920	-0.15871060	36.36811000	6.31151500
16.69999919	0.00000000	36.41117000	6.31151500
16.89999917	0.00000000	36.78642000	6.31151500
17.09999916	0.00000000	37.53075000	6.31151500
17.29999915	0.00000000	37.90600000	6.31151500
17.49999914	0.00000000	37.94907000	6.31151500
17.69999913	0.00000000	37.90600000	6.31151500
17.89999911	0.00000000	37.53075000	6.31151500
18.09999910	0.00000000	36.70029000	6.31151500
18.29999909	0.00000000	35.52534000	6.31151500
18.49999908	0.00000000	33.57529000	6.31151500
18.69999907	0.00000000	31.71137000	6.31151500
18.89999905	0.00000000	30.54872000	6.31151500
19.09999904	0.00000000	30.54872000	6.31151500
19.29999903	0.00000000	31.75443000	6.31151500
19.49999902	0.00000000	34.08588000	6.31151500
19.69999901	0.00000000	37.61687000	6.31151500
19.89999900	0.00000000	41.48622000	6.31151500
20.09999898	0.00000000	45.30019000	6.26845500
20.29999897	0.00000000	47.53321000	5.93626900
20.49999896	0.00000000	46.78888000	5.57332700
20.69999895	0.00000000	43.67618000	5.93626900
20.89999894	0.00000000	38.50886000	6.26845500
21.09999892	0.00000000	31.15772000	6.26845500
21.29999891	0.00000000	23.10531000	5.93626900
21.49999890	0.00000000	17.00910000	5.57332700
21.69999889	0.00000000	14.73302000	5.93626900
21.89999888	0.00000000	17.47047000	6.26845500
22.09999886	0.00000000	24.87082000	6.26845500
22.29999885	0.00000000	35.75910000	5.89320800
22.49999884	0.00000000	48.50517000	5.19808000
22.69999883	0.00000000	60.00246000	5.19808000
22.89999882	0.00000000	66.89222000	5.89320800
23.09999881	0.00000000	66.84301000	6.31151500
23.29999879	0.00000000	59.44881000	6.72982200
23.49999878	0.00000000	45.85999000	7.47416300
23.69999877	0.00000000	28.45718000	7.84940900
23.89999876	0.00000000	11.10359000	7.84940900
24.09999875	0.00000000	-1.96850400	7.47416300
24.29999873	0.00000000	-7.27731300	6.68676100
24.49999872	0.00000000	-2.62057100	5.89320800
24.69999871	0.00000000	11.33120000	4.68750000
24.89999870	0.00000000	31.43455000	3.15575800
25.09999869	0.00000000	53.85703000	1.62401600
25.29999867	0.00000000	73.12376000	0.51058070
25.49999866	0.00000000	84.66412000	0.51058070
25.69999865	0.00000000	85.35925000	1.66707700
25.89999864	0.00000000	74.19414000	3.66633800
26.09999863	0.00000000	54.09695000	6.77903500
26.29999862	0.00000000	29.75517000	10.62992000
26.49999860	0.00000000	6.17618100	14.11786000
26.69999859	0.00000000	-10.76525000	16.76919000
26.89999858	0.00000000	-17.32283000	17.46432000
27.09999857	0.00000000	-11.55266000	15.09596000
27.29999856	0.00000000	5.00738200	10.07628000
27.49999854	0.00000000	27.80512000	3.06348400
27.69999853	0.00000000	52.14074000	-4.60137700
27.89999852	0.00000000	72.23794000	-11.14665000
28.09999851	0.00000000	83.50146000	-14.58538000
28.29999850	0.00000000	84.28887000	-14.12401000
28.49999848	0.00000000	74.28642000	-9.01205700
28.69999847	0.00000000	56.18848000	0.64591530
28.89999846	0.00000000	34.92249000	12.58612000
29.09999845	0.00000000	14.77608000	24.20029000
29.29999844	0.00000000	0.07381889	32.98474000
29.49999843	0.00000000	-6.15772600	36.42347000
29.69999841	0.00000000	-3.13115100	32.94168000
29.89999840	0.00000000	8.03395600	23.64665000
30.09999839	0.00000000	24.18184000	10.03322000
30.29999838	0.00000000	41.29552000	-5.75787400
30.49999837	0.00000000	56.05315000	-20.02337000
30.69999835	0.00000000	66.51698000	-29.26919000
30.89999834	0.00000000	69.96185000	-31.54527000
31.09999833	0.00000000	65.81570000	-25.69513000
31.29999832	0.00000000	55.81324000	-12.59227000
31.49999831	0.00000000	42.69193000	4.82898600
31.69999829	0.00000000	29.47835000	22.95152000
31.89999828	0.00000000	18.59006000	37.99828000
32.09999827	0.00000000	11.61417000	46.08759000
32.29999826	0.00000000	10.03322000	45.76156000
32.49999825	0.00000000	13.89025000	37.21087000
32.69999824	0.00000000	21.99188000	22.15797000
32.89999822	0.00000000	32.78174000	3.62327700
33.09999821	0.00000000	43.20866000	-14.17323000
33.29999820	0.00000000	51.02116000	-27.69439000
33.49999819	0.00000000	55.25959000	-34.23966000
33.69999818	0.00000000	54.88435000	-31.96973000
33.89999816	0.00000000	49.90772000	-21.97957000
34.09999815	0.00000000	42.22441000	-6.87746000
34.29999814	0.00000000	33.71063000	10.54380000
34.49999813	0.00000000	26.40256000	26.71629000
34.69999812	0.00000000	22.12721000	37.91216000
34.89999810	0.00000000	21.65969000	41.44316000
35.09999809	0.00000000	24.36024000	37.26009000
35.29999808	0.00000000	29.38607000	26.80241000
35.49999807	0.00000000	35.90059000	12.11860000
35.69999806	0.00000000	41.67076000	-3.62942900
35.89999805	0.00000000	45.16486000	-16.35704000
36.09999803	0.00000000	45.95226000	-22.95768000
36.29999802	0.00000000	43.62696000	-22.63164000
36.49999801	0.00000000	39.06250000	-15.70497000
36.69999800	0.00000000	33.66756000	-4.18307100
36.89999799	0.00000000	29.05389000	8.87672100
37.09999797	0.00000000	26.35950000	20.06643000
37.29999796	0.00000000	26.31643000	26.62401000
37.49999795	0.00000000	28.63558000	27.41142000
37.69999794	0.00000000	32.50492000	22.02264000
37.89999793	0.00000000	37.53075000	12.11860000
38.09999791	0.00000000	42.09522000	1.06422200
38.29999790	0.00000000	44.83267000	-7.43725300
38.49999789	0.00000000	45.25713000	-11.30044000
38.69999788	0.00000000	43.71924000	-10.13164000
38.89999787	0.00000000	40.60039000	-3.62942900
39.09999786	0.00000000	36.36811000	5.89320800
39.29999784	0.00000000	32.08661000	15.09596000
39.49999783	0.00000000	28.63558000	21.60433000
39.69999782	0.00000000	26.69168000	23.13607000
39.89999781	0.00000000	27.01156000	19.28519000
40.09999780	0.00000000	28.54946000	11.23893000
40.29999778	0.00000000	30.96703000	0.88582670
40.49999777	0.00000000	34.83022000	-8.27386800
40.69999776	0.00000000	39.01944000	-13.66265000
40.89999775	0.00000000	42.13828000	-13.66265000
41.09999774	0.00000000	43.76230000	-8.31692900
41.29999772	0.00000000	44.13755000	0.51058070
41.49999771	0.00000000	43.34399000	10.54380000
41.69999770	0.00000000	40.97564000	19.37131000
41.89999769	0.00000000	37.53075000	24.71703000
42.09999768	0.00000000	33.66756000	24.76009000
42.29999767	0.00000000	30.54872000	19.78961000
42.49999765	0.00000000	28.59252000	11.74951000
42.69999764	0.00000000	27.80512000	2.50369100
42.89999763	0.00000000	28.59252000	-5.20423200
43.09999762	0.00000000	30.45644000	-9.89788300
43.29999761	0.00000000	32.82480000	-11.01132000
43.49999759	0.00000000	35.11319000	-7.94783400
43.69999758	0.00000000	37.06324000	-1.48868100
43.89999757	0.00000000	37.90600000	5.80708600
44.09999756	0.00000000	38.36737000	11.98327000
44.29999755	0.00000000	39.11171000	15.88336000
44.49999753	0.00000000	39.48696000	16.71998000
44.69999752	0.00000000	39.53002000	15.23130000
44.89999751	0.00000000	39.53002000	12.11860000
45.09999750	0.00000000	39.48696000	7.89247000
45.29999749	0.00000000	39.06250000	3.66633800
45.49999748	0.00000000	37.85679000	0.59670270
45.69999746	0.00000000	35.85752000	-0.60285430
45.89999745	0.00000000	32.73868000	0.09227362
46.09999744	0.00000000	28.92470000	1.62401600
46.29999743	0.00000000	25.84892000	3.57406500
46.49999742	0.00000000	24.31102000	5.89320800
46.69999740	0.00000000	24.77854000	7.84940900
46.89999739	0.00000000	27.94045000	9.38115100
47.09999738	0.00000000	33.71063000	10.16855000
47.29999737	0.00000000	40.64345000	9.75639700
47.49999736	0.00000000	46.83809000	8.63681000
47.69999734	0.00000000	51.07037000	6.64370100
47.89999733	0.00000000	52.14074000	4.36146600
48.09999732	0.00000000	49.06496000	2.04232300
48.29999731	0.00000000	42.46432000	0.51058070
48.49999730	0.00000000	33.99360000	0.09227362
48.69999729	0.00000000	25.11073000	0.55364170
48.89999727	0.00000000	18.59006000	2.50369100
49.09999726	0.00000000	15.84646000	5.89320800
49.29999725	0.00000000	17.42741000	8.96284400
49.49999724	0.00000000	23.24065000	10.96211000
49.69999723	0.00000000	32.12967000	12.11860000
49.89999721	0.00000000	42.13828000	12.07554000
50.09999720	0.00000000	50.60285000	10.49459000
50.29999719	0.00000000	55.21038000	7.38188900
50.49999718	0.00000000	54.83513000	3.20497000
50.69999717	0.00000000	49.48942000	-0.64591530
50.89999715	0.00000000	41.01870000	-2.93430100
51.09999714	0.00000000	31.75443000	-3.34030500
51.29999713	0.00000000	23.66511000	-1.35334600
51.49999712	0.00000000	19.05143000	2.41756900
51.69999711	0.00000000	18.96531000	7.05585600
51.89999710	0.00000000	22.82234000	10.91289000
52.09999708	0.00000000	29.38607000	13.65650000
52.29999707	0.00000000	37.48154000	14.76993000
52.49999706	0.00000000	44.69734000	13.60728000
52.69999705	0.00000000	48.60359000	10.53765000
52.89999704	0.00000000	48.28371000	6.31151500
53.09999702	0.00000000	44.83267000	2.12844500
53.29999701	0.00000000	39.01944000	-0.60285430
53.49999700	0.00000000	32.17273000	-1.39640700
53.69999699	0.00000000	26.77780000	-0.64591530
53.89999698	0.00000000	24.44636000	1.66707700
54.09999696	0.00000000	25.15379000	4.68750000
54.29999695	0.00000000	28.63558000	7.38188900
54.49999694	0.00000000	33.57529000	8.91978400
54.69999693	0.00000000	38.60113000	8.96284400
54.89999692	0.00000000	42.09522000	7.84940900
55.09999691	0.00000000	43.62696000	6.31151500
55.29999689	0.00000000	42.83341000	4.77977300
55.49999688	0.00000000	39.39468000	3.66633800
55.69999687	0.00000000	34.83022000	3.66633800
55.89999686	0.00000000	30.59178000	4.82283400
56.09999685	0.00000000	27.89739000	6.72982200
56.29999683	0.00000000	27.52214000	9.00590400
56.49999682	0.00000000	29.38607000	10.45152000
56.69999681	0.00000000	32.82480000	10.07628000
56.89999680	0.00000000	36.31890000	7.75713500
57.09999679	0.00000000	39.39468000	4.31840500
57.29999677	0.00000000	41.29552000	0.46751960
57.49999676	0.00000000	40.93258000	-2.55905500
57.69999675	0.00000000	39.11171000	-3.67249000
57.89999674	0.00000000	36.74335000	-2.09768700
58.09999673	0.00000000	34.41191000	2.12844500
58.29999672	0.00000000	32.08661000	7.89247000
58.49999670	0.00000000	30.59178000	13.65650000
58.69999669	0.00000000	30.59178000	17.83957000
58.89999668	0.00000000	32.08661000	19.00221000
59.09999667	0.00000000	34.36884000	16.67692000
59.29999666	0.00000000	36.27584000	11.65723000
59.49999664	0.00000000	37.48154000	4.69365100
59.69999663	0.00000000	37.85679000	-2.55905500
59.89999662	0.00000000	37.48154000	-7.94783400
60.09999661	0.00000000	36.32505000	-9.85482200
60.29999660	0.00000000	34.78716000	-7.94783400
60.49999658	0.00000000	33.29232000	-2.51599400
60.69999657	0.00000000	32.54798000	5.15501900
60.89999656	0.00000000	33.29232000	13.23819000
61.09999655	0.00000000	34.78716000	19.42052000
61.29999654	0.00000000	36.32505000	22.48400000
61.49999653	0.00000000	37.48154000	21.69045000
61.69999651	0.00000000	37.90600000	16.67692000
61.89999650	0.00000000	37.90600000	9.00590400
62.09999649	0.00000000	37.43848000	0.51058070
62.29999648	0.00000000	35.90059000	-6.78518600
62.49999647	0.00000000	33.61835000	-11.06053000
62.69999645	0.00000000	31.71137000	-11.42962000
62.89999644	0.00000000	30.50566000	-7.94783400
63.09999643	0.00000000	30.17347000	-1.02116100
63.29999642	0.00000000	30.96703000	7.38188900
63.49999641	0.00000000	33.29232000	14.76993000
63.69999639	0.00000000	36.31890000	19.78961000
63.89999638	0.00000000	39.01944000	21.73966000
64.09999637	0.00000000	40.55733000	19.78961000
64.29999636	0.00000000	40.60039000	14.85605000
64.49999635	0.00000000	39.43774000	8.26771600
64.69999634	0.00000000	37.48154000	1.66707700
64.89999632	0.00000000	34.73794000	-4.14000900
65.09999631	0.00000000	31.75443000	-7.94783400
65.29999630	0.00000000	29.80438000	-8.36614100
65.49999629	0.00000000	29.75517000	-5.75787400
65.69999628	0.00000000	30.50566000	-1.53174200
65.89999626	0.00000000	32.12967000	3.15575800
66.09999625	0.00000000	34.73794000	7.80019600
66.29999624	0.00000000	37.02018000	11.70029000
66.49999623	0.00000000	37.81373000	14.07480000
66.69999622	0.00000000	37.48154000	15.23130000
66.89999620	0.00000000	36.32505000	14.85605000
67.09999619	0.00000000	34.78716000	12.91215000
67.29999618	0.00000000	33.29232000	10.21161000
67.49999617	0.00000000	32.50492000	6.68676100
67.69999616	0.00000000	32.91707000	3.19881900
67.89999615	0.00000000	34.04282000	0.04306102
68.09999613	0.00000000	35.99286000	-2.64517700
68.29999612	0.00000000	37.85679000	-4.18307100
68.49999611	0.00000000	39.01944000	-4.18307100
68.69999610	0.00000000	38.97638000	-2.64517700
68.89999609	0.00000000	37.43848000	0.13533460
69.09999607	0.00000000	34.73794000	4.04158400
69.29999606	0.00000000	31.61909000	9.05511800
69.49999605	0.00000000	28.54946000	13.61343000
69.69999604	0.00000000	26.31643000	16.39395000
69.89999603	0.00000000	26.35950000	17.14444000
70.09999601	0.00000000	29.01082000	15.92642000
70.29999600	0.00000000	33.24926000	12.07554000
70.49999599	0.00000000	37.89985000	6.72982200
70.69999598	0.00000000	42.13828000	1.66707700
70.89999597	0.00000000	44.83267000	-2.60211600
71.09999596	0.00000000	45.20792000	-5.29650500
71.29999594	0.00000000	43.25172000	-5.67175200
71.49999593	0.00000000	39.01944000	-3.76476400
71.69999592	0.00000000	33.61835000	0.09227362
71.89999591	0.00000000	28.59252000	4.73671200
72.09999590	0.00000000	24.73548000	9.33809000
72.29999588	0.00000000	23.19759000	12.77067000
72.49999587	0.00000000	24.31102000	13.61343000
72.69999586	0.00000000	27.42987000	12.53691000
72.89999585	0.00000000	32.08661000	10.58686000
73.09999584	0.00000000	37.48154000	7.84940900
73.29999582	0.00000000	42.09522000	4.82283400
73.49999581	0.00000000	44.83267000	2.54675200
73.69999580	0.00000000	45.20792000	2.08538400
73.89999579	0.00000000	43.30093000	2.78051200
74.09999578	0.00000000	39.43774000	3.57406500
74.29999577	0.00000000	34.83022000	4.73671200
74.49999575	0.00000000	30.54872000	5.80093500
74.69999574	0.00000000	27.47293000	5.80093500
74.89999573	0.00000000	26.26722000	4.68750000
75.09999572	0.00000000	27.05462000	3.19881900
75.29999571	0.00000000	29.29380000	2.04232300
75.49999569	0.00000000	32.40649000	1.66707700
75.69999568	0.00000000	35.11319000	2.12844500
75.89999567	0.00000000	37.48154000	4.08464600
76.09999566	0.00000000	38.97638000	7.51722400
76.29999565	0.00000000	39.01944000	10.91289000
76.49999563	0.00000000	37.90600000	13.23819000
76.69999562	0.00000000	36.41117000	13.61343000
76.89999561	0.00000000	35.25467000	12.03248000
77.09999560	0.00000000	34.83022000	8.54453700
77.29999559	0.00000000	34.78716000	3.53100400
77.49999558	0.00000000	34.78716000	-1.43946800
77.69999556	0.00000000	34.78716000	-5.29650500
77.89999555	0.00000000	34.74409000	-6.78518600
78.09999554	0.00000000	34.31963000	-5.29650500
78.29999553	0.00000000	33.20005000	-1.43946800
78.49999552	0.00000000	32.08661000	3.62327700
78.69999550	0.00000000	31.66215000	9.42421200
78.89999549	0.00000000	31.66215000	14.76993000
79.09999548	0.00000000	32.12967000	17.88263000
79.29999547	0.00000000	33.66756000	18.30093000
79.49999546	0.00000000	35.94980000	16.35089000
79.69999544	0.00000000	37.85679000	12.11860000
79.89999543	0.00000000	39.06250000	6.72982200
80.09999542	0.00000000	39.43774000	1.66707700
80.29999541	0.00000000	39.01944000	-2.60211600
80.49999540	0.00000000	37.43848000	-5.24729300
80.69999539	0.00000000	34.73794000	-5.33956700
80.89999537	0.00000000	31.71137000	-3.43873000
81.09999536	0.00000000	29.42913000	-0.69512790
81.29999535	0.00000000	29.01082000	3.20497000
81.49999534	0.00000000	30.08120000	7.43110200
81.69999533	0.00000000	31.66215000	10.96211000
81.89999531	0.00000000	33.61835000	13.65650000
82.09999530	0.00000000	35.94980000	14.81299000
82.29999529	0.00000000	37.85679000	14.07480000
82.49999528	0.00000000	39.01944000	12.16781000
82.69999527	0.00000000	39.01944000	9.38115100
82.89999525	0.00000000	37.90600000	5.89320800
83.09999524	0.00000000	36.36811000	2.04232300
83.29999523	0.00000000	34.78716000	-1.07037400
83.49999522	0.00000000	33.24926000	-3.06348400
83.69999521	0.00000000	32.12967000	-4.18307100
83.89999520	0.00000000	32.08661000	-3.71555100
84.09999518	0.00000000	32.78174000	-1.07037400
84.29999517	0.00000000	33.15699000	2.78051200
84.49999516	0.00000000	33.20005000	6.72982200
84.69999515	0.00000000	33.24311000	11.00517000
84.89999514	0.00000000	33.61835000	14.76993000
85.09999512	0.00000000	34.36884000	16.30167000
85.29999511	0.00000000	34.78716000	15.18824000
85.49999510	0.00000000	35.20546000	12.11860000
85.69999509	0.00000000	35.94980000	7.84940900
85.89999508	0.00000000	36.32505000	3.20497000
86.09999506	0.00000000	36.36811000	-1.07037400
86.29999505	0.00000000	36.32505000	-4.13385800
86.49999504	0.00000000	35.90059000	-5.29650500
86.69999503	0.00000000	34.73794000	-4.13385800
86.89999502	0.00000000	33.20005000	-1.02116100
87.09999501	0.00000000	31.66215000	3.62327700
87.29999499	0.00000000	30.50566000	8.96284400
87.49999498	0.00000000	30.17347000	13.18898000
87.69999497	0.00000000	30.92396000	15.14518000
87.89999496	0.00000000	32.82480000	14.81299000
88.09999495	0.00000000	34.73794000	12.40157000
88.29999493	0.00000000	36.36811000	8.21235200
88.49999492	0.00000000	37.85679000	2.83587600
88.69999491	0.00000000	38.60113000	-1.35334600
88.89999490	0.00000000	37.85679000	-3.71555100
89.09999489	0.00000000	36.32505000	-3.71555100
89.29999487	0.00000000	34.41191000	-1.39640700
89.49999486	0.00000000	32.46186000	2.46063000
89.69999485	0.00000000	31.28691000	7.43110200
89.89999484	0.00000000	30.50566000	11.61417000
90.09999483	0.00000000	30.54872000	13.61343000
90.29999482	0.00000000	31.66215000	13.61343000
90.49999480	0.00000000	33.20005000	11.65723000
90.69999479	0.00000000	34.73794000	7.80019600
90.89999478	0.00000000	35.90059000	3.20497000
91.09999477	0.00000000	36.32505000	-0.97810030
91.29999476	0.00000000	36.32505000	-3.25418300
91.49999474	0.00000000	35.94980000	-2.51599400
91.69999473	0.00000000	35.20546000	0.51058070
91.89999472	0.00000000	34.83022000	4.73671200
92.09999471	0.00000000	34.78716000	8.96284400
92.29999470	0.00000000	34.78716000	12.07554000
92.49999468	0.00000000	34.74409000	13.56422000
92.69999467	0.00000000	34.36884000	12.77067000
92.89999466	0.00000000	33.61835000	9.33809000
93.09999465	0.00000000	33.20005000	4.77977300
93.29999464	0.00000000	32.78174000	0.55364170
93.49999463	0.00000000	32.03740000	-2.14074800
93.69999461	0.00000000	31.71137000	-2.55905500
93.89999460	0.00000000	32.08661000	-1.02116100
94.09999459	0.00000000	33.24926000	2.08538400
94.29999458	0.00000000	34.78716000	6.26845500
94.49999457	0.00000000	36.36811000	10.11934000
94.69999455	0.00000000	37.90600000	12.40157000
94.89999454	0.00000000	39.01944000	12.77067000
95.09999453	0.00000000	38.97638000	10.45152000
95.29999452	0.00000000	37.43848000	6.31151500
95.49999451	0.00000000	34.78716000	2.08538400
95.69999449	0.00000000	32.03740000	-1.02116100
95.89999448	0.00000000	29.66289000	-2.55905500
96.09999447	0.00000000	27.38681000	-2.14074800
96.29999446	0.00000000	26.31643000	0.51058070
96.49999445	0.00000000	27.42987000	4.31840500
96.69999444	0.00000000	30.13041000	7.80019600
96.89999442	0.00000000	33.61835000	10.49459000
97.09999441	0.00000000	37.53075000	11.65723000
97.29999440	0.00000000	40.93258000	10.91289000
97.49999439	0.00000000	42.87647000	9.00590400
97.69999438	0.00000000	42.51353000	6.31151500
97.89999436	0.00000000	40.60039000	3.61712600
98.09999435	0.00000000	37.48154000	1.71013800
98.29999434	0.00000000	33.61835000	0.92888770
98.49999433	0.00000000	30.13041000	1.66707700
98.69999432	0.00000000	27.38681000	3.15575800
98.89999430	0.00000000	25.84892000	4.73671200
99.09999429	0.00000000	25.84892000	6.22539300
99.29999428	0.00000000	27.42987000	7.00664300
99.49999427	0.00000000	30.54872000	6.68676100
99.69999426	0.00000000	34.73794000	6.31151500
99.89999425	0.00000000	38.60113000	5.93626900
100.09999423	0.00000000	40.97564000	5.57332700
100.29999422	0.00000000	42.13828000	5.93626900
100.49999421	0.00000000	41.71998000	6.26845500
100.69999420	0.00000000	39.43774000	6.31151500
100.89999419	0.00000000	36.36811000	6.26845500
101.09999417	0.00000000	33.24926000	5.89320800
101.29999416	0.00000000	30.50566000	5.11195900
101.49999415	0.00000000	28.54946000	4.31840500
101.69999414	0.00000000	27.42987000	3.15575800
101.89999413	0.00000000	27.80512000	2.04232300
102.09999411	0.00000000	29.70595000	1.71013800
102.29999410	0.00000000	31.99434000	2.50369100
102.49999409	0.00000000	34.41191000	4.77977300
102.69999408	0.00000000	36.70029000	7.43110200
102.89999407	0.00000000	38.64419000	9.38115100
103.09999406	0.00000000	39.39468000	10.58686000
103.29999404	0.00000000	39.01944000	10.91289000
103.49999403	0.00000000	37.48154000	10.11934000
103.69999402	0.00000000	35.16240000	7.80019600
103.89999401	0.00000000	32.87401000	4.77977300
104.09999400	0.00000000	30.92396000	2.04232300
104.29999398	0.00000000	30.13041000	0.13533460
104.49999397	0.00000000	30.08120000	-0.65206690
104.69999396	0.00000000	30.50566000	0.13533460
104.89999395	0.00000000	31.71137000	2.04232300
105.09999394	0.00000000	33.57529000	4.73671200
105.29999392	0.00000000	35.48228000	7.43110200
105.49999391	0.00000000	36.27584000	9.38115100
105.69999390	0.00000000	36.32505000	10.49459000
105.89999389	0.00000000	35.94980000	10.07628000
106.09999388	0.00000000	35.16240000	7.84940900
106.29999387	0.00000000	34.36884000	5.19808000
106.49999385	0.00000000	33.20005000	3.24803100
106.69999384	0.00000000	32.12967000	2.08538400
106.89999383	0.00000000	32.08661000	2.08538400
107.09999382	0.00000000	32.82480000	3.19881900
107.29999381	0.00000000	33.61835000	4.73671200
107.49999379	0.00000000	34.78716000	6.26845500
107.69999378	0.00000000	35.85752000	7.42495000
107.89999377	0.00000000	35.90059000	7.80019600
108.09999376	0.00000000	35.16240000	7.42495000
108.29999375	0.00000000	34.36884000	6.26845500
108.49999374	0.00000000	33.15699000	4.73671200
108.69999372	0.00000000	31.66215000	3.19881900
108.89999371	0.00000000	30.54872000	2.04232300
109.09999370	0.00000000	30.54872000	1.66707700
109.29999369	0.00000000	31.66215000	2.04232300
109.49999368	0.00000000	33.20005000	3.24803100
109.69999366	0.00000000	34.73794000	5.15501900
109.89999365	0.00000000	35.90059000	7.43110200
110.09999364	0.00000000	36.32505000	8.91978400
110.29999363	0.00000000	36.32505000	8.96284400
110.49999362	0.00000000	35.90059000	7.84940900
110.69999360	0.00000000	34.73794000	6.31151500
110.89999359	0.00000000	33.24926000	4.73671200
111.09999358	0.00000000	32.08661000	3.19881900
111.29999357	0.00000000	31.66215000	2.04232300
111.49999356	0.00000000	31.66215000	1.66707700
111.69999355	0.00000000	32.03740000	1.99311000
111.89999353	0.00000000	32.82480000	2.78051200
112.09999352	0.00000000	33.57529000	3.57406500
112.29999351	0.00000000	34.36884000	4.73671200
112.49999350	0.00000000	34.74409000	5.89320800
112.69999349	0.00000000	34.78716000	6.64370100
112.89999347	0.00000000	34.74409000	7.05585600
113.09999346	0.00000000	34.36884000	6.64370100
113.29999345	0.00000000	33.61835000	5.93626900
113.49999344	0.00000000	33.24311000	5.15501900
113.69999343	0.00000000	33.20005000	4.77977300
113.89999341	0.00000000	33.20005000	4.73671200
114.09999340	0.00000000	33.20005000	4.73671200
114.29999339	0.00000000	33.24311000	4.73671200
114.49999338	0.00000000	33.61835000	4.69365100
114.69999337	0.00000000	34.36884000	4.31840500
114.89999336	0.00000000	34.74409000	3.57406500
115.09999334	0.00000000	34.78716000	3.19881900
115.29999333	0.00000000	34.78716000	3.15575800
115.49999332	0.00000000	34.78716000	3.19881900
115.69999331	0.00000000	34.74409000	3.57406500
115.89999330	0.00000000	34.36884000	4.36146600
116.09999328	0.00000000	33.61835000	5.11195900
116.29999327	0.00000000	33.20005000	5.89320800
116.49999326	0.00000000	32.78174000	6.26845500
116.69999325	0.00000000	32.03740000	6.31151500
116.89999324	0.00000000	31.71137000	6.26845500
117.09999322	0.00000000	32.08661000	5.89320800
117.29999321	0.00000000	33.20005000	5.11195900
117.49999320	0.00000000	34.36884000	4.36146600
117.69999319	0.00000000	35.16240000	3.57406500
117.89999318	0.00000000	35.94980000	3.19881900
118.09999317	0.00000000	36.27584000	3.15575800
118.29999315	0.00000000	35.94980000	3.19881900
118.49999314	0.00000000	35.16240000	3.57406500
118.69999313	0.00000000	34.36884000	4.36146600
118.89999312	0.00000000	33.15699000	5.11195900
119.09999311	0.00000000	31.71137000	5.89320800
119.29999309	0.00000000	30.87475000	6.26845500
119.49999308	0.00000000	30.86860000	6.31151500
119.69999307	0.00000000	30.87475000	6.31151500
119.89999306	0.00000000	31.71137000	6.31151500
120.09999305	0.00000000	33.20005000	6.31151500
120.29999303	0.00000000	34.73794000	6.26845500
120.49999302	0.00000000	35.94980000	5.89320800
120.69999301	0.00000000	36.70029000	5.15501900
120.89999300	0.00000000	37.06324000	4.77977300
121.09999299	0.00000000	36.32505000	4.69365100
121.29999298	0.00000000	35.20546000	4.31840500
121.49999296	0.00000000	34.36884000	3.62327700
121.69999295	0.00000000	33.15699000	3.57406500
121.89999294	0.00000000	31.66215000	3.94315900
122.09999293	0.00000000	30.54872000	3.94931100
122.29999292	0.00000000	30.50566000	4.40452700
122.49999290	0.00000000	31.24384000	5.11195900
122.69999289	0.00000000	31.99434000	5.89320800
122.89999288	0.00000000	32.82480000	6.26845500
123.09999287	0.00000000	33.57529000	6.31151500
123.29999286	0.00000000	34.41191000	6.31151500
123.49999284	0.00000000	35.16240000	6.26845500
123.69999283	0.00000000	35.90059000	5.89320800
123.89999282	0.00000000	35.90059000	5.11195900
124.09999281	0.00000000	35.16240000	4.36146600
124.29999280	0.00000000	34.41191000	3.57406500
124.49999279	0.00000000	33.57529000	3.24803100
124.69999277	0.00000000	32.82480000	3.57406500
124.89999276	0.00000000	32.03740000	4.31840500
125.09999275	0.00000000	31.66215000	4.69365100
125.29999274	0.00000000	31.61909000	4.77977300
125.49999273	0.00000000	31.66215000	5.15501900
125.69999271	0.00000000	32.03740000	5.89320800
125.89999270	0.00000000	32.82480000	6.26845500
126.09999269	0.00000000	33.57529000	6.31151500
126.29999268	0.00000000	34.41191000	6.26845500
126.49999267	0.00000000	35.16240000	5.89320800
126.69999265	0.00000000	35.90059000	5.15501900
126.89999264	0.00000000	35.90059000	4.77977300
127.09999263	0.00000000	35.16240000	4.69365100
127.29999262	0.00000000	34.36884000	4.31840500
127.49999261	0.00000000	33.20005000	3.62327700
127.69999260	0.00000000	32.08661000	3.62327700
127.89999258	0.00000000	31.66215000	4.31840500
128.09999257	0.00000000	31.61909000	4.69365100
128.29999256	0.00000000	31.66215000	4.77977300
128.49999255	0.00000000	32.08661000	5.15501900
128.69999254	0.00000000	33.20005000	5.85014700
128.89999252	0.00000000	34.36884000	5.85014700
129.09999251	0.00000000	35.16240000	5.15501900
129.29999250	0.00000000	35.90059000	4.77977300
129.49999249	0.00000000	35.85752000	4.69365100
129.69999248	0.00000000	34.78716000	4.36146600
129.89999246	0.00000000	33.61835000	3.99237200
130.09999245	0.00000000	32.82480000	4.36146600
130.29999244	0.00000000	32.03740000	4.69365100
130.49999243	0.00000000	31.66215000	4.73671200
130.69999242	0.00000000	31.66215000	4.77977300
130.89999241	0.00000000	32.08661000	5.15501900
131.09999239	0.00000000	33.20005000	5.89320800
131.29999238	0.00000000	34.31963000	6.21924200
131.49999237	0.00000000	34.74409000	5.89320800
131.69999236	0.00000000	34.78716000	5.11195900
131.89999235	0.00000000	34.78716000	4.36146600
132.09999233	0.00000000	34.74409000	3.57406500
132.29999232	0.00000000	34.31963000	3.19881900
132.49999231	0.00000000	33.20005000	3.15575800
132.69999230	0.00000000	32.08661000	3.19881900
132.89999229	0.00000000	31.66215000	3.57406500
133.09999227	0.00000000	31.66215000	4.36146600
133.29999226	0.00000000	32.03740000	5.11195900
133.49999225	0.00000000	32.82480000	5.93626900
133.69999224	0.00000000	33.53223000	6.64370100
133.89999223	0.00000000	33.94439000	7.05585600
134.09999222	0.00000000	33.57529000	6.64370100
134.29999220	0.00000000	33.24311000	5.93626900
134.49999219	0.00000000	33.20005000	5.11195900
134.69999218	0.00000000	33.20005000	4.36146600
134.89999217	0.00000000	33.20005000	3.57406500
135.09999216	0.00000000	33.24311000	3.19881900
135.29999214	0.00000000	33.57529000	3.15575800
135.49999213	0.00000000	33.94439000	3.19881900
135.69999212	0.00000000	33.57529000	3.57406500
135.89999211	0.00000000	33.24311000	4.36146600
136.09999210	0.00000000	33.15699000	5.11195900
136.29999208	0.00000000	32.78174000	5.89320800
136.49999207	0.00000000	32.03740000	6.26845500
136.69999206	0.00000000	31.66215000	6.31151500
136.89999205	0.00000000	31.61909000	6.26845500
137.09999204	0.00000000	31.66215000	5.89320800
137.29999203	0.00000000	32.03740000	5.15501900
137.49999201	0.00000000	32.82480000	4.73671200
137.69999200	0.00000000	33.57529000	4.31840500
137.89999199	0.00000000	34.36884000	3.57406500
138.09999198	0.00000000	34.74409000	3.19881900
138.29999197	0.00000000	34.74409000	3.15575800
138.49999195	0.00000000	34.31963000	3.19881900
138.69999194	0.00000000	33.20005000	3.57406500
138.89999193	0.00000000	32.08661000	4.31840500
139.09999192	0.00000000	31.66215000	4.73671200
139.29999191	0.00000000	31.61909000	5.15501900
139.49999189	0.00000000	31.66215000	5.89320800
139.69999188	0.00000000	32.03740000	6.26845500
139.89999187	0.00000000	32.78174000	6.31151500
140.09999186	0.00000000	33.20005000	6.26845500
140.29999185	0.00000000	33.61835000	5.89320800
140.49999184	0.00000000	34.31963000	5.11195900
140.69999182	0.00000000	34.31963000	4.36146600
140.89999181	0.00000000	33.61835000	3.57406500
141.09999180	0.00000000	33.24311000	3.19881900
141.29999179	0.00000000	33.15699000	3.15575800
141.49999178	0.00000000	32.78174000	3.19881900
141.69999176	0.00000000	32.08661000	3.62327700
141.89999175	0.00000000	32.08661000	4.73671200
142.09999174	0.00000000	32.78174000	5.89320800
142.29999173	0.00000000	33.15699000	6.68676100
142.49999172	0.00000000	33.20005000	7.42495000
142.69999170	0.00000000	33.20005000	7.42495000
142.89999169	0.00000000	33.20005000	6.68676100
143.09999168	0.00000000	33.20005000	5.89320800
143.29999167	0.00000000	33.20005000	4.73671200
143.49999166	0.00000000	33.15699000	3.62327700
143.69999165	0.00000000	32.82480000	3.19881900
143.89999163	0.00000000	32.45571000	3.15575800
144.09999162	0.00000000	32.82480000	3.19881900
144.29999161	0.00000000	33.15699000	3.62327700
144.49999160	0.00000000	33.20005000	4.73671200
144.69999159	0.00000000	33.24311000	5.85014700
144.89999157	0.00000000	33.57529000	6.26845500
145.09999156	0.00000000	33.94439000	6.31151500
145.29999155	0.00000000	33.57529000	6.26845500
145.49999154	0.00000000	33.24311000	5.89320800
145.69999153	0.00000000	33.15699000	5.11195900
145.89999151	0.00000000	32.78174000	4.36146600
146.09999150	0.00000000	32.03740000	3.57406500
146.29999149	0.00000000	31.71137000	3.19881900
146.49999148	0.00000000	32.03740000	3.15575800
146.69999147	0.00000000	32.78174000	3.19881900
146.89999146	0.00000000	33.15699000	3.57406500
147.09999144	0.00000000	33.20005000	4.31840500
147.29999143	0.00000000	33.20005000	4.69365100
147.49999142	0.00000000	33.20005000	4.73671200
147.69999141	0.00000000	33.20005000	4.77977300
147.89999140	0.00000000	33.15699000	5.11195900
148.09999138	0.00000000	32.78174000	5.47490100
148.29999137	0.00000000	32.03740000	5.11195900
148.49999136	0.00000000	31.66215000	4.77977300
148.69999135	0.00000000	31.66215000	4.73671200
148.89999134	0.00000000	32.03740000	4.69365100
149.09999132	0.00000000	32.78174000	4.31840500
149.29999131	0.00000000	33.15699000	3.62327700
149.49999130	0.00000000	33.20005000	3.62327700
149.69999129	0.00000000	33.20005000	4.31840500
149.89999128	0.00000000	33.24311000	4.69365100
150.09999127	0.00000000	33.57529000	4.73671200
150.29999125	0.00000000	33.94439000	4.73671200
150.49999124	0.00000000	33.57529000	4.73671200
150.69999123	0.00000000	33.20005000	4.77977300
150.89999122	0.00000000	32.78174000	5.11195900
151.09999121	0.00000000	32.03740000	5.47490100
151.29999119	0.00000000	31.66215000	5.11195900
151.49999118	0.00000000	31.66215000	4.77977300
151.69999117	0.00000000	32.03740000	4.73671200
151.89999116	0.00000000	32.78174000	4.73671200
152.09999115	0.00000000	33.15699000	4.73671200
152.29999113	0.00000000	33.15699000	4.69365100
152.49999112	0.00000000	32.82480000	4.36146600
152.69999111	0.00000000	32.45571000	3.99237200
152.89999110	0.00000000	32.82480000	4.36146600
153.09999109	0.00000000	33.15699000	4.69365100
153.29999108	0.00000000	33.20005000	4.73671200
153.49999106	0.00000000	33.15699000	4.73671200
153.69999105	0.00000000	32.78174000	4.73671200
153.89999104	0.00000000	32.03740000	4.77977300
154.09999103	0.00000000	31.66215000	5.15501900
154.29999102	0.00000000	31.61909000	5.85014700
154.49999100	0.00000000	31.61909000	5.85014700
154.69999099	0.00000000	31.66215000	5.15501900
154.89999098	0.00000000	32.03740000	4.77977300
155.09999097	0.00000000	32.78174000	4.73671200
155.29999096	0.00000000	33.15699000	4.73671200
155.49999094	0.00000000	33.20005000	4.69365100
155.69999093	0.00000000	33.20005000	4.36146600
155.89999092	0.00000000	33.20005000	3.99237200
156.09999091	0.00000000	33.20005000	4.36146600
156.29999090	0.00000000	33.15699000	4.69365100
156.49999089	0.00000000	32.78174000	4.73671200
156.69999087	0.00000000	32.03740000	4.73671200
156.89999086	0.00000000	31.66215000	4.73671200
157.09999085	0.00000000	31.61909000	4.77977300
157.29999084	0.00000000	31.61909000	5.11195900
157.49999083	0.00000000	31.61909000	5.47490100
157.69999081	0.00000000	31.61909000	5.11195900
157.89999080	0.00000000	31.66215000	4.77977300
158.09999079	0.00000000	32.03740000	4.69365100
158.29999078	0.00000000	32.78174000	4.31840500
158.49999077	0.00000000	33.15699000	3.57406500
158.69999075	0.00000000	33.20005000	3.24803100
158.89999074	0.00000000	33.20005000	3.57406500
159.09999073	0.00000000	33.20005000	4.31840500
159.29999072	0.00000000	33.20005000	4.69365100
159.49999071	0.00000000	33.15699000	4.73671200
159.69999070	0.00000000	32.78174000	4.77977300
159.89999068	0.00000000	32.03740000	5.15501900
160.09999067	0.00000000	31.66215000	5.89320800
160.29999066	0.00000000	31.61909000	6.21924200
160.49999065	0.00000000	31.61909000	5.89320800
160.69999064	0.00000000	31.61909000	5.15501900
160.89999062	0.00000000	31.61909000	4.77977300
161.09999061	0.00000000	31.61909000	4.69365100
161.29999060	0.00000000	31.61909000	4.31840500
161.49999059	0.00000000	31.66215000	3.57406500
161.69999058	0.00000000	32.03740000	3.24803100
161.89999056	0.00000000	32.78174000	3.57406500
162.09999055	0.00000000	33.15699000	4.31840500
162.29999054	0.00000000	33.20005000	4.69365100
162.49999053	0.00000000	33.20005000	4.73671200
162.69999052	0.00000000	33.20005000	4.73671200
162.89999051	0.00000000	33.20005000	4.73671200
163.09999049	0.00000000	33.15699000	4.73671200
163.29999048	0.00000000	32.78174000	4.73671200
163.49999047	0.00000000	32.03740000	4.73671200
163.69999046	0.00000000	31.66215000	4.73671200
163.89999045	0.00000000	31.61909000	4.69365100
164.09999043	0.00000000	31.61909000	4.36146600
164.29999042	0.00000000	31.66215000	3.99237200
164.49999041	0.00000000	32.03740000	4.36146600
164.69999040	0.00000000	32.78174000	4.64443900
164.89999039	0.00000000	33.20005000	4.36146600
165.09999037	0.00000000	33.57529000	3.99237200
165.29999036	0.00000000	33.94439000	4.36146600
165.49999035	0.00000000	33.57529000	4.69365100
165.69999034	0.00000000	33.24311000	4.73671200
165.89999033	0.00000000	33.15699000	4.73671200
166.09999032	0.00000000	32.78174000	4.73671200
166.29999030	0.00000000	32.03740000	4.73671200
166.49999029	0.00000000	31.66215000	4.73671200
166.69999028	0.00000000	31.61909000	4.73671200
166.89999027	0.00000000	31.61909000	4.73671200
167.09999026	0.00000000	31.66215000	4.73671200
167.29999024	0.00000000	31.99434000	4.73671200
167.49999023	0.00000000	32.36343000	4.73671200
167.69999022	0.00000000	32.03740000	4.73671200
167.89999021	0.00000000	32.08661000	4.73671200
168.09999020	0.00000000	32.78174000	4.73671200
168.29999018	0.00000000	33.15699000	4.73671200
168.49999017	0.00000000	33.20005000	4.69365100
168.69999016	0.00000000	33.20005000	4.36146600
168.89999015	0.00000000	33.20005000	3.99237200
169.09999014	0.00000000	33.15699000	4.36146600
169.29999013	0.00000000	32.78174000	4.69365100
169.49999011	0.00000000	32.03740000	4.73671200
169.69999010	0.00000000	31.66215000	4.73671200
169.89999009	0.00000000	31.61909000	4.73671200
170.09999008	0.00000000	31.61909000	4.73671200
170.29999007	0.00000000	31.66215000	4.73671200
170.49999005	0.00000000	31.99434000	4.73671200
170.69999004	0.00000000	32.36343000	4.73671200
170.89999003	0.00000000	32.03740000	4.73671200
171.09999002	0.00000000	32.08661000	4.73671200
171.29999001	0.00000000	32.78174000	4.73671200
171.49998999	0.00000000	33.15699000	4.73671200
171.69998998	0.00000000	33.20005000	4.73671200
171.89998997	0.00000000	33.20005000	4.73671200
172.09998996	0.00000000	33.15699000	4.69365100
172.29998995	0.00000000	32.78174000	4.36146600
172.49998994	0.00000000	32.03740000	3.99237200
172.69998992	0.00000000	31.66215000	4.36146600
172.89998991	0.00000000	31.61909000	4.69365100
173.09998990	0.00000000	31.61909000	4.73671200
173.29998989	0.00000000	31.66215000	4.73671200
173.49998988	0.00000000	32.03740000	4.73671200
173.69998986	0.00000000	32.78174000	4.73671200
173.89998985	0.00000000	33.10777000	4.73671200
174.09998984	0.00000000	32.82480000	4.73671200
174.29998983	0.00000000	32.45571000	4.73671200
174.49998982	0.00000000	32.78174000	4.73671200
174.69998980	0.00000000	32.78174000	4.73671200
174.89998979	0.00000000	32.41265000	4.73671200
175.09998978	0.00000000	32.40649000	4.73671200
175.29998977	0.00000000	31.99434000	4.73671200
175.49998976	0.00000000	31.66215000	4.73671200
175.69998975	0.00000000	31.61909000	4.73671200
175.89998973	0.00000000	31.61909000	4.73671200
176.09998972	0.00000000	31.61909000	4.73671200
176.29998971	0.00000000	31.66215000	4.73671200
176.49998970	0.00000000	32.03740000	4.73671200
176.69998969	0.00000000	32.78174000	4.73671200
176.89998967	0.00000000	33.15699000	4.73671200
177.09998966	0.00000000	33.15699000	4.73671200
177.29998965	0.00000000	32.82480000	4.73671200
177.49998964	0.00000000	32.41265000	4.73671200
177.69998963	0.00000000	32.40649000	4.73671200
177.89998961	0.00000000	31.99434000	4.73671200
178.09998960	0.00000000	31.66215000	4.73671200
178.29998959	0.00000000	31.61909000	4.73671200
178.49998958	0.00000000	31.61909000	4.73671200
178.69998957	0.00000000	31.61909000	4.73671200
178.89998956	0.00000000	31.66215000	4.73671200
179.09998954	0.00000000	31.99434000	4.73671200
179.29998953	0.00000000	32.36343000	4.73671200
179.49998952	0.00000000	32.03740000	4.73671200
179.69998951	0.00000000	32.08661000	4.73671200
179.89998950	0.00000000	32.73252000	4.73671200
180.09998948	0.00000000	32.73252000	4.69365100
180.29998947	0.00000000	32.03740000	4.31840500
180.49998946	0.00000000	31.66215000	3.57406500
180.69998945	0.00000000	31.61909000	3.24803100
180.89998944	0.00000000	31.61909000	3.53100400
181.09998942	0.00000000	31.61909000	3.94315900
181.29998941	0.00000000	31.61909000	3.94931100
181.49998940	0.00000000	31.61909000	4.36146600
181.69998939	0.00000000	31.66215000	4.69365100
181.89998938	0.00000000	31.99434000	4.73671200
182.09998937	0.00000000	32.36343000	4.73671200
182.29998935	0.00000000	32.03740000	4.73671200
182.49998934	0.00000000	32.08661000	4.73671200
182.69998933	0.00000000	32.78174000	4.73671200
182.89998932	0.00000000	33.10777000	4.69365100
183.09998931	0.00000000	32.82480000	4.36146600
183.29998929	0.00000000	32.41265000	3.94931100
183.49998928	0.00000000	32.40649000	3.94315900
183.69998927	0.00000000	31.99434000	3.57406500
183.89998926	0.00000000	31.66215000	3.62327700
184.09998925	0.00000000	31.61909000	4.31840500
184.29998923	0.00000000	31.61909000	4.69365100
184.49998922	0.00000000	31.61909000	4.73671200
184.69998921	0.00000000	31.61909000	4.73671200
184.89998920	0.00000000	31.61909000	4.73671200
185.09998919	0.00000000	31.61909000	4.73671200
185.29998918	0.00000000	31.61909000	4.73671200
185.49998916	0.00000000	31.61909000	4.73671200
185.69998915	0.00000000	31.66215000	4.69365100
185.89998914	0.00000000	32.03740000	4.31840500
186.09998913	0.00000000	32.78174000	3.57406500
186.29998912	0.00000000	33.10777000	3.19881900
186.49998910	0.00000000	32.78174000	3.15575800
186.69998909	0.00000000	32.03740000	3.19881900
186.89998908	0.00000000	31.66215000	3.57406500
187.09998907	0.00000000	31.61909000	4.31840500
187.29998906	0.00000000	31.61909000	4.69365100
187.49998904	0.00000000	31.61909000	4.73671200
187.69998903	0.00000000	31.61909000	4.73671200
187.89998902	0.00000000	31.61909000	4.73671200
188.09998901	0.00000000	31.61909000	4.73671200
188.29998900	0.00000000	31.61909000	4.73671200
188.49998899	0.00000000	31.61909000	4.73671200
188.69998897	0.00000000	31.61909000	4.69365100
188.89998896	0.00000000	31.61909000	4.31840500
189.09998895	0.00000000	31.61909000	3.57406500
189.29998894	0.00000000	31.61909000	3.19881900
189.49998893	0.00000000	31.61909000	3.15575800
189.69998891	0.00000000	31.61909000	3.19881900
189.89998890	0.00000000	31.61909000	3.57406500
190.09998889	0.00000000	31.61909000	4.31840500
190.29998888	0.00000000	31.61909000	4.69365100
190.49998887	0.00000000	31.61909000	4.73671200
190.69998885	0.00000000	31.61909000	4.73671200
190.89998884	0.00000000	31.61909000	4.73671200
191.09998883	0.00000000	31.61909000	4.73671200
191.29998882	0.00000000	31.61909000	4.73671200
191.49998881	0.00000000	31.61909000	4.73671200
191.69998880	0.00000000	31.66215000	4.73671200
191.89998878	0.00000000	31.99434000	4.69365100
192.09998877	0.00000000	32.36343000	4.31840500
192.29998876	0.00000000	31.99434000	3.62327700
192.49998875	0.00000000	31.66215000	3.57406500
192.69998874	0.00000000	31.61909000	3.94315900
192.89998872	0.00000000	31.61909000	3.94931100
193.09998871	0.00000000	31.61909000	4.36146600
193.29998870	0.00000000	31.61909000	4.69365100
193.49998869	0.00000000	31.61909000	4.73671200
193.69998868	0.00000000	31.61909000	4.73671200
193.89998866	0.00000000	31.61909000	4.73671200
194.09998865	0.00000000	31.61909000	4.73671200
194.29998864	0.00000000	31.61909000	4.73671200
194.49998863	0.00000000	31.61909000	4.73671200
194.69998862	0.00000000	31.61909000	4.73671200
194.89998861	0.00000000	31.66215000	4.73671200
195.09998859	0.00000000	31.99434000	4.73671200
195.29998858	0.00000000	32.36343000	4.69365100
195.49998857	0.00000000	31.99434000	4.36146600
195.69998856	0.00000000	31.66215000	3.99237200
195.89998855	0.00000000	31.61909000	4.31840500
196.09998853	0.00000000	31.61909000	4.26919300
