Time	Channel A	Channel B	Channel C
(us)	(V)	(mV)	(mV)

-4.49999956	0.00000000	18.97145000	-0.73818890
-4.29999957	0.00000000	18.97145000	-0.37524600
-4.09999958	0.00000000	18.97145000	-0.04306102
-3.89999959	0.00000000	18.97145000	0.00000000
-3.69999960	0.00000000	18.97145000	0.00000000
-3.49999962	0.00000000	18.97145000	0.00000000
-3.29999963	0.00000000	18.97145000	0.00000000
-3.09999964	0.00000000	18.97145000	0.00000000
-2.89999965	0.00000000	18.97145000	0.00000000
-2.69999966	0.00000000	18.97145000	0.00000000
-2.49999968	0.00000000	18.97145000	0.00000000
-2.29999969	0.00000000	18.97145000	0.00000000
-2.09999970	0.00000000	18.97145000	0.00000000
-1.89999971	0.00000000	18.97145000	0.00000000
-1.69999972	0.00000000	18.97145000	0.00000000
-1.49999973	0.00000000	18.97145000	0.00000000
-1.29999975	0.00000000	18.97145000	0.00000000
-1.09999976	0.00000000	18.97145000	0.00000000
-0.89999977	0.00000000	18.97145000	0.00000000
-0.69999978	0.00000000	18.97145000	0.00000000
-0.49999979	0.00000000	18.97145000	-0.04306102
-0.29999981	0.31803640	18.97145000	-0.41830710
-0.09999982	0.63668800	18.97145000	-1.15649600
0.10000017	0.95533960	18.97145000	-1.53174200
0.30000016	0.95533960	18.97145000	-1.57480300
0.50000015	0.79601380	18.97145000	-1.57480300
0.70000013	0.31803640	18.97145000	-1.53174200
0.90000012	-0.63668800	18.97145000	-1.19955700
1.10000011	-1.59264300	18.97145000	-0.79355310
1.30000010	-2.38927200	18.97145000	-0.78124990
1.50000009	-2.70792300	18.97145000	-0.37524600
1.70000008	-2.38927200	18.97145000	-0.04306102
1.90000006	-1.11466500	18.97145000	0.00000000
2.10000005	0.79601380	18.97145000	0.00000000
2.30000004	2.86724900	18.97145000	0.00000000
2.50000003	4.61921700	18.97145000	-0.04306102
2.70000002	5.41584600	18.97145000	-0.41830710
2.90000000	4.77854300	18.97145000	-1.15649600
3.09999999	2.54859700	18.97145000	-1.48253000
3.29999998	-0.47736220	18.97145000	-1.19955700
3.49999997	-3.98191400	18.97145000	-0.79355310
3.69999996	-6.69045300	18.97145000	-0.78124990
3.89999994	-7.96444400	18.97145000	-0.37524600
4.09999993	-7.16781500	18.97145000	-0.04306102
4.29999992	-4.45989200	18.97145000	0.00000000
4.49999991	-0.47736220	18.97145000	0.00000000
4.69999990	3.82258900	18.97145000	0.00000000
4.89999989	7.48646600	18.97145000	-0.04306102
5.09999987	9.39837600	18.92839000	-0.41830710
5.29999986	8.92039900	18.59621000	-1.15649600
5.49999985	6.05315000	18.22711000	-1.53174200
5.69999984	1.75196900	18.55315000	-1.57480300
5.89999983	-3.02657500	18.55315000	-1.53174200
6.09999981	-7.00848900	18.22711000	-1.15649600
6.29999980	-9.23905000	18.59621000	-0.41830710
6.49999979	-9.07972400	18.92839000	-0.04306102
6.69999978	-6.84916400	18.97145000	0.00000000
6.89999977	-2.86724900	18.97145000	0.00000000
7.09999975	1.59264300	18.97145000	0.00000000
7.29999974	5.25652100	18.97145000	0.00000000
7.49999973	7.32714100	18.97145000	-0.04306102
7.69999972	7.64579200	18.97145000	-0.41830710
7.89999971	5.89382400	18.97145000	-1.15649600
8.09999970	3.02657500	18.97145000	-1.53174200
8.29999968	-0.31803640	18.97145000	-1.57480300
8.49999967	-3.18590100	18.97145000	-1.53174200
8.69999966	-4.77854300	18.97145000	-1.15649600
8.89999965	-5.09719500	18.97145000	-0.41830710
9.09999964	-4.14124000	18.97145000	-0.04306102
9.29999962	-2.38927200	18.97145000	0.00000000
9.49999961	-0.31803640	18.97145000	0.00000000
9.69999960	1.27399100	18.97145000	0.00000000
9.89999959	2.22994600	18.97145000	0.00000000
10.09999958	2.54859700	18.97145000	0.00000000
10.29999956	2.07062000	18.97145000	0.00000000
10.49999955	1.27399100	18.97145000	0.00000000
10.69999954	0.47736220	18.97145000	0.00000000
10.89999953	-0.31803640	18.97145000	0.00000000
11.09999952	-0.79601380	18.97145000	0.00000000
11.29999951	-0.95533960	18.97145000	0.00000000
11.49999949	-0.95533960	18.97145000	0.00000000
11.69999948	-0.63668800	18.97145000	0.00000000
11.89999947	-0.47736220	18.97145000	0.00000000
12.09999946	-0.15871060	18.97145000	0.00000000
12.29999945	-0.15871060	18.97145000	0.00000000
12.49999943	0.00000000	18.97145000	0.00000000
12.69999942	0.00000000	18.97145000	0.00000000
12.89999941	0.00000000	18.97145000	0.00000000
13.09999940	0.00000000	18.97145000	0.00000000
13.29999939	0.15871060	18.97145000	0.00000000
13.49999937	0.00000000	18.97145000	0.00000000
13.69999936	0.00000000	18.97145000	-0.04306102
13.89999935	0.00000000	18.97145000	-0.37524600
14.09999934	-0.15871060	18.97145000	-0.73818890
14.29999933	-0.15871060	18.97145000	-0.41830710
14.49999932	0.00000000	18.97145000	-0.41830710
14.69999930	0.00000000	18.97145000	-0.73818890
14.89999929	0.00000000	18.97145000	-0.37524600
15.09999928	0.00000000	18.97145000	-0.04306102
15.29999927	0.00000000	18.97145000	0.00000000
15.49999926	0.00000000	18.97145000	0.00000000
15.69999924	0.00000000	18.97145000	0.00000000
15.89999923	0.00000000	18.97145000	0.00000000
16.09999922	0.00000000	18.97145000	0.00000000
16.29999921	0.00000000	18.97145000	0.00000000
16.49999920	0.00000000	18.97145000	-0.04306102
16.69999919	-0.15871060	18.97145000	-0.37524600
16.89999917	0.00000000	19.01451000	-0.73818890
17.09999916	0.00000000	19.38976000	-0.41830710
17.29999915	0.00000000	20.13410000	-0.41830710
17.49999914	0.00000000	20.50935000	-0.73818890
17.69999913	0.00000000	20.50935000	-0.37524600
17.89999911	0.00000000	20.08489000	-0.04306102
18.09999910	0.00000000	18.97145000	0.00000000
18.29999909	0.00000000	17.76575000	0.00000000
18.49999908	0.00000000	16.55389000	0.00000000
18.69999907	0.00000000	14.64690000	0.00000000
18.89999905	0.00000000	13.20128000	-0.04306102
19.09999904	0.00000000	13.20128000	-0.37524600
19.29999903	0.00000000	14.73917000	-0.78124990
19.49999902	0.00000000	17.48277000	-0.74434050
19.69999901	0.00000000	20.97072000	-0.83046260
19.89999900	0.00000000	24.82775000	-0.79355310
20.09999898	0.00000000	27.90354000	-1.15649600
20.29999897	0.00000000	29.44143000	-1.11343500
20.49999896	0.00000000	28.93085000	-0.41830710
20.69999895	0.00000000	25.39370000	-0.04306102
20.89999894	0.00000000	18.87918000	0.00000000
21.09999892	0.00000000	11.53420000	-0.04306102
21.29999891	0.00000000	4.87819900	-0.37524600
21.49999890	0.00000000	-0.42445860	-0.73818890
21.69999889	0.00000000	-2.23917300	-0.41830710
21.89999888	0.00000000	1.29183100	-0.41830710
22.09999886	0.00000000	9.43651600	-0.73818890
22.29999885	0.00000000	21.06299000	-0.41830710
22.49999884	0.00000000	33.76599000	-0.46136810
22.69999883	0.00000000	44.19291000	-1.11343500
22.89999882	0.00000000	49.91388000	-1.11343500
23.09999881	0.00000000	49.02805000	-0.41830710
23.29999879	0.00000000	40.47121000	0.00000000
23.49999878	0.00000000	25.76895000	0.41830710
23.69999877	0.00000000	7.99704600	1.15649600
23.89999876	0.00000000	-8.98129900	1.48253000
24.09999875	0.00000000	-20.85384000	1.15649600
24.29999873	0.00000000	-24.24335000	0.37524600
24.49999872	0.00000000	-17.26747000	-0.41830710
24.69999871	0.00000000	-1.45177200	-1.62401600
24.89999870	0.00000000	19.48204000	-3.15575800
25.09999869	0.00000000	41.49237000	-4.68750000
25.29999867	0.00000000	59.54109000	-5.85014700
25.49999866	0.00000000	68.38705000	-6.17618100
25.69999865	0.00000000	65.73573000	-5.33956700
25.89999864	0.00000000	52.52214000	-2.64517700
26.09999863	0.00000000	31.25615000	1.20570900
26.29999862	0.00000000	6.18233200	5.06274600
26.49999860	0.00000000	-16.15404000	8.54453700
26.69999859	0.00000000	-30.53026000	10.45152000
26.89999858	0.00000000	-33.97514000	10.40846000
27.09999857	0.00000000	-25.87352000	7.99089500
27.29999856	0.00000000	-7.68946800	2.55905500
27.49999854	0.00000000	16.18479000	-4.77977300
27.69999853	0.00000000	40.14518000	-12.49385000
27.89999852	0.00000000	58.33538000	-19.00221000
28.09999851	0.00000000	67.27362000	-21.97957000
28.29999850	0.00000000	65.36047000	-20.06643000
28.49999848	0.00000000	53.03272000	-13.47810000
28.69999847	0.00000000	33.76599000	-3.76476400
28.89999846	0.00000000	12.13091000	7.89247000
29.09999845	0.00000000	-6.84670200	19.37131000
29.29999844	0.00000000	-19.31594000	27.41142000
29.49999843	0.00000000	-23.59129000	29.31840000
29.69999841	0.00000000	-18.98376000	24.66781000
29.89999840	0.00000000	-6.66215500	14.16708000
30.09999839	0.00000000	9.95324800	-0.51058070
30.29999838	0.00000000	27.39296000	-16.30167000
30.49999837	0.00000000	42.09522000	-29.40452000
30.69999835	0.00000000	50.98425000	-36.74950000
30.89999834	0.00000000	52.23917000	-36.70644000
31.09999833	0.00000000	46.14296000	-28.94316000
31.29999832	0.00000000	35.34695000	-14.63459000
31.49999831	0.00000000	22.13336000	3.11269700
31.69999829	0.00000000	8.96899500	20.48474000
31.89999828	0.00000000	-1.50098400	33.63681000
32.09999827	0.00000000	-7.31422200	39.81914000
32.29999826	0.00000000	-7.35728300	37.81988000
32.49999825	0.00000000	-1.96235200	27.41142000
32.69999824	0.00000000	7.29576700	10.82677000
32.89999822	0.00000000	18.46087000	-7.71407400
33.09999821	0.00000000	28.55561000	-24.76009000
33.29999820	0.00000000	35.54380000	-36.70644000
33.49999819	0.00000000	38.65034000	-40.97564000
33.69999818	0.00000000	36.74950000	-36.74950000
33.89999816	0.00000000	31.02239000	-25.17839000
34.09999815	0.00000000	23.24680000	-8.96284400
34.29999814	0.00000000	14.78223000	8.45841400
34.49999813	0.00000000	7.85556000	23.51132000
34.69999812	0.00000000	4.31840500	33.16929000
34.89999810	0.00000000	4.31840500	35.07628000
35.09999809	0.00000000	7.76328700	28.98622000
35.29999808	0.00000000	13.89641000	16.63386000
35.49999807	0.00000000	20.41708000	1.24877000
35.69999806	0.00000000	25.85507000	-13.84104000
35.89999805	0.00000000	28.93085000	-25.00000000
36.09999803	0.00000000	28.93085000	-30.10580000
36.29999802	0.00000000	25.85507000	-28.15576000
36.49999801	0.00000000	20.50935000	-20.11565000
36.69999800	0.00000000	14.78223000	-7.80634800
36.89999799	0.00000000	10.50689000	5.25344500
37.09999797	0.00000000	8.55068800	15.66191000
37.29999796	0.00000000	8.92593500	21.05069000
37.49999795	0.00000000	11.66339000	19.93110000
37.69999794	0.00000000	16.22785000	13.10285000
37.89999793	0.00000000	21.24754000	3.11269700
38.09999791	0.00000000	25.11688000	-7.25270600
38.29999790	0.00000000	27.43602000	-15.28666000
38.49999789	0.00000000	27.43602000	-18.35630000
38.69999788	0.00000000	25.15994000	-15.70497000
38.89999787	0.00000000	21.66585000	-8.45841400
39.09999786	0.00000000	17.39050000	1.11343500
39.29999784	0.00000000	13.20128000	9.94094400
39.49999783	0.00000000	10.45768000	15.66191000
39.69999782	0.00000000	9.62106200	16.40010000
39.89999781	0.00000000	9.99630800	11.42962000
40.09999780	0.00000000	11.62032000	2.64517700
40.29999778	0.00000000	14.69611000	-7.33882900
40.49999777	0.00000000	18.55315000	-15.74803000
40.69999776	0.00000000	22.04109000	-19.98031000
40.89999775	0.00000000	24.78469000	-18.81767000
41.09999774	0.00000000	26.32259000	-12.68455000
41.29999772	0.00000000	26.32259000	-3.11269700
41.49999771	0.00000000	24.78469000	6.87746000
41.69999770	0.00000000	22.09030000	14.59153000
41.89999769	0.00000000	18.97145000	18.44242000
42.09999768	0.00000000	15.85261000	17.28592000
42.29999767	0.00000000	13.15822000	11.56496000
42.49999765	0.00000000	11.57726000	3.11269700
42.69999764	0.00000000	11.20202000	-5.75787400
42.89999763	0.00000000	11.95251000	-13.10285000
43.09999762	0.00000000	13.89641000	-17.32899000
43.29999761	0.00000000	16.18479000	-17.32899000
43.49999759	0.00000000	18.50394000	-13.14591000
43.69999758	0.00000000	20.08489000	-6.31766700
43.89999757	0.00000000	20.92766000	0.64591530
44.09999756	0.00000000	21.71506000	6.13312000
44.29999755	0.00000000	22.09030000	9.98400600
44.49999753	0.00000000	22.13336000	11.10359000
44.69999752	0.00000000	22.13336000	8.87672100
44.89999751	0.00000000	22.13336000	4.69365100
45.09999750	0.00000000	22.09030000	0.09227362
45.29999749	0.00000000	21.62278000	-3.80782500
45.49999748	0.00000000	20.04183000	-6.17618100
45.69999746	0.00000000	17.34744000	-7.38188900
45.89999745	0.00000000	14.18553000	-7.33882900
46.09999744	0.00000000	10.73450000	-5.80093500
46.29999743	0.00000000	7.72022600	-3.15575800
46.49999742	0.00000000	6.96973400	-0.46751960
46.69999740	0.00000000	8.55068800	1.53174200
46.89999739	0.00000000	12.46309000	3.06348400
47.09999738	0.00000000	18.63927000	3.85088600
47.29999737	0.00000000	25.20300000	3.43873000
47.49999736	0.00000000	31.02239000	2.31914400
47.69999734	0.00000000	34.79330000	0.33218500
47.89999733	0.00000000	34.79330000	-1.95004900
48.09999732	0.00000000	30.88705000	-4.26919300
48.29999731	0.00000000	23.89887000	-5.75787400
48.49999730	0.00000000	14.64690000	-5.80093500
48.69999729	0.00000000	5.85014700	-4.64443900
48.89999727	0.00000000	-0.00615157	-2.69439000
49.09999726	0.00000000	-1.91929100	0.04306102
49.29999725	0.00000000	0.45521650	3.06348400
49.49999724	0.00000000	7.43110200	5.38262700
49.69999723	0.00000000	17.39050000	6.13312000
49.89999721	0.00000000	27.34990000	5.38262700
50.09999720	0.00000000	34.37500000	3.02042300
50.29999719	0.00000000	37.12475000	-0.41830710
50.49999718	0.00000000	35.95595000	-4.31840500
50.69999717	0.00000000	30.51181000	-7.71407400
50.89999715	0.00000000	22.04109000	-9.65797200
51.09999714	0.00000000	12.82603000	-9.24581600
51.29999713	0.00000000	5.11195900	-6.96358300
51.49999712	0.00000000	1.29183100	-3.06963600
51.69999711	0.00000000	1.99311000	1.53174200
51.89999710	0.00000000	7.01279500	5.75787400
52.09999708	0.00000000	14.64690000	8.40920300
52.29999707	0.00000000	22.74237000	8.45226300
52.49999706	0.00000000	28.83858000	6.17618100
52.69999705	0.00000000	31.25000000	2.73745100
52.89999704	0.00000000	29.72441000	-1.15649600
53.09999702	0.00000000	25.52903000	-4.64443900
53.29999701	0.00000000	19.34670000	-7.33882900
53.49999700	0.00000000	13.24434000	-8.45226300
53.69999699	0.00000000	8.96899500	-7.33882900
53.89999698	0.00000000	7.43110200	-4.68750000
54.09999696	0.00000000	8.96899500	-1.62401600
54.29999695	0.00000000	13.15822000	1.07037400
54.49999694	0.00000000	18.50394000	2.60211600
54.69999693	0.00000000	23.16068000	2.64517700
54.89999692	0.00000000	26.23031000	1.53174200
55.09999691	0.00000000	26.97465000	0.00000000
55.29999689	0.00000000	24.69857000	-1.53174200
55.49999688	0.00000000	20.50935000	-2.64517700
55.69999687	0.00000000	15.90182000	-2.60211600
55.89999686	0.00000000	12.03863000	-1.11343500
56.09999685	0.00000000	10.13164000	1.15649600
56.29999683	0.00000000	10.45768000	3.02042300
56.49999682	0.00000000	12.78297000	3.76476400
56.69999681	0.00000000	16.22785000	2.60211600
56.89999680	0.00000000	20.08489000	-0.09227362
57.09999679	0.00000000	23.16068000	-3.53100400
57.29999677	0.00000000	24.69857000	-7.01279500
57.49999676	0.00000000	24.32333000	-9.24581600
57.69999675	0.00000000	22.09030000	-9.61491000
57.89999674	0.00000000	19.38976000	-7.24655500
58.09999673	0.00000000	17.01525000	-2.64517700
58.29999672	0.00000000	14.73917000	3.11269700
58.49999670	0.00000000	13.61959000	8.50147600
58.69999669	0.00000000	14.32087000	11.94021000
58.89999668	0.00000000	15.80955000	12.68455000
59.09999667	0.00000000	17.39050000	9.94094400
59.29999666	0.00000000	18.92839000	4.18307100
59.49999664	0.00000000	20.08489000	-3.11269700
59.69999663	0.00000000	20.46014000	-10.03322000
59.89999662	0.00000000	20.08489000	-14.63459000
60.09999661	0.00000000	18.92839000	-15.79109000
60.29999660	0.00000000	17.43356000	-13.10285000
60.49999658	0.00000000	16.27707000	-7.29576700
60.69999657	0.00000000	15.94488000	0.46751960
60.89999656	0.00000000	16.64616000	8.87672100
61.09999655	0.00000000	18.17790000	15.32972000
61.29999654	0.00000000	19.34670000	17.28592000
61.49999653	0.00000000	20.55241000	14.63459000
61.69999651	0.00000000	21.62278000	8.45226300
61.89999650	0.00000000	21.57972000	0.00000000
62.09999649	0.00000000	20.08489000	-8.50147600
62.29999648	0.00000000	17.80881000	-15.05290000
62.49999647	0.00000000	15.85261000	-18.53469000
62.69999645	0.00000000	14.27165000	-17.74729000
62.89999644	0.00000000	13.15822000	-13.14591000
63.09999643	0.00000000	13.20128000	-5.80708600
63.29999642	0.00000000	14.73917000	2.64517700
63.49999641	0.00000000	17.39050000	9.94094400
63.69999639	0.00000000	20.08489000	14.25935000
63.89999638	0.00000000	22.04109000	15.05290000
64.09999637	0.00000000	23.20374000	12.72761000
64.29999636	0.00000000	23.20374000	7.33882900
64.49999635	0.00000000	22.04109000	0.41830710
64.69999634	0.00000000	20.08489000	-6.17618100
64.89999632	0.00000000	17.39050000	-11.56496000
65.09999631	0.00000000	14.73917000	-14.30241000
65.29999630	0.00000000	13.20128000	-13.98253000
65.49999629	0.00000000	13.15822000	-11.65723000
65.69999628	0.00000000	14.32087000	-7.38188900
65.89999626	0.00000000	16.22785000	-2.04232300
66.09999625	0.00000000	18.50394000	2.60211600
66.29999624	0.00000000	20.04183000	5.80093500
66.49999623	0.00000000	20.46014000	7.75713500
66.69999622	0.00000000	20.08489000	8.54453700
66.89999620	0.00000000	18.92839000	7.75713500
67.09999619	0.00000000	17.39050000	5.85014700
67.29999618	0.00000000	15.90182000	3.06348400
67.49999617	0.00000000	15.15748000	-0.37524600
67.69999616	0.00000000	15.90182000	-3.90009800
67.89999615	0.00000000	17.43356000	-6.64370100
68.09999613	0.00000000	19.38976000	-9.00590400
68.29999612	0.00000000	21.62278000	-10.49459000
68.49999611	0.00000000	22.74237000	-10.49459000
68.69999610	0.00000000	21.99803000	-8.91978400
68.89999609	0.00000000	20.04183000	-5.80093500
69.09999607	0.00000000	16.92298000	-1.53174200
69.29999606	0.00000000	13.15822000	3.11269700
69.49999605	0.00000000	10.45768000	7.33882900
69.69999604	0.00000000	9.66412400	10.03322000
69.89999603	0.00000000	10.41462000	10.40846000
70.09999601	0.00000000	12.82603000	8.50147600
70.29999600	0.00000000	16.69537000	4.60137700
70.49999599	0.00000000	21.66585000	-0.41830710
70.69999598	0.00000000	25.85507000	-5.80093500
70.89999597	0.00000000	27.86048000	-10.03322000
71.09999596	0.00000000	27.86048000	-11.98327000
71.29999594	0.00000000	25.85507000	-11.61417000
71.49999593	0.00000000	21.57972000	-8.91978400
71.69999592	0.00000000	15.85261000	-4.69365100
71.89999591	0.00000000	10.45768000	-0.04306102
72.09999590	0.00000000	6.96973400	4.18307100
72.29999588	0.00000000	5.80708600	6.87746000
72.49999587	0.00000000	7.34498000	7.29576700
72.69999586	0.00000000	11.20202000	5.80093500
72.89999585	0.00000000	16.22785000	3.11269700
73.09999584	0.00000000	21.62278000	0.04306102
73.29999582	0.00000000	25.85507000	-2.64517700
73.49999581	0.00000000	27.86048000	-4.18307100
73.69999580	0.00000000	27.86048000	-4.26919300
73.89999579	0.00000000	25.90428000	-3.48794300
74.09999578	0.00000000	22.04109000	-2.36220500
74.29999577	0.00000000	17.43356000	-0.83661410
74.49999575	0.00000000	13.20128000	-0.13533460
74.69999574	0.00000000	10.50689000	-0.46136810
74.89999573	0.00000000	10.03937000	-1.62401600
75.09999572	0.00000000	11.15896000	-3.11269700
75.29999571	0.00000000	13.11516000	-4.22613100
75.49999569	0.00000000	15.85261000	-4.22613100
75.69999568	0.00000000	18.92839000	-3.06348400
75.89999567	0.00000000	21.57972000	-1.07037400
76.09999566	0.00000000	22.74237000	1.99311000
76.29999565	0.00000000	22.04109000	5.38262700
76.49999563	0.00000000	20.59547000	7.29576700
76.69999562	0.00000000	19.38976000	7.29576700
76.89999561	0.00000000	18.59621000	5.33956700
77.09999560	0.00000000	17.80881000	1.43946800
77.29999559	0.00000000	17.43356000	-3.53100400
77.49999558	0.00000000	17.39050000	-8.54453700
77.69999556	0.00000000	17.39050000	-11.98942000
77.89999555	0.00000000	17.34744000	-13.14591000
78.09999554	0.00000000	16.97219000	-11.56496000
78.29999553	0.00000000	16.18479000	-7.33882900
78.49999552	0.00000000	15.43430000	-1.57480300
78.69999550	0.00000000	14.64690000	4.22613100
78.89999549	0.00000000	14.36393000	8.87672100
79.09999548	0.00000000	15.11442000	11.56496000
79.29999547	0.00000000	17.05832000	11.56496000
79.49999546	0.00000000	19.34670000	8.87672100
79.69999544	0.00000000	21.66585000	4.27534400
79.89999543	0.00000000	23.16068000	-1.15649600
80.09999542	0.00000000	23.20374000	-6.17618100
80.29999541	0.00000000	22.04109000	-10.07628000
80.49999540	0.00000000	20.08489000	-11.98327000
80.69999539	0.00000000	17.34744000	-11.65723000
80.89999537	0.00000000	14.32087000	-9.33809000
81.09999536	0.00000000	12.03863000	-5.85014700
81.29999535	0.00000000	11.62032000	-1.57480300
81.49999534	0.00000000	12.73991000	2.64517700
81.69999533	0.00000000	14.69611000	5.80093500
81.89999531	0.00000000	17.39050000	7.75713500
82.09999530	0.00000000	20.04183000	8.54453700
82.29999529	0.00000000	21.62278000	7.71407400
82.49999528	0.00000000	22.04109000	5.43184000
82.69999527	0.00000000	21.66585000	1.95004900
82.89999525	0.00000000	20.50935000	-1.53174200
83.09999524	0.00000000	18.97145000	-4.73671200
83.29999523	0.00000000	17.39050000	-7.80019600
83.49999522	0.00000000	15.90182000	-10.07628000
83.69999521	0.00000000	15.11442000	-10.45152000
83.89999520	0.00000000	15.43430000	-8.96284400
84.09999518	0.00000000	15.80955000	-6.22539300
84.29999517	0.00000000	16.22785000	-2.69439000
84.49999516	0.00000000	16.97219000	1.57480300
84.69999515	0.00000000	17.34744000	5.75787400
84.89999514	0.00000000	17.39050000	8.50147600
85.09999512	0.00000000	17.43356000	9.29502900
85.29999511	0.00000000	17.80881000	8.45226300
85.49999510	0.00000000	18.55315000	5.33956700
85.69999509	0.00000000	18.97145000	0.37524600
85.89999508	0.00000000	19.38976000	-4.64443900
86.09999506	0.00000000	20.08489000	-8.91978400
86.29999505	0.00000000	20.04183000	-11.61417000
86.49999504	0.00000000	18.92839000	-11.98327000
86.69999503	0.00000000	17.39050000	-10.03322000
86.89999502	0.00000000	15.80955000	-5.80093500
87.09999501	0.00000000	14.27165000	-0.46136810
87.29999499	0.00000000	13.15822000	4.18307100
87.49999498	0.00000000	13.15822000	7.33882900
87.69999497	0.00000000	14.27165000	8.87672100
87.89999496	0.00000000	15.85261000	8.40920300
88.09999495	0.00000000	17.80881000	5.33956700
88.29999493	0.00000000	20.08489000	0.37524600
88.49999492	0.00000000	21.57972000	-4.60137700
88.69999491	0.00000000	21.62278000	-8.50147600
88.89999490	0.00000000	20.50935000	-10.40846000
89.09999489	0.00000000	18.97145000	-10.03322000
89.29999487	0.00000000	17.39050000	-7.33882900
89.49999486	0.00000000	15.85261000	-3.11269700
89.69999485	0.00000000	14.69611000	1.48868100
89.89999484	0.00000000	14.32087000	5.33956700
90.09999483	0.00000000	14.69611000	7.24655500
90.29999482	0.00000000	15.80955000	6.87746000
90.49999480	0.00000000	16.97219000	4.18307100
90.69999479	0.00000000	17.80881000	0.00000000
90.89999478	0.00000000	18.92839000	-4.26919300
91.09999477	0.00000000	19.66658000	-7.71407400
91.29999476	0.00000000	19.34670000	-9.61491000
91.49999474	0.00000000	18.97145000	-8.78444900
91.69999473	0.00000000	18.55315000	-5.43184000
91.89999472	0.00000000	17.80881000	-0.79355310
92.09999471	0.00000000	17.43356000	3.39566900
92.29999470	0.00000000	17.39050000	6.50221400
92.49999468	0.00000000	17.39050000	7.24655500
92.69999467	0.00000000	17.34744000	5.75787400
92.89999466	0.00000000	16.92298000	2.60211600
93.09999465	0.00000000	15.80955000	-1.95004900
93.29999464	0.00000000	14.69611000	-6.50221400
93.49999463	0.00000000	14.32087000	-8.82750900
93.69999461	0.00000000	14.64690000	-8.87672100
93.89999460	0.00000000	15.47736000	-6.92052100
94.09999459	0.00000000	16.64616000	-3.11269700
94.29999458	0.00000000	18.59621000	1.11343500
94.49999457	0.00000000	20.50935000	4.55831700
94.69999455	0.00000000	22.04109000	6.50221400
94.89999454	0.00000000	22.78543000	6.09005900
95.09999453	0.00000000	22.04109000	3.80782500
95.29999452	0.00000000	20.46014000	-0.04306102
95.49999451	0.00000000	18.13484000	-4.22613100
95.69999449	0.00000000	15.02214000	-7.29576700
95.89999448	0.00000000	12.36466000	-8.45226300
96.09999447	0.00000000	10.41462000	-7.33882900
96.29999446	0.00000000	10.08243000	-4.64443900
96.49999445	0.00000000	11.57726000	-1.20570900
96.69999444	0.00000000	14.32087000	2.22687000
96.89999442	0.00000000	17.80881000	4.18307100
97.09999441	0.00000000	21.66585000	4.60137700
97.29999440	0.00000000	24.74163000	3.80782500
97.49999439	0.00000000	26.27953000	1.48868100
97.69999438	0.00000000	25.90428000	-1.48868100
97.89999436	0.00000000	23.57899000	-3.85088600
98.09999435	0.00000000	20.13410000	-5.01968500
98.29999434	0.00000000	16.22785000	-5.43184000
98.49999433	0.00000000	12.73991000	-4.64443900
98.69999432	0.00000000	9.99630800	-3.15575800
98.89999430	0.00000000	8.50147600	-1.57480300
99.09999429	0.00000000	8.92593500	-0.04306102
99.29999428	0.00000000	11.57726000	1.06422200
99.49999427	0.00000000	15.39124000	1.11343500
99.69999426	0.00000000	18.92839000	0.41830710
99.89999425	0.00000000	22.04109000	0.04306102
100.09999423	0.00000000	24.36639000	0.00000000
100.29999422	0.00000000	25.11688000	0.00000000
100.49999421	0.00000000	24.36639000	0.00000000
100.69999420	0.00000000	22.04109000	0.00000000
100.89999419	0.00000000	18.97145000	-0.04306102
101.09999417	0.00000000	15.85261000	-0.46136810
101.29999416	0.00000000	13.11516000	-1.62401600
101.49999415	0.00000000	11.20202000	-3.11269700
101.69999414	0.00000000	10.41462000	-4.31840500
101.89999413	0.00000000	11.20202000	-5.01968500
102.09999411	0.00000000	13.11516000	-5.01353300
102.29999410	0.00000000	15.80955000	-3.43873000
102.49999409	0.00000000	18.50394000	-1.20570900
102.69999408	0.00000000	20.46014000	1.15649600
102.89999407	0.00000000	21.66585000	3.06348400
103.09999406	0.00000000	22.04109000	4.22613100
103.29999404	0.00000000	21.66585000	4.18307100
103.49999403	0.00000000	20.46014000	2.64517700
103.69999402	0.00000000	18.55315000	-0.04306102
103.89999401	0.00000000	16.22785000	-3.11269700
104.09999400	0.00000000	14.32087000	-5.80093500
104.29999398	0.00000000	13.15822000	-7.33882900
104.49999397	0.00000000	13.15822000	-7.33882900
104.69999396	0.00000000	14.27165000	-5.80093500
104.89999395	0.00000000	15.80955000	-3.15575800
105.09999394	0.00000000	17.34744000	-0.41830710
105.29999392	0.00000000	18.55315000	1.90698800
105.49999391	0.00000000	19.30364000	3.80782500
105.69999390	0.00000000	19.71580000	4.14000900
105.89999389	0.00000000	19.30364000	2.69439000
106.09999388	0.00000000	18.55315000	0.37524600
106.29999387	0.00000000	17.39050000	-1.90698800
106.49999385	0.00000000	16.22785000	-3.85088600
106.69999384	0.00000000	15.47736000	-4.60137700
106.89999383	0.00000000	15.11442000	-4.26919300
107.09999382	0.00000000	15.90182000	-3.11269700
107.29999381	0.00000000	17.34744000	-1.57480300
107.49999379	0.00000000	18.50394000	-0.04306102
107.69999378	0.00000000	18.92839000	1.11343500
107.89999377	0.00000000	18.92839000	1.48253000
108.09999376	0.00000000	18.50394000	1.11343500
108.29999375	0.00000000	17.34744000	-0.04306102
108.49999374	0.00000000	15.85261000	-1.57480300
108.69999372	0.00000000	14.69611000	-3.11269700
108.89999371	0.00000000	14.32087000	-4.22613100
109.09999370	0.00000000	14.69611000	-4.22613100
109.29999369	0.00000000	15.80955000	-3.11269700
109.49999368	0.00000000	16.97219000	-1.57480300
109.69999366	0.00000000	17.80881000	0.00000000
109.89999365	0.00000000	18.97145000	1.53174200
110.09999364	0.00000000	20.04183000	2.64517700
110.29999363	0.00000000	20.04183000	2.64517700
110.49999362	0.00000000	18.92839000	1.53174200
110.69999360	0.00000000	17.43356000	0.00000000
110.89999359	0.00000000	16.22785000	-1.57480300
111.09999358	0.00000000	15.43430000	-3.11269700
111.29999357	0.00000000	14.69611000	-4.22613100
111.49999356	0.00000000	14.69611000	-4.26919300
111.69999355	0.00000000	15.43430000	-3.53100400
111.89999353	0.00000000	16.18479000	-2.73745100
112.09999352	0.00000000	17.01525000	-1.57480300
112.29999351	0.00000000	17.76575000	-0.41830710
112.49999350	0.00000000	18.55315000	0.37524600
112.69999349	0.00000000	18.87918000	1.11343500
112.89999347	0.00000000	18.55315000	1.11343500
113.09999346	0.00000000	17.80881000	0.41830710
113.29999345	0.00000000	17.39050000	0.00000000
113.49999344	0.00000000	16.97219000	-0.41830710
113.69999343	0.00000000	16.22785000	-1.15649600
113.89999341	0.00000000	15.85261000	-1.53174200
114.09999340	0.00000000	15.85261000	-1.57480300
114.29999339	0.00000000	16.22785000	-1.57480300
114.49999338	0.00000000	16.97219000	-1.57480300
114.69999337	0.00000000	17.34744000	-1.61786400
114.89999336	0.00000000	17.39050000	-1.99311000
115.09999334	0.00000000	17.39050000	-2.68823800
115.29999333	0.00000000	17.39050000	-2.68823800
115.49999332	0.00000000	17.39050000	-1.99311000
115.69999331	0.00000000	17.39050000	-1.57480300
115.89999330	0.00000000	17.34744000	-1.15649600
116.09999328	0.00000000	16.97219000	-0.41830710
116.29999327	0.00000000	16.22785000	-0.04306102
116.49999326	0.00000000	15.85261000	0.00000000
116.69999325	0.00000000	15.85261000	0.00000000
116.89999324	0.00000000	16.22785000	0.00000000
117.09999322	0.00000000	17.01525000	-0.04306102
117.29999321	0.00000000	17.76575000	-0.41830710
117.49999320	0.00000000	18.55315000	-1.19955700
117.69999319	0.00000000	18.92839000	-1.95004900
117.89999318	0.00000000	18.97145000	-2.73745100
118.09999317	0.00000000	18.97145000	-3.11269700
118.29999315	0.00000000	18.92839000	-3.11269700
118.49999314	0.00000000	18.50394000	-2.68823800
118.69999313	0.00000000	17.39050000	-1.57480300
118.89999312	0.00000000	16.22785000	-0.46136810
119.09999311	0.00000000	15.43430000	-0.04306102
119.29999309	0.00000000	14.69611000	0.04306102
119.49999308	0.00000000	14.69611000	0.37524600
119.69999307	0.00000000	15.43430000	0.73818890
119.89999306	0.00000000	16.22785000	0.37524600
120.09999305	0.00000000	17.39050000	0.00000000
120.29999303	0.00000000	18.55315000	-0.41830710
120.49999302	0.00000000	19.34670000	-1.15649600
120.69999301	0.00000000	20.08489000	-1.57480300
120.89999300	0.00000000	20.08489000	-1.99311000
121.09999299	0.00000000	19.34670000	-2.73745100
121.29999298	0.00000000	18.55315000	-3.11269700
121.49999296	0.00000000	17.34744000	-3.15575800
121.69999295	0.00000000	15.85261000	-3.11269700
121.89999294	0.00000000	14.69611000	-2.73745100
122.09999293	0.00000000	14.27165000	-1.95004900
122.29999292	0.00000000	14.27165000	-1.19955700
122.49999290	0.00000000	14.69611000	-0.41830710
122.69999289	0.00000000	15.80955000	-0.04306102
122.89999288	0.00000000	16.97219000	0.00000000
123.09999287	0.00000000	17.76575000	0.00000000
123.29999286	0.00000000	18.55315000	0.00000000
123.49999284	0.00000000	18.92839000	-0.04306102
123.69999283	0.00000000	18.97145000	-0.41830710
123.89999282	0.00000000	18.92839000	-1.19955700
124.09999281	0.00000000	18.55315000	-1.95004900
124.29999280	0.00000000	17.76575000	-2.73745100
124.49999279	0.00000000	17.01525000	-3.06348400
124.69999277	0.00000000	16.18479000	-2.73745100
124.89999276	0.00000000	15.43430000	-1.99311000
125.09999275	0.00000000	14.64690000	-1.57480300
125.29999274	0.00000000	14.32087000	-1.15649600
125.49999273	0.00000000	14.64690000	-0.41830710
125.69999271	0.00000000	15.43430000	-0.04306102
125.89999270	0.00000000	16.18479000	0.00000000
126.09999269	0.00000000	17.01525000	0.00000000
126.29999268	0.00000000	17.76575000	0.00000000
126.49999267	0.00000000	18.55315000	-0.04306102
126.69999265	0.00000000	18.92839000	-0.41830710
126.89999264	0.00000000	18.92839000	-1.15649600
127.09999263	0.00000000	18.50394000	-1.53174200
127.29999262	0.00000000	17.39050000	-1.57480300
127.49999261	0.00000000	16.22785000	-1.57480300
127.69999260	0.00000000	15.43430000	-1.57480300
127.89999258	0.00000000	14.64690000	-1.57480300
128.09999257	0.00000000	14.32087000	-1.57480300
128.29999256	0.00000000	14.69611000	-1.53174200
128.49999255	0.00000000	15.80955000	-1.15649600
128.69999254	0.00000000	16.97219000	-0.41830710
128.89999252	0.00000000	17.76575000	-0.04306102
129.09999251	0.00000000	18.55315000	-0.04306102
129.29999250	0.00000000	18.87918000	-0.41830710
129.49999249	0.00000000	18.55315000	-1.15649600
129.69999248	0.00000000	17.76575000	-1.53174200
129.89999246	0.00000000	16.97219000	-1.57480300
130.09999245	0.00000000	15.80955000	-1.57480300
130.29999244	0.00000000	14.69611000	-1.53174200
130.49999243	0.00000000	14.32087000	-1.15649600
130.69999242	0.00000000	14.64690000	-0.41830710
130.89999241	0.00000000	15.43430000	-0.04306102
131.09999239	0.00000000	16.22785000	0.00000000
131.29999238	0.00000000	17.39050000	-0.04306102
131.49999237	0.00000000	18.50394000	-0.41830710
131.69999236	0.00000000	18.87918000	-1.15649600
131.89999235	0.00000000	18.55315000	-1.57480300
132.09999233	0.00000000	17.76575000	-1.99311000
132.29999232	0.00000000	17.01525000	-2.73745100
132.49999231	0.00000000	16.22785000	-3.06348400
132.69999230	0.00000000	15.85261000	-2.73745100
132.89999229	0.00000000	15.80955000	-1.99311000
133.09999227	0.00000000	15.85261000	-1.57480300
133.29999226	0.00000000	16.22785000	-1.11343500
133.49999225	0.00000000	16.97219000	0.00000000
133.69999224	0.00000000	17.34744000	1.11343500
133.89999223	0.00000000	17.39050000	1.48253000
134.09999222	0.00000000	17.39050000	1.11343500
134.29999220	0.00000000	17.34744000	0.00000000
134.49999219	0.00000000	17.01525000	-1.15649600
134.69999218	0.00000000	16.64616000	-1.95004900
134.89999217	0.00000000	17.01525000	-2.73745100
135.09999216	0.00000000	17.34744000	-3.11269700
135.29999214	0.00000000	17.39050000	-3.11269700
135.49999213	0.00000000	17.43356000	-2.73745100
135.69999212	0.00000000	17.76575000	-1.95004900
135.89999211	0.00000000	18.08563000	-1.19955700
136.09999210	0.00000000	17.34744000	-0.41830710
136.29999208	0.00000000	16.27707000	-0.04306102
136.49999207	0.00000000	15.85261000	0.00000000
136.69999206	0.00000000	15.80955000	0.00000000
136.89999205	0.00000000	15.80955000	-0.04306102
137.09999204	0.00000000	15.85261000	-0.41830710
137.29999203	0.00000000	16.22785000	-1.15649600
137.49999201	0.00000000	16.97219000	-1.57480300
137.69999200	0.00000000	17.39050000	-1.99311000
137.89999199	0.00000000	17.80881000	-2.73745100
138.09999198	0.00000000	18.50394000	-3.11269700
138.29999197	0.00000000	18.50394000	-3.15575800
138.49999195	0.00000000	17.76575000	-3.11269700
138.69999194	0.00000000	17.01525000	-2.73745100
138.89999193	0.00000000	16.22785000	-1.95004900
139.09999192	0.00000000	15.85261000	-1.19955700
139.29999191	0.00000000	15.80955000	-0.41830710
139.49999189	0.00000000	15.80955000	-0.04306102
139.69999188	0.00000000	15.85261000	0.00000000
139.89999187	0.00000000	16.22785000	0.00000000
140.09999186	0.00000000	16.97219000	-0.04306102
140.29999185	0.00000000	17.34744000	-0.41830710
140.49999184	0.00000000	17.39050000	-1.19955700
140.69999182	0.00000000	17.39050000	-1.95004900
140.89999181	0.00000000	17.34744000	-2.73745100
141.09999180	0.00000000	16.97219000	-3.11269700
141.29999179	0.00000000	16.22785000	-3.15575800
141.49999178	0.00000000	15.85261000	-3.11269700
141.69999176	0.00000000	15.80955000	-2.68823800
141.89999175	0.00000000	15.80955000	-1.53174200
142.09999174	0.00000000	15.85261000	-0.04306102
142.29999173	0.00000000	16.22785000	1.11343500
142.49999172	0.00000000	16.97219000	1.48253000
142.69999170	0.00000000	17.34744000	1.15649600
142.89999169	0.00000000	17.39050000	0.37524600
143.09999168	0.00000000	17.39050000	-0.41830710
143.29999167	0.00000000	17.34744000	-1.57480300
143.49999166	0.00000000	16.97219000	-2.68823800
143.69999165	0.00000000	16.22785000	-3.11269700
143.89999163	0.00000000	15.85261000	-3.11269700
144.09999162	0.00000000	15.85261000	-2.73745100
144.29999161	0.00000000	16.22785000	-1.95004900
144.49999160	0.00000000	16.97219000	-1.19955700
144.69999159	0.00000000	17.34744000	-0.41830710
144.89999157	0.00000000	17.39050000	-0.04306102
145.09999156	0.00000000	17.39050000	0.00000000
145.29999155	0.00000000	17.34744000	-0.04306102
145.49999154	0.00000000	16.97219000	-0.41830710
145.69999153	0.00000000	16.22785000	-1.15649600
145.89999151	0.00000000	15.85261000	-1.57480300
146.09999150	0.00000000	15.80955000	-1.99311000
146.29999149	0.00000000	15.80955000	-2.73745100
146.49999148	0.00000000	15.85261000	-3.06348400
146.69999147	0.00000000	16.22785000	-2.73745100
146.89999146	0.00000000	16.97219000	-1.99311000
147.09999144	0.00000000	17.34744000	-1.61786400
147.29999143	0.00000000	17.39050000	-1.53174200
147.49999142	0.00000000	17.39050000	-1.15649600
147.69999141	0.00000000	17.39050000	-0.41830710
147.89999140	0.00000000	17.34744000	-0.04306102
148.09999138	0.00000000	16.97219000	-0.04306102
148.29999137	0.00000000	16.22785000	-0.41830710
148.49999136	0.00000000	15.85261000	-1.15649600
148.69999135	0.00000000	15.80955000	-1.53174200
148.89999134	0.00000000	15.85261000	-1.57480300
149.09999132	0.00000000	16.22785000	-1.57480300
149.29999131	0.00000000	16.97219000	-1.57480300
149.49999130	0.00000000	17.34744000	-1.57480300
149.69999129	0.00000000	17.39050000	-1.57480300
149.89999128	0.00000000	17.39050000	-1.57480300
150.09999127	0.00000000	17.39050000	-1.57480300
150.29999125	0.00000000	17.39050000	-1.53174200
150.49999124	0.00000000	17.39050000	-1.15649600
150.69999123	0.00000000	17.34744000	-0.41830710
150.89999122	0.00000000	16.97219000	-0.04306102
151.09999121	0.00000000	16.22785000	-0.04306102
151.29999119	0.00000000	15.85261000	-0.41830710
151.49999118	0.00000000	15.80955000	-1.15649600
151.69999117	0.00000000	15.80955000	-1.53174200
151.89999116	0.00000000	15.85261000	-1.57480300
152.09999115	0.00000000	16.18479000	-1.61786400
152.29999113	0.00000000	16.59695000	-1.95004900
152.49999112	0.00000000	16.60310000	-2.31914400
152.69999111	0.00000000	17.01525000	-1.95004900
152.89999110	0.00000000	17.34744000	-1.61786400
153.09999109	0.00000000	17.39050000	-1.57480300
153.29999108	0.00000000	17.39050000	-1.57480300
153.49999106	0.00000000	17.34744000	-1.53174200
153.69999105	0.00000000	16.97219000	-1.15649600
153.89999104	0.00000000	16.22785000	-0.46136810
154.09999103	0.00000000	15.85261000	-0.46136810
154.29999102	0.00000000	15.80955000	-1.15649600
154.49999100	0.00000000	15.80955000	-1.53174200
154.69999099	0.00000000	15.80955000	-1.57480300
154.89999098	0.00000000	15.85261000	-1.57480300
155.09999097	0.00000000	16.22785000	-1.57480300
155.29999096	0.00000000	16.97219000	-1.57480300
155.49999094	0.00000000	17.34744000	-1.57480300
155.69999093	0.00000000	17.39050000	-1.57480300
155.89999092	0.00000000	17.39050000	-1.57480300
156.09999091	0.00000000	17.39050000	-1.57480300
156.29999090	0.00000000	17.34744000	-1.57480300
156.49999089	0.00000000	16.97219000	-1.57480300
156.69999087	0.00000000	16.22785000	-1.53174200
156.89999086	0.00000000	15.85261000	-1.15649600
157.09999085	0.00000000	15.76649000	-0.41830710
157.29999084	0.00000000	15.43430000	-0.04306102
157.49999083	0.00000000	15.06521000	0.00000000
157.69999081	0.00000000	15.43430000	-0.04306102
157.89999080	0.00000000	15.80955000	-0.41830710
158.09999079	0.00000000	16.22785000	-1.15649600
158.29999078	0.00000000	16.97219000	-1.53174200
158.49999077	0.00000000	17.34744000	-1.57480300
158.69999075	0.00000000	17.39050000	-1.57480300
158.89999074	0.00000000	17.39050000	-1.57480300
159.09999073	0.00000000	17.39050000	-1.57480300
159.29999072	0.00000000	17.39050000	-1.53174200
159.49999071	0.00000000	17.34744000	-1.15649600
159.69999070	0.00000000	16.97219000	-0.41830710
159.89999068	0.00000000	16.22785000	-0.04306102
160.09999067	0.00000000	15.85261000	0.00000000
160.29999066	0.00000000	15.80955000	0.00000000
160.49999065	0.00000000	15.80955000	-0.04306102
160.69999064	0.00000000	15.80955000	-0.41830710
160.89999062	0.00000000	15.80955000	-1.15649600
161.09999061	0.00000000	15.80955000	-1.53174200
161.29999060	0.00000000	15.85261000	-1.57480300
161.49999059	0.00000000	16.22785000	-1.57480300
161.69999058	0.00000000	16.97219000	-1.57480300
161.89999056	0.00000000	17.34744000	-1.57480300
162.09999055	0.00000000	17.39050000	-1.57480300
162.29999054	0.00000000	17.39050000	-1.57480300
162.49999053	0.00000000	17.39050000	-1.53174200
162.69999052	0.00000000	17.39050000	-1.15649600
162.89999051	0.00000000	17.34744000	-0.41830710
163.09999049	0.00000000	16.97219000	-0.09227362
163.29999048	0.00000000	16.22785000	-0.37524600
163.49999047	0.00000000	15.85261000	-0.78124990
163.69999046	0.00000000	15.80955000	-0.79355310
163.89999045	0.00000000	15.80955000	-1.19955700
164.09999043	0.00000000	15.80955000	-1.53174200
164.29999042	0.00000000	15.85261000	-1.57480300
164.49999041	0.00000000	16.22785000	-1.57480300
164.69999040	0.00000000	16.97219000	-1.57480300
164.89999039	0.00000000	17.34744000	-1.57480300
165.09999037	0.00000000	17.39050000	-1.57480300
165.29999036	0.00000000	17.39050000	-1.57480300
165.49999035	0.00000000	17.39050000	-1.57480300
165.69999034	0.00000000	17.34744000	-1.57480300
165.89999033	0.00000000	17.01525000	-1.53174200
166.09999032	0.00000000	16.60310000	-1.19955700
166.29999030	0.00000000	16.59695000	-0.83661410
166.49999029	0.00000000	16.18479000	-1.19955700
166.69999028	0.00000000	15.85261000	-1.53174200
166.89999027	0.00000000	15.80955000	-1.57480300
167.09999026	0.00000000	15.80955000	-1.57480300
167.29999024	0.00000000	15.85261000	-1.57480300
167.49999023	0.00000000	16.18479000	-1.57480300
167.69999022	0.00000000	16.59695000	-1.57480300
167.89999021	0.00000000	16.60310000	-1.57480300
168.09999020	0.00000000	17.01525000	-1.57480300
168.29999018	0.00000000	17.34744000	-1.57480300
168.49999017	0.00000000	17.39050000	-1.57480300
168.69999016	0.00000000	17.39050000	-1.53174200
168.89999015	0.00000000	17.34744000	-1.19955700
169.09999014	0.00000000	16.97219000	-0.79355310
169.29999013	0.00000000	16.22785000	-0.83046260
169.49999011	0.00000000	15.85261000	-0.79355310
169.69999010	0.00000000	15.80955000	-1.19955700
169.89999009	0.00000000	15.80955000	-1.53174200
170.09999008	0.00000000	15.80955000	-1.57480300
170.29999007	0.00000000	15.80955000	-1.57480300
170.49999005	0.00000000	15.85261000	-1.57480300
170.69999004	0.00000000	16.18479000	-1.57480300
170.89999003	0.00000000	16.59695000	-1.57480300
171.09999002	0.00000000	16.60310000	-1.57480300
171.29999001	0.00000000	16.97219000	-1.57480300
171.49998999	0.00000000	16.92298000	-1.57480300
171.69998998	0.00000000	16.22785000	-1.57480300
171.89998997	0.00000000	15.85261000	-1.57480300
172.09998996	0.00000000	15.80955000	-1.57480300
172.29998995	0.00000000	15.80955000	-1.57480300
172.49998994	0.00000000	15.80955000	-1.57480300
172.69998992	0.00000000	15.80955000	-1.57480300
172.89998991	0.00000000	15.80955000	-1.57480300
173.09998990	0.00000000	15.80955000	-1.57480300
173.29998989	0.00000000	15.80955000	-1.57480300
173.49998988	0.00000000	15.80955000	-1.57480300
173.69998986	0.00000000	15.80955000	-1.57480300
173.89998985	0.00000000	15.85261000	-1.57480300
174.09998984	0.00000000	16.22785000	-1.57480300
174.29998983	0.00000000	16.92298000	-1.57480300
174.49998982	0.00000000	16.92298000	-1.57480300
174.69998980	0.00000000	16.22785000	-1.57480300
174.89998979	0.00000000	15.85261000	-1.57480300
175.09998978	0.00000000	15.80955000	-1.57480300
175.29998977	0.00000000	15.80955000	-1.57480300
175.49998976	0.00000000	15.80955000	-1.57480300
175.69998975	0.00000000	15.80955000	-1.57480300
175.89998973	0.00000000	15.80955000	-1.57480300
176.09998972	0.00000000	15.80955000	-1.57480300
176.29998971	0.00000000	15.80955000	-1.57480300
176.49998970	0.00000000	15.80955000	-1.57480300
176.69998969	0.00000000	15.80955000	-1.57480300
176.89998967	0.00000000	15.85261000	-1.57480300
177.09998966	0.00000000	16.18479000	-1.57480300
177.29998965	0.00000000	16.55389000	-1.57480300
177.49998964	0.00000000	16.18479000	-1.57480300
177.69998963	0.00000000	15.85261000	-1.57480300
177.89998961	0.00000000	15.80955000	-1.57480300
178.09998960	0.00000000	15.80955000	-1.57480300
178.29998959	0.00000000	15.80955000	-1.57480300
178.49998958	0.00000000	15.80955000	-1.57480300
178.69998957	0.00000000	15.80955000	-1.57480300
178.89998956	0.00000000	15.80955000	-1.57480300
179.09998954	0.00000000	15.85261000	-1.53174200
179.29998953	0.00000000	16.18479000	-1.19955700
179.49998952	0.00000000	16.55389000	-0.83661410
179.69998951	0.00000000	16.22785000	-1.19955700
179.89998950	0.00000000	16.22785000	-1.53174200
180.09998948	0.00000000	16.55389000	-1.57480300
180.29998947	0.00000000	16.18479000	-1.57480300
180.49998946	0.00000000	15.85261000	-1.57480300
180.69998945	0.00000000	15.80955000	-1.57480300
180.89998944	0.00000000	15.80955000	-1.57480300
181.09998942	0.00000000	15.80955000	-1.57480300
181.29998941	0.00000000	15.80955000	-1.53174200
181.49998940	0.00000000	15.80955000	-1.15649600
181.69998939	0.00000000	15.80955000	-0.41830710
181.89998938	0.00000000	15.80955000	-0.09227362
182.09998937	0.00000000	15.80955000	-0.41830710
182.29998935	0.00000000	15.85261000	-1.15649600
182.49998934	0.00000000	16.18479000	-1.53174200
182.69998933	0.00000000	16.55389000	-1.57480300
182.89998932	0.00000000	16.18479000	-1.57480300
183.09998931	0.00000000	15.85261000	-1.57480300
183.29998929	0.00000000	15.80955000	-1.57480300
183.49998928	0.00000000	15.80955000	-1.57480300
183.69998927	0.00000000	15.80955000	-1.57480300
183.89998926	0.00000000	15.80955000	-1.57480300
184.09998925	0.00000000	15.80955000	-1.57480300
184.29998923	0.00000000	15.80955000	-1.57480300
184.49998922	0.00000000	15.80955000	-1.53174200
184.69998921	0.00000000	15.80955000	-1.19955700
184.89998920	0.00000000	15.80955000	-0.83661410
185.09998919	0.00000000	15.80955000	-1.15649600
185.29998918	0.00000000	15.80955000	-1.15649600
185.49998916	0.00000000	15.85261000	-0.83661410
185.69998915	0.00000000	16.18479000	-1.24877000
185.89998914	0.00000000	16.55389000	-1.90698800
186.09998913	0.00000000	16.18479000	-2.31914400
186.29998912	0.00000000	15.85261000	-1.99311000
186.49998910	0.00000000	15.80955000	-1.99311000
186.69998909	0.00000000	15.80955000	-2.31914400
186.89998908	0.00000000	15.80955000	-1.95004900
187.09998907	0.00000000	15.80955000	-1.61786400
187.29998906	0.00000000	15.80955000	-1.53174200
187.49998904	0.00000000	15.80955000	-1.15649600
187.69998903	0.00000000	15.80955000	-0.41830710
187.89998902	0.00000000	15.80955000	-0.04306102
188.09998901	0.00000000	15.80955000	-0.04306102
188.29998900	0.00000000	15.80955000	-0.41830710
188.49998899	0.00000000	15.80955000	-1.15649600
188.69998897	0.00000000	15.80955000	-1.53174200
188.89998896	0.00000000	15.80955000	-1.57480300
189.09998895	0.00000000	15.85261000	-1.57480300
189.29998894	0.00000000	16.18479000	-1.57480300
189.49998893	0.00000000	16.55389000	-1.57480300
189.69998891	0.00000000	16.18479000	-1.57480300
189.89998890	0.00000000	15.85261000	-1.57480300
190.09998889	0.00000000	15.80955000	-1.53174200
190.29998888	0.00000000	15.80955000	-1.19955700
190.49998887	0.00000000	15.80955000	-0.83661410
190.69998885	0.00000000	15.80955000	-1.19955700
190.89998884	0.00000000	15.80955000	-1.53174200
191.09998883	0.00000000	15.80955000	-1.57480300
191.29998882	0.00000000	15.80955000	-1.57480300
191.49998881	0.00000000	15.80955000	-1.57480300
191.69998880	0.00000000	15.80955000	-1.57480300
191.89998878	0.00000000	15.80955000	-1.57480300
192.09998877	0.00000000	15.80955000	-1.57480300
192.29998876	0.00000000	15.80955000	-1.57480300
192.49998875	0.00000000	15.80955000	-1.57480300
192.69998874	0.00000000	15.80955000	-1.57480300
192.89998872	0.00000000	15.80955000	-1.57480300
193.09998871	0.00000000	15.80955000	-1.57480300
193.29998870	0.00000000	15.80955000	-1.57480300
193.49998869	0.00000000	15.80955000	-1.57480300
193.69998868	0.00000000	15.80955000	-1.57480300
193.89998866	0.00000000	15.80955000	-1.57480300
194.09998865	0.00000000	15.80955000	-1.57480300
194.29998864	0.00000000	15.80955000	-1.57480300
194.49998863	0.00000000	15.80955000	-1.57480300
194.69998862	0.00000000	15.85261000	-1.57480300
194.89998861	0.00000000	16.18479000	-1.57480300
195.09998859	0.00000000	16.55389000	-1.57480300
195.29998858	0.00000000	16.18479000	-1.57480300
195.49998857	0.00000000	15.85261000	-1.57480300
195.69998856	0.00000000	15.80955000	-1.57480300
195.89998855	0.00000000	15.80955000	-1.57480300
196.09998853	0.00000000	15.80955000	-1.57480300
