Time	Channel A	Channel B	Channel C
(us)	(V)	(mV)	(mV)

-4.59999956	0.00000000	30.03814000	3.15575800
-4.39999957	0.00000000	30.03814000	3.15575800
-4.19999958	0.00000000	30.03814000	3.15575800
-3.99999959	0.00000000	30.03814000	3.15575800
-3.79999960	0.00000000	30.03814000	3.15575800
-3.59999962	0.00000000	30.03814000	3.15575800
-3.39999963	0.00000000	30.03814000	3.15575800
-3.19999964	0.00000000	30.03814000	3.15575800
-2.99999965	0.00000000	30.03814000	3.19881900
-2.79999966	0.00000000	30.03814000	3.53100400
-2.59999968	0.00000000	30.03814000	3.90009800
-2.39999969	0.00000000	30.03814000	3.53100400
-2.19999970	0.00000000	30.03814000	3.19881900
-1.99999971	0.00000000	30.03814000	3.19881900
-1.79999972	0.00000000	30.03814000	3.53100400
-1.59999973	0.00000000	30.03814000	3.94315900
-1.39999975	0.00000000	30.03814000	3.90625000
-1.19999976	0.00000000	30.03814000	3.98622000
-0.99999977	0.00000000	30.03814000	3.90625000
-0.79999978	0.00000000	30.03814000	3.98622000
-0.59999979	0.00000000	30.03814000	3.90625000
-0.39999981	0.15871060	30.03814000	3.94315900
-0.19999982	0.47736220	30.03814000	3.53100400
0.00000017	0.79601380	30.03814000	3.19881900
0.20000016	1.11466500	30.03814000	3.15575800
0.40000015	0.95533960	30.03814000	3.15575800
0.60000013	0.63668800	30.03814000	3.15575800
0.80000012	-0.15871060	30.03814000	3.15575800
1.00000011	-1.11466500	30.03814000	3.15575800
1.20000010	-2.07062000	30.03814000	3.15575800
1.40000009	-2.70792300	30.03814000	3.19881900
1.60000008	-2.70792300	30.03814000	3.57406500
1.80000006	-1.91129400	30.03814000	4.31840500
2.00000005	-0.31803640	30.03814000	4.69365100
2.20000004	1.75196900	30.03814000	4.73671200
2.40000003	3.82258900	30.03814000	4.69365100
2.60000002	5.09719500	30.03814000	4.31840500
2.80000000	5.25652100	30.03814000	3.57406500
2.99999999	3.98191400	30.03814000	3.19881900
3.19999998	1.27399100	30.03814000	3.15575800
3.39999997	-2.07062000	30.03814000	3.15575800
3.59999996	-5.25652100	30.03814000	3.19881900
3.79999994	-7.48646600	30.03814000	3.57406500
3.99999993	-7.96444400	30.03814000	4.31840500
4.19999992	-6.37180100	30.03814000	4.69365100
4.39999991	-2.86724900	30.03814000	4.73671200
4.59999990	1.43331700	30.03814000	4.73671200
4.79999989	5.73449800	30.03814000	4.69365100
4.99999987	8.60174700	30.03814000	4.31840500
5.19999986	9.55770200	30.03814000	3.57406500
5.39999985	7.96444400	30.03814000	3.19881900
5.59999984	4.30056600	30.03814000	3.15575800
5.79999983	-0.31803640	30.03814000	3.15575800
5.99999981	-4.93786900	30.03814000	3.15575800
6.19999980	-8.28309500	30.03814000	3.19881900
6.39999979	-9.55770200	30.03814000	3.57406500
6.59999978	-8.28309500	30.03814000	4.31840500
6.79999977	-5.09719500	30.03814000	4.69365100
6.99999975	-0.95533960	30.03814000	4.73671200
7.19999974	3.34522600	30.03814000	4.69365100
7.39999973	6.37180100	30.03814000	4.31840500
7.59999972	7.80511800	30.03814000	3.57406500
7.79999971	7.00848900	30.03814000	3.19881900
7.99999970	4.77854300	30.03814000	3.15575800
8.19999968	1.59264300	30.03814000	3.15575800
8.39999967	-1.59264300	30.03814000	3.15575800
8.59999966	-4.14124000	30.03814000	3.15575800
8.79999965	-5.09719500	30.03814000	3.19881900
8.99999964	-4.77854300	30.03814000	3.57406500
9.19999962	-3.50393700	30.03814000	4.31840500
9.39999961	-1.59264300	30.03814000	4.64443900
9.59999960	0.31803640	30.03814000	4.31840500
9.79999959	1.91129400	30.03814000	3.57406500
9.99999958	2.54859700	30.03814000	3.19881900
10.19999956	2.38927200	30.03814000	3.15575800
10.39999955	1.75196900	30.03814000	3.15575800
10.59999954	0.95533960	30.03814000	3.15575800
10.79999953	0.00000000	30.03814000	3.15575800
10.99999952	-0.47736220	30.03814000	3.15575800
11.19999951	-0.95533960	30.03814000	3.15575800
11.39999949	-0.95533960	30.03814000	3.15575800
11.59999948	-0.79601380	30.03814000	3.15575800
11.79999947	-0.63668800	30.03814000	3.15575800
11.99999946	-0.31803640	30.03814000	3.15575800
12.19999945	-0.15871060	30.03814000	3.15575800
12.39999943	-0.15871060	30.03814000	3.15575800
12.59999942	0.00000000	30.03814000	3.15575800
12.79999941	0.00000000	30.03814000	3.19881900
12.99999940	0.15871060	30.03814000	3.53100400
13.19999939	0.00000000	30.03814000	3.90009800
13.39999937	0.00000000	30.03814000	3.57406500
13.59999936	0.00000000	30.03814000	3.57406500
13.79999935	0.00000000	30.03814000	3.90009800
13.99999934	-0.15871060	30.03814000	3.53100400
14.19999933	-0.15871060	30.03814000	3.19881900
14.39999932	-0.15871060	30.03814000	3.15575800
14.59999930	-0.15871060	30.03814000	3.19881900
14.79999929	0.00000000	30.03814000	3.53100400
14.99999928	0.00000000	30.03814000	3.90009800
15.19999927	0.00000000	30.03814000	3.53100400
15.39999926	0.00000000	30.03814000	3.19881900
15.59999924	0.00000000	30.03814000	3.15575800
15.79999923	0.00000000	29.99508000	3.15575800
15.99999922	0.00000000	29.66289000	3.15575800
16.19999921	0.00000000	29.29380000	3.15575800
16.39999920	0.00000000	29.66289000	3.15575800
16.59999919	0.00000000	29.99508000	3.15575800
16.79999917	0.00000000	30.08120000	3.15575800
16.99999916	0.00000000	30.45644000	3.15575800
17.19999915	0.00000000	31.20078000	3.15575800
17.39999914	0.00000000	31.57603000	3.15575800
17.59999913	0.00000000	31.61909000	3.15575800
17.79999911	0.00000000	31.57603000	3.15575800
17.99999910	0.00000000	31.15157000	3.15575800
18.19999909	0.00000000	29.99508000	3.15575800
18.39999908	0.00000000	28.45718000	3.15575800
18.59999907	0.00000000	26.87623000	3.15575800
18.79999905	0.00000000	25.38755000	3.15575800
18.99999904	0.00000000	24.64321000	3.19881900
19.19999903	0.00000000	25.43061000	3.53100400
19.39999902	0.00000000	27.38681000	3.90009800
19.59999901	0.00000000	30.50566000	3.53100400
19.79999900	0.00000000	34.36884000	3.19881900
19.99999898	0.00000000	37.85679000	3.15575800
20.19999897	0.00000000	40.51427000	3.15575800
20.39999896	0.00000000	41.20940000	3.15575800
20.59999895	0.00000000	38.84104000	3.15575800
20.79999894	0.00000000	33.80905000	3.15575800
20.99999892	0.00000000	26.79011000	3.15575800
21.19999891	0.00000000	19.10679000	3.15575800
21.39999890	0.00000000	12.54921000	3.15575800
21.59999889	0.00000000	9.19660400	3.15575800
21.79999888	0.00000000	10.36540000	3.15575800
21.99999886	0.00000000	16.59080000	3.15575800
22.19999885	0.00000000	26.31643000	3.15575800
22.39999884	0.00000000	38.36737000	3.15575800
22.59999883	0.00000000	50.64591000	3.15575800
22.79999882	0.00000000	59.44266000	3.15575800
22.99999881	0.00000000	62.10014000	3.19881900
23.19999879	0.00000000	57.35728000	3.57406500
23.39999878	0.00000000	45.34940000	4.31840500
23.59999877	0.00000000	28.37106000	4.73671200
23.79999876	0.00000000	10.59301000	5.11195900
23.99999875	0.00000000	-4.06003900	5.47490100
24.19999873	0.00000000	-12.10630000	5.06274600
24.39999872	0.00000000	-10.85753000	4.31840500
24.59999871	0.00000000	-0.01230315	3.11269700
24.79999870	0.00000000	18.54700000	1.57480300
24.99999869	0.00000000	40.55733000	0.04306102
25.19999867	0.00000000	61.02977000	-1.11343500
25.39999866	0.00000000	75.26452000	-1.48253000
25.59999865	0.00000000	79.45374000	-1.06422200
25.79999864	0.00000000	72.10260000	0.51058070
25.99999863	0.00000000	54.69980000	3.24803100
26.19999862	0.00000000	31.15772000	6.77903500
26.39999860	0.00000000	6.82824800	10.95595000
26.59999859	0.00000000	-12.48154000	14.39468000
26.79999858	0.00000000	-22.52707000	15.51427000
26.99999857	0.00000000	-20.94611000	14.34547000
27.19999856	0.00000000	-7.83095500	10.40846000
27.39999854	0.00000000	13.76107000	4.18307100
27.59999853	0.00000000	38.46580000	-3.53100400
27.79999852	0.00000000	60.51919000	-11.18971000
27.99999851	0.00000000	75.22145000	-16.16634000
28.19999850	0.00000000	79.50295000	-17.28592000
28.39999848	0.00000000	72.61318000	-13.74877000
28.59999847	0.00000000	56.79134000	-5.57947800
28.79999846	0.00000000	35.94980000	5.62253900
28.99999845	0.00000000	14.68996000	17.97490000
29.19999844	0.00000000	-1.96850400	28.29109000
29.39999843	0.00000000	-10.94365000	33.67987000
29.59999841	0.00000000	-10.99286000	32.52337000
29.79999840	0.00000000	-2.52214600	25.13533000
29.99999839	0.00000000	12.13091000	12.68455000
30.19999838	0.00000000	29.52756000	-3.11269700
30.39999837	0.00000000	45.81693000	-18.49163000
30.59999835	0.00000000	57.81865000	-29.31840000
30.79999834	0.00000000	63.30585000	-33.58760000
30.99999833	0.00000000	61.39886000	-30.38878000
31.19999832	0.00000000	53.34645000	-19.55585000
31.39999831	0.00000000	40.97564000	-2.97736200
31.59999829	0.00000000	27.42987000	15.14518000
31.79999828	0.00000000	15.38509000	31.02854000
31.99999827	0.00000000	6.87130900	41.44316000
32.19999826	0.00000000	3.70939900	44.13755000
32.39999825	0.00000000	6.03469500	38.33046000
32.59999824	0.00000000	12.96752000	25.22145000
32.79999822	0.00000000	23.38828000	7.80634800
32.99999821	0.00000000	34.18430000	-10.36540000
33.19999820	0.00000000	43.11638000	-25.78740000
33.39999819	0.00000000	48.56053000	-34.65797000
33.59999818	0.00000000	49.35408000	-35.12549000
33.79999816	0.00000000	45.90305000	-27.78666000
33.99999815	0.00000000	38.97638000	-14.21629000
34.19999814	0.00000000	30.50566000	3.11269700
34.39999813	0.00000000	22.77928000	20.11565000
34.59999812	0.00000000	17.34129000	32.84941000
34.79999810	0.00000000	15.38509000	39.06865000
34.99999809	0.00000000	16.91683000	37.16781000
35.19999808	0.00000000	21.52436000	28.34030000
35.39999807	0.00000000	28.03888000	14.76993000
35.59999806	0.00000000	34.18430000	-1.02116100
35.79999805	0.00000000	38.46580000	-15.23745000
35.99999803	0.00000000	40.00369000	-24.11417000
36.19999802	0.00000000	38.50886000	-25.73819000
36.39999801	0.00000000	34.65182000	-20.39862000
36.59999800	0.00000000	29.66289000	-10.03322000
36.79999799	0.00000000	24.64321000	2.69439000
36.99999797	0.00000000	21.19833000	14.63459000
37.19999796	0.00000000	20.03568000	23.09301000
37.39999795	0.00000000	21.57357000	25.78740000
37.59999794	0.00000000	25.38755000	21.97957000
37.79999793	0.00000000	30.03814000	13.23819000
37.99999791	0.00000000	34.65182000	2.50369100
38.19999790	0.00000000	38.13361000	-6.69906400
38.39999789	0.00000000	39.30241000	-12.13091000
38.59999788	0.00000000	38.55807000	-12.50615000
38.79999787	0.00000000	35.81446000	-7.90477300
38.99999786	0.00000000	31.57603000	0.51058070
39.19999784	0.00000000	26.96850000	10.03322000
39.39999783	0.00000000	23.06225000	17.32899000
39.59999782	0.00000000	20.73080000	20.39862000
39.79999781	0.00000000	19.94340000	18.44242000
39.99999780	0.00000000	21.10605000	11.52190000
40.19999778	0.00000000	23.80659000	1.62401600
40.39999777	0.00000000	27.29453000	-7.99089500
40.59999776	0.00000000	31.20078000	-14.49926000
40.79999775	0.00000000	34.69488000	-16.44316000
40.99999774	0.00000000	37.39542000	-12.96752000
41.19999772	0.00000000	38.55807000	-5.29650500
41.39999771	0.00000000	37.77067000	4.73671200
41.59999770	0.00000000	35.48228000	14.67766000
41.79999769	0.00000000	31.99434000	21.60433000
41.99999768	0.00000000	28.50024000	23.55438000
42.19999767	0.00000000	25.38755000	20.48474000
42.39999765	0.00000000	23.06225000	13.18898000
42.59999764	0.00000000	22.26870000	3.62327700
42.79999763	0.00000000	22.60088000	-5.20423200
42.99999762	0.00000000	23.80659000	-11.06053000
43.19999761	0.00000000	25.71358000	-13.01058000
43.39999759	0.00000000	28.03888000	-11.10359000
43.59999758	0.00000000	29.99508000	-5.75787400
43.79999757	0.00000000	31.57603000	1.11343500
43.99999756	0.00000000	32.73252000	7.33882900
44.19999755	0.00000000	33.15699000	11.98327000
44.39999753	0.00000000	33.20005000	14.30241000
44.59999752	0.00000000	33.20005000	13.60728000
44.79999751	0.00000000	33.24311000	10.96211000
44.99999750	0.00000000	33.53223000	7.43110200
45.19999749	0.00000000	33.47687000	3.20497000
45.39999748	0.00000000	31.90822000	-0.60285430
45.59999746	0.00000000	29.61983000	-2.55905500
45.79999745	0.00000000	26.83317000	-2.64517700
45.99999744	0.00000000	23.71432000	-1.48868100
46.19999743	0.00000000	20.64468000	0.41830710
46.39999742	0.00000000	18.41166000	2.73745100
46.59999740	0.00000000	18.45472000	4.68750000
46.79999739	0.00000000	21.14911000	6.26845500
46.99999738	0.00000000	25.84892000	7.42495000
47.19999737	0.00000000	32.08661000	7.80019600
47.39999736	0.00000000	38.97638000	7.38188900
47.59999734	0.00000000	44.32209000	5.85014700
47.79999733	0.00000000	46.27829000	3.53100400
47.99999732	0.00000000	44.69734000	1.24877000
48.19999731	0.00000000	39.62844000	-0.69512790
48.39999730	0.00000000	31.53297000	-1.43946800
48.59999729	0.00000000	22.64394000	-1.11343500
48.79999727	0.00000000	14.91757000	0.13533460
48.99999726	0.00000000	9.94094400	2.41141700
49.19999725	0.00000000	9.61491000	5.47490100
49.39999724	0.00000000	14.22244000	7.80019600
49.59999723	0.00000000	22.68701000	9.38115100
49.79999721	0.00000000	32.68946000	10.07628000
49.99999720	0.00000000	41.57849000	8.87057000
50.19999719	0.00000000	47.39788000	5.85014700
50.39999718	0.00000000	48.93578000	1.99311000
50.59999717	0.00000000	45.81693000	-1.48868100
50.79999715	0.00000000	38.50886000	-4.18307100
50.99999714	0.00000000	28.92470000	-5.29650500
51.19999713	0.00000000	20.03568000	-4.13385800
51.39999712	0.00000000	13.89025000	-1.07037400
51.59999711	0.00000000	11.94636000	3.15575800
51.79999710	0.00000000	15.00984000	7.38188900
51.99999708	0.00000000	21.48130000	10.49459000
52.19999707	0.00000000	29.57677000	12.03248000
52.39999706	0.00000000	36.88484000	11.65723000
52.59999705	0.00000000	41.53543000	9.33809000
52.79999704	0.00000000	42.69808000	5.89320800
52.99999702	0.00000000	40.04675000	1.99311000
53.19999701	0.00000000	34.69488000	-1.44562000
53.39999700	0.00000000	28.50640000	-3.71555100
53.59999699	0.00000000	22.73007000	-3.71555100
53.79999698	0.00000000	18.92224000	-1.48868100
53.99999696	0.00000000	18.49778000	1.53174200
54.19999695	0.00000000	21.14911000	4.26919300
54.39999694	0.00000000	25.76279000	6.17618100
54.59999693	0.00000000	31.15772000	6.96358300
54.79999692	0.00000000	35.72219000	6.22539300
54.99999691	0.00000000	38.09055000	4.73671200
55.19999689	0.00000000	37.67839000	3.19881900
55.39999688	0.00000000	35.01476000	2.04232300
55.59999687	0.00000000	30.41338000	1.66707700
55.79999686	0.00000000	25.84892000	2.08538400
55.99999685	0.00000000	22.73007000	3.61712600
56.19999683	0.00000000	21.57357000	5.85014700
56.39999682	0.00000000	22.73007000	7.33882900
56.59999681	0.00000000	25.76279000	7.33882900
56.79999680	0.00000000	29.57062000	5.75787400
56.99999679	0.00000000	32.68946000	2.69439000
57.19999677	0.00000000	34.65182000	-1.11343500
57.39999676	0.00000000	35.39616000	-4.13385800
57.59999675	0.00000000	34.23351000	-5.29650500
57.79999674	0.00000000	31.61909000	-4.13385800
57.99999673	0.00000000	28.87549000	-1.02116100
58.19999672	0.00000000	26.54404000	3.66633800
58.39999670	0.00000000	24.64321000	9.38115100
58.59999669	0.00000000	24.26796000	14.35162000
58.79999668	0.00000000	25.38755000	16.63386000
58.99999667	0.00000000	27.29453000	15.84030000
59.19999666	0.00000000	29.57062000	11.56496000
59.39999664	0.00000000	31.15157000	4.69365100
59.59999663	0.00000000	31.90207000	-2.60211600
59.79999662	0.00000000	31.89591000	-8.40920300
59.99999661	0.00000000	30.37032000	-11.47884000
60.19999660	0.00000000	28.54946000	-11.06053000
60.39999658	0.00000000	27.34375000	-6.82824800
60.59999657	0.00000000	26.91929000	0.09227362
60.79999656	0.00000000	26.96850000	7.80019600
60.99999655	0.00000000	27.76206000	14.76993000
61.19999654	0.00000000	29.61983000	19.32825000
61.39999653	0.00000000	31.15157000	20.06643000
61.59999651	0.00000000	31.95128000	16.21555000
61.79999650	0.00000000	32.31422000	8.96284400
61.99999649	0.00000000	31.52682000	0.46751960
62.19999648	0.00000000	29.99508000	-7.25270600
62.39999647	0.00000000	28.03888000	-12.63533000
62.59999645	0.00000000	25.76279000	-14.16708000
62.79999644	0.00000000	24.22490000	-11.52190000
62.99999643	0.00000000	23.84965000	-5.71481200
63.19999642	0.00000000	24.60015000	1.99311000
63.39999641	0.00000000	26.54404000	10.07628000
63.59999639	0.00000000	28.87549000	16.25861000
63.79999638	0.00000000	31.57603000	19.37131000
63.99999637	0.00000000	33.85827000	19.00221000
64.19999636	0.00000000	34.65182000	15.14518000
64.39999635	0.00000000	34.27657000	9.00590400
64.59999634	0.00000000	32.68946000	2.04232300
64.79999632	0.00000000	29.99508000	-4.14000900
64.99999631	0.00000000	26.96850000	-8.40920300
65.19999630	0.00000000	24.64321000	-9.99015700
65.39999629	0.00000000	23.84965000	-8.82750900
65.59999628	0.00000000	24.22490000	-5.38262700
65.79999626	0.00000000	25.76279000	-0.37524600
65.99999625	0.00000000	28.03888000	4.64443900
66.19999624	0.00000000	29.99508000	8.91978400
66.39999623	0.00000000	31.52682000	11.65723000
66.59999622	0.00000000	32.22810000	12.49385000
66.79999620	0.00000000	31.10851000	12.16166000
66.99999619	0.00000000	28.87549000	10.96211000
67.19999618	0.00000000	26.96850000	9.00590400
67.39999617	0.00000000	25.80585000	6.26845500
67.59999616	0.00000000	25.80585000	3.11269700
67.79999615	0.00000000	26.96850000	-0.37524600
67.99999613	0.00000000	28.87549000	-3.80782500
68.19999612	0.00000000	31.20078000	-5.75787400
68.39999611	0.00000000	33.06471000	-6.17618100
68.59999610	0.00000000	33.80905000	-5.38262700
68.79999609	0.00000000	32.64640000	-3.02042300
68.99999607	0.00000000	29.99508000	0.46751960
69.19999606	0.00000000	26.87623000	4.77977300
69.39999605	0.00000000	23.80659000	9.38115100
69.59999604	0.00000000	21.52436000	13.23819000
69.79999603	0.00000000	21.14911000	15.14518000
69.99999601	0.00000000	22.68701000	14.76993000
70.19999600	0.00000000	25.80585000	12.03248000
70.39999599	0.00000000	30.08735000	7.38188900
70.59999598	0.00000000	34.69488000	1.62401600
70.79999597	0.00000000	38.50886000	-3.76476400
70.99999596	0.00000000	40.04675000	-7.25270600
71.19999594	0.00000000	38.88410000	-8.40920300
71.39999593	0.00000000	35.39001000	-6.87746000
71.59999592	0.00000000	29.99508000	-3.06963600
71.79999591	0.00000000	24.22490000	1.53174200
71.99999590	0.00000000	19.56816000	5.85014700
72.19999588	0.00000000	16.87377000	9.29502900
72.39999587	0.00000000	16.87377000	11.23893000
72.59999586	0.00000000	19.56816000	10.86983000
72.79999585	0.00000000	24.18184000	9.00590400
72.99999584	0.00000000	29.61983000	6.26845500
73.19999582	0.00000000	34.60876000	3.24803100
73.39999581	0.00000000	38.13361000	0.92888770
73.59999580	0.00000000	39.25935000	0.13533460
73.79999579	0.00000000	38.13361000	0.46136810
73.99999578	0.00000000	34.65182000	1.57480300
74.19999577	0.00000000	30.08735000	2.73745100
74.39999575	0.00000000	25.80585000	3.48794300
74.59999574	0.00000000	22.68701000	3.85088600
74.79999573	0.00000000	21.10605000	3.06348400
74.99999572	0.00000000	21.10605000	1.57480300
75.19999571	0.00000000	22.64394000	0.09227362
75.39999569	0.00000000	25.33834000	-0.65206690
75.59999568	0.00000000	28.41412000	0.13533460
75.79999567	0.00000000	31.10851000	2.04232300
75.99999566	0.00000000	32.64640000	4.77977300
76.19999565	0.00000000	32.73252000	7.84940900
76.39999563	0.00000000	31.99434000	10.53765000
76.59999562	0.00000000	31.20078000	11.98327000
76.79999561	0.00000000	30.03814000	11.18971000
76.99999560	0.00000000	28.92470000	7.75713500
77.19999559	0.00000000	28.50024000	3.15575800
77.39999558	0.00000000	28.45718000	-1.53174200
77.59999556	0.00000000	28.45718000	-5.75787400
77.79999555	0.00000000	28.45718000	-8.40920300
77.99999554	0.00000000	28.41412000	-8.40920300
78.19999553	0.00000000	27.98966000	-5.71481200
78.39999552	0.00000000	26.87623000	-1.06422200
78.59999550	0.00000000	25.76279000	4.73671200
78.79999549	0.00000000	25.38755000	10.49459000
78.99999548	0.00000000	25.76279000	14.72072000
79.19999547	0.00000000	26.96850000	16.25861000
79.39999546	0.00000000	28.87549000	14.76993000
79.59999544	0.00000000	31.20078000	10.91289000
79.79999543	0.00000000	33.11393000	5.89320800
79.99999542	0.00000000	34.23351000	0.46136810
80.19999541	0.00000000	33.85827000	-4.14000900
80.39999540	0.00000000	31.95128000	-6.92052100
80.59999539	0.00000000	29.61983000	-7.71407400
80.79999537	0.00000000	26.87623000	-6.92052100
80.99999536	0.00000000	24.26796000	-4.18307100
81.19999535	0.00000000	23.06225000	0.04306102
81.39999534	0.00000000	23.43135000	4.64443900
81.59999533	0.00000000	24.60015000	8.54453700
81.79999531	0.00000000	26.91929000	10.91289000
81.99999530	0.00000000	29.57062000	12.11860000
82.19999529	0.00000000	31.52682000	12.07554000
82.39999528	0.00000000	32.73252000	10.53765000
82.59999527	0.00000000	33.06471000	7.80019600
82.79999525	0.00000000	32.31422000	4.31840500
82.99999524	0.00000000	30.41338000	0.46751960
83.19999523	0.00000000	28.54946000	-2.64517700
83.39999522	0.00000000	27.34375000	-4.64443900
83.59999521	0.00000000	26.91929000	-5.75787400
83.79999520	0.00000000	26.87623000	-5.33956700
83.99999518	0.00000000	26.87623000	-3.06348400
84.19999517	0.00000000	26.91929000	0.09227362
84.39999516	0.00000000	27.29453000	3.99237200
84.59999515	0.00000000	28.03888000	8.58759800
84.79999514	0.00000000	28.41412000	12.03248000
84.99999512	0.00000000	28.45718000	13.61343000
85.19999511	0.00000000	28.45718000	13.23819000
85.39999510	0.00000000	28.50024000	10.86983000
85.59999509	0.00000000	28.92470000	7.00664300
85.79999508	0.00000000	30.03814000	1.95004900
85.99999506	0.00000000	31.15157000	-3.02042300
86.19999505	0.00000000	31.48376000	-6.87746000
86.39999504	0.00000000	30.78248000	-8.40920300
86.59999503	0.00000000	29.20767000	-7.29576700
86.79999502	0.00000000	27.66363000	-4.22613100
86.99999501	0.00000000	25.71358000	0.09227362
87.19999499	0.00000000	24.26796000	5.11195900
87.39999498	0.00000000	24.18184000	10.07628000
87.59999497	0.00000000	24.96309000	13.14591000
87.79999496	0.00000000	26.13189000	13.56422000
87.99999495	0.00000000	28.08194000	11.61417000
88.19999493	0.00000000	29.99508000	7.43110200
88.39999492	0.00000000	31.52682000	2.41756900
88.59999491	0.00000000	32.31422000	-1.81471400
88.79999490	0.00000000	31.95128000	-4.92125900
88.99999489	0.00000000	31.15157000	-5.71481200
89.19999487	0.00000000	29.57062000	-4.50910400
89.39999486	0.00000000	27.29453000	-1.43331700
89.59999485	0.00000000	25.43061000	3.56791300
89.79999484	0.00000000	24.60015000	8.08932000
89.99999483	0.00000000	24.96309000	11.23893000
90.19999482	0.00000000	25.71358000	11.98327000
90.39999480	0.00000000	26.91929000	10.45152000
90.59999479	0.00000000	28.41412000	6.96358300
90.79999478	0.00000000	29.57062000	2.04232300
90.99999477	0.00000000	29.99508000	-2.18380900
91.19999476	0.00000000	30.03814000	-4.50910400
91.39999474	0.00000000	29.99508000	-4.92125900
91.59999473	0.00000000	29.61983000	-2.93430100
91.79999472	0.00000000	28.87549000	0.83661410
91.99999471	0.00000000	28.50024000	5.47490100
92.19999470	0.00000000	28.45718000	9.29502900
92.39999468	0.00000000	28.45718000	11.61417000
92.59999467	0.00000000	28.41412000	11.56496000
92.79999466	0.00000000	28.03888000	8.87672100
92.99999465	0.00000000	27.29453000	4.31840500
93.19999464	0.00000000	26.87623000	-0.64591530
93.39999463	0.00000000	26.45792000	-4.09079700
93.59999461	0.00000000	25.76279000	-5.29650500
93.79999460	0.00000000	25.80585000	-4.13385800
93.99999459	0.00000000	26.91929000	-1.07037400
94.19999458	0.00000000	28.45718000	3.15575800
94.39999457	0.00000000	30.03814000	7.33882900
94.59999455	0.00000000	31.57603000	10.03322000
94.79999454	0.00000000	32.73252000	10.45152000
94.99999453	0.00000000	33.06471000	8.91978400
95.19999452	0.00000000	32.31422000	5.80093500
95.39999451	0.00000000	30.37032000	1.62401600
95.59999449	0.00000000	28.03888000	-2.18380900
95.79999448	0.00000000	25.29527000	-4.14000900
95.99999447	0.00000000	22.64394000	-4.18307100
96.19999446	0.00000000	21.14911000	-2.60211600
96.39999445	0.00000000	21.52436000	0.46751960
96.59999444	0.00000000	23.80659000	4.26919300
96.79999442	0.00000000	26.91929000	7.33882900
96.99999441	0.00000000	30.45644000	8.91978400
97.19999440	0.00000000	34.27657000	8.91978400
97.39999439	0.00000000	36.92790000	7.38188900
97.59999438	0.00000000	37.35236000	4.73671200
97.79999436	0.00000000	35.85752000	2.04232300
97.99999435	0.00000000	33.11393000	0.09227362
98.19999434	0.00000000	29.61983000	-1.06422200
98.39999433	0.00000000	25.71358000	-1.06422200
98.59999432	0.00000000	22.26870000	0.09227362
98.79999430	0.00000000	19.94340000	1.95004900
98.99999429	0.00000000	19.56816000	3.85088600
99.19999428	0.00000000	21.10605000	4.64443900
99.39999427	0.00000000	24.18184000	4.73671200
99.59999426	0.00000000	28.03888000	4.69365100
99.79999425	0.00000000	31.53297000	4.31840500
99.99999423	0.00000000	34.27657000	3.57406500
100.19999422	0.00000000	35.81446000	3.24803100
100.39999421	0.00000000	35.81446000	3.57406500
100.59999420	0.00000000	34.27657000	4.31840500
100.79999419	0.00000000	31.57603000	4.64443900
100.99999417	0.00000000	28.45718000	4.26919300
101.19999416	0.00000000	25.38755000	3.11269700
101.39999415	0.00000000	23.01919000	1.57480300
101.59999414	0.00000000	21.85039000	0.04306102
101.79999413	0.00000000	21.48130000	-1.06422200
101.99999411	0.00000000	22.68701000	-1.06422200
102.19999410	0.00000000	25.29527000	0.04306102
102.39999409	0.00000000	28.03888000	1.62401600
102.59999408	0.00000000	30.37032000	3.57406500
102.79999407	0.00000000	32.31422000	5.89320800
102.99999406	0.00000000	33.10777000	7.75713500
103.19999404	0.00000000	33.10777000	8.54453700
103.39999403	0.00000000	32.31422000	7.75713500
103.59999402	0.00000000	30.37032000	5.85014700
103.79999401	0.00000000	28.08194000	3.11269700
103.99999400	0.00000000	25.76279000	0.09227362
104.19999398	0.00000000	24.22490000	-2.22687000
104.39999397	0.00000000	23.80659000	-3.02042300
104.59999396	0.00000000	24.18184000	-2.64517700
104.79999395	0.00000000	25.33834000	-1.07037400
104.99999394	0.00000000	26.87623000	1.62401600
105.19999392	0.00000000	28.41412000	4.64443900
105.39999391	0.00000000	29.61983000	6.96358300
105.59999390	0.00000000	30.37032000	7.75713500
105.79999389	0.00000000	30.73326000	7.38188900
105.99999388	0.00000000	29.94586000	5.85014700
106.19999387	0.00000000	28.50024000	3.57406500
106.39999385	0.00000000	27.29453000	1.62401600
106.59999384	0.00000000	26.54404000	0.09227362
106.79999383	0.00000000	26.13189000	-0.65206690
106.99999382	0.00000000	26.54404000	0.09227362
107.19999381	0.00000000	27.29453000	1.57480300
107.39999379	0.00000000	28.45718000	3.15575800
107.59999378	0.00000000	29.57062000	4.68750000
107.79999377	0.00000000	29.94586000	5.80093500
107.99999376	0.00000000	29.61983000	5.80093500
108.19999375	0.00000000	28.83243000	4.68750000
108.39999374	0.00000000	28.03888000	3.15575800
108.59999372	0.00000000	26.87623000	1.57480300
108.79999371	0.00000000	25.76279000	0.09227362
108.99999370	0.00000000	25.38755000	-0.65206690
109.19999369	0.00000000	25.76279000	0.09227362
109.39999368	0.00000000	26.91929000	1.62401600
109.59999366	0.00000000	28.45718000	3.53100400
109.79999365	0.00000000	29.99508000	5.47490100
109.99999364	0.00000000	31.10851000	6.59448800
110.19999363	0.00000000	31.15157000	7.00664300
110.39999362	0.00000000	30.41338000	6.22539300
110.59999360	0.00000000	29.61983000	4.73671200
110.79999359	0.00000000	28.41412000	3.15575800
110.99999358	0.00000000	26.91929000	1.62401600
111.19999357	0.00000000	25.76279000	0.46136810
111.39999356	0.00000000	25.38755000	0.04306102
111.59999355	0.00000000	25.71358000	0.04306102
111.79999353	0.00000000	26.50098000	0.46136810
111.99999352	0.00000000	27.29453000	1.62401600
112.19999351	0.00000000	28.45718000	3.11269700
112.39999350	0.00000000	29.57062000	4.26919300
112.59999349	0.00000000	29.94586000	4.69365100
112.79999347	0.00000000	29.61983000	4.73671200
112.99999346	0.00000000	28.87549000	4.69365100
113.19999345	0.00000000	28.45718000	4.31840500
113.39999344	0.00000000	28.03888000	3.57406500
113.59999343	0.00000000	27.29453000	3.19881900
113.79999341	0.00000000	26.91929000	3.11269700
113.99999340	0.00000000	26.87623000	2.73745100
114.19999339	0.00000000	26.91929000	1.99311000
114.39999338	0.00000000	27.29453000	1.66707700
114.59999337	0.00000000	28.03888000	1.95004900
114.79999336	0.00000000	28.41412000	2.31914400
114.99999334	0.00000000	28.45718000	1.95004900
115.19999333	0.00000000	28.45718000	1.61786400
115.39999332	0.00000000	28.45718000	1.57480300
115.59999331	0.00000000	28.45718000	1.61786400
115.79999330	0.00000000	28.41412000	1.99311000
115.99999328	0.00000000	28.03888000	2.78051200
116.19999327	0.00000000	27.29453000	3.53100400
116.39999326	0.00000000	26.91929000	4.31840500
116.59999325	0.00000000	26.87623000	4.69365100
116.79999324	0.00000000	26.87623000	4.69365100
116.99999322	0.00000000	26.91929000	4.31840500
117.19999321	0.00000000	27.29453000	3.53100400
117.39999320	0.00000000	28.08194000	2.78051200
117.59999319	0.00000000	28.83243000	1.99311000
117.79999318	0.00000000	29.61983000	1.61786400
117.99999317	0.00000000	29.94586000	1.57480300
118.19999315	0.00000000	29.61983000	1.57480300
118.39999314	0.00000000	28.87549000	1.61786400
118.59999313	0.00000000	28.45718000	1.99311000
118.79999312	0.00000000	27.98966000	2.73745100
118.99999311	0.00000000	26.87623000	3.15575800
119.19999309	0.00000000	25.76279000	3.57406500
119.39999308	0.00000000	25.33834000	4.31840500
119.59999307	0.00000000	25.33834000	4.69365100
119.79999306	0.00000000	25.76279000	4.73671200
119.99999305	0.00000000	26.91929000	4.69365100
120.19999303	0.00000000	28.45718000	4.31840500
120.39999302	0.00000000	29.99508000	3.53100400
120.59999301	0.00000000	31.15157000	2.78051200
120.79999300	0.00000000	31.52682000	1.99311000
120.99999299	0.00000000	31.15157000	1.61786400
121.19999298	0.00000000	29.99508000	1.57480300
121.39999296	0.00000000	28.45718000	1.57480300
121.59999295	0.00000000	26.91929000	1.57480300
121.79999294	0.00000000	25.76279000	1.61786400
121.99999293	0.00000000	25.33834000	1.99311000
122.19999292	0.00000000	25.29527000	2.73745100
122.39999290	0.00000000	25.33834000	3.15575800
122.59999289	0.00000000	25.71358000	3.57406500
122.79999288	0.00000000	26.50098000	4.31840500
122.99999287	0.00000000	27.29453000	4.69365100
123.19999286	0.00000000	28.45718000	4.69365100
123.39999284	0.00000000	29.57062000	4.31840500
123.59999283	0.00000000	29.99508000	3.53100400
123.79999282	0.00000000	29.99508000	2.78051200
123.99999281	0.00000000	29.61983000	1.99311000
124.19999280	0.00000000	28.83243000	1.61786400
124.39999279	0.00000000	28.08194000	1.57480300
124.59999277	0.00000000	27.25147000	1.57480300
124.79999276	0.00000000	26.50098000	1.61786400
124.99999275	0.00000000	25.71358000	1.99311000
125.19999274	0.00000000	25.38755000	2.73745100
125.39999273	0.00000000	25.71358000	3.11269700
125.59999271	0.00000000	26.45792000	3.19881900
125.79999270	0.00000000	26.87623000	3.57406500
125.99999269	0.00000000	27.29453000	4.31840500
126.19999268	0.00000000	28.08194000	4.64443900
126.39999267	0.00000000	28.83243000	4.31840500
126.59999265	0.00000000	29.61983000	3.57406500
126.79999264	0.00000000	29.94586000	3.19881900
126.99999263	0.00000000	29.57062000	3.11269700
127.19999262	0.00000000	28.45718000	2.73745100
127.39999261	0.00000000	27.29453000	1.99311000
127.59999260	0.00000000	26.50098000	1.61786400
127.79999258	0.00000000	25.71358000	1.61786400
127.99999257	0.00000000	25.38755000	1.99311000
128.19999256	0.00000000	25.71358000	2.73745100
128.39999255	0.00000000	26.50098000	3.11269700
128.59999254	0.00000000	27.29453000	3.15575800
128.79999252	0.00000000	28.45718000	3.15575800
128.99999251	0.00000000	29.57062000	3.15575800
129.19999250	0.00000000	29.94586000	3.15575800
129.39999249	0.00000000	29.61983000	3.11269700
129.59999248	0.00000000	28.83243000	2.73745100
129.79999246	0.00000000	28.03888000	1.99311000
129.99999245	0.00000000	26.87623000	1.61786400
130.19999244	0.00000000	25.76279000	1.61786400
130.39999243	0.00000000	25.33834000	1.99311000
130.59999242	0.00000000	25.33834000	2.73745100
130.79999241	0.00000000	25.76279000	3.11269700
130.99999239	0.00000000	26.87623000	3.15575800
131.19999238	0.00000000	28.03888000	3.15575800
131.39999237	0.00000000	28.78937000	3.15575800
131.59999236	0.00000000	29.20152000	3.11269700
131.79999235	0.00000000	28.83243000	2.73745100
131.99999233	0.00000000	28.45718000	1.99311000
132.19999232	0.00000000	28.03888000	1.61786400
132.39999231	0.00000000	27.29453000	1.57480300
132.59999230	0.00000000	26.91929000	1.57480300
132.79999229	0.00000000	26.87623000	1.61786400
132.99999227	0.00000000	26.87623000	1.99311000
133.19999226	0.00000000	26.87623000	2.78051200
133.39999225	0.00000000	26.91929000	3.53100400
133.59999224	0.00000000	27.29453000	4.31840500
133.79999223	0.00000000	27.98966000	4.64443900
133.99999222	0.00000000	27.98966000	4.31840500
134.19999220	0.00000000	27.29453000	3.53100400
134.39999219	0.00000000	26.91929000	2.78051200
134.59999218	0.00000000	26.87623000	1.95004900
134.79999217	0.00000000	26.91929000	1.19955700
134.99999216	0.00000000	27.29453000	0.41830710
135.19999214	0.00000000	28.03888000	0.09227362
135.39999213	0.00000000	28.41412000	0.41830710
135.59999212	0.00000000	28.45718000	1.19955700
135.79999211	0.00000000	28.45718000	1.95004900
135.99999210	0.00000000	28.41412000	2.78051200
136.19999208	0.00000000	28.03888000	3.53100400
136.39999207	0.00000000	27.29453000	4.31840500
136.59999206	0.00000000	26.91929000	4.69365100
136.79999205	0.00000000	26.87623000	4.69365100
136.99999204	0.00000000	26.87623000	4.31840500
137.19999203	0.00000000	26.91929000	3.57406500
137.39999201	0.00000000	27.29453000	3.15575800
137.59999200	0.00000000	28.03888000	2.73745100
137.79999199	0.00000000	28.45718000	1.99311000
137.99999198	0.00000000	28.83243000	1.61786400
138.19999197	0.00000000	29.20152000	1.57480300
138.39999195	0.00000000	28.83243000	1.57480300
138.59999194	0.00000000	28.45718000	1.57480300
138.79999193	0.00000000	27.98966000	1.61786400
138.99999192	0.00000000	26.87623000	2.04232300
139.19999191	0.00000000	25.76279000	3.15575800
139.39999189	0.00000000	25.38755000	4.26919300
139.59999188	0.00000000	25.71358000	4.69365100
139.79999187	0.00000000	26.50098000	4.73671200
139.99999186	0.00000000	27.25147000	4.69365100
140.19999185	0.00000000	28.03888000	4.26919300
140.39999184	0.00000000	28.41412000	3.15575800
140.59999182	0.00000000	28.45718000	2.04232300
140.79999181	0.00000000	28.41412000	1.57480300
140.99999180	0.00000000	28.03888000	1.15649600
141.19999179	0.00000000	27.29453000	0.46136810
141.39999178	0.00000000	26.91929000	0.46136810
141.59999176	0.00000000	26.87623000	1.19955700
141.79999175	0.00000000	26.91929000	1.99311000
141.99999174	0.00000000	27.29453000	3.15575800
142.19999173	0.00000000	28.03888000	4.26919300
142.39999172	0.00000000	28.41412000	4.69365100
142.59999170	0.00000000	28.45718000	4.69365100
142.79999169	0.00000000	28.41412000	4.31840500
142.99999168	0.00000000	28.03888000	3.53100400
143.19999167	0.00000000	27.29453000	2.73745100
143.39999166	0.00000000	26.91929000	1.57480300
143.59999165	0.00000000	26.87623000	0.46136810
143.79999163	0.00000000	26.87623000	0.09227362
143.99999162	0.00000000	26.87623000	0.41830710
144.19999161	0.00000000	26.87623000	1.19955700
144.39999160	0.00000000	26.91929000	1.95004900
144.59999159	0.00000000	27.29453000	2.78051200
144.79999157	0.00000000	28.03888000	3.53100400
144.99999156	0.00000000	28.41412000	4.26919300
145.19999155	0.00000000	28.41412000	4.26919300
145.39999154	0.00000000	28.03888000	3.57406500
145.59999153	0.00000000	27.29453000	3.15575800
145.79999151	0.00000000	26.91929000	2.73745100
145.99999150	0.00000000	26.87623000	1.99311000
146.19999149	0.00000000	26.87623000	1.61786400
146.39999148	0.00000000	26.87623000	1.57480300
146.59999147	0.00000000	26.91929000	1.61786400
146.79999146	0.00000000	27.29453000	1.95004900
146.99999144	0.00000000	28.03888000	2.36220500
147.19999143	0.00000000	28.41412000	2.36835600
147.39999142	0.00000000	28.41412000	2.78051200
147.59999141	0.00000000	28.03888000	3.11269700
147.79999140	0.00000000	27.29453000	3.15575800
147.99999138	0.00000000	26.91929000	3.15575800
148.19999137	0.00000000	26.87623000	3.15575800
148.39999136	0.00000000	26.87623000	3.15575800
148.59999135	0.00000000	26.87623000	3.11269700
148.79999134	0.00000000	26.87623000	2.73745100
148.99999132	0.00000000	26.87623000	1.99311000
149.19999131	0.00000000	26.87623000	1.61786400
149.39999130	0.00000000	26.91929000	1.57480300
149.59999129	0.00000000	27.29453000	1.57480300
149.79999128	0.00000000	28.03888000	1.61786400
149.99999127	0.00000000	28.36491000	1.99311000
150.19999125	0.00000000	28.08194000	2.73745100
150.39999124	0.00000000	27.66978000	3.11269700
150.59999123	0.00000000	27.66363000	3.15575800
150.79999122	0.00000000	27.25147000	3.15575800
150.99999121	0.00000000	26.91929000	3.15575800
151.19999119	0.00000000	26.87623000	3.15575800
151.39999118	0.00000000	26.87623000	3.15575800
151.59999117	0.00000000	26.87623000	3.15575800
151.79999116	0.00000000	26.87623000	3.11269700
151.99999115	0.00000000	26.87623000	2.73745100
152.19999113	0.00000000	26.87623000	1.99311000
152.39999112	0.00000000	26.91929000	1.66707700
152.59999111	0.00000000	27.29453000	1.95004900
152.79999110	0.00000000	28.03888000	2.36220500
152.99999109	0.00000000	28.41412000	2.36835600
153.19999108	0.00000000	28.41412000	2.78051200
153.39999106	0.00000000	28.03888000	3.11269700
153.59999105	0.00000000	27.29453000	3.15575800
153.79999104	0.00000000	26.91929000	3.15575800
153.99999103	0.00000000	26.87623000	3.15575800
154.19999102	0.00000000	26.83317000	3.15575800
154.39999100	0.00000000	26.50098000	3.15575800
154.59999099	0.00000000	26.13189000	3.15575800
154.79999098	0.00000000	26.50098000	3.15575800
154.99999097	0.00000000	26.87623000	3.15575800
155.19999096	0.00000000	27.29453000	3.11269700
155.39999094	0.00000000	28.03888000	2.73745100
155.59999093	0.00000000	28.41412000	1.99311000
155.79999092	0.00000000	28.45718000	1.61786400
155.99999091	0.00000000	28.41412000	1.61786400
156.19999090	0.00000000	28.03888000	1.99311000
156.39999089	0.00000000	27.29453000	2.73745100
156.59999087	0.00000000	26.91929000	3.11269700
156.79999086	0.00000000	26.87623000	3.15575800
156.99999085	0.00000000	26.83317000	3.15575800
157.19999084	0.00000000	26.45792000	3.15575800
157.39999083	0.00000000	25.76279000	3.15575800
157.59999081	0.00000000	25.76279000	3.15575800
157.79999080	0.00000000	26.45792000	3.15575800
157.99999079	0.00000000	26.83317000	3.11269700
158.19999078	0.00000000	26.87623000	2.73745100
158.39999077	0.00000000	26.91929000	1.99311000
158.59999075	0.00000000	27.25147000	1.61786400
158.79999074	0.00000000	27.62057000	1.57480300
158.99999073	0.00000000	27.25147000	1.61786400
159.19999072	0.00000000	26.96850000	1.99311000
159.39999071	0.00000000	27.25147000	2.73745100
159.59999070	0.00000000	27.62057000	3.11269700
159.79999068	0.00000000	27.25147000	3.15575800
159.99999067	0.00000000	26.91929000	3.15575800
160.19999066	0.00000000	26.87623000	3.15575800
160.39999065	0.00000000	26.87623000	3.15575800
160.59999064	0.00000000	26.87623000	3.11269700
160.79999062	0.00000000	26.87623000	2.78051200
160.99999061	0.00000000	26.87623000	2.36835600
161.19999060	0.00000000	26.87623000	2.36220500
161.39999059	0.00000000	26.87623000	1.95004900
161.59999058	0.00000000	26.87623000	1.61786400
161.79999056	0.00000000	26.91929000	1.57480300
161.99999055	0.00000000	27.25147000	1.61786400
162.19999054	0.00000000	27.66363000	1.99311000
162.39999053	0.00000000	27.62672000	2.73745100
162.59999052	0.00000000	27.66363000	3.11269700
162.79999051	0.00000000	27.25147000	3.15575800
162.99999049	0.00000000	26.91929000	3.15575800
163.19999048	0.00000000	26.87623000	3.15575800
163.39999047	0.00000000	26.83317000	3.11269700
163.59999046	0.00000000	26.50098000	2.78051200
163.79999045	0.00000000	26.13189000	2.41141700
163.99999043	0.00000000	26.50098000	2.73745100
164.19999042	0.00000000	26.83317000	2.68823800
164.39999041	0.00000000	26.87623000	1.99311000
164.59999040	0.00000000	26.87623000	1.61786400
164.79999039	0.00000000	26.87623000	1.57480300
164.99999037	0.00000000	26.91929000	1.61786400
165.19999036	0.00000000	27.29453000	1.99311000
165.39999035	0.00000000	27.98966000	2.73745100
165.59999034	0.00000000	27.98966000	3.11269700
165.79999033	0.00000000	27.29453000	3.15575800
165.99999032	0.00000000	26.91929000	3.15575800
166.19999030	0.00000000	26.87623000	3.15575800
166.39999029	0.00000000	26.83317000	3.15575800
166.59999028	0.00000000	26.50098000	3.15575800
166.79999027	0.00000000	26.13189000	3.11269700
166.99999026	0.00000000	26.50098000	2.78051200
167.19999024	0.00000000	26.83317000	2.41141700
167.39999023	0.00000000	26.87623000	2.73745100
167.59999022	0.00000000	26.87623000	2.68823800
167.79999021	0.00000000	26.87623000	2.04232300
167.99999020	0.00000000	26.87623000	1.99311000
168.19999018	0.00000000	26.87623000	2.36220500
168.39999017	0.00000000	26.87623000	2.32529500
168.59999016	0.00000000	26.87623000	2.40526600
168.79999015	0.00000000	26.87623000	2.36835600
168.99999014	0.00000000	26.87623000	2.78051200
169.19999013	0.00000000	26.87623000	3.11269700
169.39999011	0.00000000	26.87623000	3.15575800
169.59999010	0.00000000	26.87623000	3.15575800
169.79999009	0.00000000	26.87623000	3.15575800
169.99999008	0.00000000	26.87623000	3.15575800
170.19999007	0.00000000	26.87623000	3.15575800
170.39999005	0.00000000	26.87623000	3.15575800
170.59999004	0.00000000	26.87623000	3.11269700
170.79999003	0.00000000	26.87623000	2.73745100
170.99999002	0.00000000	26.87623000	1.99311000
171.19999001	0.00000000	26.87623000	1.61786400
171.39998999	0.00000000	26.87623000	1.57480300
171.59998998	0.00000000	26.87623000	1.57480300
171.79998997	0.00000000	26.87623000	1.61786400
171.99998996	0.00000000	26.87623000	1.95004900
172.19998995	0.00000000	26.87623000	2.31914400
172.39998994	0.00000000	26.87623000	1.99311000
172.59998992	0.00000000	26.87623000	1.99311000
172.79998991	0.00000000	26.87623000	2.36220500
172.99998990	0.00000000	26.83317000	2.32529500
173.19998989	0.00000000	26.50098000	2.40526600
173.39998988	0.00000000	26.13189000	2.36835600
173.59998986	0.00000000	26.50098000	2.78051200
173.79998985	0.00000000	26.83317000	3.11269700
173.99998984	0.00000000	26.87623000	3.15575800
174.19998983	0.00000000	26.87623000	3.11269700
174.39998982	0.00000000	26.87623000	2.73745100
174.59998980	0.00000000	26.87623000	1.99311000
174.79998979	0.00000000	26.87623000	1.61786400
174.99998978	0.00000000	26.87623000	1.61786400
175.19998977	0.00000000	26.87623000	1.99311000
175.39998976	0.00000000	26.87623000	2.73745100
175.59998975	0.00000000	26.87623000	3.06348400
175.79998973	0.00000000	26.87623000	2.78051200
175.99998972	0.00000000	26.87623000	2.41141700
176.19998971	0.00000000	26.87623000	2.78051200
176.39998970	0.00000000	26.87623000	3.11269700
176.59998969	0.00000000	26.87623000	3.15575800
176.79998967	0.00000000	26.87623000	3.11269700
176.99998966	0.00000000	26.87623000	2.73745100
177.19998965	0.00000000	26.87623000	1.99311000
177.39998964	0.00000000	26.87623000	1.66707700
177.59998963	0.00000000	26.87623000	1.95004900
177.79998961	0.00000000	26.87623000	2.31914400
177.99998960	0.00000000	26.87623000	1.99311000
178.19998959	0.00000000	26.87623000	1.99311000
178.39998958	0.00000000	26.87623000	2.36220500
178.59998957	0.00000000	26.87623000	2.36835600
178.79998956	0.00000000	26.87623000	2.78051200
178.99998954	0.00000000	26.87623000	3.11269700
179.19998953	0.00000000	26.87623000	3.15575800
179.39998952	0.00000000	26.87623000	3.11269700
179.59998951	0.00000000	26.87623000	2.73745100
179.79998950	0.00000000	26.87623000	1.99311000
179.99998948	0.00000000	26.87623000	1.61786400
180.19998947	0.00000000	26.87623000	1.57480300
180.39998946	0.00000000	26.87623000	1.57480300
180.59998945	0.00000000	26.87623000	1.57480300
180.79998944	0.00000000	26.87623000	1.57480300
180.99998942	0.00000000	26.87623000	1.57480300
181.19998941	0.00000000	26.83317000	1.61786400
181.39998940	0.00000000	26.50098000	1.99311000
181.59998939	0.00000000	26.13189000	2.73745100
181.79998938	0.00000000	26.50098000	3.11269700
181.99998937	0.00000000	26.78395000	3.15575800
182.19998935	0.00000000	26.50098000	3.15575800
182.39998934	0.00000000	26.13189000	3.15575800
182.59998933	0.00000000	26.50098000	3.11269700
182.79998932	0.00000000	26.83317000	2.73745100
182.99998931	0.00000000	26.87623000	1.99311000
183.19998929	0.00000000	26.87623000	1.61786400
183.39998928	0.00000000	26.87623000	1.57480300
183.59998927	0.00000000	26.87623000	1.57480300
183.79998926	0.00000000	26.87623000	1.57480300
183.99998925	0.00000000	26.87623000	1.61786400
184.19998923	0.00000000	26.87623000	1.99311000
184.39998922	0.00000000	26.87623000	2.73745100
184.59998921	0.00000000	26.87623000	3.11269700
184.79998920	0.00000000	26.87623000	3.15575800
184.99998919	0.00000000	26.87623000	3.15575800
185.19998918	0.00000000	26.87623000	3.15575800
185.39998916	0.00000000	26.87623000	3.11269700
185.59998915	0.00000000	26.87623000	2.78051200
185.79998914	0.00000000	26.87623000	2.36835600
185.99998913	0.00000000	26.87623000	2.36220500
186.19998912	0.00000000	26.87623000	1.95004900
186.39998910	0.00000000	26.87623000	1.61786400
186.59998909	0.00000000	26.87623000	1.57480300
186.79998908	0.00000000	26.87623000	1.57480300
186.99998907	0.00000000	26.87623000	1.61786400
187.19998906	0.00000000	26.83317000	1.99311000
187.39998904	0.00000000	26.50098000	2.73745100
187.59998903	0.00000000	26.13189000	3.11269700
187.79998902	0.00000000	26.50098000	3.15575800
187.99998901	0.00000000	26.83317000	3.11269700
188.19998900	0.00000000	26.87623000	2.82357300
188.39998899	0.00000000	26.87623000	2.74360200
188.59998897	0.00000000	26.87623000	3.10039400
188.79998896	0.00000000	26.87623000	2.32529500
188.99998895	0.00000000	26.87623000	1.66707700
189.19998894	0.00000000	26.87623000	1.57480300
189.39998893	0.00000000	26.87623000	1.57480300
189.59998891	0.00000000	26.87623000	1.57480300
189.79998890	0.00000000	26.87623000	1.57480300
189.99998889	0.00000000	26.83317000	1.61786400
190.19998888	0.00000000	26.45792000	1.99311000
190.39998887	0.00000000	25.71358000	2.73745100
190.59998885	0.00000000	25.33834000	3.11269700
190.79998884	0.00000000	25.33834000	3.15575800
190.99998883	0.00000000	25.71358000	3.15575800
191.19998882	0.00000000	26.45792000	3.15575800
191.39998881	0.00000000	26.83317000	3.15575800
191.59998880	0.00000000	26.87623000	3.11269700
191.79998878	0.00000000	26.87623000	2.73745100
191.99998877	0.00000000	26.87623000	1.99311000
192.19998876	0.00000000	26.87623000	1.61786400
192.39998875	0.00000000	26.83317000	1.57480300
192.59998874	0.00000000	26.45792000	1.57480300
192.79998872	0.00000000	25.71358000	1.57480300
192.99998871	0.00000000	25.33834000	1.57480300
193.19998870	0.00000000	25.29527000	1.57480300
193.39998869	0.00000000	25.29527000	1.61786400
193.59998868	0.00000000	25.29527000	1.99311000
193.79998866	0.00000000	25.33834000	2.73745100
193.99998865	0.00000000	25.71358000	3.11269700
194.19998864	0.00000000	26.45792000	3.15575800
194.39998863	0.00000000	26.83317000	3.15575800
194.59998862	0.00000000	26.87623000	3.15575800
194.79998861	0.00000000	26.87623000	3.15575800
194.99998859	0.00000000	26.87623000	3.11269700
195.19998858	0.00000000	26.87623000	2.78051200
195.39998857	0.00000000	26.83317000	2.36835600
195.59998856	0.00000000	26.45792000	2.36220500
195.79998855	0.00000000	25.71358000	1.95004900
195.99998853	0.00000000	25.33834000	1.61786400
