Time	Channel A	Channel B	Channel C
(us)	(V)	(mV)	(mV)

-4.59999956	0.00000000	-31.61909000	-9.47342500
-4.39999957	0.00000000	-31.61909000	-9.47342500
-4.19999958	0.00000000	-31.61909000	-9.47342500
-3.99999959	0.00000000	-31.61909000	-9.47342500
-3.79999960	0.00000000	-31.61909000	-9.47342500
-3.59999962	0.00000000	-31.61909000	-9.47342500
-3.39999963	0.00000000	-31.61909000	-9.47342500
-3.19999964	0.00000000	-31.61909000	-9.47342500
-2.99999965	0.00000000	-31.61909000	-9.47342500
-2.79999966	0.00000000	-31.61909000	-9.47342500
-2.59999968	0.00000000	-31.61909000	-9.47342500
-2.39999969	0.00000000	-31.61909000	-9.47342500
-2.19999970	0.00000000	-31.61909000	-9.47342500
-1.99999971	0.00000000	-31.61909000	-9.47342500
-1.79999972	0.00000000	-31.61909000	-9.47342500
-1.59999973	0.00000000	-31.61909000	-9.47342500
-1.39999975	0.00000000	-31.61909000	-9.47342500
-1.19999976	0.00000000	-31.61909000	-9.47342500
-0.99999977	0.00000000	-31.61909000	-9.47342500
-0.79999978	0.00000000	-31.61909000	-9.47342500
-0.59999979	0.00000000	-31.61909000	-9.47342500
-0.39999981	0.15871060	-31.61909000	-9.47342500
-0.19999982	0.47736220	-31.61909000	-9.47342500
0.00000017	0.79601380	-31.61909000	-9.47342500
0.20000016	0.95533960	-31.61909000	-9.47342500
0.40000015	0.95533960	-31.61909000	-9.47342500
0.60000013	0.63668800	-31.61909000	-9.47342500
0.80000012	0.00000000	-31.61909000	-9.47342500
1.00000011	-0.95533960	-31.61909000	-9.47342500
1.20000010	-1.91129400	-31.61909000	-9.47342500
1.40000009	-2.70792300	-31.61909000	-9.47342500
1.60000008	-2.70792300	-31.61909000	-9.47342500
1.80000006	-2.07062000	-31.61909000	-9.47342500
2.00000005	-0.47736220	-31.61909000	-9.47342500
2.20000004	1.59264300	-31.61909000	-9.47342500
2.40000003	3.66326300	-31.61909000	-9.47342500
2.60000002	5.09719500	-31.61909000	-9.47342500
2.80000000	5.25652100	-31.61909000	-9.51648500
2.99999999	4.14124000	-31.61909000	-9.89173200
3.19999998	1.59264300	-31.61909000	-10.58686000
3.39999997	-1.75196900	-31.61909000	-10.58686000
3.59999996	-4.93786900	-31.61909000	-9.89173200
3.79999994	-7.32714100	-31.57603000	-9.47342500
3.99999993	-7.96444400	-31.24384000	-9.05511800
4.19999992	-6.53112700	-30.87475000	-8.31077700
4.39999991	-3.34522600	-31.24384000	-7.93553100
4.59999990	0.95533960	-31.57603000	-7.93553100
4.79999989	5.25652100	-31.61909000	-8.31077700
4.99999987	8.44242100	-31.61909000	-9.05511800
5.19999986	9.55770200	-31.61909000	-9.47342500
5.39999985	8.12377000	-31.61909000	-9.89173200
5.59999984	4.77854300	-31.61909000	-10.58686000
5.79999983	0.15871060	-31.61909000	-10.58686000
5.99999981	-4.61921700	-31.61909000	-9.89173200
6.19999980	-8.12377000	-31.61909000	-9.51648500
6.39999979	-9.39837600	-31.61909000	-9.43036400
6.59999978	-8.60174700	-31.61909000	-9.05511800
6.79999977	-5.57517200	-31.57603000	-8.35998900
6.99999975	-1.27399100	-31.24384000	-8.35998900
7.19999974	3.02657500	-30.87475000	-9.05511800
7.39999973	6.21247500	-31.24384000	-9.43036400
7.59999972	7.64579200	-31.57603000	-9.47342500
7.79999971	7.16781500	-31.61909000	-9.47342500
7.99999970	5.09719500	-31.61909000	-9.47342500
8.19999968	1.75196900	-31.57603000	-9.47342500
8.39999967	-1.43331700	-31.24384000	-9.47342500
8.59999966	-3.82258900	-30.83169000	-9.47342500
8.79999965	-5.09719500	-30.86860000	-9.47342500
8.99999964	-4.93786900	-30.83169000	-9.47342500
9.19999962	-3.66326300	-31.20078000	-9.47342500
9.39999961	-1.75196900	-31.20078000	-9.47342500
9.59999960	0.15871060	-30.87475000	-9.47342500
9.79999959	1.75196900	-31.24384000	-9.47342500
9.99999958	2.38927200	-31.57603000	-9.47342500
10.19999956	2.38927200	-31.61909000	-9.47342500
10.39999955	1.91129400	-31.61909000	-9.47342500
10.59999954	0.95533960	-31.61909000	-9.47342500
10.79999953	0.15871060	-31.61909000	-9.47342500
10.99999952	-0.47736220	-31.57603000	-9.47342500
11.19999951	-0.79601380	-31.24384000	-9.47342500
11.39999949	-0.95533960	-30.87475000	-9.47342500
11.59999948	-0.79601380	-31.24384000	-9.47342500
11.79999947	-0.63668800	-31.57603000	-9.47342500
11.99999946	-0.31803640	-31.61909000	-9.47342500
12.19999945	-0.15871060	-31.61909000	-9.47342500
12.39999943	-0.15871060	-31.61909000	-9.47342500
12.59999942	0.00000000	-31.61909000	-9.47342500
12.79999941	0.00000000	-31.61909000	-9.47342500
12.99999940	0.00000000	-31.61909000	-9.47342500
13.19999939	0.15871060	-31.61909000	-9.47342500
13.39999937	0.00000000	-31.61909000	-9.47342500
13.59999936	0.00000000	-31.61909000	-9.47342500
13.79999935	0.00000000	-31.61909000	-9.47342500
13.99999934	-0.15871060	-31.57603000	-9.47342500
14.19999933	-0.15871060	-31.24384000	-9.47342500
14.39999932	-0.15871060	-30.87475000	-9.47342500
14.59999930	-0.15871060	-31.24384000	-9.47342500
14.79999929	0.00000000	-31.57603000	-9.47342500
14.99999928	0.00000000	-31.61909000	-9.47342500
15.19999927	0.00000000	-31.61909000	-9.47342500
15.39999926	0.00000000	-31.61909000	-9.47342500
15.59999924	0.00000000	-31.61909000	-9.47342500
15.79999923	0.00000000	-31.57603000	-9.47342500
15.99999922	0.00000000	-31.24384000	-9.47342500
16.19999921	0.00000000	-30.87475000	-9.47342500
16.39999920	0.00000000	-31.20078000	-9.47342500
16.59999919	-0.15871060	-31.15157000	-9.47342500
16.79999917	-0.15871060	-30.45644000	-9.47342500
16.99999916	0.00000000	-30.03814000	-9.47342500
17.19999915	0.00000000	-29.61983000	-9.47342500
17.39999914	0.00000000	-28.87549000	-9.47342500
17.59999913	0.00000000	-28.54946000	-9.47342500
17.79999911	0.00000000	-28.92470000	-9.47342500
17.99999910	0.00000000	-30.08120000	-9.47342500
18.19999909	0.00000000	-31.61909000	-9.47342500
18.39999908	0.00000000	-33.20005000	-9.47342500
18.59999907	0.00000000	-34.73794000	-9.47342500
18.79999905	0.00000000	-35.90059000	-9.47342500
18.99999904	0.00000000	-36.23277000	-9.47342500
19.19999903	0.00000000	-35.43922000	-9.47342500
19.39999902	0.00000000	-33.06471000	-9.47342500
19.59999901	0.00000000	-29.61983000	-9.47342500
19.79999900	0.00000000	-25.76279000	-9.47342500
19.99999898	0.00000000	-22.64394000	-9.47342500
20.19999897	0.00000000	-20.68774000	-9.47342500
20.39999896	0.00000000	-20.03568000	-9.47342500
20.59999895	0.00000000	-22.03494000	-9.47342500
20.79999894	0.00000000	-27.05462000	-9.47342500
20.99999892	0.00000000	-33.66756000	-9.47342500
21.19999891	0.00000000	-41.06176000	-9.47342500
21.39999890	0.00000000	-47.90846000	-9.47342500
21.59999889	0.00000000	-51.72244000	-9.47342500
21.79999888	0.00000000	-50.84276000	-9.47342500
21.99999886	0.00000000	-45.02337000	-9.47342500
22.19999885	0.00000000	-34.51648000	-9.47342500
22.39999884	0.00000000	-21.80733000	-9.47342500
22.59999883	0.00000000	-9.47957600	-9.47342500
22.79999882	0.00000000	-1.01501000	-9.47342500
22.99999881	0.00000000	1.23031500	-9.47342500
23.19999879	0.00000000	-3.47564000	-9.43036400
23.39999878	0.00000000	-15.56348000	-9.00590400
23.59999877	0.00000000	-32.50492000	-7.89247000
23.79999876	0.00000000	-50.64591000	-6.82209600
23.99999875	0.00000000	-65.26205000	-6.77903500
24.19999873	0.00000000	-72.61318000	-7.56028500
24.39999872	0.00000000	-70.94611000	-8.68602300
24.59999871	0.00000000	-59.67642000	-10.25467000
24.79999870	0.00000000	-40.37278000	-11.42347000
24.99999869	0.00000000	-17.99336000	-12.62918000
25.19999867	0.00000000	2.47908400	-13.74262000
25.39999866	0.00000000	16.29552000	-14.11786000
25.59999865	0.00000000	19.36516000	-13.65650000
25.79999864	0.00000000	10.85753000	-11.70029000
25.99999863	0.00000000	-7.33882900	-8.26771600
26.19999862	0.00000000	-31.61909000	-4.73671200
26.39999860	0.00000000	-55.90551000	-1.24877000
26.59999859	0.00000000	-74.10802000	1.76550200
26.79999858	0.00000000	-82.61565000	2.46678100
26.99999857	0.00000000	-79.50295000	0.51673230
27.19999856	0.00000000	-65.21899000	-4.17691900
27.39999854	0.00000000	-43.20866000	-11.09744000
27.59999853	0.00000000	-18.50394000	-18.43627000
27.79999852	0.00000000	3.13115100	-24.61860000
27.99999851	0.00000000	16.67077000	-28.42643000
28.19999850	0.00000000	19.41437000	-28.34030000
28.39999848	0.00000000	10.94365000	-23.64665000
28.59999847	0.00000000	-6.36072800	-14.72687000
28.79999846	0.00000000	-27.99582000	-3.15575800
28.99999845	0.00000000	-48.93578000	8.36614100
29.19999844	0.00000000	-65.17593000	16.86762000
29.39999843	0.00000000	-73.31446000	20.30635000
29.59999841	0.00000000	-71.49975000	17.93799000
29.79999840	0.00000000	-61.49114000	9.34424200
29.99999839	0.00000000	-46.03838000	-4.17691900
30.19999838	0.00000000	-28.22958000	-19.97416000
30.39999837	0.00000000	-12.35851000	-34.19045000
30.59999835	0.00000000	-1.05807100	-43.11023000
30.79999834	0.00000000	3.59867100	-45.01722000
30.99999833	0.00000000	0.94119090	-39.57923000
31.19999832	0.00000000	-7.94168200	-27.17766000
31.39999831	0.00000000	-21.06299000	-10.58686000
31.59999829	0.00000000	-35.34695000	6.83439900
31.79999828	0.00000000	-47.35482000	21.46899000
31.99999827	0.00000000	-54.79207000	29.92126000
32.19999826	0.00000000	-56.74828000	29.97047000
32.39999825	0.00000000	-53.30339000	21.88730000
32.59999824	0.00000000	-45.20792000	7.94783400
32.79999822	0.00000000	-34.78716000	-9.47342500
32.99999821	0.00000000	-24.31717000	-26.85162000
33.19999820	0.00000000	-15.76033000	-40.32357000
33.39999819	0.00000000	-10.77756000	-46.96727000
33.59999818	0.00000000	-10.36540000	-45.43553000
33.79999816	0.00000000	-14.96063000	-36.92790000
33.99999815	0.00000000	-22.60088000	-22.61934000
34.19999814	0.00000000	-31.10851000	-5.66560000
34.39999813	0.00000000	-38.46580000	9.80561000
34.59999812	0.00000000	-43.11638000	21.05069000
34.79999810	0.00000000	-44.32209000	25.65207000
34.99999809	0.00000000	-42.00295000	22.58243000
35.19999808	0.00000000	-37.02018000	12.59227000
35.39999807	0.00000000	-30.50566000	-1.66707700
35.59999806	0.00000000	-24.73548000	-16.71998000
35.79999805	0.00000000	-21.19833000	-29.45374000
35.99999803	0.00000000	-20.07874000	-36.79257000
36.19999802	0.00000000	-21.99188000	-37.21087000
36.39999801	0.00000000	-26.54404000	-31.07775000
36.59999800	0.00000000	-31.53297000	-19.97416000
36.79999799	0.00000000	-35.81446000	-7.28961600
36.99999797	0.00000000	-38.50886000	3.53715500
37.19999796	0.00000000	-38.88410000	10.50689000
37.39999795	0.00000000	-36.97096000	11.99557000
37.59999794	0.00000000	-33.11393000	7.43725300
37.79999793	0.00000000	-28.50024000	-1.71013800
37.99999791	0.00000000	-24.26796000	-12.03248000
38.19999790	0.00000000	-21.57357000	-20.52780000
38.39999789	0.00000000	-21.14911000	-25.13533000
38.59999788	0.00000000	-22.68701000	-24.71703000
38.79999787	0.00000000	-25.80585000	-19.00221000
38.99999786	0.00000000	-30.03814000	-9.84867000
39.19999784	0.00000000	-34.31963000	-0.68897630
39.39999783	0.00000000	-37.81373000	5.85629900
39.59999782	0.00000000	-40.08981000	7.76328700
39.79999781	0.00000000	-40.08981000	4.69980300
39.99999780	0.00000000	-37.81373000	-2.59596400
40.19999778	0.00000000	-34.31963000	-12.16781000
40.39999777	0.00000000	-29.99508000	-20.99532000
40.59999776	0.00000000	-25.43061000	-26.75935000
40.79999775	0.00000000	-21.94882000	-27.87278000
40.99999774	0.00000000	-20.73080000	-23.64665000
41.19999772	0.00000000	-21.06299000	-15.23130000
41.39999771	0.00000000	-22.64394000	-5.24729300
41.59999770	0.00000000	-25.38755000	3.58021600
41.79999769	0.00000000	-28.87549000	8.96899500
41.99999768	0.00000000	-32.78174000	9.38730200
42.19999767	0.00000000	-36.23277000	5.20423200
42.39999765	0.00000000	-38.55807000	-2.08538400
42.59999764	0.00000000	-38.93332000	-10.58686000
42.79999763	0.00000000	-37.43848000	-18.25787000
42.99999762	0.00000000	-34.73794000	-23.27141000
43.19999761	0.00000000	-31.66830000	-24.10802000
43.39999759	0.00000000	-28.92470000	-21.46284000
43.59999758	0.00000000	-26.96850000	-16.43701000
43.79999757	0.00000000	-25.76279000	-9.89173200
43.99999756	0.00000000	-25.38755000	-3.75861200
44.19999755	0.00000000	-25.76279000	0.51673230
44.39999753	0.00000000	-26.87623000	2.09153500
44.59999752	0.00000000	-27.98966000	0.97810030
44.79999751	0.00000000	-28.41412000	-2.08538400
44.99999750	0.00000000	-28.45718000	-6.26845500
45.19999749	0.00000000	-28.50024000	-10.16855000
45.39999748	0.00000000	-28.96776000	-12.91215000
45.59999746	0.00000000	-30.50566000	-14.85605000
45.79999745	0.00000000	-32.82480000	-15.18824000
45.99999744	0.00000000	-35.16240000	-13.69956000
46.19999743	0.00000000	-37.48154000	-11.04823000
46.39999742	0.00000000	-38.97638000	-8.35383800
46.59999740	0.00000000	-38.88410000	-6.36072800
46.79999739	0.00000000	-36.50959000	-4.82283400
46.99999738	0.00000000	-31.48376000	-4.08464600
47.19999737	0.00000000	-25.33834000	-4.82283400
47.39999736	0.00000000	-19.52510000	-6.36072800
47.59999734	0.00000000	-15.33587000	-8.35383800
47.79999733	0.00000000	-14.22244000	-11.00517000
47.99999732	0.00000000	-16.96604000	-13.28125000
48.19999731	0.00000000	-23.15453000	-14.07480000
48.39999730	0.00000000	-31.61909000	-13.74262000
48.59999729	0.00000000	-40.08981000	-12.53691000
48.79999727	0.00000000	-46.27829000	-10.53765000
48.99999726	0.00000000	-48.93578000	-7.47416300
49.19999725	0.00000000	-46.97957000	-4.03543200
49.39999724	0.00000000	-40.42199000	-1.75319900
49.59999723	0.00000000	-31.20078000	-0.97194880
49.79999721	0.00000000	-21.57357000	-2.17765700
49.99999720	0.00000000	-14.22244000	-5.19808000
50.19999719	0.00000000	-10.77756000	-9.05511800
50.39999718	0.00000000	-11.94636000	-12.53691000
50.59999717	0.00000000	-18.07948000	-15.27436000
50.79999715	0.00000000	-26.87623000	-16.76919000
50.99999714	0.00000000	-35.81446000	-16.39395000
51.19999713	0.00000000	-43.11638000	-14.07480000
51.39999712	0.00000000	-46.97957000	-10.58686000
51.59999711	0.00000000	-46.19217000	-6.35457700
51.79999710	0.00000000	-41.20940000	-2.50369100
51.99999708	0.00000000	-33.15699000	-0.17839570
52.19999707	0.00000000	-24.68627000	0.55979330
52.39999706	0.00000000	-18.12254000	-0.97194880
52.59999705	0.00000000	-14.73302000	-4.40452700
52.79999704	0.00000000	-16.22170000	-8.26771600
52.99999702	0.00000000	-21.89345000	-12.16166000
53.19999701	0.00000000	-28.83243000	-15.18824000
53.39999700	0.00000000	-35.81446000	-16.34473000
53.59999699	0.00000000	-41.16019000	-15.23130000
53.79999698	0.00000000	-43.07332000	-12.58612000
53.99999696	0.00000000	-41.16019000	-9.51648500
54.19999695	0.00000000	-35.81446000	-6.82209600
54.39999694	0.00000000	-28.92470000	-5.24729300
54.59999693	0.00000000	-22.77928000	-4.87204700
54.79999692	0.00000000	-18.87303000	-5.61638700
54.99999691	0.00000000	-18.12254000	-7.51722400
55.19999689	0.00000000	-20.41092000	-9.38115100
55.39999688	0.00000000	-25.38755000	-10.53765000
55.59999687	0.00000000	-31.15772000	-10.53765000
55.79999686	0.00000000	-36.18971000	-9.42421200
55.99999685	0.00000000	-39.62844000	-7.89247000
56.19999683	0.00000000	-40.00369000	-6.36072800
56.39999682	0.00000000	-37.39542000	-5.24729300
56.59999681	0.00000000	-33.15699000	-5.29035400
56.79999680	0.00000000	-28.50024000	-6.82209600
56.99999679	0.00000000	-24.26796000	-9.51648500
57.19999677	0.00000000	-21.57357000	-12.58612000
57.39999676	0.00000000	-21.19833000	-15.23130000
57.59999675	0.00000000	-23.06225000	-16.34473000
57.79999674	0.00000000	-26.50098000	-15.14518000
57.99999673	0.00000000	-29.99508000	-11.70029000
58.19999672	0.00000000	-33.11393000	-6.68676100
58.39999670	0.00000000	-35.39001000	-1.71013800
58.59999669	0.00000000	-35.81446000	2.09768700
58.79999668	0.00000000	-34.69488000	3.25418300
58.99999667	0.00000000	-32.78174000	1.31028500
59.19999666	0.00000000	-30.45644000	-2.92199800
59.39999664	0.00000000	-28.54946000	-9.14124000
59.59999663	0.00000000	-27.34375000	-15.60654000
59.79999662	0.00000000	-26.96850000	-20.62008000
59.99999661	0.00000000	-27.34375000	-22.52707000
60.19999660	0.00000000	-28.45718000	-20.99532000
60.39999658	0.00000000	-29.61983000	-16.35089000
60.59999657	0.00000000	-30.37032000	-9.42421200
60.79999656	0.00000000	-30.78248000	-2.12844500
60.99999655	0.00000000	-30.37032000	3.67249000
61.19999654	0.00000000	-29.66289000	6.74212600
61.39999653	0.00000000	-28.87549000	6.32381900
61.59999651	0.00000000	-28.50024000	2.04847400
61.79999650	0.00000000	-28.50024000	-5.20423200
61.99999649	0.00000000	-28.87549000	-13.28125000
62.19999648	0.00000000	-29.66289000	-19.83883000
62.39999647	0.00000000	-30.41338000	-23.73892000
62.59999645	0.00000000	-31.20078000	-24.10802000
62.79999644	0.00000000	-31.52682000	-20.99532000
62.99999643	0.00000000	-31.20078000	-14.85605000
63.19999642	0.00000000	-30.41338000	-7.14812900
63.39999641	0.00000000	-29.61983000	-0.22145670
63.59999639	0.00000000	-28.45718000	4.82898600
63.79999638	0.00000000	-27.34375000	6.73597400
63.99999637	0.00000000	-26.96850000	5.24729300
64.19999636	0.00000000	-27.34375000	1.02116100
64.39999635	0.00000000	-28.50024000	-4.82898600
64.59999634	0.00000000	-30.03814000	-11.38041000
64.79999632	0.00000000	-31.52682000	-17.50738000
64.99999631	0.00000000	-32.31422000	-20.99532000
65.19999630	0.00000000	-31.95128000	-21.46284000
65.39999629	0.00000000	-31.20078000	-19.54970000
65.59999628	0.00000000	-30.03814000	-15.64960000
65.79999626	0.00000000	-28.87549000	-10.67298000
65.99999625	0.00000000	-28.12500000	-5.61638700
66.19999624	0.00000000	-27.76206000	-1.75935000
66.39999623	0.00000000	-28.54946000	0.64591530
66.59999622	0.00000000	-29.99508000	1.39640700
66.79999620	0.00000000	-31.20078000	0.64591530
66.99999619	0.00000000	-31.90207000	-1.66707700
67.19999618	0.00000000	-31.93898000	-4.73671200
67.39999617	0.00000000	-30.78863000	-7.89247000
67.59999616	0.00000000	-29.61983000	-11.00517000
67.79999615	0.00000000	-27.98966000	-13.74262000
67.99999613	0.00000000	-25.76279000	-15.69882000
68.19999612	0.00000000	-24.22490000	-16.85531000
68.39999611	0.00000000	-23.84965000	-16.81225000
68.59999610	0.00000000	-24.68627000	-15.27436000
68.79999609	0.00000000	-27.42987000	-12.53691000
68.99999607	0.00000000	-31.61909000	-9.05511800
69.19999606	0.00000000	-35.81446000	-5.15501900
69.39999605	0.00000000	-38.50886000	-1.66707700
69.59999604	0.00000000	-38.93332000	1.02116100
69.79999603	0.00000000	-37.35236000	2.13459600
69.99999601	0.00000000	-33.85827000	0.97810030
70.19999600	0.00000000	-28.83243000	-2.12844500
70.39999599	0.00000000	-23.84965000	-6.77903500
70.59999598	0.00000000	-19.94340000	-12.16166000
70.79999597	0.00000000	-18.07948000	-16.76919000
70.99999596	0.00000000	-18.82997000	-19.50664000
71.19999594	0.00000000	-22.31176000	-19.88189000
71.39999593	0.00000000	-27.29453000	-17.97490000
71.59999592	0.00000000	-32.78174000	-14.07480000
71.79999591	0.00000000	-37.77067000	-9.09817800
71.99999590	0.00000000	-41.25246000	-4.08464600
72.19999588	0.00000000	-42.00295000	-0.64591530
72.39999587	0.00000000	-40.08981000	0.60285430
72.59999586	0.00000000	-35.81446000	-0.17839570
72.79999585	0.00000000	-30.03814000	-2.46063000
72.99999584	0.00000000	-24.26796000	-5.93626900
73.19999582	0.00000000	-19.99262000	-9.33809000
73.39999581	0.00000000	-18.03642000	-11.70029000
73.59999580	0.00000000	-18.45472000	-12.49385000
73.79999579	0.00000000	-21.48130000	-12.16166000
73.99999578	0.00000000	-26.08268000	-11.00517000
74.19999577	0.00000000	-30.37032000	-9.51648500
74.39999575	0.00000000	-34.31963000	-8.35998900
74.59999574	0.00000000	-37.35236000	-7.98474400
74.79999573	0.00000000	-38.50886000	-8.35998900
74.99999572	0.00000000	-37.39542000	-9.47342500
75.19999571	0.00000000	-34.69488000	-10.53765000
75.39999569	0.00000000	-31.24384000	-10.53765000
75.59999568	0.00000000	-27.76206000	-9.42421200
75.79999567	0.00000000	-25.43061000	-7.84940900
75.99999566	0.00000000	-24.22490000	-5.89320800
76.19999565	0.00000000	-24.26796000	-3.61712600
76.39999563	0.00000000	-25.71358000	-2.12844500
76.59999562	0.00000000	-27.62057000	-2.12844500
76.79999561	0.00000000	-28.78937000	-3.70939900
76.99999560	0.00000000	-29.61983000	-6.82209600
77.19999559	0.00000000	-29.99508000	-11.04823000
77.39999558	0.00000000	-30.03814000	-15.23130000
77.59999556	0.00000000	-30.03814000	-17.92569000
77.79999555	0.00000000	-30.03814000	-18.35015000
77.99999554	0.00000000	-30.08120000	-16.76919000
78.19999553	0.00000000	-30.45644000	-13.28125000
78.39999552	0.00000000	-31.20078000	-8.26771600
78.59999550	0.00000000	-31.57603000	-3.29109200
78.79999549	0.00000000	-31.52682000	0.60285430
78.99999548	0.00000000	-30.73326000	2.50984200
79.19999547	0.00000000	-28.83243000	2.14074800
79.39999546	0.00000000	-26.91929000	-0.59670270
79.59999544	0.00000000	-25.33834000	-5.15501900
79.79999543	0.00000000	-24.22490000	-10.16855000
79.99999542	0.00000000	-24.22490000	-14.07480000
80.19999541	0.00000000	-25.43061000	-16.81225000
80.39999540	0.00000000	-27.71284000	-17.97490000
80.59999539	0.00000000	-30.78248000	-17.18750000
80.79999537	0.00000000	-33.06471000	-14.90526000
80.99999536	0.00000000	-34.27657000	-11.42347000
81.19999535	0.00000000	-34.27657000	-7.93553100
81.39999534	0.00000000	-33.11393000	-4.77977300
81.59999533	0.00000000	-31.15157000	-2.08538400
81.79999531	0.00000000	-28.50024000	-0.55364170
81.99999530	0.00000000	-26.18110000	-0.51058070
82.19999529	0.00000000	-25.01230000	-1.66707700
82.39999528	0.00000000	-24.60015000	-3.61712600
82.59999527	0.00000000	-25.38755000	-6.36072800
82.79999525	0.00000000	-26.91929000	-9.42421200
82.99999524	0.00000000	-28.87549000	-12.16781000
83.19999523	0.00000000	-31.10851000	-14.11786000
83.39999522	0.00000000	-32.27116000	-15.27436000
83.59999521	0.00000000	-31.99434000	-15.27436000
83.79999520	0.00000000	-31.61909000	-14.11786000
83.99999518	0.00000000	-31.15157000	-12.16781000
84.19999517	0.00000000	-30.03814000	-9.38115100
84.39999516	0.00000000	-28.92470000	-5.93626900
84.59999515	0.00000000	-28.50024000	-2.46063000
84.79999514	0.00000000	-28.45718000	-0.17839570
84.99999512	0.00000000	-28.45718000	0.60285430
85.19999511	0.00000000	-28.45718000	-0.59670270
85.39999510	0.00000000	-28.45718000	-3.66633800
85.59999509	0.00000000	-28.45718000	-7.89247000
85.79999508	0.00000000	-28.45718000	-12.16166000
85.99999506	0.00000000	-28.45718000	-15.64960000
86.19999505	0.00000000	-28.45718000	-17.92569000
86.39999504	0.00000000	-28.50024000	-17.92569000
86.59999503	0.00000000	-28.87549000	-15.60654000
86.79999502	0.00000000	-29.66289000	-11.74336000
86.99999501	0.00000000	-30.41338000	-6.72982200
87.19999499	0.00000000	-31.20078000	-2.17765700
87.39999498	0.00000000	-31.52682000	0.55979330
87.59999497	0.00000000	-31.15157000	0.97810030
87.79999496	0.00000000	-29.99508000	-0.55364170
87.99999495	0.00000000	-28.45718000	-3.70939900
88.19999493	0.00000000	-26.91929000	-8.31077700
88.39999492	0.00000000	-25.80585000	-13.28125000
88.59999491	0.00000000	-25.76279000	-16.72613000
88.79999490	0.00000000	-26.50098000	-17.88263000
88.99999489	0.00000000	-27.29453000	-16.35089000
89.19999487	0.00000000	-28.50024000	-12.53691000
89.39999486	0.00000000	-29.99508000	-7.89247000
89.59999485	0.00000000	-31.15157000	-3.24803100
89.79999484	0.00000000	-31.52682000	0.51673230
89.99999483	0.00000000	-31.15157000	1.67322800
90.19999482	0.00000000	-30.03814000	-0.22760820
90.39999480	0.00000000	-28.92470000	-4.04158400
90.59999479	0.00000000	-28.45718000	-9.05511800
90.79999478	0.00000000	-28.08194000	-13.65650000
90.99999477	0.00000000	-27.71284000	-16.76919000
91.19999476	0.00000000	-28.08194000	-17.88263000
91.39999474	0.00000000	-28.41412000	-16.30167000
91.59999473	0.00000000	-28.45718000	-12.11860000
91.79999472	0.00000000	-28.45718000	-6.77903500
91.99999471	0.00000000	-28.45718000	-2.17765700
92.19999470	0.00000000	-28.41412000	0.55979330
92.39999468	0.00000000	-28.08194000	0.93503930
92.59999467	0.00000000	-27.76206000	-0.97194880
92.79999466	0.00000000	-28.50024000	-4.82898600
92.99999465	0.00000000	-29.61983000	-9.43036400
93.19999464	0.00000000	-30.41338000	-13.65650000
93.39999463	0.00000000	-31.20078000	-16.35089000
93.59999461	0.00000000	-31.48376000	-16.71998000
93.79999460	0.00000000	-30.78248000	-14.81299000
93.99999459	0.00000000	-29.20767000	-10.95595000
94.19999458	0.00000000	-27.66363000	-6.40378900
94.39999457	0.00000000	-25.71358000	-2.54675200
94.59999455	0.00000000	-24.18184000	-0.63976370
94.79999454	0.00000000	-23.38214000	-0.97194880
94.99999453	0.00000000	-23.06225000	-3.29109200
95.19999452	0.00000000	-24.26796000	-6.72982200
95.39999451	0.00000000	-26.91929000	-10.58686000
95.59999449	0.00000000	-30.03814000	-13.65650000
95.79999448	0.00000000	-33.11393000	-15.18824000
95.99999447	0.00000000	-35.43922000	-14.81299000
96.19999446	0.00000000	-36.14050000	-12.49385000
96.39999445	0.00000000	-35.06397000	-9.09817800
96.59999444	0.00000000	-32.32653000	-5.66560000
96.79999442	0.00000000	-29.24459000	-3.70939900
96.99999441	0.00000000	-25.67052000	-3.24803100
97.19999440	0.00000000	-22.26870000	-3.66633800
97.39999439	0.00000000	-19.99262000	-5.19808000
97.59999438	0.00000000	-19.99262000	-7.47416300
97.79999436	0.00000000	-22.26870000	-9.42421200
97.99999435	0.00000000	-25.71358000	-10.96211000
98.19999434	0.00000000	-29.61983000	-11.70029000
98.39999433	0.00000000	-33.11393000	-11.00517000
98.59999432	0.00000000	-35.85752000	-9.89173200
98.79999430	0.00000000	-37.35236000	-9.09817800
98.99999429	0.00000000	-36.97712000	-8.26771600
99.19999428	0.00000000	-34.65182000	-7.56028500
99.39999427	0.00000000	-31.20078000	-7.10506800
99.59999426	0.00000000	-27.29453000	-7.09891700
99.79999425	0.00000000	-23.84965000	-6.68676100
99.99999423	0.00000000	-21.48130000	-6.35457700
100.19999422	0.00000000	-20.73080000	-6.31151500
100.39999421	0.00000000	-21.48130000	-6.31151500
100.59999420	0.00000000	-23.80659000	-6.35457700
100.79999419	0.00000000	-26.87623000	-6.77903500
100.99999417	0.00000000	-29.99508000	-7.93553100
101.19999416	0.00000000	-32.68946000	-9.47342500
101.39999415	0.00000000	-34.27657000	-11.00517000
101.59999414	0.00000000	-34.69488000	-12.16166000
101.79999413	0.00000000	-34.27657000	-12.53691000
101.99999411	0.00000000	-32.73868000	-12.11860000
102.19999410	0.00000000	-30.41338000	-10.53765000
102.39999409	0.00000000	-28.12500000	-7.84940900
102.59999408	0.00000000	-26.13189000	-4.82283400
102.79999407	0.00000000	-24.96309000	-2.50369100
102.99999406	0.00000000	-24.18184000	-1.71013800
103.19999404	0.00000000	-24.22490000	-2.08538400
103.39999403	0.00000000	-25.38755000	-3.66633800
103.59999402	0.00000000	-27.29453000	-6.36072800
103.79999401	0.00000000	-29.57062000	-9.42421200
103.99999400	0.00000000	-31.15157000	-12.16781000
104.19999398	0.00000000	-31.95128000	-14.03174000
104.39999397	0.00000000	-32.31422000	-14.43775000
104.59999396	0.00000000	-31.52682000	-12.86909000
104.79999395	0.00000000	-30.03814000	-10.25467000
104.99999394	0.00000000	-28.50024000	-7.14812900
105.19999392	0.00000000	-27.29453000	-4.82283400
105.39999391	0.00000000	-26.54404000	-3.24803100
105.59999390	0.00000000	-26.13189000	-2.54675200
105.79999389	0.00000000	-26.54404000	-3.66633800
105.99999388	0.00000000	-27.29453000	-5.93626900
106.19999387	0.00000000	-28.45718000	-8.26771600
106.39999385	0.00000000	-29.57062000	-10.58686000
106.59999384	0.00000000	-29.99508000	-12.07554000
106.79999383	0.00000000	-29.99508000	-12.11860000
106.99999382	0.00000000	-29.61983000	-10.96211000
107.19999381	0.00000000	-28.83243000	-9.05511800
107.39999379	0.00000000	-28.08194000	-6.77903500
107.59999378	0.00000000	-27.29453000	-5.24729300
107.79999377	0.00000000	-26.91929000	-4.82898600
107.99999376	0.00000000	-26.91929000	-5.19808000
108.19999375	0.00000000	-27.34375000	-6.36072800
108.39999374	0.00000000	-28.45718000	-7.89247000
108.59999372	0.00000000	-29.61983000	-9.42421200
108.79999371	0.00000000	-30.37032000	-10.58686000
108.99999370	0.00000000	-30.78248000	-10.95595000
109.19999369	0.00000000	-30.37032000	-10.58686000
109.39999368	0.00000000	-29.61983000	-9.42421200
109.59999366	0.00000000	-28.45718000	-7.89247000
109.79999365	0.00000000	-27.29453000	-6.36072800
109.99999364	0.00000000	-26.54404000	-5.19808000
110.19999363	0.00000000	-26.13189000	-4.82898600
110.39999362	0.00000000	-26.54404000	-5.19808000
110.59999360	0.00000000	-27.25147000	-6.36072800
110.79999359	0.00000000	-28.08194000	-7.89247000
110.99999358	0.00000000	-28.83243000	-9.42421200
111.19999357	0.00000000	-29.61983000	-10.58686000
111.39999356	0.00000000	-29.99508000	-11.00517000
111.59999355	0.00000000	-29.99508000	-11.00517000
111.79999353	0.00000000	-29.61983000	-10.58686000
111.99999352	0.00000000	-28.83243000	-9.42421200
112.19999351	0.00000000	-28.08194000	-7.93553100
112.39999350	0.00000000	-27.29453000	-6.77903500
112.59999349	0.00000000	-26.91929000	-6.35457700
112.79999347	0.00000000	-26.91929000	-6.31151500
112.99999346	0.00000000	-27.29453000	-6.31151500
113.19999345	0.00000000	-28.03888000	-6.35457700
113.39999344	0.00000000	-28.41412000	-6.72982200
113.59999343	0.00000000	-28.45718000	-7.47416300
113.79999341	0.00000000	-28.45718000	-7.84940900
113.99999340	0.00000000	-28.45718000	-7.93553100
114.19999339	0.00000000	-28.45718000	-8.31077700
114.39999338	0.00000000	-28.45718000	-9.05511800
114.59999337	0.00000000	-28.45718000	-9.43036400
114.79999336	0.00000000	-28.45718000	-9.47342500
114.99999334	0.00000000	-28.45718000	-9.47342500
115.19999333	0.00000000	-28.41412000	-9.43036400
115.39999332	0.00000000	-28.03888000	-9.05511800
115.59999331	0.00000000	-27.34375000	-8.26771600
115.79999330	0.00000000	-27.34375000	-7.51722400
115.99999328	0.00000000	-28.03888000	-6.72982200
116.19999327	0.00000000	-28.41412000	-6.31151500
116.39999326	0.00000000	-28.45718000	-5.93626900
116.59999325	0.00000000	-28.45718000	-5.57332700
116.79999324	0.00000000	-28.45718000	-5.93626900
116.99999322	0.00000000	-28.45718000	-6.31151500
117.19999321	0.00000000	-28.45718000	-6.77903500
117.39999320	0.00000000	-28.41412000	-7.89247000
117.59999319	0.00000000	-27.98966000	-9.00590400
117.79999318	0.00000000	-26.87623000	-9.43036400
117.99999317	0.00000000	-25.80585000	-9.47342500
118.19999315	0.00000000	-25.76279000	-9.43036400
118.39999314	0.00000000	-26.50098000	-9.00590400
118.59999313	0.00000000	-27.29453000	-7.89247000
118.79999312	0.00000000	-28.45718000	-6.77903500
118.99999311	0.00000000	-29.57062000	-6.35457700
119.19999309	0.00000000	-29.99508000	-6.31151500
119.39999308	0.00000000	-30.03814000	-6.31151500
119.59999307	0.00000000	-29.99508000	-6.31151500
119.79999306	0.00000000	-29.61983000	-6.35457700
119.99999305	0.00000000	-28.78937000	-6.72982200
120.19999303	0.00000000	-27.66363000	-7.51722400
120.39999302	0.00000000	-26.13189000	-8.26771600
120.59999301	0.00000000	-25.38755000	-9.05511800
120.79999300	0.00000000	-25.33834000	-9.43036400
120.99999299	0.00000000	-25.76279000	-9.47342500
121.19999298	0.00000000	-26.87623000	-9.43036400
121.39999296	0.00000000	-28.03888000	-9.05511800
121.59999295	0.00000000	-28.87549000	-8.31077700
121.79999294	0.00000000	-30.03814000	-7.93553100
121.99999293	0.00000000	-31.10851000	-7.89247000
122.19999292	0.00000000	-31.15157000	-7.84940900
122.39999290	0.00000000	-30.41338000	-7.47416300
122.59999289	0.00000000	-29.61983000	-6.72982200
122.79999288	0.00000000	-28.45718000	-6.35457700
122.99999287	0.00000000	-27.29453000	-6.35457700
123.19999286	0.00000000	-26.50098000	-6.72982200
123.39999284	0.00000000	-25.71358000	-7.47416300
123.59999283	0.00000000	-25.33834000	-7.84940900
123.79999282	0.00000000	-25.33834000	-7.93553100
123.99999281	0.00000000	-25.71358000	-8.31077700
124.19999280	0.00000000	-26.50098000	-9.05511800
124.39999279	0.00000000	-27.29453000	-9.38115100
124.59999277	0.00000000	-28.45718000	-9.05511800
124.79999276	0.00000000	-29.57062000	-8.31077700
124.99999275	0.00000000	-29.99508000	-7.93553100
125.19999274	0.00000000	-30.03814000	-7.84940900
125.39999273	0.00000000	-29.99508000	-7.47416300
125.59999271	0.00000000	-29.57062000	-6.72982200
125.79999270	0.00000000	-28.45718000	-6.35457700
125.99999269	0.00000000	-27.29453000	-6.31151500
126.19999268	0.00000000	-26.50098000	-6.35457700
126.39999267	0.00000000	-25.71358000	-6.72982200
126.59999265	0.00000000	-25.38755000	-7.47416300
126.79999264	0.00000000	-25.71358000	-7.89247000
126.99999263	0.00000000	-26.50098000	-8.31077700
127.19999262	0.00000000	-27.29453000	-9.00590400
127.39999261	0.00000000	-28.45718000	-9.05511800
127.59999260	0.00000000	-29.57062000	-8.68602300
127.79999258	0.00000000	-29.99508000	-8.67987200
127.99999257	0.00000000	-29.99508000	-8.26771600
128.19999256	0.00000000	-29.57062000	-7.89247000
128.39999255	0.00000000	-28.45718000	-7.47416300
128.59999254	0.00000000	-27.29453000	-6.72982200
128.79999252	0.00000000	-26.50098000	-6.35457700
128.99999251	0.00000000	-25.71358000	-6.35457700
129.19999250	0.00000000	-25.38755000	-6.72982200
129.39999249	0.00000000	-25.76279000	-7.47416300
129.59999248	0.00000000	-26.87623000	-7.84940900
129.79999246	0.00000000	-28.03888000	-7.89247000
129.99999245	0.00000000	-28.83243000	-7.89247000
130.19999244	0.00000000	-29.61983000	-7.89247000
130.39999243	0.00000000	-29.94586000	-7.89247000
130.59999242	0.00000000	-29.61983000	-7.89247000
130.79999241	0.00000000	-28.83243000	-7.84940900
130.99999239	0.00000000	-28.08194000	-7.51722400
131.19999238	0.00000000	-27.25147000	-7.10506800
131.39999237	0.00000000	-26.50098000	-7.14197800
131.59999236	0.00000000	-25.76279000	-7.10506800
131.79999235	0.00000000	-25.76279000	-7.56028500
131.99999233	0.00000000	-26.50098000	-8.26771600
132.19999232	0.00000000	-27.25147000	-9.05511800
132.39999231	0.00000000	-28.03888000	-9.38115100
132.59999230	0.00000000	-28.41412000	-9.05511800
132.79999229	0.00000000	-28.45718000	-8.31077700
132.99999227	0.00000000	-28.45718000	-7.89247000
133.19999226	0.00000000	-28.45718000	-7.47416300
133.39999225	0.00000000	-28.45718000	-6.72982200
133.59999224	0.00000000	-28.45718000	-6.35457700
133.79999223	0.00000000	-28.45718000	-6.35457700
133.99999222	0.00000000	-28.45718000	-6.72982200
134.19999220	0.00000000	-28.45718000	-7.47416300
134.39999219	0.00000000	-28.41412000	-7.89247000
134.59999218	0.00000000	-28.03888000	-8.31077700
134.79999217	0.00000000	-27.29453000	-9.05511800
134.99999216	0.00000000	-26.91929000	-9.43036400
135.19999214	0.00000000	-26.87623000	-9.43036400
135.39999213	0.00000000	-26.87623000	-9.05511800
135.59999212	0.00000000	-26.91929000	-8.31077700
135.79999211	0.00000000	-27.29453000	-7.89247000
135.99999210	0.00000000	-28.03888000	-7.47416300
136.19999208	0.00000000	-28.45718000	-6.72982200
136.39999207	0.00000000	-28.83243000	-6.35457700
136.59999206	0.00000000	-29.20152000	-6.31151500
136.79999205	0.00000000	-28.83243000	-6.35457700
136.99999204	0.00000000	-28.45718000	-6.72982200
137.19999203	0.00000000	-28.03888000	-7.51722400
137.39999201	0.00000000	-27.25147000	-8.26771600
137.59999200	0.00000000	-26.54404000	-9.05511800
137.79999199	0.00000000	-26.13189000	-9.43036400
137.99999198	0.00000000	-26.50098000	-9.47342500
138.19999197	0.00000000	-26.87623000	-9.43036400
138.39999195	0.00000000	-27.29453000	-9.05511800
138.59999194	0.00000000	-28.03888000	-8.31077700
138.79999193	0.00000000	-28.41412000	-7.89247000
138.99999192	0.00000000	-28.45718000	-7.47416300
139.19999191	0.00000000	-28.45718000	-6.72982200
139.39999189	0.00000000	-28.41412000	-6.35457700
139.59999188	0.00000000	-28.03888000	-6.31151500
139.79999187	0.00000000	-27.29453000	-6.35457700
139.99999186	0.00000000	-26.91929000	-6.72982200
140.19999185	0.00000000	-26.87623000	-7.47416300
140.39999184	0.00000000	-26.87623000	-7.89247000
140.59999182	0.00000000	-26.91929000	-8.31077700
140.79999181	0.00000000	-27.29453000	-9.05511800
140.99999180	0.00000000	-28.03888000	-9.43036400
141.19999179	0.00000000	-28.41412000	-9.43036400
141.39999178	0.00000000	-28.45718000	-9.05511800
141.59999176	0.00000000	-28.41412000	-8.26771600
141.79999175	0.00000000	-28.08194000	-7.51722400
141.99999174	0.00000000	-27.66978000	-6.72982200
142.19999173	0.00000000	-27.66363000	-6.35457700
142.39999172	0.00000000	-27.25147000	-6.31151500
142.59999170	0.00000000	-26.91929000	-6.35457700
142.79999169	0.00000000	-26.87623000	-6.72982200
142.99999168	0.00000000	-26.91929000	-7.51722400
143.19999167	0.00000000	-27.25147000	-8.26771600
143.39999166	0.00000000	-27.66363000	-9.05511800
143.59999165	0.00000000	-27.66978000	-9.43036400
143.79999163	0.00000000	-28.03888000	-9.43036400
143.99999162	0.00000000	-27.98966000	-9.05511800
144.19999161	0.00000000	-27.29453000	-8.26771600
144.39999160	0.00000000	-26.91929000	-7.51722400
144.59999159	0.00000000	-26.87623000	-6.72982200
144.79999157	0.00000000	-26.87623000	-6.35457700
144.99999156	0.00000000	-26.87623000	-6.31151500
145.19999155	0.00000000	-26.87623000	-6.31151500
145.39999154	0.00000000	-26.87623000	-6.35457700
145.59999153	0.00000000	-26.91929000	-6.72982200
145.79999151	0.00000000	-27.29453000	-7.51722400
145.99999150	0.00000000	-27.98966000	-8.26771600
146.19999149	0.00000000	-27.98966000	-9.00590400
146.39999148	0.00000000	-27.29453000	-9.05511800
146.59999147	0.00000000	-26.91929000	-8.68602300
146.79999146	0.00000000	-26.87623000	-8.67987200
146.99999144	0.00000000	-26.87623000	-8.26771600
147.19999143	0.00000000	-26.87623000	-7.89247000
147.39999142	0.00000000	-26.87623000	-7.47416300
147.59999141	0.00000000	-26.87623000	-6.72982200
147.79999140	0.00000000	-26.91929000	-6.35457700
147.99999138	0.00000000	-27.29453000	-6.31151500
148.19999137	0.00000000	-28.03888000	-6.35457700
148.39999136	0.00000000	-28.41412000	-6.72982200
148.59999135	0.00000000	-28.45718000	-7.47416300
148.79999134	0.00000000	-28.45718000	-7.84940900
148.99999132	0.00000000	-28.41412000	-7.89247000
149.19999131	0.00000000	-28.03888000	-7.89247000
149.39999130	0.00000000	-27.29453000	-7.89247000
149.59999129	0.00000000	-26.91929000	-7.89247000
149.79999128	0.00000000	-26.87623000	-7.89247000
149.99999127	0.00000000	-26.87623000	-7.84940900
150.19999125	0.00000000	-26.87623000	-7.47416300
150.39999124	0.00000000	-26.87623000	-6.72982200
150.59999123	0.00000000	-26.87623000	-6.35457700
150.79999122	0.00000000	-26.91929000	-6.35457700
150.99999121	0.00000000	-27.29453000	-6.72982200
151.19999119	0.00000000	-28.03888000	-7.47416300
151.39999118	0.00000000	-28.36491000	-7.84940900
151.59999117	0.00000000	-28.03888000	-7.89247000
151.79999116	0.00000000	-27.29453000	-7.89247000
151.99999115	0.00000000	-26.91929000	-7.89247000
152.19999113	0.00000000	-26.87623000	-7.89247000
152.39999112	0.00000000	-26.83317000	-7.89247000
152.59999111	0.00000000	-26.50098000	-7.89247000
152.79999110	0.00000000	-26.13189000	-7.89247000
152.99999109	0.00000000	-26.50098000	-7.84940900
153.19999108	0.00000000	-26.83317000	-7.47416300
153.39999106	0.00000000	-26.87623000	-6.72982200
153.59999105	0.00000000	-26.91929000	-6.35457700
153.79999104	0.00000000	-27.29453000	-6.31151500
153.99999103	0.00000000	-28.03888000	-6.31151500
154.19999102	0.00000000	-28.41412000	-6.31151500
154.39999100	0.00000000	-28.41412000	-6.35457700
154.59999099	0.00000000	-28.03888000	-6.72982200
154.79999098	0.00000000	-27.29453000	-7.47416300
154.99999097	0.00000000	-26.91929000	-7.84940900
155.19999096	0.00000000	-26.83317000	-7.89247000
155.39999094	0.00000000	-26.50098000	-7.89247000
155.59999093	0.00000000	-26.08883000	-7.89247000
155.79999092	0.00000000	-26.08268000	-7.89247000
155.99999091	0.00000000	-25.71358000	-7.89247000
156.19999090	0.00000000	-25.76279000	-7.84940900
156.39999089	0.00000000	-26.50098000	-7.47416300
156.59999087	0.00000000	-27.25147000	-6.72982200
156.79999086	0.00000000	-28.03888000	-6.35457700
156.99999085	0.00000000	-28.41412000	-6.31151500
157.19999084	0.00000000	-28.45718000	-6.31151500
157.39999083	0.00000000	-28.41412000	-6.31151500
157.59999081	0.00000000	-28.03888000	-6.35457700
157.79999080	0.00000000	-27.25147000	-6.72982200
157.99999079	0.00000000	-26.54404000	-7.47416300
158.19999078	0.00000000	-26.13189000	-7.84940900
158.39999077	0.00000000	-26.50098000	-7.89247000
158.59999075	0.00000000	-26.83317000	-7.89247000
158.79999074	0.00000000	-26.87623000	-7.84940900
158.99999073	0.00000000	-26.87623000	-7.47416300
159.19999072	0.00000000	-26.87623000	-6.72982200
159.39999071	0.00000000	-26.87623000	-6.35457700
159.59999070	0.00000000	-26.87623000	-6.31151500
159.79999068	0.00000000	-26.87623000	-6.31151500
159.99999067	0.00000000	-26.87623000	-6.31151500
160.19999066	0.00000000	-26.91929000	-6.35457700
160.39999065	0.00000000	-27.25147000	-6.72982200
160.59999064	0.00000000	-27.62057000	-7.47416300
160.79999062	0.00000000	-27.25147000	-7.84940900
160.99999061	0.00000000	-26.91929000	-7.89247000
161.19999060	0.00000000	-26.83317000	-7.89247000
161.39999059	0.00000000	-26.50098000	-7.89247000
161.59999058	0.00000000	-26.13189000	-7.84940900
161.79999056	0.00000000	-26.50098000	-7.47416300
161.99999055	0.00000000	-26.83317000	-6.77903500
162.19999054	0.00000000	-26.87623000	-6.72982200
162.39999053	0.00000000	-26.87623000	-7.05585600
162.59999052	0.00000000	-26.87623000	-6.68676100
162.79999051	0.00000000	-26.87623000	-6.40378900
162.99999049	0.00000000	-26.87623000	-6.68676100
163.19999048	0.00000000	-26.91929000	-7.09891700
163.39999047	0.00000000	-27.29453000	-7.10506800
163.59999046	0.00000000	-28.03888000	-7.51722400
163.79999045	0.00000000	-28.36491000	-7.84940900
163.99999043	0.00000000	-28.03888000	-7.89247000
164.19999042	0.00000000	-27.25147000	-7.89247000
164.39999041	0.00000000	-26.50098000	-7.89247000
164.59999040	0.00000000	-25.76279000	-7.89247000
164.79999039	0.00000000	-25.71358000	-7.89247000
164.99999037	0.00000000	-26.08268000	-7.89247000
165.19999036	0.00000000	-26.08883000	-7.89247000
165.39999035	0.00000000	-26.50098000	-7.89247000
165.59999034	0.00000000	-26.83317000	-7.89247000
165.79999033	0.00000000	-26.87623000	-7.89247000
165.99999032	0.00000000	-26.87623000	-7.84940900
166.19999030	0.00000000	-26.87623000	-7.47416300
166.39999029	0.00000000	-26.87623000	-6.72982200
166.59999028	0.00000000	-26.87623000	-6.40378900
166.79999027	0.00000000	-26.87623000	-6.72982200
166.99999026	0.00000000	-26.87623000	-7.47416300
167.19999024	0.00000000	-26.87623000	-7.84940900
167.39999023	0.00000000	-26.87623000	-7.89247000
167.59999022	0.00000000	-26.87623000	-7.89247000
167.79999021	0.00000000	-26.83317000	-7.89247000
167.99999020	0.00000000	-26.45792000	-7.89247000
168.19999018	0.00000000	-25.76279000	-7.89247000
168.39999017	0.00000000	-25.76279000	-7.84940900
168.59999016	0.00000000	-26.45792000	-7.51722400
168.79999015	0.00000000	-26.83317000	-7.14812900
168.99999014	0.00000000	-26.87623000	-7.51722400
169.19999013	0.00000000	-26.87623000	-7.84940900
169.39999011	0.00000000	-26.87623000	-7.89247000
169.59999010	0.00000000	-26.87623000	-7.89247000
169.79999009	0.00000000	-26.87623000	-7.89247000
169.99999008	0.00000000	-26.87623000	-7.89247000
170.19999007	0.00000000	-26.87623000	-7.89247000
170.39999005	0.00000000	-26.87623000	-7.89247000
170.59999004	0.00000000	-26.87623000	-7.89247000
170.79999003	0.00000000	-26.87623000	-7.89247000
170.99999002	0.00000000	-26.87623000	-7.89247000
171.19999001	0.00000000	-26.87623000	-7.89247000
171.39998999	0.00000000	-26.87623000	-7.89247000
171.59998998	0.00000000	-26.87623000	-7.89247000
171.79998997	0.00000000	-26.87623000	-7.84940900
171.99998996	0.00000000	-26.83317000	-7.47416300
172.19998995	0.00000000	-26.50098000	-6.77903500
172.39998994	0.00000000	-26.13189000	-6.77903500
172.59998992	0.00000000	-26.50098000	-7.47416300
172.79998991	0.00000000	-26.83317000	-7.80019600
172.99998990	0.00000000	-26.87623000	-7.51722400
173.19998989	0.00000000	-26.87623000	-7.14812900
173.39998988	0.00000000	-26.87623000	-7.51722400
173.59998986	0.00000000	-26.87623000	-7.84940900
173.79998985	0.00000000	-26.87623000	-7.84940900
173.99998984	0.00000000	-26.87623000	-7.51722400
174.19998983	0.00000000	-26.87623000	-7.10506800
174.39998982	0.00000000	-26.87623000	-7.14197800
174.59998980	0.00000000	-26.87623000	-7.10506800
174.79998979	0.00000000	-26.87623000	-7.51722400
174.99998978	0.00000000	-26.87623000	-7.84940900
175.19998977	0.00000000	-26.87623000	-7.89247000
175.39998976	0.00000000	-26.87623000	-7.89247000
175.59998975	0.00000000	-26.87623000	-7.89247000
175.79998973	0.00000000	-26.87623000	-7.89247000
175.99998972	0.00000000	-26.87623000	-7.84940900
176.19998971	0.00000000	-26.87623000	-7.51722400
176.39998970	0.00000000	-26.87623000	-7.10506800
176.59998969	0.00000000	-26.87623000	-7.14197800
176.79998967	0.00000000	-26.87623000	-7.10506800
176.99998966	0.00000000	-26.87623000	-7.51722400
177.19998965	0.00000000	-26.87623000	-7.84940900
177.39998964	0.00000000	-26.87623000	-7.89247000
177.59998963	0.00000000	-26.87623000	-7.89247000
177.79998961	0.00000000	-26.87623000	-7.89247000
177.99998960	0.00000000	-26.87623000	-7.89247000
178.19998959	0.00000000	-26.87623000	-7.84940900
178.39998958	0.00000000	-26.87623000	-7.47416300
178.59998957	0.00000000	-26.87623000	-6.72982200
178.79998956	0.00000000	-26.83317000	-6.40378900
178.99998954	0.00000000	-26.50098000	-6.72982200
179.19998953	0.00000000	-26.13189000	-7.47416300
179.39998952	0.00000000	-26.50098000	-7.84940900
179.59998951	0.00000000	-26.83317000	-7.89247000
179.79998950	0.00000000	-26.87623000	-7.89247000
179.99998948	0.00000000	-26.87623000	-7.89247000
180.19998947	0.00000000	-26.87623000	-7.89247000
180.39998946	0.00000000	-26.87623000	-7.89247000
180.59998945	0.00000000	-26.87623000	-7.89247000
180.79998944	0.00000000	-26.87623000	-7.89247000
180.99998942	0.00000000	-26.87623000	-7.84940900
181.19998941	0.00000000	-26.87623000	-7.47416300
181.39998940	0.00000000	-26.87623000	-6.72982200
181.59998939	0.00000000	-26.87623000	-6.35457700
181.79998938	0.00000000	-26.87623000	-6.35457700
181.99998937	0.00000000	-26.87623000	-6.72982200
182.19998935	0.00000000	-26.87623000	-7.47416300
182.39998934	0.00000000	-26.87623000	-7.84940900
182.59998933	0.00000000	-26.83317000	-7.89247000
182.79998932	0.00000000	-26.45792000	-7.89247000
182.99998931	0.00000000	-25.76279000	-7.89247000
183.19998929	0.00000000	-25.76279000	-7.89247000
183.39998928	0.00000000	-26.45792000	-7.89247000
183.59998927	0.00000000	-26.83317000	-7.89247000
183.79998926	0.00000000	-26.87623000	-7.89247000
183.99998925	0.00000000	-26.87623000	-7.84940900
184.19998923	0.00000000	-26.87623000	-7.47416300
184.39998922	0.00000000	-26.87623000	-6.72982200
184.59998921	0.00000000	-26.87623000	-6.35457700
184.79998920	0.00000000	-26.83317000	-6.31151500
184.99998919	0.00000000	-26.50098000	-6.31151500
185.19998918	0.00000000	-26.13189000	-6.35457700
185.39998916	0.00000000	-26.45792000	-6.72982200
185.59998915	0.00000000	-26.40871000	-7.47416300
185.79998914	0.00000000	-25.76279000	-7.84940900
185.99998913	0.00000000	-25.71358000	-7.89247000
186.19998912	0.00000000	-26.03961000	-7.89247000
186.39998910	0.00000000	-25.71358000	-7.89247000
186.59998909	0.00000000	-25.71358000	-7.89247000
186.79998908	0.00000000	-26.08268000	-7.84940900
186.99998907	0.00000000	-26.08883000	-7.47416300
187.19998906	0.00000000	-26.50098000	-6.72982200
187.39998904	0.00000000	-26.83317000	-6.35457700
187.59998903	0.00000000	-26.83317000	-6.31151500
187.79998902	0.00000000	-26.50098000	-6.31151500
187.99998901	0.00000000	-26.08883000	-6.31151500
188.19998900	0.00000000	-26.08268000	-6.35457700
188.39998899	0.00000000	-25.67052000	-6.72982200
188.59998897	0.00000000	-25.33834000	-7.47416300
188.79998896	0.00000000	-25.33834000	-7.84940900
188.99998895	0.00000000	-25.67052000	-7.89247000
189.19998894	0.00000000	-26.08268000	-7.89247000
189.39998893	0.00000000	-26.08883000	-7.89247000
189.59998891	0.00000000	-26.50098000	-7.89247000
189.79998890	0.00000000	-26.83317000	-7.84940900
189.99998889	0.00000000	-26.87623000	-7.47416300
190.19998888	0.00000000	-26.87623000	-6.72982200
190.39998887	0.00000000	-26.87623000	-6.35457700
190.59998885	0.00000000	-26.83317000	-6.31151500
190.79998884	0.00000000	-26.45792000	-6.31151500
190.99998883	0.00000000	-25.71358000	-6.31151500
191.19998882	0.00000000	-25.38755000	-6.35457700
191.39998881	0.00000000	-25.67052000	-6.72982200
191.59998880	0.00000000	-26.03961000	-7.47416300
191.79998878	0.00000000	-25.67052000	-7.84940900
191.99998877	0.00000000	-25.38755000	-7.89247000
192.19998876	0.00000000	-25.71358000	-7.89247000
192.39998875	0.00000000	-26.40871000	-7.89247000
192.59998874	0.00000000	-26.45792000	-7.89247000
192.79998872	0.00000000	-26.13189000	-7.89247000
192.99998871	0.00000000	-26.50098000	-7.89247000
193.19998870	0.00000000	-26.83317000	-7.84940900
193.39998869	0.00000000	-26.87623000	-7.47416300
193.59998868	0.00000000	-26.83317000	-6.72982200
193.79998866	0.00000000	-26.45792000	-6.35457700
193.99998865	0.00000000	-25.71358000	-6.31151500
194.19998864	0.00000000	-25.33834000	-6.31151500
194.39998863	0.00000000	-25.29527000	-6.31151500
194.59998862	0.00000000	-25.29527000	-6.31151500
194.79998861	0.00000000	-25.29527000	-6.31151500
194.99998859	0.00000000	-25.33834000	-6.35457700
195.19998858	0.00000000	-25.71358000	-6.72982200
195.39998857	0.00000000	-26.45792000	-7.42495000
195.59998856	0.00000000	-26.83317000	-7.47416300
195.79998855	0.00000000	-26.87623000	-7.14812900
195.99998853	0.00000000	-26.87623000	-7.51722400
