Time	Channel A	Channel B	Channel C
(us)	(V)	(mV)	(mV)

-4.49999956	0.00000000	-14.22859000	-1.61786400
-4.29999957	0.00000000	-14.27165000	-1.61786400
-4.09999958	0.00000000	-14.60384000	-1.99311000
-3.89999959	0.00000000	-14.97293000	-2.68823800
-3.69999960	0.00000000	-14.60384000	-2.68823800
-3.49999962	0.00000000	-14.27165000	-2.04232300
-3.29999963	0.00000000	-14.22859000	-1.99311000
-3.09999964	0.00000000	-14.22859000	-2.31914400
-2.89999965	0.00000000	-14.22859000	-1.99311000
-2.69999966	0.00000000	-14.22859000	-1.99311000
-2.49999968	0.00000000	-14.22859000	-2.36220500
-2.29999969	0.00000000	-14.22859000	-2.32529500
-2.09999970	0.00000000	-14.27165000	-2.36220500
-1.89999971	0.00000000	-14.60384000	-1.95004900
-1.69999972	0.00000000	-14.97293000	-1.61786400
-1.49999973	0.00000000	-14.60384000	-1.57480300
-1.29999975	0.00000000	-14.27165000	-1.57480300
-1.09999976	0.00000000	-14.22859000	-1.57480300
-0.89999977	0.00000000	-14.22859000	-1.57480300
-0.69999978	0.00000000	-14.22859000	-1.57480300
-0.49999979	0.00000000	-14.22859000	-1.57480300
-0.29999981	0.31803640	-14.22859000	-1.57480300
-0.09999982	0.63668800	-14.22859000	-1.61786400
0.10000017	0.95533960	-14.22859000	-1.95004900
0.30000016	0.95533960	-14.22859000	-2.31914400
0.50000015	0.79601380	-14.27165000	-1.99311000
0.70000013	0.15871060	-14.64690000	-1.99311000
0.90000012	-0.63668800	-15.34203000	-2.36220500
1.10000011	-1.59264300	-15.34203000	-2.32529500
1.30000010	-2.38927200	-14.64690000	-2.36220500
1.50000009	-2.70792300	-14.27165000	-1.95004900
1.70000008	-2.38927200	-14.22859000	-1.61786400
1.90000006	-1.11466500	-14.22859000	-1.57480300
2.10000005	0.79601380	-14.22859000	-1.57480300
2.30000004	2.86724900	-14.22859000	-1.57480300
2.50000003	4.61921700	-14.22859000	-1.61786400
2.70000002	5.41584600	-14.22859000	-1.99311000
2.90000000	4.61921700	-14.22859000	-2.73745100
3.09999999	2.54859700	-14.22859000	-3.11269700
3.29999998	-0.47736220	-14.27165000	-3.15575800
3.49999997	-3.98191400	-14.60384000	-3.11269700
3.69999996	-6.69045300	-14.97293000	-2.73745100
3.89999994	-7.96444400	-14.60384000	-1.99311000
4.09999993	-7.32714100	-14.27165000	-1.61786400
4.29999992	-4.61921700	-14.22859000	-1.57480300
4.49999991	-0.47736220	-14.22859000	-1.57480300
4.69999990	3.82258900	-14.22859000	-1.57480300
4.89999989	7.48646600	-14.22859000	-1.61786400
5.09999987	9.39837600	-14.22859000	-1.99311000
5.29999986	8.92039900	-14.27165000	-2.73745100
5.49999985	6.05315000	-14.60384000	-3.11269700
5.69999984	1.91129400	-15.01599000	-3.15575800
5.89999983	-2.86724900	-15.02214000	-3.15575800
6.09999981	-7.00848900	-15.39124000	-3.11269700
6.29999980	-9.23905000	-15.34203000	-2.73745100
6.49999979	-9.07972400	-14.64690000	-1.99311000
6.69999978	-6.69045300	-14.27165000	-1.61786400
6.89999977	-2.86724900	-14.22859000	-1.57480300
7.09999975	1.43331700	-14.22859000	-1.57480300
7.29999974	5.25652100	-14.22859000	-1.57480300
7.49999973	7.32714100	-14.22859000	-1.61786400
7.69999972	7.64579200	-14.22859000	-1.99311000
7.89999971	6.05315000	-14.22859000	-2.73745100
8.09999970	3.02657500	-14.27165000	-3.11269700
8.29999968	-0.31803640	-14.60384000	-3.15575800
8.49999967	-3.18590100	-15.01599000	-3.15575800
8.69999966	-4.77854300	-14.97908000	-3.11269700
8.89999965	-5.09719500	-15.01599000	-2.73745100
9.09999964	-4.30056600	-14.60384000	-1.99311000
9.29999962	-2.38927200	-14.27165000	-1.61786400
9.49999961	-0.47736220	-14.22859000	-1.57480300
9.69999960	1.27399100	-14.22859000	-1.57480300
9.89999959	2.22994600	-14.22859000	-1.57480300
10.09999958	2.54859700	-14.22859000	-1.57480300
10.29999956	2.07062000	-14.22859000	-1.57480300
10.49999955	1.27399100	-14.22859000	-1.57480300
10.69999954	0.47736220	-14.22859000	-1.57480300
10.89999953	-0.31803640	-14.22859000	-1.57480300
11.09999952	-0.79601380	-14.22859000	-1.57480300
11.29999951	-0.95533960	-14.22859000	-1.57480300
11.49999949	-0.95533960	-14.22859000	-1.57480300
11.69999948	-0.63668800	-14.22859000	-1.57480300
11.89999947	-0.31803640	-14.22859000	-1.57480300
12.09999946	-0.15871060	-14.22859000	-1.57480300
12.29999945	-0.15871060	-14.22859000	-1.57480300
12.49999943	0.00000000	-14.27165000	-1.57480300
12.69999942	0.00000000	-14.60384000	-1.57480300
12.89999941	0.00000000	-14.97293000	-1.57480300
13.09999940	0.00000000	-14.60384000	-1.57480300
13.29999939	0.00000000	-14.27165000	-1.57480300
13.49999937	0.00000000	-14.22859000	-1.57480300
13.69999936	0.00000000	-14.22859000	-1.57480300
13.89999935	0.00000000	-14.22859000	-1.61786400
14.09999934	-0.15871060	-14.22859000	-1.95004900
14.29999933	-0.15871060	-14.22859000	-2.31914400
14.49999932	-0.15871060	-14.22859000	-1.95004900
14.69999930	0.00000000	-14.22859000	-1.61786400
14.89999929	0.00000000	-14.22859000	-1.57480300
15.09999928	0.00000000	-14.22859000	-1.57480300
15.29999927	0.00000000	-14.22859000	-1.57480300
15.49999926	0.00000000	-14.22859000	-1.61786400
15.69999924	0.00000000	-14.22859000	-1.95004900
15.89999923	0.00000000	-14.22859000	-2.31914400
16.09999922	0.00000000	-14.22859000	-1.95004900
16.29999921	-0.15871060	-14.22859000	-1.61786400
16.49999920	-0.15871060	-14.22859000	-1.57480300
16.69999919	-0.15871060	-14.22859000	-1.57480300
16.89999917	0.00000000	-14.18553000	-1.61786400
17.09999916	0.00000000	-13.81028000	-1.95004900
17.29999915	0.00000000	-13.06594000	-2.31914400
17.49999914	0.00000000	-12.69070000	-1.95004900
17.69999913	0.00000000	-12.69070000	-1.61786400
17.89999911	0.00000000	-13.11516000	-1.57480300
18.09999910	0.00000000	-14.27165000	-1.57480300
18.29999909	0.00000000	-15.80955000	-1.57480300
18.49999908	0.00000000	-17.39050000	-1.57480300
18.69999907	0.00000000	-18.92839000	-1.57480300
18.89999905	0.00000000	-20.04183000	-1.57480300
19.09999904	0.00000000	-19.99877000	-1.57480300
19.29999903	0.00000000	-18.41781000	-1.57480300
19.49999902	0.00000000	-15.29897000	-1.57480300
19.69999901	0.00000000	-11.06668000	-1.61786400
19.89999900	0.00000000	-6.83439900	-1.95004900
20.09999898	0.00000000	-3.75861200	-2.31914400
20.29999897	0.00000000	-2.64517700	-1.95004900
20.49999896	0.00000000	-4.22613100	-1.61786400
20.69999895	0.00000000	-8.55068800	-1.57480300
20.89999894	0.00000000	-15.11442000	-1.57480300
21.09999892	0.00000000	-22.87770000	-1.57480300
21.29999891	0.00000000	-29.76747000	-1.57480300
21.49999890	0.00000000	-34.37500000	-1.57480300
21.69999889	0.00000000	-34.70103000	-1.61786400
21.89999888	0.00000000	-30.37647000	-1.99311000
22.09999886	0.00000000	-21.81348000	-2.68823800
22.29999885	0.00000000	-9.76870100	-2.68823800
22.49999884	0.00000000	2.89124000	-2.04232300
22.69999883	0.00000000	13.26279000	-1.99311000
22.89999882	0.00000000	17.82726000	-2.31914400
23.09999881	0.00000000	15.08366000	-1.90698800
23.29999879	0.00000000	5.35802100	-1.19955700
23.49999878	0.00000000	-10.13164000	-0.41830710
23.69999877	0.00000000	-27.90354000	-0.04306102
23.89999876	0.00000000	-44.14370000	0.00000000
24.09999875	0.00000000	-55.21653000	-0.04306102
24.29999873	0.00000000	-57.40649000	-0.46136810
24.49999872	0.00000000	-48.89272000	-1.62401600
24.69999871	0.00000000	-31.53912000	-3.15575800
24.89999870	0.00000000	-9.52879000	-4.73671200
25.09999869	0.00000000	12.10015000	-6.26845500
25.29999867	0.00000000	28.29109000	-7.38188900
25.49999866	0.00000000	35.27313000	-7.33882900
25.69999865	0.00000000	31.32382000	-5.75787400
25.89999864	0.00000000	16.98450000	-2.69439000
26.09999863	0.00000000	-5.43184000	1.20570900
26.29999862	0.00000000	-30.41954000	5.06274600
26.49999860	0.00000000	-51.72859000	8.50147600
26.69999859	0.00000000	-64.48695000	9.99015700
26.89999858	0.00000000	-66.38779000	8.78444900
27.09999857	0.00000000	-56.29306000	4.87819900
27.29999856	0.00000000	-36.28199000	-1.71013800
27.49999854	0.00000000	-11.62032000	-9.38115100
27.69999853	0.00000000	11.58957000	-16.35089000
27.89999852	0.00000000	28.24803000	-20.95226000
28.09999851	0.00000000	35.22392000	-22.06570000
28.29999850	0.00000000	30.99163000	-18.86688000
28.49999848	0.00000000	16.75689000	-11.10359000
28.69999847	0.00000000	-3.67249000	0.09227362
28.89999846	0.00000000	-25.35064000	11.98942000
29.09999845	0.00000000	-43.54699000	21.64739000
29.29999844	0.00000000	-54.79822000	26.66708000
29.49999843	0.00000000	-56.75443000	26.24877000
29.69999841	0.00000000	-49.49557000	19.93110000
29.89999840	0.00000000	-35.25467000	7.94783400
30.09999839	0.00000000	-17.85802000	-7.47416300
30.29999838	0.00000000	-1.15649600	-22.48400000
30.49999837	0.00000000	12.00787000	-33.67987000
30.69999835	0.00000000	18.98376000	-38.28125000
30.89999834	0.00000000	18.28863000	-35.21161000
31.09999833	0.00000000	11.02977000	-25.13533000
31.29999832	0.00000000	-0.59670270	-10.03322000
31.49999831	0.00000000	-14.13632000	7.33882900
31.69999829	0.00000000	-26.93159000	23.13607000
31.89999828	0.00000000	-36.23893000	33.58760000
32.09999827	0.00000000	-40.52042000	36.70644000
32.29999826	0.00000000	-39.02559000	32.05585000
32.49999825	0.00000000	-32.46801000	20.44168000
32.69999824	0.00000000	-22.78543000	4.18307100
32.89999822	0.00000000	-11.62032000	-13.56422000
33.09999821	0.00000000	-1.95004900	-28.98622000
33.29999820	0.00000000	3.91855300	-38.28125000
33.49999819	0.00000000	5.86860200	-39.86220000
33.69999818	0.00000000	3.16806100	-33.67987000
33.89999816	0.00000000	-3.34030500	-20.95226000
34.09999815	0.00000000	-11.44193000	-4.73671200
34.29999814	0.00000000	-19.58046000	11.52190000
34.49999813	0.00000000	-25.71973000	24.62475000
34.69999812	0.00000000	-28.46333000	31.59449000
34.89999810	0.00000000	-27.34990000	30.85015000
35.09999809	0.00000000	-23.11762000	23.17913000
35.29999808	0.00000000	-16.97219000	10.40846000
35.49999807	0.00000000	-10.45768000	-4.60137700
35.69999806	0.00000000	-5.85014700	-18.49163000
35.89999805	0.00000000	-4.22613100	-27.73745000
36.09999803	0.00000000	-5.38877900	-30.52411000
36.29999802	0.00000000	-8.83366100	-26.66708000
36.49999801	0.00000000	-13.81028000	-17.42126000
36.69999800	0.00000000	-18.41781000	-4.73671200
36.89999799	0.00000000	-21.53666000	7.89862200
37.09999797	0.00000000	-22.74237000	16.73228000
37.29999796	0.00000000	-21.90576000	19.51279000
37.49999795	0.00000000	-19.20522000	16.12328000
37.69999794	0.00000000	-14.56078000	8.45841400
37.89999793	0.00000000	-9.62106200	-1.53174200
38.09999791	0.00000000	-5.76402500	-11.10359000
38.29999790	0.00000000	-4.22613100	-17.24286000
38.49999789	0.00000000	-5.33956700	-18.39936000
38.69999788	0.00000000	-8.41535400	-14.21629000
38.89999787	0.00000000	-12.69070000	-6.17618100
39.09999786	0.00000000	-17.29823000	3.02042300
39.29999784	0.00000000	-21.16142000	11.06053000
39.49999783	0.00000000	-23.16068000	15.19439000
39.69999782	0.00000000	-23.57899000	13.70571000
39.89999781	0.00000000	-22.74237000	7.20349400
40.09999780	0.00000000	-19.99877000	-1.99926200
40.29999778	0.00000000	-15.80955000	-11.61417000
40.49999777	0.00000000	-11.53420000	-18.86688000
40.69999776	0.00000000	-7.99704600	-21.56127000
40.89999775	0.00000000	-5.29650500	-18.86688000
41.09999774	0.00000000	-4.18307100	-11.56496000
41.29999772	0.00000000	-5.29650500	-1.62401600
41.49999771	0.00000000	-7.99704600	7.99089500
41.69999770	0.00000000	-11.48499000	14.54232000
41.89999769	0.00000000	-15.39124000	16.91068000
42.09999768	0.00000000	-18.87918000	14.59153000
42.29999767	0.00000000	-21.57972000	8.45226300
42.49999765	0.00000000	-22.69316000	0.00000000
42.69999764	0.00000000	-21.62278000	-8.45226300
42.89999763	0.00000000	-19.34670000	-14.63459000
43.09999762	0.00000000	-16.97219000	-17.37205000
43.29999761	0.00000000	-14.22859000	-16.21555000
43.49999759	0.00000000	-11.57726000	-11.65723000
43.69999758	0.00000000	-9.99630800	-5.15501900
43.89999757	0.00000000	-9.57800100	1.02116100
44.09999756	0.00000000	-9.95324800	5.71481200
44.29999755	0.00000000	-11.06668000	8.40920300
44.49999753	0.00000000	-12.18012000	8.40920300
44.69999752	0.00000000	-12.55536000	5.75787400
44.89999751	0.00000000	-12.27239000	1.57480300
45.09999750	0.00000000	-11.90330000	-2.64517700
45.29999749	0.00000000	-12.36466000	-5.75787400
45.49999748	0.00000000	-13.53346000	-7.38188900
45.69999746	0.00000000	-15.90182000	-7.80019600
45.89999745	0.00000000	-18.92839000	-7.33882900
46.09999744	0.00000000	-21.62278000	-5.43184000
46.29999743	0.00000000	-23.16068000	-2.41141700
46.49999742	0.00000000	-23.11762000	-0.09227362
46.69999740	0.00000000	-21.11220000	1.53174200
46.89999739	0.00000000	-16.83686000	2.64517700
47.09999738	0.00000000	-11.02362000	2.64517700
47.29999737	0.00000000	-4.87819900	1.48868100
47.49999736	0.00000000	0.09842519	-0.46751960
47.69999734	0.00000000	2.00541300	-3.11269700
47.89999733	0.00000000	0.42445860	-5.43184000
48.09999732	0.00000000	-4.64443900	-6.64370100
48.29999731	0.00000000	-12.73991000	-7.38188900
48.49999730	0.00000000	-21.57972000	-6.92052100
48.69999729	0.00000000	-28.93085000	-4.64443900
48.89999727	0.00000000	-33.12008000	-1.58095500
49.09999726	0.00000000	-32.70177000	1.53174200
49.29999725	0.00000000	-27.34990000	4.18307100
49.49999724	0.00000000	-18.87918000	5.33956700
49.69999723	0.00000000	-9.57800100	4.60137700
49.89999721	0.00000000	-1.06422200	2.64517700
50.09999720	0.00000000	4.61368100	-0.46751960
50.29999719	0.00000000	5.40108300	-4.31840500
50.49999718	0.00000000	0.84891720	-7.75713500
50.69999717	0.00000000	-6.83439900	-10.07628000
50.89999715	0.00000000	-15.76649000	-10.40846000
51.09999714	0.00000000	-24.23105000	-8.54453700
51.29999713	0.00000000	-29.95817000	-5.06274600
51.49999712	0.00000000	-31.11466000	-1.20570900
51.69999711	0.00000000	-27.30069000	2.69439000
51.89999710	0.00000000	-20.04183000	5.71481200
52.09999708	0.00000000	-11.57726000	6.92052100
52.29999707	0.00000000	-4.26919300	6.13312000
52.49999706	0.00000000	0.00615157	3.80782500
52.69999705	0.00000000	0.38139760	-0.04306102
52.89999704	0.00000000	-3.06348400	-4.22613100
53.09999702	0.00000000	-9.57800100	-7.33882900
53.29999701	0.00000000	-16.87992000	-8.91978400
53.49999700	0.00000000	-23.02534000	-8.87672100
53.69999699	0.00000000	-26.46407000	-6.96358300
53.89999698	0.00000000	-25.71973000	-3.57406500
54.09999696	0.00000000	-21.53666000	-0.51058070
54.29999695	0.00000000	-15.39124000	1.48868100
54.49999694	0.00000000	-8.87672100	2.60211600
54.69999693	0.00000000	-4.26919300	2.22687000
54.89999692	0.00000000	-2.68823800	0.37524600
55.09999691	0.00000000	-4.18307100	-1.53174200
55.29999689	0.00000000	-8.04010800	-3.06348400
55.49999688	0.00000000	-13.06594000	-3.80782500
55.69999687	0.00000000	-18.46087000	-3.06348400
55.89999686	0.00000000	-22.65010000	-1.57480300
56.09999685	0.00000000	-24.18799000	0.00000000
56.29999683	0.00000000	-22.69316000	1.43946800
56.49999682	0.00000000	-18.87918000	1.80856300
56.69999681	0.00000000	-14.22859000	0.28297240
56.89999680	0.00000000	-9.62106200	-1.99311000
57.09999679	0.00000000	-6.18233200	-4.73671200
57.29999677	0.00000000	-5.38877900	-7.38188900
57.49999676	0.00000000	-6.83439900	-8.87672100
57.69999675	0.00000000	-9.57800100	-8.50147600
57.89999674	0.00000000	-13.02288000	-6.13312000
58.09999673	0.00000000	-16.50467000	-2.27608300
58.29999672	0.00000000	-18.79306000	2.73745100
58.49999670	0.00000000	-19.62352000	7.24655500
58.69999669	0.00000000	-18.83612000	9.61491000
58.89999668	0.00000000	-16.97219000	9.15969400
59.09999667	0.00000000	-14.64690000	6.08390700
59.29999666	0.00000000	-12.73991000	0.28297240
59.49999664	0.00000000	-11.53420000	-6.17618100
59.69999663	0.00000000	-11.10974000	-11.65723000
59.89999662	0.00000000	-11.10974000	-15.05290000
60.09999661	0.00000000	-11.53420000	-15.42200000
60.29999660	0.00000000	-12.69070000	-11.94021000
60.49999658	0.00000000	-14.18553000	-5.80708600
60.69999657	0.00000000	-15.29897000	1.53174200
60.89999656	0.00000000	-15.34203000	8.45226300
61.09999655	0.00000000	-14.60384000	13.05364000
61.29999654	0.00000000	-13.85334000	14.16708000
61.49999653	0.00000000	-13.06594000	11.10359000
61.69999651	0.00000000	-12.73991000	4.60137700
61.89999650	0.00000000	-13.06594000	-3.11269700
62.09999649	0.00000000	-13.85334000	-10.49459000
62.29999648	0.00000000	-14.60384000	-16.21555000
62.49999647	0.00000000	-15.39124000	-18.53469000
62.69999645	0.00000000	-15.71727000	-16.59080000
62.89999644	0.00000000	-15.39124000	-11.23893000
63.09999643	0.00000000	-14.60384000	-3.53100400
63.29999642	0.00000000	-13.81028000	4.14000900
63.49999641	0.00000000	-12.64764000	9.99015700
63.69999639	0.00000000	-11.53420000	13.10285000
63.89999638	0.00000000	-11.10974000	13.05364000
64.09999637	0.00000000	-11.10974000	9.61491000
64.29999636	0.00000000	-11.53420000	3.43873000
64.49999635	0.00000000	-12.69070000	-3.43873000
64.69999634	0.00000000	-14.22859000	-9.65797200
64.89999632	0.00000000	-15.71727000	-13.52116000
65.09999631	0.00000000	-16.46161000	-14.76993000
65.29999630	0.00000000	-15.76649000	-13.60728000
65.49999629	0.00000000	-14.64690000	-10.49459000
65.69999628	0.00000000	-13.81028000	-5.85014700
65.89999626	0.00000000	-12.64764000	-0.46136810
66.09999625	0.00000000	-11.57726000	4.14000900
66.29999624	0.00000000	-11.57726000	6.92052100
66.49999623	0.00000000	-12.69070000	7.75713500
66.69999622	0.00000000	-14.22859000	7.38188900
66.89999620	0.00000000	-15.76649000	5.80093500
67.09999619	0.00000000	-16.87992000	3.11269700
67.29999618	0.00000000	-16.83686000	0.00000000
67.49999617	0.00000000	-15.34203000	-3.15575800
67.69999616	0.00000000	-13.02288000	-6.26845500
67.89999615	0.00000000	-10.69144000	-8.96284400
68.09999613	0.00000000	-8.41535400	-10.53765000
68.29999612	0.00000000	-7.34498000	-10.91289000
68.49999611	0.00000000	-8.45841400	-10.11934000
68.69999610	0.00000000	-11.15896000	-7.75713500
68.89999609	0.00000000	-14.64690000	-4.26919300
69.09999607	0.00000000	-18.50394000	0.00000000
69.29999606	0.00000000	-21.57972000	4.22613100
69.49999605	0.00000000	-23.11762000	7.33882900
69.69999604	0.00000000	-22.69316000	8.87672100
69.89999603	0.00000000	-19.95571000	8.45226300
70.09999601	0.00000000	-15.34203000	5.71481200
70.29999600	0.00000000	-9.95324800	1.15649600
70.49999599	0.00000000	-5.33956700	-3.90009800
70.69999598	0.00000000	-2.60211600	-8.17544300
70.89999597	0.00000000	-2.22687000	-11.65723000
71.09999596	0.00000000	-4.18307100	-13.14591000
71.29999594	0.00000000	-8.45841400	-12.03248000
71.49999593	0.00000000	-14.22859000	-8.91978400
71.69999592	0.00000000	-19.99877000	-4.31840500
71.89999591	0.00000000	-24.27411000	0.69512790
72.09999590	0.00000000	-26.18725000	4.55831700
72.29999588	0.00000000	-25.39370000	6.92052100
72.49999587	0.00000000	-21.57972000	7.29576700
72.69999586	0.00000000	-16.18479000	5.75787400
72.89999585	0.00000000	-10.73450000	2.69439000
73.09999584	0.00000000	-5.71481200	-1.11343500
73.29999582	0.00000000	-2.64517700	-4.18307100
73.49999581	0.00000000	-2.26993100	-5.80093500
73.69999580	0.00000000	-4.50910400	-6.17618100
73.89999579	0.00000000	-8.77829600	-5.43184000
74.09999578	0.00000000	-13.39813000	-3.57406500
74.29999577	0.00000000	-18.08563000	-2.08538400
74.49999575	0.00000000	-21.48745000	-1.61786400
74.69999574	0.00000000	-22.69316000	-1.61786400
74.89999573	0.00000000	-21.57972000	-2.04232300
75.09999572	0.00000000	-18.92839000	-3.15575800
75.29999571	0.00000000	-15.80955000	-4.22613100
75.49999569	0.00000000	-12.69070000	-4.18307100
75.69999568	0.00000000	-9.99630800	-2.64517700
75.89999567	0.00000000	-8.45841400	0.00000000
76.09999566	0.00000000	-8.41535400	2.64517700
76.29999565	0.00000000	-9.52879000	4.22613100
76.49999563	0.00000000	-11.06668000	4.60137700
76.69999562	0.00000000	-12.60458000	3.76476400
76.89999561	0.00000000	-13.76107000	1.07037400
77.09999560	0.00000000	-14.18553000	-2.78051200
77.29999559	0.00000000	-14.18553000	-6.64370100
77.49999558	0.00000000	-13.85334000	-10.11934000
77.69999556	0.00000000	-13.48425000	-11.98327000
77.89999555	0.00000000	-13.89641000	-11.56496000
78.09999554	0.00000000	-14.60384000	-8.50147600
78.29999553	0.00000000	-15.39124000	-3.53100400
78.49999552	0.00000000	-15.76649000	1.48868100
78.69999550	0.00000000	-15.76649000	5.75787400
78.89999549	0.00000000	-15.34203000	8.45226300
79.09999548	0.00000000	-14.13632000	8.82750900
79.29999547	0.00000000	-12.22933000	6.92052100
79.49999546	0.00000000	-9.95324800	3.06963600
79.69999544	0.00000000	-8.45841400	-1.57480300
79.89999543	0.00000000	-8.45841400	-6.17618100
80.09999542	0.00000000	-9.95324800	-9.70103300
80.29999541	0.00000000	-12.27239000	-11.24508000
80.49999540	0.00000000	-14.60384000	-11.28199000
80.69999539	0.00000000	-16.92298000	-9.29502900
80.89999537	0.00000000	-18.46087000	-5.89320800
81.09999536	0.00000000	-18.83612000	-1.99311000
81.29999535	0.00000000	-18.04257000	1.48868100
81.49999534	0.00000000	-15.76649000	4.22613100
81.69999533	0.00000000	-13.06594000	5.75787400
81.89999531	0.00000000	-10.73450000	5.80093500
82.09999530	0.00000000	-8.79060000	4.68750000
82.29999529	0.00000000	-8.04010800	3.11269700
82.49999528	0.00000000	-8.41535400	1.11343500
82.69999527	0.00000000	-9.95324800	-1.58095500
82.89999525	0.00000000	-12.22933000	-4.26919300
83.09999524	0.00000000	-14.18553000	-6.26845500
83.29999523	0.00000000	-15.71727000	-7.80019600
83.49999522	0.00000000	-16.46161000	-8.54453700
83.69999521	0.00000000	-15.76649000	-7.75713500
83.89999520	0.00000000	-14.64690000	-5.85014700
84.09999518	0.00000000	-13.85334000	-3.11269700
84.29999517	0.00000000	-13.06594000	0.00000000
84.49999516	0.00000000	-12.69070000	3.11269700
84.69999515	0.00000000	-12.64764000	5.80093500
84.89999514	0.00000000	-12.64764000	7.29576700
85.09999512	0.00000000	-12.64764000	6.92052100
85.29999511	0.00000000	-12.64764000	4.55831700
85.49999510	0.00000000	-12.64764000	0.73818890
85.69999509	0.00000000	-12.60458000	-3.90009800
85.89999508	0.00000000	-12.27239000	-7.75713500
86.09999506	0.00000000	-11.90330000	-10.49459000
86.29999505	0.00000000	-12.31545000	-11.56496000
86.49999504	0.00000000	-13.06594000	-10.03322000
86.69999503	0.00000000	-14.22859000	-6.21924200
86.89999502	0.00000000	-15.34203000	-1.62401600
87.09999501	0.00000000	-15.76649000	2.69439000
87.29999499	0.00000000	-15.76649000	6.13312000
87.49999498	0.00000000	-15.34203000	8.03395600
87.69999497	0.00000000	-14.18553000	7.25270600
87.89999496	0.00000000	-12.64764000	4.22613100
88.09999495	0.00000000	-11.10974000	-0.04306102
88.29999493	0.00000000	-9.95324800	-4.69365100
88.49999492	0.00000000	-9.57800100	-8.87672100
88.69999491	0.00000000	-9.99630800	-11.14665000
88.89999490	0.00000000	-11.48499000	-10.40846000
89.09999489	0.00000000	-13.39198000	-7.33882900
89.29999487	0.00000000	-14.56078000	-2.73745100
89.49999486	0.00000000	-15.39124000	2.27608300
89.69999485	0.00000000	-15.71727000	6.09005900
89.89999484	0.00000000	-15.39124000	8.03395600
90.09999483	0.00000000	-14.60384000	7.25270600
90.29999482	0.00000000	-13.85334000	4.22613100
90.49999480	0.00000000	-13.06594000	-0.04306102
90.69999479	0.00000000	-12.69070000	-4.69365100
90.89999478	0.00000000	-12.64764000	-8.87672100
91.09999477	0.00000000	-12.64764000	-11.14665000
91.29999476	0.00000000	-12.64764000	-10.40846000
91.49999474	0.00000000	-12.64764000	-7.33882900
91.69999473	0.00000000	-12.60458000	-2.69439000
91.89999472	0.00000000	-12.27239000	2.64517700
92.09999471	0.00000000	-11.90330000	6.82824800
92.29999470	0.00000000	-12.27239000	8.40920300
92.49999468	0.00000000	-12.64764000	7.25270600
92.69999467	0.00000000	-13.06594000	3.80782500
92.89999466	0.00000000	-13.85334000	-1.15649600
93.09999465	0.00000000	-14.60384000	-5.75787400
93.29999464	0.00000000	-15.39124000	-8.87057000
93.49999463	0.00000000	-15.71727000	-10.03322000
93.69999461	0.00000000	-15.34203000	-8.87057000
93.89999460	0.00000000	-14.18553000	-5.80093500
94.09999459	0.00000000	-12.64764000	-1.57480300
94.29999458	0.00000000	-11.06668000	2.64517700
94.49999457	0.00000000	-9.48572700	5.67175200
94.69999455	0.00000000	-7.99704600	6.45300100
94.89999454	0.00000000	-7.29576700	4.55831700
95.09999453	0.00000000	-8.45841400	1.15649600
95.29999452	0.00000000	-11.10974000	-2.73745100
95.49999451	0.00000000	-14.18553000	-6.17618100
95.69999449	0.00000000	-16.97219000	-8.50147600
95.89999448	0.00000000	-19.25443000	-8.82750900
96.09999447	0.00000000	-20.78617000	-6.96358300
96.29999446	0.00000000	-20.37401000	-3.53100400
96.49999445	0.00000000	-18.46087000	-0.09227362
96.69999444	0.00000000	-15.29897000	2.60211600
96.89999442	0.00000000	-11.10974000	3.80782500
97.09999441	0.00000000	-7.25270600	3.43873000
97.29999440	0.00000000	-4.92125900	2.27608300
97.49999439	0.00000000	-4.13385800	-0.04306102
97.69999438	0.00000000	-5.29650500	-2.64517700
97.89999436	0.00000000	-7.99704600	-4.22613100
98.09999435	0.00000000	-11.53420000	-4.69365100
98.29999434	0.00000000	-15.76649000	-4.69365100
98.49999433	0.00000000	-19.58046000	-4.26919300
98.69999432	0.00000000	-21.53666000	-3.15575800
98.89999430	0.00000000	-21.57972000	-1.99311000
99.09999429	0.00000000	-19.99877000	-1.19955700
99.29999428	0.00000000	-16.83686000	-0.37524600
99.49999427	0.00000000	-12.31545000	0.32603340
99.69999426	0.00000000	-8.09547100	0.73818890
99.89999425	0.00000000	-6.08390700	0.37524600
100.09999423	0.00000000	-5.21038300	0.09227362
100.29999422	0.00000000	-5.29650500	0.41830710
100.49999421	0.00000000	-6.87746000	1.11343500
100.69999420	0.00000000	-9.90403500	1.06422200
100.89999419	0.00000000	-13.34276000	-0.04306102
101.09999417	0.00000000	-15.71727000	-1.57480300
101.29999416	0.00000000	-17.34744000	-3.15575800
101.49999415	0.00000000	-18.46087000	-4.64443900
101.69999414	0.00000000	-18.46087000	-5.43184000
101.89999413	0.00000000	-17.29823000	-5.01968500
102.09999411	0.00000000	-15.39124000	-3.90009800
102.29999410	0.00000000	-13.02288000	-1.90698800
102.49999409	0.00000000	-10.73450000	0.37524600
102.69999408	0.00000000	-8.79060000	2.69439000
102.89999407	0.00000000	-8.04010800	4.18307100
103.09999406	0.00000000	-8.32308000	4.18307100
103.29999404	0.00000000	-9.15354300	2.64517700
103.49999403	0.00000000	-10.37155000	-0.04306102
103.69999402	0.00000000	-12.64764000	-3.11269700
103.89999401	0.00000000	-14.92372000	-5.80093500
104.09999400	0.00000000	-16.14173000	-7.38188900
104.29999398	0.00000000	-16.92298000	-7.75713500
104.49999397	0.00000000	-16.87992000	-6.96358300
104.69999396	0.00000000	-15.76649000	-4.64443900
104.89999395	0.00000000	-14.22859000	-1.62401600
105.09999394	0.00000000	-12.64764000	1.11343500
105.29999392	0.00000000	-11.10974000	3.02042300
105.49999391	0.00000000	-9.99630800	3.80782500
105.69999390	0.00000000	-9.99630800	3.02042300
105.89999389	0.00000000	-11.10974000	1.15649600
106.09999388	0.00000000	-12.60458000	-1.20570900
106.29999387	0.00000000	-13.76107000	-3.48179100
106.49999385	0.00000000	-14.22859000	-5.38262700
106.69999384	0.00000000	-14.60384000	-5.75787400
106.89999383	0.00000000	-14.92372000	-4.68750000
107.09999382	0.00000000	-14.18553000	-3.15575800
107.29999381	0.00000000	-13.06594000	-1.57480300
107.49999379	0.00000000	-12.27239000	-0.04306102
107.69999378	0.00000000	-11.53420000	1.11343500
107.89999377	0.00000000	-11.53420000	1.48253000
108.09999376	0.00000000	-12.27239000	1.06422200
108.29999375	0.00000000	-13.06594000	-0.46751960
108.49999374	0.00000000	-14.22859000	-2.69439000
108.69999372	0.00000000	-15.34203000	-4.22613100
108.89999371	0.00000000	-15.71727000	-4.64443900
109.09999370	0.00000000	-15.39124000	-4.26919300
109.29999369	0.00000000	-14.56078000	-3.11269700
109.49999368	0.00000000	-13.43504000	-1.57480300
109.69999366	0.00000000	-11.90330000	0.00000000
109.89999365	0.00000000	-11.15896000	1.48868100
110.09999364	0.00000000	-11.06668000	2.26993100
110.29999363	0.00000000	-11.10974000	1.90698800
110.49999362	0.00000000	-11.48499000	1.15649600
110.69999360	0.00000000	-12.27239000	-0.04306102
110.89999359	0.00000000	-13.02288000	-1.57480300
111.09999358	0.00000000	-13.81028000	-3.11269700
111.29999357	0.00000000	-14.18553000	-4.26919300
111.49999356	0.00000000	-14.22859000	-4.64443900
111.69999355	0.00000000	-14.18553000	-4.26919300
111.89999353	0.00000000	-13.81028000	-3.11269700
112.09999352	0.00000000	-13.02288000	-1.62401600
112.29999351	0.00000000	-12.31545000	-0.46136810
112.49999350	0.00000000	-11.90330000	-0.04306102
112.69999349	0.00000000	-12.27239000	0.00000000
112.89999347	0.00000000	-12.60458000	0.00000000
113.09999346	0.00000000	-12.64764000	0.00000000
113.29999345	0.00000000	-12.64764000	-0.04306102
113.49999344	0.00000000	-12.64764000	-0.41830710
113.69999343	0.00000000	-12.64764000	-1.15649600
113.89999341	0.00000000	-12.69070000	-1.57480300
114.09999340	0.00000000	-13.02288000	-1.99311000
114.29999339	0.00000000	-13.39198000	-2.73745100
114.49999338	0.00000000	-13.02288000	-3.11269700
114.69999337	0.00000000	-12.69070000	-3.15575800
114.89999336	0.00000000	-12.64764000	-3.15575800
115.09999334	0.00000000	-12.64764000	-3.11269700
115.29999333	0.00000000	-12.64764000	-2.73745100
115.49999332	0.00000000	-12.64764000	-1.99311000
115.69999331	0.00000000	-12.64764000	-1.57480300
115.89999330	0.00000000	-12.64764000	-1.15649600
116.09999328	0.00000000	-12.64764000	-0.41830710
116.29999327	0.00000000	-12.64764000	0.00000000
116.49999326	0.00000000	-12.69070000	0.37524600
116.69999325	0.00000000	-13.02288000	0.73818890
116.89999324	0.00000000	-13.39198000	0.32603340
117.09999322	0.00000000	-13.02288000	-0.41830710
117.29999321	0.00000000	-12.64764000	-1.57480300
117.49999320	0.00000000	-12.22933000	-2.68823800
117.69999319	0.00000000	-11.48499000	-3.11269700
117.89999318	0.00000000	-11.15896000	-3.15575800
118.09999317	0.00000000	-11.48499000	-3.15575800
118.29999315	0.00000000	-12.22933000	-3.11269700
118.49999314	0.00000000	-12.64764000	-2.68823800
118.69999313	0.00000000	-13.06594000	-1.57480300
118.89999312	0.00000000	-13.85334000	-0.46136810
119.09999311	0.00000000	-14.60384000	-0.04306102
119.29999309	0.00000000	-15.34203000	0.00000000
119.49999308	0.00000000	-15.34203000	0.00000000
119.69999307	0.00000000	-14.56078000	0.00000000
119.89999306	0.00000000	-13.43504000	-0.04306102
120.09999305	0.00000000	-11.86024000	-0.41830710
120.29999303	0.00000000	-10.73450000	-1.15649600
120.49999302	0.00000000	-9.90403500	-1.57480300
120.69999301	0.00000000	-9.52879000	-1.99311000
120.89999300	0.00000000	-9.52879000	-2.73745100
121.09999299	0.00000000	-9.95324800	-3.11269700
121.29999298	0.00000000	-11.10974000	-3.11269700
121.49999296	0.00000000	-12.64764000	-2.73745100
121.69999295	0.00000000	-14.18553000	-1.99311000
121.89999294	0.00000000	-15.34203000	-1.57480300
122.09999293	0.00000000	-15.71727000	-1.15649600
122.29999292	0.00000000	-15.34203000	-0.41830710
122.49999290	0.00000000	-14.22859000	-0.04306102
122.69999289	0.00000000	-13.06594000	0.00000000
122.89999288	0.00000000	-12.22933000	0.00000000
123.09999287	0.00000000	-11.06668000	0.00000000
123.29999286	0.00000000	-9.95324800	-0.04306102
123.49999284	0.00000000	-9.57800100	-0.41830710
123.69999283	0.00000000	-9.90403500	-1.15649600
123.89999282	0.00000000	-10.69144000	-1.57480300
124.09999281	0.00000000	-11.44193000	-1.99311000
124.29999280	0.00000000	-12.27239000	-2.68823800
124.49999279	0.00000000	-13.02288000	-2.68823800
124.69999277	0.00000000	-13.81028000	-1.99311000
124.89999276	0.00000000	-14.18553000	-1.61786400
125.09999275	0.00000000	-14.22859000	-1.53174200
125.29999274	0.00000000	-14.22859000	-1.15649600
125.49999273	0.00000000	-14.18553000	-0.41830710
125.69999271	0.00000000	-13.76107000	-0.04306102
125.89999270	0.00000000	-12.64764000	0.00000000
126.09999269	0.00000000	-11.53420000	0.00000000
126.29999268	0.00000000	-11.06668000	-0.04306102
126.49999267	0.00000000	-10.64838000	-0.41830710
126.69999265	0.00000000	-9.99630800	-1.15649600
126.89999264	0.00000000	-10.37155000	-1.57480300
127.09999263	0.00000000	-11.85408000	-1.95004900
127.29999262	0.00000000	-12.97982000	-2.31914400
127.49999261	0.00000000	-13.85334000	-1.95004900
127.69999260	0.00000000	-14.56078000	-1.61786400
127.89999258	0.00000000	-14.97293000	-1.57480300
128.09999257	0.00000000	-14.56078000	-1.53174200
128.29999256	0.00000000	-13.81028000	-1.15649600
128.49999255	0.00000000	-12.64764000	-0.41830710
128.69999254	0.00000000	-11.48499000	-0.04306102
128.89999252	0.00000000	-10.73450000	-0.04306102
129.09999251	0.00000000	-10.32234000	-0.41830710
129.29999250	0.00000000	-10.73450000	-1.15649600
129.49999249	0.00000000	-11.48499000	-1.53174200
129.69999248	0.00000000	-12.64764000	-1.57480300
129.89999246	0.00000000	-13.76107000	-1.57480300
130.09999245	0.00000000	-14.18553000	-1.57480300
130.29999244	0.00000000	-14.22859000	-1.57480300
130.49999243	0.00000000	-14.18553000	-1.53174200
130.69999242	0.00000000	-13.81028000	-1.15649600
130.89999241	0.00000000	-13.02288000	-0.41830710
131.09999239	0.00000000	-12.27239000	-0.09227362
131.29999238	0.00000000	-11.48499000	-0.41830710
131.49999237	0.00000000	-11.10974000	-1.15649600
131.69999236	0.00000000	-11.06668000	-1.57480300
131.89999235	0.00000000	-11.10974000	-1.99311000
132.09999233	0.00000000	-11.48499000	-2.73745100
132.29999232	0.00000000	-12.22933000	-3.06348400
132.49999231	0.00000000	-12.64764000	-2.73745100
132.69999230	0.00000000	-13.02288000	-1.95004900
132.89999229	0.00000000	-13.39198000	-1.19955700
133.09999227	0.00000000	-13.02288000	-0.41830710
133.29999226	0.00000000	-12.69070000	-0.04306102
133.49999225	0.00000000	-12.64764000	0.00000000
133.69999224	0.00000000	-12.64764000	0.00000000
133.89999223	0.00000000	-12.64764000	-0.04306102
134.09999222	0.00000000	-12.64764000	-0.41830710
134.29999220	0.00000000	-12.60458000	-1.19955700
134.49999219	0.00000000	-12.27239000	-1.95004900
134.69999218	0.00000000	-11.86024000	-2.73745100
134.89999217	0.00000000	-11.85408000	-3.11269700
135.09999216	0.00000000	-11.44193000	-3.11269700
135.29999214	0.00000000	-11.10974000	-2.73745100
135.49999213	0.00000000	-11.10974000	-1.99311000
135.69999212	0.00000000	-11.48499000	-1.57480300
135.89999211	0.00000000	-12.27239000	-1.15649600
136.09999210	0.00000000	-13.02288000	-0.41830710
136.29999208	0.00000000	-13.81028000	-0.04306102
136.49999207	0.00000000	-14.18553000	0.00000000
136.69999206	0.00000000	-14.18553000	-0.04306102
136.89999205	0.00000000	-13.81028000	-0.41830710
137.09999204	0.00000000	-13.02288000	-1.15649600
137.29999203	0.00000000	-12.27239000	-1.57480300
137.49999201	0.00000000	-11.48499000	-1.99311000
137.69999200	0.00000000	-11.10974000	-2.73745100
137.89999199	0.00000000	-11.06668000	-3.11269700
138.09999198	0.00000000	-11.10974000	-3.11269700
138.29999197	0.00000000	-11.48499000	-2.73745100
138.49999195	0.00000000	-12.27239000	-1.99311000
138.69999194	0.00000000	-12.97982000	-1.57480300
138.89999193	0.00000000	-13.43504000	-1.15649600
139.09999192	0.00000000	-13.39813000	-0.41830710
139.29999191	0.00000000	-13.43504000	-0.04306102
139.49999189	0.00000000	-12.97982000	0.00000000
139.69999188	0.00000000	-12.31545000	0.00000000
139.89999187	0.00000000	-11.86024000	-0.04306102
140.09999186	0.00000000	-11.85408000	-0.41830710
140.29999185	0.00000000	-11.44193000	-1.19955700
140.49999184	0.00000000	-11.15896000	-1.95004900
140.69999182	0.00000000	-11.48499000	-2.73745100
140.89999181	0.00000000	-12.22933000	-3.06348400
141.09999180	0.00000000	-12.60458000	-2.73745100
141.29999179	0.00000000	-12.60458000	-1.95004900
141.49999178	0.00000000	-12.27239000	-1.19955700
141.69999176	0.00000000	-11.90330000	-0.41830710
141.89999175	0.00000000	-12.27239000	-0.04306102
142.09999174	0.00000000	-12.60458000	0.00000000
142.29999173	0.00000000	-12.60458000	0.00000000
142.49999172	0.00000000	-12.27239000	0.00000000
142.69999170	0.00000000	-11.90330000	-0.04306102
142.89999169	0.00000000	-12.27239000	-0.41830710
143.09999168	0.00000000	-12.60458000	-1.19955700
143.29999167	0.00000000	-12.64764000	-1.95004900
143.49999166	0.00000000	-12.64764000	-2.73745100
143.69999165	0.00000000	-12.64764000	-3.06348400
143.89999163	0.00000000	-12.64764000	-2.73745100
144.09999162	0.00000000	-12.60458000	-1.95004900
144.29999161	0.00000000	-12.22933000	-1.19955700
144.49999160	0.00000000	-11.48499000	-0.41830710
144.69999159	0.00000000	-11.15896000	-0.04306102
144.89999157	0.00000000	-11.48499000	0.00000000
145.09999156	0.00000000	-12.22933000	0.00000000
145.29999155	0.00000000	-12.60458000	-0.04306102
145.49999154	0.00000000	-12.64764000	-0.41830710
145.69999153	0.00000000	-12.64764000	-1.19955700
145.89999151	0.00000000	-12.64764000	-1.95004900
146.09999150	0.00000000	-12.64764000	-2.73745100
146.29999149	0.00000000	-12.64764000	-3.06348400
146.49999148	0.00000000	-12.60458000	-2.73745100
146.69999147	0.00000000	-12.22933000	-1.99311000
146.89999146	0.00000000	-11.48499000	-1.57480300
147.09999144	0.00000000	-11.15896000	-1.19955700
147.29999143	0.00000000	-11.48499000	-0.79355310
147.49999142	0.00000000	-12.22933000	-0.78124990
147.69999141	0.00000000	-12.60458000	-0.37524600
147.89999140	0.00000000	-12.64764000	-0.04306102
148.09999138	0.00000000	-12.64764000	-0.04306102
148.29999137	0.00000000	-12.64764000	-0.41830710
148.49999136	0.00000000	-12.64764000	-1.15649600
148.69999135	0.00000000	-12.64764000	-1.53174200
148.89999134	0.00000000	-12.64764000	-1.57480300
149.09999132	0.00000000	-12.64764000	-1.57480300
149.29999131	0.00000000	-12.60458000	-1.57480300
149.49999130	0.00000000	-12.22933000	-1.57480300
149.69999129	0.00000000	-11.48499000	-1.53174200
149.89999128	0.00000000	-11.10974000	-1.15649600
150.09999127	0.00000000	-11.10974000	-0.41830710
150.29999125	0.00000000	-11.48499000	-0.04306102
150.49999124	0.00000000	-12.22933000	0.00000000
150.69999123	0.00000000	-12.60458000	0.00000000
150.89999122	0.00000000	-12.64764000	-0.04306102
151.09999121	0.00000000	-12.64764000	-0.41830710
151.29999119	0.00000000	-12.64764000	-1.15649600
151.49999118	0.00000000	-12.64764000	-1.53174200
151.69999117	0.00000000	-12.64764000	-1.57480300
151.89999116	0.00000000	-12.64764000	-1.57480300
152.09999115	0.00000000	-12.60458000	-1.57480300
152.29999113	0.00000000	-12.22933000	-1.57480300
152.49999112	0.00000000	-11.48499000	-1.57480300
152.69999111	0.00000000	-11.10974000	-1.57480300
152.89999110	0.00000000	-11.06668000	-1.53174200
153.09999109	0.00000000	-11.06668000	-1.15649600
153.29999108	0.00000000	-11.10974000	-0.41830710
153.49999106	0.00000000	-11.48499000	-0.04306102
153.69999105	0.00000000	-12.22933000	-0.04306102
153.89999104	0.00000000	-12.60458000	-0.37524600
154.09999103	0.00000000	-12.64764000	-0.78124990
154.29999102	0.00000000	-12.64764000	-0.79355310
154.49999100	0.00000000	-12.64764000	-1.15649600
154.69999099	0.00000000	-12.60458000	-1.15649600
154.89999098	0.00000000	-12.27239000	-0.83661410
155.09999097	0.00000000	-11.86024000	-1.19955700
155.29999096	0.00000000	-11.85408000	-1.53174200
155.49999094	0.00000000	-11.44193000	-1.57480300
155.69999093	0.00000000	-11.10974000	-1.57480300
155.89999092	0.00000000	-11.06668000	-1.53174200
156.09999091	0.00000000	-11.10974000	-1.15649600
156.29999090	0.00000000	-11.48499000	-0.41830710
156.49999089	0.00000000	-12.22933000	-0.04306102
156.69999087	0.00000000	-12.60458000	0.00000000
156.89999086	0.00000000	-12.64764000	0.00000000
157.09999085	0.00000000	-12.64764000	0.00000000
157.29999084	0.00000000	-12.64764000	-0.04306102
157.49999083	0.00000000	-12.64764000	-0.41830710
157.69999081	0.00000000	-12.60458000	-1.15649600
157.89999080	0.00000000	-12.22933000	-1.53174200
158.09999079	0.00000000	-11.48499000	-1.57480300
158.29999078	0.00000000	-11.10974000	-1.57480300
158.49999077	0.00000000	-11.06668000	-1.57480300
158.69999075	0.00000000	-11.06668000	-1.57480300
158.89999074	0.00000000	-11.06668000	-1.53174200
159.09999073	0.00000000	-11.10974000	-1.15649600
159.29999072	0.00000000	-11.48499000	-0.41830710
159.49999071	0.00000000	-12.22933000	-0.04306102
159.69999070	0.00000000	-12.60458000	0.00000000
159.89999068	0.00000000	-12.64764000	0.00000000
160.09999067	0.00000000	-12.64764000	-0.04306102
160.29999066	0.00000000	-12.64764000	-0.41830710
160.49999065	0.00000000	-12.64764000	-1.15649600
160.69999064	0.00000000	-12.64764000	-1.53174200
160.89999062	0.00000000	-12.60458000	-1.57480300
161.09999061	0.00000000	-12.22933000	-1.57480300
161.29999060	0.00000000	-11.48499000	-1.57480300
161.49999059	0.00000000	-11.10974000	-1.57480300
161.69999058	0.00000000	-11.06668000	-1.57480300
161.89999056	0.00000000	-11.06668000	-1.57480300
162.09999055	0.00000000	-11.06668000	-1.53174200
162.29999054	0.00000000	-11.06668000	-1.15649600
162.49999053	0.00000000	-11.10974000	-0.46136810
162.69999052	0.00000000	-11.48499000	-0.41830710
162.89999051	0.00000000	-12.22933000	-0.73818890
163.09999049	0.00000000	-12.60458000	-0.41830710
163.29999048	0.00000000	-12.64764000	-0.41830710
163.49999047	0.00000000	-12.69070000	-0.78124990
163.69999046	0.00000000	-13.02288000	-0.79355310
163.89999045	0.00000000	-13.39198000	-1.19955700
164.09999043	0.00000000	-13.02288000	-1.53174200
164.29999042	0.00000000	-12.64764000	-1.57480300
164.49999041	0.00000000	-12.22933000	-1.57480300
164.69999040	0.00000000	-11.48499000	-1.57480300
164.89999039	0.00000000	-11.10974000	-1.57480300
165.09999037	0.00000000	-11.06668000	-1.57480300
165.29999036	0.00000000	-11.06668000	-1.53174200
165.49999035	0.00000000	-11.10974000	-1.19955700
165.69999034	0.00000000	-11.48499000	-0.83661410
165.89999033	0.00000000	-12.22933000	-1.19955700
166.09999032	0.00000000	-12.60458000	-1.48253000
166.29999030	0.00000000	-12.64764000	-1.15649600
166.49999029	0.00000000	-12.64764000	-0.46136810
166.69999028	0.00000000	-12.64764000	-0.46136810
166.89999027	0.00000000	-12.64764000	-1.15649600
167.09999026	0.00000000	-12.60458000	-1.53174200
167.29999024	0.00000000	-12.22933000	-1.57480300
167.49999023	0.00000000	-11.48499000	-1.57480300
167.69999022	0.00000000	-11.10974000	-1.57480300
167.89999021	0.00000000	-11.06668000	-1.53174200
168.09999020	0.00000000	-11.06668000	-1.19955700
168.29999018	0.00000000	-11.10974000	-0.83661410
168.49999017	0.00000000	-11.48499000	-1.19955700
168.69999016	0.00000000	-12.18012000	-1.53174200
168.89999015	0.00000000	-12.22933000	-1.57480300
169.09999014	0.00000000	-11.90330000	-1.57480300
169.29999013	0.00000000	-12.27239000	-1.57480300
169.49999011	0.00000000	-12.60458000	-1.57480300
169.69999010	0.00000000	-12.64764000	-1.57480300
169.89999009	0.00000000	-12.64764000	-1.57480300
170.09999008	0.00000000	-12.64764000	-1.57480300
170.29999007	0.00000000	-12.64764000	-1.57480300
170.49999005	0.00000000	-12.60458000	-1.57480300
170.69999004	0.00000000	-12.27239000	-1.57480300
170.89999003	0.00000000	-11.86024000	-1.57480300
171.09999002	0.00000000	-11.85408000	-1.57480300
171.29999001	0.00000000	-11.44193000	-1.57480300
171.49998999	0.00000000	-11.10974000	-1.57480300
171.69998998	0.00000000	-11.10974000	-1.57480300
171.89998997	0.00000000	-11.48499000	-1.57480300
172.09998996	0.00000000	-12.22933000	-1.57480300
172.29998995	0.00000000	-12.60458000	-1.57480300
172.49998994	0.00000000	-12.64764000	-1.57480300
172.69998992	0.00000000	-12.60458000	-1.57480300
172.89998991	0.00000000	-12.27239000	-1.53174200
173.09998990	0.00000000	-11.90330000	-1.19955700
173.29998989	0.00000000	-12.27239000	-0.83661410
173.49998988	0.00000000	-12.55536000	-1.15649600
173.69998986	0.00000000	-12.22933000	-1.15649600
173.89998985	0.00000000	-11.53420000	-0.83661410
174.09998984	0.00000000	-11.48499000	-1.19955700
174.29998983	0.00000000	-11.85408000	-1.53174200
174.49998982	0.00000000	-11.81717000	-1.57480300
174.69998980	0.00000000	-11.85408000	-1.57480300
174.89998979	0.00000000	-11.44193000	-1.57480300
175.09998978	0.00000000	-11.10974000	-1.57480300
175.29998977	0.00000000	-11.06668000	-1.57480300
175.49998976	0.00000000	-11.10974000	-1.57480300
175.69998975	0.00000000	-11.48499000	-1.57480300
175.89998973	0.00000000	-12.18012000	-1.57480300
176.09998972	0.00000000	-12.22933000	-1.57480300
176.29998971	0.00000000	-11.86024000	-1.57480300
176.49998970	0.00000000	-11.85408000	-1.57480300
176.69998969	0.00000000	-11.44193000	-1.57480300
176.89998967	0.00000000	-11.10974000	-1.57480300
177.09998966	0.00000000	-11.06668000	-1.57480300
177.29998965	0.00000000	-11.06668000	-1.57480300
177.49998964	0.00000000	-11.06668000	-1.53174200
177.69998963	0.00000000	-11.10974000	-1.19955700
177.89998961	0.00000000	-11.48499000	-0.83661410
178.09998960	0.00000000	-12.22933000	-1.19955700
178.29998959	0.00000000	-12.60458000	-1.48253000
178.49998958	0.00000000	-12.60458000	-1.19955700
178.69998957	0.00000000	-12.22933000	-0.79355310
178.89998956	0.00000000	-11.48499000	-0.83046260
179.09998954	0.00000000	-11.10974000	-0.79355310
179.29998953	0.00000000	-11.06668000	-1.19955700
179.49998952	0.00000000	-11.06668000	-1.53174200
179.69998951	0.00000000	-11.10974000	-1.57480300
179.89998950	0.00000000	-11.44193000	-1.57480300
180.09998948	0.00000000	-11.81102000	-1.57480300
180.29998947	0.00000000	-11.48499000	-1.57480300
180.49998946	0.00000000	-11.53420000	-1.57480300
180.69998945	0.00000000	-12.18012000	-1.53174200
180.89998944	0.00000000	-12.22933000	-1.19955700
181.09998942	0.00000000	-11.90330000	-0.79355310
181.29998941	0.00000000	-12.22933000	-0.78124990
181.49998940	0.00000000	-12.18012000	-0.37524600
181.69998939	0.00000000	-11.53420000	-0.04306102
181.89998938	0.00000000	-11.48499000	0.00000000
182.09998937	0.00000000	-11.81102000	0.00000000
182.29998935	0.00000000	-11.44193000	-0.04306102
182.49998934	0.00000000	-11.10974000	-0.41830710
182.69998933	0.00000000	-11.06668000	-1.15649600
182.89998932	0.00000000	-11.10974000	-1.53174200
183.09998931	0.00000000	-11.48499000	-1.57480300
183.29998929	0.00000000	-12.18012000	-1.57480300
183.49998928	0.00000000	-12.18012000	-1.57480300
183.69998927	0.00000000	-11.48499000	-1.53174200
183.89998926	0.00000000	-11.10974000	-1.15649600
184.09998925	0.00000000	-11.06668000	-0.41830710
184.29998923	0.00000000	-11.10974000	-0.04306102
184.49998922	0.00000000	-11.44193000	0.00000000
184.69998921	0.00000000	-11.81102000	0.00000000
184.89998920	0.00000000	-11.44193000	0.00000000
185.09998919	0.00000000	-11.10974000	0.00000000
185.29998918	0.00000000	-11.06668000	0.00000000
185.49998916	0.00000000	-11.06668000	-0.04306102
185.69998915	0.00000000	-11.06668000	-0.41830710
185.89998914	0.00000000	-11.06668000	-1.15649600
186.09998913	0.00000000	-11.06668000	-1.48253000
186.29998912	0.00000000	-11.06668000	-1.19955700
186.49998910	0.00000000	-11.06668000	-0.79355310
186.69998909	0.00000000	-11.10974000	-0.83046260
186.89998908	0.00000000	-11.48499000	-0.79355310
187.09998907	0.00000000	-12.18012000	-1.15649600
187.29998906	0.00000000	-12.22933000	-1.11343500
187.49998904	0.00000000	-11.90330000	-0.41830710
187.69998903	0.00000000	-12.22933000	-0.04306102
187.89998902	0.00000000	-12.18012000	-0.04306102
188.09998901	0.00000000	-11.48499000	-0.41830710
188.29998900	0.00000000	-11.10974000	-1.15649600
188.49998899	0.00000000	-11.06668000	-1.53174200
188.69998897	0.00000000	-11.06668000	-1.57480300
188.89998896	0.00000000	-11.06668000	-1.57480300
189.09998895	0.00000000	-11.10974000	-1.57480300
189.29998894	0.00000000	-11.44193000	-1.57480300
189.49998893	0.00000000	-11.81102000	-1.57480300
189.69998891	0.00000000	-11.44193000	-1.57480300
189.89998890	0.00000000	-11.10974000	-1.53174200
190.09998889	0.00000000	-11.06668000	-1.19955700
190.29998888	0.00000000	-11.06668000	-0.79355310
190.49998887	0.00000000	-11.10974000	-0.78124990
190.69998885	0.00000000	-11.44193000	-0.37524600
190.89998884	0.00000000	-11.81102000	-0.09227362
191.09998883	0.00000000	-11.44193000	-0.37524600
191.29998882	0.00000000	-11.10974000	-0.73818890
191.49998881	0.00000000	-11.06668000	-0.41830710
191.69998880	0.00000000	-11.06668000	-0.46136810
191.89998878	0.00000000	-11.06668000	-1.15649600
192.09998877	0.00000000	-11.06668000	-1.53174200
192.29998876	0.00000000	-11.10974000	-1.57480300
192.49998875	0.00000000	-11.48499000	-1.57480300
192.69998874	0.00000000	-12.22933000	-1.57480300
192.89998872	0.00000000	-12.60458000	-1.57480300
193.09998871	0.00000000	-12.60458000	-1.57480300
193.29998870	0.00000000	-12.22933000	-1.53174200
193.49998869	0.00000000	-11.48499000	-1.15649600
193.69998868	0.00000000	-11.10974000	-0.41830710
193.89998866	0.00000000	-11.06668000	-0.04306102
194.09998865	0.00000000	-11.06668000	0.00000000
194.29998864	0.00000000	-11.06668000	0.00000000
194.49998863	0.00000000	-11.06668000	-0.04306102
194.69998862	0.00000000	-11.06668000	-0.41830710
194.89998861	0.00000000	-11.06668000	-1.15649600
195.09998859	0.00000000	-11.06668000	-1.53174200
195.29998858	0.00000000	-11.06668000	-1.57480300
195.49998857	0.00000000	-11.06668000	-1.57480300
195.69998856	0.00000000	-11.06668000	-1.57480300
195.89998855	0.00000000	-11.06668000	-1.57480300
196.09998853	0.00000000	-11.10974000	-1.57480300
