Time	Channel A	Channel B	Channel C
(us)	(V)	(mV)	(mV)

-4.59999956	0.00000000	-77.47908000	-30.04429000
-4.39999957	0.00000000	-77.47908000	-30.37647000
-4.19999958	0.00000000	-77.47908000	-30.73942000
-3.99999959	0.00000000	-77.47908000	-30.37647000
-3.79999960	0.00000000	-77.47908000	-30.04429000
-3.59999962	0.00000000	-77.47908000	-30.04429000
-3.39999963	0.00000000	-77.47908000	-30.37647000
-3.19999964	0.00000000	-77.47908000	-30.73942000
-2.99999965	0.00000000	-77.47908000	-30.37647000
-2.79999966	0.00000000	-77.47908000	-30.09350000
-2.59999968	0.00000000	-77.47908000	-30.37647000
-2.39999969	0.00000000	-77.47908000	-30.73942000
-2.19999970	0.00000000	-77.47908000	-30.37647000
-1.99999971	0.00000000	-77.47908000	-30.09350000
-1.79999972	0.00000000	-77.47908000	-30.37647000
-1.59999973	0.00000000	-77.47908000	-30.73942000
-1.39999975	0.00000000	-77.47908000	-30.37647000
-1.19999976	0.00000000	-77.47908000	-30.04429000
-0.99999977	0.00000000	-77.47908000	-30.04429000
-0.79999978	0.00000000	-77.47908000	-30.37647000
-0.59999979	0.00000000	-77.47908000	-30.73942000
-0.39999981	0.15871060	-77.47908000	-30.37647000
-0.19999982	0.47736220	-77.47908000	-30.04429000
0.00000017	0.79601380	-77.47908000	-30.00123000
0.20000016	0.95533960	-77.47908000	-30.00123000
0.40000015	0.95533960	-77.47908000	-30.00123000
0.60000013	0.63668800	-77.47908000	-30.00123000
0.80000012	0.00000000	-77.47908000	-30.00123000
1.00000011	-0.95533960	-77.47908000	-30.00123000
1.20000010	-1.91129400	-77.47908000	-30.00123000
1.40000009	-2.70792300	-77.47908000	-30.00123000
1.60000008	-2.70792300	-77.47908000	-30.00123000
1.80000006	-2.07062000	-77.47908000	-30.00123000
2.00000005	-0.47736220	-77.47908000	-30.00123000
2.20000004	1.43331700	-77.47908000	-30.00123000
2.40000003	3.50393700	-77.47908000	-30.00123000
2.60000002	4.93786900	-77.47908000	-30.00123000
2.80000000	5.25652100	-77.47908000	-30.00123000
2.99999999	4.14124000	-77.47908000	-30.04429000
3.19999998	1.75196900	-77.47908000	-30.41954000
3.39999997	-1.59264300	-77.47908000	-31.11466000
3.59999996	-4.93786900	-77.47908000	-31.11466000
3.79999994	-7.32714100	-77.47908000	-30.41954000
3.99999993	-7.96444400	-77.47908000	-30.00123000
4.19999992	-6.69045300	-77.43602000	-29.62598000
4.39999991	-3.50393700	-77.10384000	-29.25689000
4.59999990	0.79601380	-76.73474000	-29.62598000
4.79999989	5.25652100	-77.10384000	-29.95817000
4.99999987	8.28309500	-77.43602000	-30.00123000
5.19999986	9.55770200	-77.47908000	-30.00123000
5.39999985	8.28309500	-77.47908000	-30.04429000
5.59999984	4.93786900	-77.47908000	-30.41954000
5.79999983	0.31803640	-77.47908000	-31.11466000
5.99999981	-4.30056600	-77.47908000	-31.11466000
6.19999980	-7.96444400	-77.47908000	-30.41954000
6.39999979	-9.55770200	-77.43602000	-30.04429000
6.59999978	-8.60174700	-77.06077000	-30.00123000
6.79999977	-5.57517200	-76.36565000	-30.00123000
6.99999975	-1.43331700	-76.36565000	-30.00123000
7.19999974	2.70792300	-77.06077000	-30.00123000
7.39999973	6.05315000	-77.43602000	-30.00123000
7.59999972	7.64579200	-77.47908000	-30.00123000
7.79999971	7.32714100	-77.47908000	-30.04429000
7.99999970	5.09719500	-77.47908000	-30.41954000
8.19999968	2.07062000	-77.47908000	-31.11466000
8.39999967	-1.27399100	-77.47908000	-31.11466000
8.59999966	-3.82258900	-77.47908000	-30.41954000
8.79999965	-5.09719500	-77.47908000	-30.04429000
8.99999964	-4.93786900	-77.47908000	-30.00123000
9.19999962	-3.66326300	-77.47908000	-30.00123000
9.39999961	-1.75196900	-77.47908000	-30.00123000
9.59999960	0.15871060	-77.47908000	-30.00123000
9.79999959	1.59264300	-77.47908000	-30.04429000
9.99999958	2.38927200	-77.47908000	-30.37647000
10.19999956	2.38927200	-77.47908000	-30.73942000
10.39999955	1.91129400	-77.47908000	-30.37647000
10.59999954	0.95533960	-77.47908000	-30.04429000
10.79999953	0.15871060	-77.47908000	-30.00123000
10.99999952	-0.47736220	-77.47908000	-30.00123000
11.19999951	-0.79601380	-77.47908000	-30.00123000
11.39999949	-0.95533960	-77.47908000	-30.00123000
11.59999948	-0.79601380	-77.47908000	-30.00123000
11.79999947	-0.63668800	-77.47908000	-30.00123000
11.99999946	-0.31803640	-77.47908000	-30.00123000
12.19999945	-0.15871060	-77.47908000	-30.00123000
12.39999943	-0.15871060	-77.43602000	-30.00123000
12.59999942	0.00000000	-77.10384000	-30.04429000
12.79999941	0.00000000	-76.69167000	-30.37647000
12.99999940	0.00000000	-76.72858000	-30.73942000
13.19999939	0.15871060	-76.69167000	-30.37647000
13.39999937	0.00000000	-77.10384000	-30.04429000
13.59999936	0.00000000	-77.43602000	-30.00123000
13.79999935	0.00000000	-77.47908000	-30.00123000
13.99999934	-0.15871060	-77.47908000	-30.00123000
14.19999933	-0.15871060	-77.47908000	-30.00123000
14.39999932	-0.15871060	-77.47908000	-30.00123000
14.59999930	-0.15871060	-77.47908000	-30.00123000
14.79999929	0.00000000	-77.43602000	-30.00123000
14.99999928	0.00000000	-77.10384000	-30.00123000
15.19999927	0.00000000	-76.69167000	-30.00123000
15.39999926	0.00000000	-76.77165000	-30.00123000
15.59999924	0.00000000	-77.06693000	-30.00123000
15.79999923	0.00000000	-77.84818000	-30.00123000
15.99999922	0.00000000	-77.81126000	-30.00123000
16.19999921	0.00000000	-77.52214000	-30.00123000
16.39999920	0.00000000	-77.47908000	-30.00123000
16.59999919	-0.15871060	-77.43602000	-30.00123000
16.79999917	0.00000000	-77.06077000	-30.00123000
16.99999916	0.00000000	-76.27337000	-30.00123000
17.19999915	0.00000000	-75.52288000	-30.00123000
17.39999914	0.00000000	-74.78469000	-30.00123000
17.59999913	0.00000000	-74.78469000	-30.00123000
17.79999911	0.00000000	-75.47981000	-30.00123000
17.99999910	0.00000000	-75.94118000	-30.00123000
18.19999909	0.00000000	-76.78395000	-30.00123000
18.39999908	0.00000000	-78.68478000	-30.00123000
18.59999907	0.00000000	-80.54871000	-30.00123000
18.79999905	0.00000000	-81.75443000	-30.00123000
18.99999904	0.00000000	-82.08661000	-30.00123000
19.19999903	0.00000000	-81.33611000	-30.00123000
19.39999902	0.00000000	-79.34301000	-30.00123000
19.59999901	0.00000000	-76.59325000	-30.00123000
19.79999900	0.00000000	-72.69316000	-30.00123000
19.99999898	0.00000000	-68.54699000	-30.00123000
20.19999897	0.00000000	-65.84645000	-30.00123000
20.39999896	0.00000000	-65.47121000	-30.00123000
20.59999895	0.00000000	-67.47047000	-30.00123000
20.79999894	0.00000000	-72.17027000	-30.00123000
20.99999892	0.00000000	-79.15231000	-30.00123000
21.19999891	0.00000000	-86.87254000	-30.00123000
21.39999890	0.00000000	-93.76230000	-30.00123000
21.59999889	0.00000000	-97.57627000	-30.00123000
21.79999888	0.00000000	-96.69659000	-30.00123000
21.99999886	0.00000000	-90.87720000	-30.00123000
22.19999885	0.00000000	-80.41338000	-30.00123000
22.39999884	0.00000000	-68.07948000	-30.00123000
22.59999883	0.00000000	-56.40379000	-30.00123000
22.79999882	0.00000000	-47.65010000	-30.00123000
22.99999881	0.00000000	-44.67889000	-29.95817000
23.19999879	0.00000000	-49.74163000	-29.58292000
23.39999878	0.00000000	-61.74950000	-28.83858000
23.59999877	0.00000000	-78.40797000	-28.42027000
23.79999876	0.00000000	-96.54896000	-28.04503000
23.99999875	0.00000000	-111.54030000	-27.72515000
24.19999873	0.00000000	-119.58660000	-28.46333000
24.39999872	0.00000000	-117.96260000	-29.58292000
24.59999871	0.00000000	-106.37300000	-30.41954000
24.79999870	0.00000000	-87.38926000	-31.62524000
24.99999869	0.00000000	-65.00369000	-33.15699000
25.19999867	0.00000000	-44.16830000	-34.64567000
25.39999866	0.00000000	-30.33957000	-35.38385000
25.59999865	0.00000000	-26.85777000	-34.60261000
25.79999864	0.00000000	-34.99015000	-32.69562000
25.99999863	0.00000000	-52.76820000	-29.90895000
26.19999862	0.00000000	-76.36565000	-26.42101000
26.39999860	0.00000000	-100.69510000	-22.57013000
26.59999859	0.00000000	-119.96190000	-19.58661000
26.79999858	0.00000000	-129.58910000	-18.84842000
26.99999857	0.00000000	-126.88850000	-21.16757000
27.19999856	0.00000000	-112.65380000	-25.86122000
27.39999854	0.00000000	-90.68651000	-32.41880000
27.59999853	0.00000000	-66.30782000	-39.79454000
27.79999852	0.00000000	-45.04183000	-45.93996000
27.99999851	0.00000000	-31.09006000	-50.15994000
28.19999850	0.00000000	-27.59596000	-50.39985000
28.39999848	0.00000000	-34.90403000	-45.74926000
28.59999847	0.00000000	-51.14419000	-36.82948000
28.79999846	0.00000000	-72.73621000	-25.26452000
28.99999845	0.00000000	-94.37131000	-13.69340000
29.19999844	0.00000000	-111.02980000	-4.81668300
29.39999843	0.00000000	-119.58660000	-0.63976370
29.59999841	0.00000000	-118.46700000	-2.68208600
29.79999840	0.00000000	-108.50760000	-11.55266000
29.99999839	0.00000000	-92.69193000	-25.39985000
30.19999838	0.00000000	-74.87081000	-40.50196000
30.39999837	0.00000000	-58.58760000	-54.06619000
30.59999835	0.00000000	-46.95497000	-63.63803000
30.79999834	0.00000000	-42.25517000	-66.28937000
30.99999833	0.00000000	-44.91264000	-60.90059000
31.19999832	0.00000000	-53.75246000	-48.91117000
31.39999831	0.00000000	-66.54158000	-32.64640000
31.59999829	0.00000000	-80.46259000	-15.27436000
31.79999828	0.00000000	-92.87647000	-0.63976370
31.99999827	0.00000000	-100.97810000	7.86171200
32.19999826	0.00000000	-103.39570000	8.28001900
32.39999825	0.00000000	-99.95693000	0.94119090
32.59999824	0.00000000	-92.22440000	-12.62303000
32.79999822	0.00000000	-81.75443000	-30.00123000
32.99999821	0.00000000	-70.58932000	-47.37327000
33.19999820	0.00000000	-61.70029000	-60.90059000
33.39999819	0.00000000	-57.00049000	-67.86417000
33.59999818	0.00000000	-56.95743000	-66.70767000
33.79999816	0.00000000	-61.19586000	-57.87401000
33.99999815	0.00000000	-68.50394000	-43.56545000
34.19999814	0.00000000	-76.96850000	-26.93159000
34.39999813	0.00000000	-84.31963000	-11.09129000
34.59999812	0.00000000	-88.97022000	0.47982280
34.79999810	0.00000000	-90.17593000	5.12426100
34.99999809	0.00000000	-87.85679000	2.10383800
35.19999808	0.00000000	-82.87401000	-7.55413300
35.39999807	0.00000000	-76.36565000	-21.40748000
35.59999806	0.00000000	-70.58932000	-36.46038000
35.79999805	0.00000000	-67.05216000	-48.81889000
35.99999803	0.00000000	-65.88951000	-56.20694000
36.19999802	0.00000000	-67.47047000	-57.32037000
36.39999801	0.00000000	-71.66584000	-51.60556000
36.59999800	0.00000000	-77.01156000	-40.87721000
36.79999799	0.00000000	-81.66830000	-28.55561000
36.99999797	0.00000000	-84.73794000	-17.40280000
37.19999796	0.00000000	-85.48228000	-10.43922000
37.39999795	0.00000000	-83.20619000	-9.27042300
37.59999794	0.00000000	-79.01697000	-13.45964000
37.79999793	0.00000000	-74.36023000	-22.33022000
37.99999791	0.00000000	-70.12794000	-32.97859000
38.19999790	0.00000000	-67.42741000	-42.17519000
38.39999789	0.00000000	-67.00910000	-46.77657000
38.59999788	0.00000000	-68.54699000	-45.70620000
38.79999787	0.00000000	-71.66584000	-39.99138000
38.99999786	0.00000000	-75.94118000	-31.53297000
39.19999784	0.00000000	-80.54871000	-22.69931000
39.39999783	0.00000000	-84.41190000	-15.82800000
39.59999782	0.00000000	-86.31889000	-13.17667000
39.79999781	0.00000000	-85.99286000	-15.87106000
39.99999780	0.00000000	-83.71062000	-23.12377000
40.19999778	0.00000000	-80.54871000	-32.68946000
40.39999777	0.00000000	-76.64246000	-41.52312000
40.59999776	0.00000000	-72.04109000	-47.28715000
40.79999775	0.00000000	-68.59006000	-48.40059000
40.99999774	0.00000000	-66.95989000	-44.21752000
41.19999772	0.00000000	-66.95989000	-36.13435000
41.39999771	0.00000000	-68.54699000	-26.55635000
41.59999770	0.00000000	-71.62278000	-17.68578000
41.79999769	0.00000000	-75.47981000	-12.33391000
41.99999768	0.00000000	-79.01697000	-11.50960000
42.19999767	0.00000000	-82.12967000	-15.36048000
42.39999765	0.00000000	-84.41190000	-22.61319000
42.59999764	0.00000000	-84.78715000	-31.11466000
42.79999763	0.00000000	-83.29231000	-38.78568000
42.99999762	0.00000000	-80.59792000	-43.84842000
43.19999761	0.00000000	-77.52214000	-45.01107000
43.39999759	0.00000000	-74.82775000	-42.72884000
43.59999758	0.00000000	-73.20374000	-37.34006000
43.79999757	0.00000000	-72.40403000	-30.46260000
43.99999756	0.00000000	-71.99188000	-24.32948000
44.19999755	0.00000000	-72.40403000	-20.42938000
44.39999753	0.00000000	-73.15452000	-19.59276000
44.59999752	0.00000000	-74.22490000	-21.08145000
44.79999751	0.00000000	-74.63705000	-24.15108000
44.99999750	0.00000000	-73.94807000	-28.00197000
45.19999749	0.00000000	-74.03419000	-31.48991000
45.39999748	0.00000000	-74.78469000	-34.22736000
45.59999746	0.00000000	-76.36565000	-35.75910000
45.79999745	0.00000000	-78.68478000	-35.80217000
45.99999744	0.00000000	-81.05930000	-34.64567000
46.19999743	0.00000000	-83.75984000	-32.69562000
46.39999742	0.00000000	-85.94365000	-30.00123000
46.59999740	0.00000000	-85.85753000	-27.34990000
46.79999739	0.00000000	-82.78174000	-25.77510000
46.99999738	0.00000000	-77.38681000	-25.35679000
47.19999737	0.00000000	-71.19833000	-25.72589000
47.39999736	0.00000000	-65.42815000	-26.93159000
47.59999734	0.00000000	-61.56496000	-28.83858000
47.79999733	0.00000000	-60.81446000	-31.15772000
47.99999732	0.00000000	-63.19512000	-33.11393000
48.19999731	0.00000000	-69.05757000	-34.64567000
48.39999730	0.00000000	-77.47908000	-35.34079000
48.59999729	0.00000000	-85.94365000	-34.18430000
48.79999727	0.00000000	-92.13213000	-31.53297000
48.99999726	0.00000000	-94.83266000	-28.42027000
49.19999725	0.00000000	-93.25172000	-25.35064000
49.39999724	0.00000000	-87.43848000	-23.07455000
49.59999723	0.00000000	-78.54945000	-22.65625000
49.79999721	0.00000000	-68.59006000	-23.77584000
49.99999720	0.00000000	-60.49458000	-25.77510000
50.19999719	0.00000000	-56.63139000	-28.88779000
50.39999718	0.00000000	-57.42495000	-32.68946000
50.59999717	0.00000000	-63.19512000	-35.75910000
50.79999715	0.00000000	-72.36097000	-37.34006000
50.99999714	0.00000000	-81.62524000	-37.29700000
51.19999713	0.00000000	-88.97022000	-35.34079000
51.39999712	0.00000000	-92.83341000	-31.53297000
51.59999711	0.00000000	-92.04601000	-27.30684000
51.79999710	0.00000000	-87.06323000	-23.81890000
51.99999708	0.00000000	-79.01697000	-21.49975000
52.19999707	0.00000000	-70.54626000	-21.12451000
52.39999706	0.00000000	-63.98253000	-22.61319000
52.59999705	0.00000000	-60.53764000	-25.35064000
52.79999704	0.00000000	-61.70029000	-28.83858000
52.99999702	0.00000000	-67.00910000	-32.68946000
53.19999701	0.00000000	-74.31717000	-35.71604000
53.39999700	0.00000000	-81.62524000	-36.87254000
53.59999699	0.00000000	-87.01402000	-35.75910000
53.79999698	0.00000000	-88.92716000	-33.11393000
53.99999696	0.00000000	-87.06323000	-30.04429000
54.19999695	0.00000000	-82.04355000	-27.34990000
54.39999694	0.00000000	-75.52288000	-25.81816000
54.59999693	0.00000000	-69.00836000	-25.77510000
54.79999692	0.00000000	-64.81914000	-26.88853000
54.99999691	0.00000000	-64.35162000	-28.42027000
55.19999689	0.00000000	-67.00910000	-29.95201000
55.39999688	0.00000000	-71.61663000	-31.11466000
55.59999687	0.00000000	-77.06077000	-31.44069000
55.79999686	0.00000000	-81.99433000	-30.69636000
55.99999685	0.00000000	-85.15009000	-28.79552000
56.19999683	0.00000000	-85.53149000	-26.97465000
56.39999682	0.00000000	-83.98745000	-26.19340000
56.59999681	0.00000000	-80.08734000	-26.93159000
56.79999680	0.00000000	-74.78469000	-28.51255000
56.99999679	0.00000000	-70.17101000	-30.88090000
57.19999677	0.00000000	-67.42741000	-34.27042000
57.39999676	0.00000000	-67.00910000	-36.92175000
57.59999675	0.00000000	-68.54699000	-37.67224000
57.79999674	0.00000000	-71.62278000	-36.50344000
57.99999673	0.00000000	-75.47981000	-33.02165000
58.19999672	0.00000000	-78.92471000	-28.42027000
58.39999670	0.00000000	-81.24999000	-23.77584000
58.59999669	0.00000000	-81.66830000	-19.96186000
58.79999668	0.00000000	-80.54871000	-18.47318000
58.99999667	0.00000000	-78.64173000	-20.01107000
59.19999666	0.00000000	-76.27337000	-24.23720000
59.39999664	0.00000000	-74.03419000	-30.04429000
59.59999663	0.00000000	-72.41633000	-36.22662000
59.79999662	0.00000000	-72.07800000	-41.56618000
59.99999661	0.00000000	-72.41633000	-44.17446000
60.19999660	0.00000000	-73.98499000	-42.68578000
60.39999658	0.00000000	-75.76279000	-37.71530000
60.59999657	0.00000000	-76.64246000	-31.11466000
60.79999656	0.00000000	-76.64862000	-23.76968000
60.99999655	0.00000000	-76.68553000	-17.26747000
61.19999654	0.00000000	-76.27337000	-13.82874000
61.39999653	0.00000000	-75.89813000	-14.20399000
61.59999651	0.00000000	-75.47981000	-18.47318000
61.79999650	0.00000000	-74.78469000	-25.77510000
61.99999649	0.00000000	-74.82775000	-34.18430000
62.19999648	0.00000000	-75.89813000	-41.14788000
62.39999647	0.00000000	-77.01156000	-45.05413000
62.59999645	0.00000000	-77.43602000	-45.79847000
62.79999644	0.00000000	-77.43602000	-42.68578000
62.99999643	0.00000000	-77.01156000	-36.17741000
63.19999642	0.00000000	-75.85506000	-28.46333000
63.39999641	0.00000000	-74.36023000	-21.12451000
63.59999639	0.00000000	-73.20374000	-15.73573000
63.79999638	0.00000000	-72.77928000	-13.78568000
63.99999637	0.00000000	-72.77928000	-15.27436000
64.19999636	0.00000000	-73.20374000	-19.54355000
64.39999635	0.00000000	-74.36023000	-25.72589000
64.59999634	0.00000000	-75.85506000	-32.64640000
64.79999632	0.00000000	-77.01156000	-38.41043000
64.99999631	0.00000000	-77.43602000	-41.56618000
65.19999630	0.00000000	-77.43602000	-41.99065000
65.39999629	0.00000000	-77.06077000	-40.07751000
65.59999628	0.00000000	-76.27337000	-36.17741000
65.79999626	0.00000000	-75.47981000	-31.20078000
65.99999625	0.00000000	-74.36023000	-26.14419000
66.19999624	0.00000000	-73.66510000	-22.28100000
66.39999623	0.00000000	-74.40945000	-19.91880000
66.59999622	0.00000000	-75.85506000	-19.50049000
66.79999620	0.00000000	-77.06077000	-20.61393000
66.99999619	0.00000000	-77.81126000	-22.57013000
67.19999618	0.00000000	-78.17421000	-25.30758000
67.39999617	0.00000000	-77.34374000	-28.42027000
67.59999616	0.00000000	-75.47981000	-31.53297000
67.79999615	0.00000000	-73.15452000	-34.27042000
67.99999613	0.00000000	-71.24754000	-36.26968000
68.19999612	0.00000000	-70.08488000	-37.80142000
68.39999611	0.00000000	-70.12794000	-38.50270000
68.59999610	0.00000000	-71.66584000	-37.29700000
68.79999609	0.00000000	-74.40945000	-34.22736000
68.99999607	0.00000000	-77.89738000	-30.00123000
69.19999606	0.00000000	-81.71136000	-25.72589000
69.39999605	0.00000000	-84.36269000	-22.19488000
69.59999604	0.00000000	-84.78715000	-19.50049000
69.79999603	0.00000000	-83.20619000	-18.38706000
69.99999601	0.00000000	-79.71210000	-19.58661000
70.19999600	0.00000000	-74.69241000	-23.03149000
70.39999599	0.00000000	-69.70964000	-28.04503000
70.59999598	0.00000000	-65.75418000	-33.06471000
70.79999597	0.00000000	-63.51500000	-37.34006000
70.99999596	0.00000000	-63.56421000	-40.03444000
71.19999594	0.00000000	-67.05216000	-40.40969000
71.39999593	0.00000000	-72.73621000	-38.50270000
71.59999592	0.00000000	-78.59251000	-34.64567000
71.79999591	0.00000000	-83.62450000	-30.04429000
71.99999590	0.00000000	-87.10630000	-25.72589000
72.19999588	0.00000000	-87.85679000	-22.28100000
72.39999587	0.00000000	-85.94365000	-20.38632000
72.59999586	0.00000000	-81.66830000	-21.12451000
72.79999585	0.00000000	-75.89813000	-23.72662000
72.99999584	0.00000000	-70.12794000	-26.83932000
73.19999582	0.00000000	-65.84645000	-29.95201000
73.39999581	0.00000000	-63.89025000	-32.60334000
73.59999580	0.00000000	-64.26550000	-33.80905000
73.79999579	0.00000000	-66.95989000	-33.43996000
73.99999578	0.00000000	-71.19833000	-32.36343000
74.19999577	0.00000000	-75.85506000	-30.79478000
74.39999575	0.00000000	-80.13041000	-29.71826000
74.59999574	0.00000000	-83.20619000	-29.25689000
74.79999573	0.00000000	-84.36269000	-29.66904000
74.99999572	0.00000000	-83.24926000	-30.37647000
75.19999571	0.00000000	-80.54871000	-31.15772000
75.39999569	0.00000000	-77.10384000	-31.48376000
75.59999568	0.00000000	-73.62204000	-31.06545000
75.79999567	0.00000000	-71.29060000	-29.49065000
75.99999566	0.00000000	-70.08488000	-26.83932000
76.19999565	0.00000000	-70.08488000	-24.19414000
76.39999563	0.00000000	-71.19833000	-22.65625000
76.59999562	0.00000000	-72.73621000	-22.65625000
76.79999561	0.00000000	-74.27411000	-24.23720000
76.99999560	0.00000000	-75.43060000	-27.34990000
77.19999559	0.00000000	-75.85506000	-31.57603000
77.39999558	0.00000000	-75.89813000	-35.80217000
77.59999556	0.00000000	-75.89813000	-38.87795000
77.79999555	0.00000000	-75.89813000	-39.99138000
77.99999554	0.00000000	-75.94118000	-38.41043000
78.19999553	0.00000000	-76.31644000	-34.22736000
78.39999552	0.00000000	-77.06077000	-28.83858000
78.59999550	0.00000000	-77.38681000	-23.81890000
78.79999549	0.00000000	-77.01156000	-19.91880000
78.99999548	0.00000000	-75.85506000	-18.01181000
79.19999547	0.00000000	-74.31717000	-18.38706000
79.39999546	0.00000000	-72.73621000	-21.08145000
79.59999544	0.00000000	-71.19833000	-25.30758000
79.79999543	0.00000000	-70.08488000	-29.95817000
79.99999542	0.00000000	-70.12794000	-34.22736000
80.19999541	0.00000000	-71.66584000	-37.29700000
80.39999540	0.00000000	-74.31717000	-38.50270000
80.59999539	0.00000000	-77.01156000	-37.71530000
80.79999537	0.00000000	-78.96776000	-35.43307000
80.99999536	0.00000000	-80.13041000	-31.95128000
81.19999535	0.00000000	-80.13041000	-28.46333000
81.39999534	0.00000000	-78.96776000	-25.30758000
81.59999533	0.00000000	-77.01156000	-22.61319000
81.79999531	0.00000000	-74.31717000	-21.08145000
81.99999530	0.00000000	-71.66584000	-21.03838000
82.19999529	0.00000000	-70.08488000	-22.19488000
82.39999528	0.00000000	-69.70964000	-24.14493000
82.59999527	0.00000000	-70.46014000	-26.88853000
82.79999525	0.00000000	-72.40403000	-29.95201000
82.99999524	0.00000000	-74.64935000	-32.69562000
83.19999523	0.00000000	-76.64246000	-34.64567000
83.39999522	0.00000000	-77.76205000	-35.85138000
83.59999521	0.00000000	-78.17421000	-36.17741000
83.79999520	0.00000000	-77.43602000	-35.38385000
83.99999518	0.00000000	-76.31644000	-33.06471000
84.19999517	0.00000000	-75.52288000	-30.00123000
84.39999516	0.00000000	-74.73548000	-26.83932000
84.59999515	0.00000000	-74.36023000	-23.72662000
84.79999514	0.00000000	-74.31717000	-21.08145000
84.99999512	0.00000000	-74.31717000	-19.96801000
85.19999511	0.00000000	-74.31717000	-21.12451000
85.39999510	0.00000000	-74.31717000	-24.19414000
85.59999509	0.00000000	-74.31717000	-28.42027000
85.79999508	0.00000000	-74.31717000	-32.68946000
85.99999506	0.00000000	-74.31717000	-36.17741000
86.19999505	0.00000000	-74.31717000	-38.50270000
86.39999504	0.00000000	-74.36023000	-38.82874000
86.59999503	0.00000000	-74.78469000	-36.87869000
86.79999502	0.00000000	-75.89813000	-32.68946000
86.99999501	0.00000000	-77.01156000	-27.72515000
87.19999499	0.00000000	-77.43602000	-23.81890000
87.39999498	0.00000000	-77.43602000	-21.08145000
87.59999497	0.00000000	-77.01156000	-20.01107000
87.79999496	0.00000000	-75.85506000	-21.54281000
87.99999495	0.00000000	-74.36023000	-25.35679000
88.19999493	0.00000000	-73.15452000	-29.95817000
88.39999492	0.00000000	-72.40403000	-34.22736000
88.59999491	0.00000000	-72.04109000	-37.29700000
88.79999490	0.00000000	-72.77928000	-38.45349000
88.99999489	0.00000000	-73.94193000	-37.25394000
89.19999487	0.00000000	-75.11072000	-33.80905000
89.39999486	0.00000000	-76.64246000	-28.83858000
89.59999485	0.00000000	-77.34374000	-24.23720000
89.79999484	0.00000000	-77.06077000	-21.12451000
89.99999483	0.00000000	-76.27337000	-19.96801000
90.19999482	0.00000000	-75.52288000	-21.16757000
90.39999480	0.00000000	-74.73548000	-24.61245000
90.59999479	0.00000000	-74.31717000	-29.62598000
90.79999478	0.00000000	-73.94193000	-34.55955000
90.99999477	0.00000000	-73.57283000	-38.03519000
91.19999476	0.00000000	-73.94193000	-38.82874000
91.39999474	0.00000000	-74.27411000	-37.29700000
91.59999473	0.00000000	-74.31717000	-33.80905000
91.79999472	0.00000000	-74.31717000	-28.79552000
91.99999471	0.00000000	-74.27411000	-23.86196000
92.19999470	0.00000000	-73.94193000	-20.38632000
92.39999468	0.00000000	-73.57283000	-19.59276000
92.59999467	0.00000000	-73.98499000	-21.12451000
92.79999466	0.00000000	-74.69241000	-24.61245000
92.99999465	0.00000000	-75.52288000	-29.58292000
93.19999464	0.00000000	-76.27337000	-34.18430000
93.39999463	0.00000000	-77.06077000	-37.25394000
93.59999461	0.00000000	-77.38681000	-37.99213000
93.79999460	0.00000000	-77.01156000	-35.71604000
93.99999459	0.00000000	-75.85506000	-31.53297000
94.19999458	0.00000000	-74.27411000	-26.93159000
94.39999457	0.00000000	-72.31791000	-23.07455000
94.59999455	0.00000000	-70.08488000	-21.16757000
94.79999454	0.00000000	-68.92224000	-21.49975000
94.99999453	0.00000000	-69.29134000	-23.81890000
95.19999452	0.00000000	-70.46014000	-27.25763000
95.39999451	0.00000000	-72.82849000	-31.11466000
95.59999449	0.00000000	-75.89813000	-34.18430000
95.79999448	0.00000000	-78.96776000	-35.71604000
95.99999447	0.00000000	-81.24999000	-35.34079000
96.19999446	0.00000000	-81.66830000	-33.02165000
96.39999445	0.00000000	-80.50565000	-29.62598000
96.59999444	0.00000000	-78.17421000	-26.14419000
96.79999442	0.00000000	-74.64935000	-23.86196000
96.99999441	0.00000000	-70.82307000	-23.03149000
97.19999440	0.00000000	-67.33513000	-23.81890000
97.39999439	0.00000000	-65.47121000	-25.68282000
97.59999438	0.00000000	-65.80339000	-28.00197000
97.79999436	0.00000000	-68.12868000	-29.90895000
97.99999435	0.00000000	-71.57356000	-31.11466000
98.19999434	0.00000000	-75.47981000	-31.48376000
98.39999433	0.00000000	-78.96776000	-31.11466000
98.59999432	0.00000000	-81.66830000	-30.00123000
98.79999430	0.00000000	-82.83096000	-28.88779000
98.99999429	0.00000000	-82.08661000	-28.42027000
99.19999428	0.00000000	-80.13041000	-28.04503000
99.39999427	0.00000000	-77.01156000	-27.67593000
99.59999426	0.00000000	-73.15452000	-28.04503000
99.79999425	0.00000000	-69.70964000	-28.32800000
99.99999423	0.00000000	-67.33513000	-28.00197000
100.19999422	0.00000000	-66.58464000	-27.25763000
100.39999421	0.00000000	-67.33513000	-26.88238000
100.59999420	0.00000000	-69.66043000	-26.88238000
100.79999419	0.00000000	-72.73621000	-27.30684000
100.99999417	0.00000000	-75.85506000	-28.46333000
101.19999416	0.00000000	-78.59251000	-30.00123000
101.39999415	0.00000000	-80.50565000	-31.57603000
101.59999414	0.00000000	-81.29305000	-33.06471000
101.79999413	0.00000000	-80.50565000	-33.80905000
101.99999411	0.00000000	-78.64173000	-33.02165000
102.19999410	0.00000000	-76.27337000	-31.11466000
102.39999409	0.00000000	-73.94193000	-28.42027000
102.59999408	0.00000000	-71.62278000	-25.72589000
102.79999407	0.00000000	-70.08488000	-23.77584000
102.99999406	0.00000000	-69.66658000	-22.61319000
103.19999404	0.00000000	-70.04182000	-22.69931000
103.39999403	0.00000000	-71.19833000	-24.61245000
103.59999402	0.00000000	-72.77928000	-28.00197000
103.79999401	0.00000000	-74.69241000	-31.11466000
103.99999400	0.00000000	-76.64246000	-33.43996000
104.19999398	0.00000000	-77.76205000	-35.01476000
104.39999397	0.00000000	-78.22342000	-34.97785000
104.59999396	0.00000000	-77.76205000	-33.85211000
104.79999395	0.00000000	-76.64246000	-31.48991000
104.99999394	0.00000000	-74.73548000	-28.46333000
105.19999392	0.00000000	-73.20374000	-25.77510000
105.39999391	0.00000000	-72.36097000	-24.19414000
105.59999390	0.00000000	-71.62278000	-23.81890000
105.79999389	0.00000000	-71.66584000	-24.56324000
105.99999388	0.00000000	-72.77928000	-26.51329000
106.19999387	0.00000000	-74.27411000	-28.79552000
106.39999385	0.00000000	-75.43060000	-31.11466000
106.59999384	0.00000000	-75.85506000	-32.64640000
106.79999383	0.00000000	-75.89813000	-33.02165000
106.99999382	0.00000000	-75.85506000	-32.27731000
107.19999381	0.00000000	-75.43060000	-30.37647000
107.39999379	0.00000000	-74.31717000	-28.46333000
107.59999378	0.00000000	-73.20374000	-26.88853000
107.79999377	0.00000000	-72.77928000	-25.77510000
107.99999376	0.00000000	-72.77928000	-25.77510000
108.19999375	0.00000000	-73.20374000	-26.88853000
108.39999374	0.00000000	-74.31717000	-28.42027000
108.59999372	0.00000000	-75.47981000	-30.00123000
108.79999371	0.00000000	-76.23032000	-31.48991000
108.99999370	0.00000000	-76.64246000	-32.22810000
109.19999369	0.00000000	-76.23032000	-31.48991000
109.39999368	0.00000000	-75.47981000	-30.00123000
109.59999366	0.00000000	-74.31717000	-28.42027000
109.79999365	0.00000000	-73.15452000	-26.88853000
109.99999364	0.00000000	-72.36097000	-25.72589000
110.19999363	0.00000000	-71.62278000	-25.35679000
110.39999362	0.00000000	-71.66584000	-25.72589000
110.59999360	0.00000000	-72.73621000	-26.88853000
110.79999359	0.00000000	-73.89886000	-28.42027000
110.99999358	0.00000000	-74.69241000	-29.95201000
111.19999357	0.00000000	-75.52288000	-31.11466000
111.39999356	0.00000000	-76.18109000	-31.53297000
111.59999355	0.00000000	-76.21800000	-31.53297000
111.79999353	0.00000000	-75.11072000	-31.11466000
111.99999352	0.00000000	-74.36023000	-30.00123000
112.19999351	0.00000000	-73.89886000	-28.83858000
112.39999350	0.00000000	-73.15452000	-28.04503000
112.59999349	0.00000000	-72.77928000	-27.25763000
112.79999347	0.00000000	-72.73621000	-26.88238000
112.99999346	0.00000000	-72.77928000	-26.88238000
113.19999345	0.00000000	-73.15452000	-27.25763000
113.39999344	0.00000000	-73.89886000	-28.00197000
113.59999343	0.00000000	-74.27411000	-28.37721000
113.79999341	0.00000000	-74.31717000	-28.46333000
113.99999340	0.00000000	-74.31717000	-28.83858000
114.19999339	0.00000000	-74.31717000	-29.58292000
114.39999338	0.00000000	-74.31717000	-29.95817000
114.59999337	0.00000000	-74.31717000	-30.00123000
114.79999336	0.00000000	-74.31717000	-30.00123000
114.99999334	0.00000000	-74.27411000	-30.00123000
115.19999333	0.00000000	-73.89886000	-30.00123000
115.39999332	0.00000000	-73.15452000	-29.95817000
115.59999331	0.00000000	-72.82849000	-29.58292000
115.79999330	0.00000000	-73.15452000	-28.79552000
115.99999328	0.00000000	-73.89886000	-28.04503000
116.19999327	0.00000000	-74.27411000	-27.25763000
116.39999326	0.00000000	-74.31717000	-26.88238000
116.59999325	0.00000000	-74.31717000	-26.83932000
116.79999324	0.00000000	-74.31717000	-26.88238000
116.99999322	0.00000000	-74.27411000	-27.25763000
117.19999321	0.00000000	-73.89886000	-28.04503000
117.39999320	0.00000000	-73.15452000	-28.79552000
117.59999319	0.00000000	-72.77928000	-29.62598000
117.79999318	0.00000000	-72.69316000	-30.37647000
117.99999317	0.00000000	-72.36097000	-31.11466000
118.19999315	0.00000000	-71.99188000	-31.11466000
118.39999314	0.00000000	-72.40403000	-30.37647000
118.59999313	0.00000000	-73.15452000	-29.58292000
118.79999312	0.00000000	-74.31717000	-28.42027000
118.99999311	0.00000000	-75.43060000	-27.30684000
119.19999309	0.00000000	-75.85506000	-26.88238000
119.39999308	0.00000000	-75.89813000	-26.83932000
119.59999307	0.00000000	-75.85506000	-26.88238000
119.79999306	0.00000000	-75.43060000	-27.25763000
119.99999305	0.00000000	-74.27411000	-28.00197000
120.19999303	0.00000000	-72.77928000	-28.42027000
120.39999302	0.00000000	-71.62278000	-28.83858000
120.59999301	0.00000000	-71.19833000	-29.58292000
120.79999300	0.00000000	-71.19833000	-29.95817000
120.99999299	0.00000000	-71.57356000	-30.00123000
121.19999298	0.00000000	-72.36097000	-30.00123000
121.39999296	0.00000000	-73.15452000	-29.95817000
121.59999295	0.00000000	-74.31717000	-29.58292000
121.79999294	0.00000000	-75.47981000	-28.83858000
121.99999293	0.00000000	-76.23032000	-28.46333000
122.19999292	0.00000000	-76.64246000	-28.42027000
122.39999290	0.00000000	-76.23032000	-28.42027000
122.59999289	0.00000000	-75.52288000	-28.37721000
122.79999288	0.00000000	-74.64935000	-28.00197000
122.99999287	0.00000000	-73.52361000	-27.30684000
123.19999286	0.00000000	-71.99188000	-27.30684000
123.39999284	0.00000000	-71.24754000	-28.00197000
123.59999283	0.00000000	-71.15526000	-28.42027000
123.79999282	0.00000000	-71.24754000	-28.83858000
123.99999281	0.00000000	-71.99188000	-29.58292000
124.19999280	0.00000000	-73.48056000	-29.95817000
124.39999279	0.00000000	-74.27411000	-30.00123000
124.59999277	0.00000000	-74.73548000	-29.95817000
124.79999276	0.00000000	-75.47981000	-29.58292000
124.99999275	0.00000000	-75.85506000	-28.83858000
125.19999274	0.00000000	-75.89813000	-28.46333000
125.39999273	0.00000000	-75.85506000	-28.37721000
125.59999271	0.00000000	-75.43060000	-28.00197000
125.79999270	0.00000000	-74.31717000	-27.25763000
125.99999269	0.00000000	-73.15452000	-26.88238000
126.19999268	0.00000000	-72.36097000	-26.88238000
126.39999267	0.00000000	-71.57356000	-27.25763000
126.59999265	0.00000000	-71.19833000	-28.00197000
126.79999264	0.00000000	-71.19833000	-28.37721000
126.99999263	0.00000000	-71.62278000	-28.46333000
127.19999262	0.00000000	-72.73621000	-28.83858000
127.39999261	0.00000000	-73.89886000	-29.53371000
127.59999260	0.00000000	-74.69241000	-29.53371000
127.79999258	0.00000000	-75.47981000	-28.83858000
127.99999257	0.00000000	-75.80585000	-28.46333000
128.19999256	0.00000000	-75.43060000	-28.42027000
128.39999255	0.00000000	-74.27411000	-28.37721000
128.59999254	0.00000000	-72.77928000	-28.04503000
128.79999252	0.00000000	-71.62278000	-27.67593000
128.99999251	0.00000000	-71.19833000	-28.04503000
129.19999250	0.00000000	-71.19833000	-28.37721000
129.39999249	0.00000000	-71.62278000	-28.42027000
129.59999248	0.00000000	-72.73621000	-28.46333000
129.79999246	0.00000000	-73.89886000	-28.79552000
129.99999245	0.00000000	-74.69241000	-29.20767000
130.19999244	0.00000000	-75.47981000	-29.17077000
130.39999243	0.00000000	-75.80585000	-29.20767000
130.59999242	0.00000000	-75.47981000	-28.79552000
130.79999241	0.00000000	-74.69241000	-28.42027000
130.99999239	0.00000000	-73.94193000	-28.04503000
131.19999238	0.00000000	-73.11147000	-27.67593000
131.39999237	0.00000000	-72.40403000	-28.04503000
131.59999236	0.00000000	-71.99188000	-28.37721000
131.79999235	0.00000000	-72.36097000	-28.46333000
131.99999233	0.00000000	-72.73621000	-28.83858000
132.19999232	0.00000000	-73.15452000	-29.58292000
132.39999231	0.00000000	-73.89886000	-29.95817000
132.59999230	0.00000000	-74.27411000	-29.95817000
132.79999229	0.00000000	-74.31717000	-29.58292000
132.99999227	0.00000000	-74.31717000	-28.79552000
133.19999226	0.00000000	-74.27411000	-28.04503000
133.39999225	0.00000000	-73.94193000	-27.25763000
133.59999224	0.00000000	-73.57283000	-26.88238000
133.79999223	0.00000000	-73.89886000	-26.88238000
133.99999222	0.00000000	-73.89886000	-27.25763000
134.19999220	0.00000000	-73.52977000	-28.04503000
134.39999219	0.00000000	-73.52361000	-28.79552000
134.59999218	0.00000000	-73.11147000	-29.58292000
134.79999217	0.00000000	-72.77928000	-29.95817000
134.99999216	0.00000000	-72.73621000	-30.00123000
135.19999214	0.00000000	-72.73621000	-30.00123000
135.39999213	0.00000000	-72.73621000	-29.95817000
135.59999212	0.00000000	-72.77928000	-29.58292000
135.79999211	0.00000000	-73.15452000	-28.79552000
135.99999210	0.00000000	-73.89886000	-28.04503000
136.19999208	0.00000000	-74.27411000	-27.25763000
136.39999207	0.00000000	-74.31717000	-26.93159000
136.59999206	0.00000000	-74.31717000	-27.21457000
136.79999205	0.00000000	-74.31717000	-27.62672000
136.99999204	0.00000000	-74.27411000	-27.67593000
137.19999203	0.00000000	-73.89886000	-28.46333000
137.39999201	0.00000000	-73.11147000	-29.53371000
137.59999200	0.00000000	-72.36097000	-29.95817000
137.79999199	0.00000000	-71.62278000	-30.00123000
137.99999198	0.00000000	-71.62278000	-30.00123000
138.19999197	0.00000000	-72.31791000	-30.00123000
138.39999195	0.00000000	-72.73621000	-29.95817000
138.59999194	0.00000000	-73.15452000	-29.58292000
138.79999193	0.00000000	-73.89886000	-28.83858000
138.99999192	0.00000000	-74.27411000	-28.42027000
139.19999191	0.00000000	-74.31717000	-28.00197000
139.39999189	0.00000000	-74.27411000	-27.25763000
139.59999188	0.00000000	-73.89886000	-26.88238000
139.79999187	0.00000000	-73.15452000	-26.88238000
139.99999186	0.00000000	-72.73621000	-27.25763000
140.19999185	0.00000000	-72.36097000	-28.04503000
140.39999184	0.00000000	-71.99188000	-28.79552000
140.59999182	0.00000000	-72.36097000	-29.58292000
140.79999181	0.00000000	-72.73621000	-29.95817000
140.99999180	0.00000000	-73.15452000	-30.00123000
141.19999179	0.00000000	-73.89886000	-29.95817000
141.39999178	0.00000000	-74.22490000	-29.58292000
141.59999176	0.00000000	-73.89886000	-28.79552000
141.79999175	0.00000000	-73.15452000	-28.04503000
141.99999174	0.00000000	-72.77928000	-27.25763000
142.19999173	0.00000000	-72.73621000	-26.88238000
142.39999172	0.00000000	-72.73621000	-26.83932000
142.59999170	0.00000000	-72.73621000	-26.88238000
142.79999169	0.00000000	-72.73621000	-27.25763000
142.99999168	0.00000000	-72.73621000	-28.04503000
143.19999167	0.00000000	-72.77928000	-28.79552000
143.39999166	0.00000000	-73.11147000	-29.58292000
143.59999165	0.00000000	-73.52361000	-29.95817000
143.79999163	0.00000000	-73.48671000	-29.95817000
143.99999162	0.00000000	-73.52361000	-29.58292000
144.19999161	0.00000000	-73.11147000	-28.83858000
144.39999160	0.00000000	-72.77928000	-28.42027000
144.59999159	0.00000000	-72.73621000	-28.00197000
144.79999157	0.00000000	-72.73621000	-27.25763000
144.99999156	0.00000000	-72.73621000	-26.88238000
145.19999155	0.00000000	-72.73621000	-26.88238000
145.39999154	0.00000000	-72.73621000	-27.25763000
145.59999153	0.00000000	-72.77928000	-28.00197000
145.79999151	0.00000000	-73.11147000	-28.37721000
145.99999150	0.00000000	-73.48056000	-28.46333000
146.19999149	0.00000000	-73.15452000	-28.83858000
146.39999148	0.00000000	-73.15452000	-29.58292000
146.59999147	0.00000000	-73.48056000	-29.90895000
146.79999146	0.00000000	-73.11147000	-29.58292000
146.99999144	0.00000000	-72.77928000	-28.83858000
147.19999143	0.00000000	-72.73621000	-28.46333000
147.39999142	0.00000000	-72.69316000	-28.37721000
147.59999141	0.00000000	-72.36097000	-28.00197000
147.79999140	0.00000000	-72.04109000	-27.25763000
147.99999138	0.00000000	-72.77928000	-26.93159000
148.19999137	0.00000000	-73.84965000	-27.25763000
148.39999136	0.00000000	-74.27411000	-28.00197000
148.59999135	0.00000000	-74.27411000	-28.37721000
148.79999134	0.00000000	-73.94193000	-28.46333000
148.99999132	0.00000000	-73.48671000	-28.79552000
149.19999131	0.00000000	-73.14838000	-29.16461000
149.39999130	0.00000000	-72.36712000	-28.79552000
149.59999129	0.00000000	-72.40403000	-28.46333000
149.79999128	0.00000000	-72.69316000	-28.42027000
149.99999127	0.00000000	-72.73621000	-28.42027000
150.19999125	0.00000000	-72.73621000	-28.37721000
150.39999124	0.00000000	-72.73621000	-28.04503000
150.59999123	0.00000000	-72.77928000	-27.67593000
150.79999122	0.00000000	-73.11147000	-28.04503000
150.99999121	0.00000000	-73.52361000	-28.37721000
151.19999119	0.00000000	-73.52977000	-28.42027000
151.39999118	0.00000000	-73.89886000	-28.42027000
151.59999117	0.00000000	-73.84965000	-28.42027000
151.79999116	0.00000000	-73.15452000	-28.42027000
151.99999115	0.00000000	-72.77928000	-28.42027000
152.19999113	0.00000000	-72.73621000	-28.42027000
152.39999112	0.00000000	-72.69316000	-28.42027000
152.59999111	0.00000000	-72.31791000	-28.42027000
152.79999110	0.00000000	-71.57356000	-28.42027000
152.99999109	0.00000000	-71.24754000	-28.42027000
153.19999108	0.00000000	-71.57356000	-28.42027000
153.39999106	0.00000000	-72.31791000	-28.37721000
153.59999105	0.00000000	-72.69316000	-28.04503000
153.79999104	0.00000000	-72.73621000	-27.63287000
153.99999103	0.00000000	-72.77928000	-27.66978000
154.19999102	0.00000000	-73.15452000	-27.63287000
154.39999100	0.00000000	-73.89886000	-28.00197000
154.59999099	0.00000000	-74.22490000	-28.00197000
154.79999098	0.00000000	-73.84965000	-27.67593000
154.99999097	0.00000000	-72.77928000	-28.04503000
155.19999096	0.00000000	-71.99188000	-28.37721000
155.39999094	0.00000000	-71.94266000	-28.42027000
155.59999093	0.00000000	-71.53051000	-28.42027000
155.79999092	0.00000000	-71.19833000	-28.42027000
155.99999091	0.00000000	-71.19833000	-28.42027000
156.19999090	0.00000000	-71.57356000	-28.37721000
156.39999089	0.00000000	-72.31791000	-28.00197000
156.59999087	0.00000000	-72.73621000	-27.25763000
156.79999086	0.00000000	-73.15452000	-26.88238000
156.99999085	0.00000000	-73.89886000	-26.83932000
157.19999084	0.00000000	-74.22490000	-26.83932000
157.39999083	0.00000000	-73.89886000	-26.88238000
157.59999081	0.00000000	-73.15452000	-27.25763000
157.79999080	0.00000000	-72.73621000	-28.00197000
157.99999079	0.00000000	-72.31791000	-28.37721000
158.19999078	0.00000000	-71.57356000	-28.42027000
158.39999077	0.00000000	-71.19833000	-28.42027000
158.59999075	0.00000000	-71.15526000	-28.42027000
158.79999074	0.00000000	-71.19833000	-28.42027000
158.99999073	0.00000000	-71.57356000	-28.37721000
159.19999072	0.00000000	-72.31791000	-28.00197000
159.39999071	0.00000000	-72.69316000	-27.25763000
159.59999070	0.00000000	-72.73621000	-26.88238000
159.79999068	0.00000000	-72.73621000	-26.83932000
159.99999067	0.00000000	-72.73621000	-26.83932000
160.19999066	0.00000000	-72.73621000	-26.88238000
160.39999065	0.00000000	-72.73621000	-27.25763000
160.59999064	0.00000000	-72.73621000	-28.00197000
160.79999062	0.00000000	-72.73621000	-28.37721000
160.99999061	0.00000000	-72.73621000	-28.42027000
161.19999060	0.00000000	-72.73621000	-28.42027000
161.39999059	0.00000000	-72.73621000	-28.42027000
161.59999058	0.00000000	-72.73621000	-28.42027000
161.79999056	0.00000000	-72.69316000	-28.42027000
161.99999055	0.00000000	-72.36097000	-28.37721000
162.19999054	0.00000000	-71.99188000	-28.00197000
162.39999053	0.00000000	-72.36097000	-27.30684000
162.59999052	0.00000000	-72.69316000	-27.30684000
162.79999051	0.00000000	-72.73621000	-28.00197000
162.99999049	0.00000000	-72.73621000	-28.37721000
163.19999048	0.00000000	-72.77928000	-28.42027000
163.39999047	0.00000000	-73.11147000	-28.42027000
163.59999046	0.00000000	-73.48056000	-28.42027000
163.79999045	0.00000000	-73.11147000	-28.42027000
163.99999043	0.00000000	-72.77928000	-28.42027000
164.19999042	0.00000000	-72.69316000	-28.42027000
164.39999041	0.00000000	-72.31791000	-28.42027000
164.59999040	0.00000000	-71.57356000	-28.42027000
164.79999039	0.00000000	-71.19833000	-28.42027000
164.99999037	0.00000000	-71.15526000	-28.42027000
165.19999036	0.00000000	-71.15526000	-28.42027000
165.39999035	0.00000000	-71.19833000	-28.42027000
165.59999034	0.00000000	-71.57356000	-28.42027000
165.79999033	0.00000000	-72.31791000	-28.42027000
165.99999032	0.00000000	-72.69316000	-28.42027000
166.19999030	0.00000000	-72.77928000	-28.42027000
166.39999029	0.00000000	-73.15452000	-28.42027000
166.59999028	0.00000000	-73.84965000	-28.42027000
166.79999027	0.00000000	-73.84965000	-28.42027000
166.99999026	0.00000000	-73.15452000	-28.42027000
167.19999024	0.00000000	-72.77928000	-28.42027000
167.39999023	0.00000000	-72.73621000	-28.42027000
167.59999022	0.00000000	-72.69316000	-28.42027000
167.79999021	0.00000000	-72.36097000	-28.42027000
167.99999020	0.00000000	-71.99188000	-28.42027000
168.19999018	0.00000000	-72.36097000	-28.42027000
168.39999017	0.00000000	-72.69316000	-28.42027000
168.59999016	0.00000000	-72.73621000	-28.37721000
168.79999015	0.00000000	-72.73621000	-28.04503000
168.99999014	0.00000000	-72.73621000	-27.67593000
169.19999013	0.00000000	-72.73621000	-28.04503000
169.39999011	0.00000000	-72.73621000	-28.37721000
169.59999010	0.00000000	-72.73621000	-28.42027000
169.79999009	0.00000000	-72.73621000	-28.37721000
169.99999008	0.00000000	-72.73621000	-28.04503000
170.19999007	0.00000000	-72.73621000	-27.67593000
170.39999005	0.00000000	-72.73621000	-28.04503000
170.59999004	0.00000000	-72.73621000	-28.37721000
170.79999003	0.00000000	-72.69316000	-28.42027000
170.99999002	0.00000000	-72.36097000	-28.42027000
171.19999001	0.00000000	-71.94881000	-28.42027000
171.39998999	0.00000000	-71.94266000	-28.42027000
171.59998998	0.00000000	-71.53051000	-28.37721000
171.79998997	0.00000000	-71.19833000	-28.04503000
171.99998996	0.00000000	-71.19833000	-27.67593000
172.19998995	0.00000000	-71.57356000	-28.04503000
172.39998994	0.00000000	-72.31791000	-28.37721000
172.59998992	0.00000000	-72.69316000	-28.37721000
172.79998991	0.00000000	-72.73621000	-28.04503000
172.99998990	0.00000000	-72.73621000	-27.67593000
173.19998989	0.00000000	-72.73621000	-28.04503000
173.39998988	0.00000000	-72.73621000	-28.37721000
173.59998986	0.00000000	-72.69316000	-28.42027000
173.79998985	0.00000000	-72.36097000	-28.42027000
173.99998984	0.00000000	-71.99188000	-28.42027000
174.19998983	0.00000000	-72.36097000	-28.42027000
174.39998982	0.00000000	-72.69316000	-28.42027000
174.59998980	0.00000000	-72.69316000	-28.42027000
174.79998979	0.00000000	-72.36097000	-28.42027000
174.99998978	0.00000000	-71.99188000	-28.42027000
175.19998977	0.00000000	-72.36097000	-28.42027000
175.39998976	0.00000000	-72.69316000	-28.42027000
175.59998975	0.00000000	-72.69316000	-28.42027000
175.79998973	0.00000000	-72.36097000	-28.42027000
175.99998972	0.00000000	-71.99188000	-28.42027000
176.19998971	0.00000000	-72.36097000	-28.42027000
176.39998970	0.00000000	-72.64394000	-28.42027000
176.59998969	0.00000000	-72.36097000	-28.42027000
176.79998967	0.00000000	-71.94881000	-28.42027000
176.99998966	0.00000000	-71.98573000	-28.42027000
177.19998965	0.00000000	-71.94881000	-28.42027000
177.39998964	0.00000000	-72.31791000	-28.42027000
177.59998963	0.00000000	-72.31791000	-28.42027000
177.79998961	0.00000000	-71.94881000	-28.37721000
177.99998960	0.00000000	-71.98573000	-28.04503000
178.19998959	0.00000000	-71.94881000	-27.67593000
178.39998958	0.00000000	-72.36097000	-28.04503000
178.59998957	0.00000000	-72.69316000	-28.32800000
178.79998956	0.00000000	-72.69316000	-28.04503000
178.99998954	0.00000000	-72.31791000	-27.67593000
179.19998953	0.00000000	-71.57356000	-28.04503000
179.39998952	0.00000000	-71.24754000	-28.37721000
179.59998951	0.00000000	-71.53051000	-28.42027000
179.79998950	0.00000000	-71.89960000	-28.42027000
179.99998948	0.00000000	-71.53051000	-28.42027000
180.19998947	0.00000000	-71.24754000	-28.42027000
180.39998946	0.00000000	-71.57356000	-28.42027000
180.59998945	0.00000000	-72.26870000	-28.37721000
180.79998944	0.00000000	-72.31791000	-28.00197000
180.99998942	0.00000000	-71.94881000	-27.25763000
181.19998941	0.00000000	-71.98573000	-26.88238000
181.39998940	0.00000000	-71.94881000	-26.83932000
181.59998939	0.00000000	-72.36097000	-26.83932000
181.79998938	0.00000000	-72.64394000	-26.83932000
181.99998937	0.00000000	-72.31791000	-26.88238000
182.19998935	0.00000000	-71.62278000	-27.25763000
182.39998934	0.00000000	-71.57356000	-28.00197000
182.59998933	0.00000000	-71.89960000	-28.37721000
182.79998932	0.00000000	-71.53051000	-28.37721000
182.99998931	0.00000000	-71.19833000	-28.04503000
183.19998929	0.00000000	-71.15526000	-27.67593000
183.39998928	0.00000000	-71.19833000	-28.04503000
183.59998927	0.00000000	-71.57356000	-28.37721000
183.79998926	0.00000000	-72.26870000	-28.42027000
183.99998925	0.00000000	-72.31791000	-28.37721000
184.19998923	0.00000000	-71.99188000	-28.00197000
184.39998922	0.00000000	-72.31791000	-27.25763000
184.59998921	0.00000000	-72.31791000	-26.88238000
184.79998920	0.00000000	-71.94881000	-26.83932000
184.99998919	0.00000000	-71.94266000	-26.83932000
185.19998918	0.00000000	-71.53051000	-26.88238000
185.39998916	0.00000000	-71.19833000	-27.25763000
185.59998915	0.00000000	-71.15526000	-28.00197000
185.79998914	0.00000000	-71.19833000	-28.37721000
185.99998913	0.00000000	-71.53051000	-28.42027000
186.19998912	0.00000000	-71.94266000	-28.42027000
186.39998910	0.00000000	-71.94881000	-28.42027000
186.59998909	0.00000000	-72.36097000	-28.42027000
186.79998908	0.00000000	-72.64394000	-28.37721000
186.99998907	0.00000000	-72.36097000	-28.00197000
187.19998906	0.00000000	-71.99188000	-27.25763000
187.39998904	0.00000000	-72.36097000	-26.88238000
187.59998903	0.00000000	-72.64394000	-26.83932000
187.79998902	0.00000000	-72.31791000	-26.83932000
187.99998901	0.00000000	-71.57356000	-26.83932000
188.19998900	0.00000000	-71.19833000	-26.83932000
188.39998899	0.00000000	-71.15526000	-26.88238000
188.59998897	0.00000000	-71.15526000	-27.25763000
188.79998896	0.00000000	-71.15526000	-28.00197000
188.99998895	0.00000000	-71.15526000	-28.37721000
189.19998894	0.00000000	-71.15526000	-28.42027000
189.39998893	0.00000000	-71.15526000	-28.42027000
189.59998891	0.00000000	-71.15526000	-28.37721000
189.79998890	0.00000000	-71.15526000	-28.00197000
189.99998889	0.00000000	-71.19833000	-27.25763000
190.19998888	0.00000000	-71.53051000	-26.88238000
190.39998887	0.00000000	-71.89960000	-26.83932000
190.59998885	0.00000000	-71.57356000	-26.83932000
190.79998884	0.00000000	-71.57356000	-26.83932000
190.99998883	0.00000000	-71.89960000	-26.83932000
191.19998882	0.00000000	-71.53051000	-26.83932000
191.39998881	0.00000000	-71.19833000	-26.83932000
191.59998880	0.00000000	-71.15526000	-26.83932000
191.79998878	0.00000000	-71.15526000	-26.88238000
191.99998877	0.00000000	-71.15526000	-27.25763000
192.19998876	0.00000000	-71.15526000	-28.00197000
192.39998875	0.00000000	-71.15526000	-28.37721000
192.59998874	0.00000000	-71.15526000	-28.42027000
192.79998872	0.00000000	-71.15526000	-28.42027000
192.99998871	0.00000000	-71.19833000	-28.42027000
193.19998870	0.00000000	-71.57356000	-28.42027000
193.39998869	0.00000000	-72.26870000	-28.37721000
193.59998868	0.00000000	-72.26870000	-28.00197000
193.79998866	0.00000000	-71.62278000	-27.25763000
193.99998865	0.00000000	-71.57356000	-26.88238000
194.19998864	0.00000000	-71.89960000	-26.83932000
194.39998863	0.00000000	-71.53051000	-26.88238000
194.59998862	0.00000000	-71.19833000	-27.21457000
194.79998861	0.00000000	-71.15526000	-27.62672000
194.99998859	0.00000000	-71.15526000	-27.63287000
195.19998858	0.00000000	-71.19833000	-28.04503000
195.39998857	0.00000000	-71.57356000	-28.37721000
195.59998856	0.00000000	-72.26870000	-28.42027000
195.79998855	0.00000000	-72.26870000	-28.42027000
195.99998853	0.00000000	-71.57356000	-28.42027000
