Time	Channel A	Channel B	Channel C
(us)	(V)	(mV)	(mV)

-4.49999956	0.00000000	-33.20005000	-10.21161000
-4.29999957	0.00000000	-33.20005000	-9.89173200
-4.09999958	0.00000000	-33.20005000	-9.89173200
-3.89999959	0.00000000	-33.20005000	-10.21161000
-3.69999960	0.00000000	-33.20005000	-9.84867000
-3.49999962	0.00000000	-33.20005000	-9.51648500
-3.29999963	0.00000000	-33.20005000	-9.47342500
-3.09999964	0.00000000	-33.15699000	-9.47342500
-2.89999965	0.00000000	-32.82480000	-9.47342500
-2.69999966	0.00000000	-32.45571000	-9.47342500
-2.49999968	0.00000000	-32.82480000	-9.51648500
-2.29999969	0.00000000	-33.10777000	-9.84867000
-2.09999970	0.00000000	-32.82480000	-10.25467000
-1.89999971	0.00000000	-32.45571000	-10.21776000
-1.69999972	0.00000000	-32.82480000	-10.30389000
-1.49999973	0.00000000	-33.15699000	-10.21776000
-1.29999975	0.00000000	-33.20005000	-10.25467000
-1.09999976	0.00000000	-33.20005000	-9.84867000
-0.89999977	0.00000000	-33.20005000	-9.51648500
-0.69999978	0.00000000	-33.20005000	-9.47342500
-0.49999979	0.00000000	-33.20005000	-9.47342500
-0.29999981	0.31803640	-33.20005000	-9.51648500
-0.09999982	0.63668800	-33.20005000	-9.89173200
0.10000017	0.95533960	-33.20005000	-10.58686000
0.30000016	0.95533960	-33.20005000	-10.62992000
0.50000015	0.79601380	-33.20005000	-10.31004000
0.70000013	0.31803640	-33.20005000	-10.62992000
0.90000012	-0.63668800	-33.20005000	-10.58686000
1.10000011	-1.59264300	-33.20005000	-9.89173200
1.30000010	-2.38927200	-33.15699000	-9.51648500
1.50000009	-2.86724900	-32.82480000	-9.47342500
1.70000008	-2.38927200	-32.45571000	-9.47342500
1.90000006	-1.11466500	-32.82480000	-9.47342500
2.10000005	0.79601380	-33.15699000	-9.47342500
2.30000004	2.86724900	-33.20005000	-9.47342500
2.50000003	4.61921700	-33.20005000	-9.47342500
2.70000002	5.25652100	-33.20005000	-9.47342500
2.90000000	4.77854300	-33.20005000	-9.51648500
3.09999999	2.70792300	-33.20005000	-9.89173200
3.29999998	-0.47736220	-33.20005000	-10.62992000
3.49999997	-3.82258900	-33.20005000	-10.95595000
3.69999996	-6.69045300	-33.20005000	-10.62992000
3.89999994	-7.96444400	-33.15699000	-9.89173200
4.09999993	-7.32714100	-32.78174000	-9.47342500
4.29999992	-4.61921700	-32.03740000	-9.09817800
4.49999991	-0.63668800	-31.71137000	-8.72908400
4.69999990	3.82258900	-32.03740000	-9.09817800
4.89999989	7.48646600	-32.78174000	-9.47342500
5.09999987	9.39837600	-33.15699000	-9.89173200
5.29999986	8.92039900	-33.20005000	-10.62992000
5.49999985	6.21247500	-33.20005000	-11.00517000
5.69999984	1.91129400	-33.20005000	-11.04823000
5.89999983	-2.86724900	-33.20005000	-11.00517000
6.09999981	-7.00848900	-33.20005000	-10.62992000
6.29999980	-9.23905000	-33.20005000	-9.89173200
6.49999979	-9.07972400	-33.20005000	-9.51648500
6.69999978	-6.84916400	-33.15699000	-9.47342500
6.89999977	-2.86724900	-32.82480000	-9.47342500
7.09999975	1.43331700	-32.45571000	-9.47342500
7.29999974	5.09719500	-32.82480000	-9.51648500
7.49999973	7.32714100	-33.15699000	-9.84867000
7.69999972	7.64579200	-33.20005000	-10.25467000
7.89999971	6.05315000	-33.20005000	-10.26698000
8.09999970	3.18590100	-33.20005000	-10.62992000
8.29999968	-0.15871060	-33.20005000	-10.58686000
8.49999967	-3.18590100	-33.20005000	-9.89173200
8.69999966	-4.77854300	-33.20005000	-9.51648500
8.89999965	-5.09719500	-33.20005000	-9.47342500
9.09999964	-4.30056600	-33.15699000	-9.47342500
9.29999962	-2.38927200	-32.82480000	-9.47342500
9.49999961	-0.47736220	-32.45571000	-9.47342500
9.69999960	1.27399100	-32.82480000	-9.47342500
9.89999959	2.22994600	-33.15699000	-9.47342500
10.09999958	2.54859700	-33.20005000	-9.47342500
10.29999956	2.07062000	-33.20005000	-9.47342500
10.49999955	1.43331700	-33.20005000	-9.47342500
10.69999954	0.47736220	-33.20005000	-9.47342500
10.89999953	-0.31803640	-33.20005000	-9.47342500
11.09999952	-0.79601380	-33.20005000	-9.47342500
11.29999951	-0.95533960	-33.20005000	-9.47342500
11.49999949	-0.95533960	-33.20005000	-9.47342500
11.69999948	-0.63668800	-33.20005000	-9.47342500
11.89999947	-0.31803640	-33.15699000	-9.47342500
12.09999946	-0.15871060	-32.82480000	-9.47342500
12.29999945	-0.15871060	-32.41265000	-9.47342500
12.49999943	-0.15871060	-32.44956000	-9.47342500
12.69999942	0.00000000	-32.41265000	-9.47342500
12.89999941	0.00000000	-32.82480000	-9.47342500
13.09999940	0.00000000	-33.15699000	-9.47342500
13.29999939	0.00000000	-33.15699000	-9.47342500
13.49999937	0.00000000	-32.78174000	-9.47342500
13.69999936	0.00000000	-32.08661000	-9.47342500
13.89999935	-0.15871060	-32.08661000	-9.47342500
14.09999934	-0.15871060	-32.73252000	-9.47342500
14.29999933	-0.15871060	-32.73252000	-9.47342500
14.49999932	-0.15871060	-32.08661000	-9.47342500
14.69999930	0.00000000	-32.08661000	-9.47342500
14.89999929	0.00000000	-32.78174000	-9.47342500
15.09999928	0.00000000	-33.10777000	-9.47342500
15.29999927	0.00000000	-32.78174000	-9.47342500
15.49999926	0.00000000	-32.03740000	-9.47342500
15.69999924	0.00000000	-31.71137000	-9.47342500
15.89999923	0.00000000	-32.03740000	-9.47342500
16.09999922	0.00000000	-32.78174000	-9.47342500
16.29999921	0.00000000	-33.10777000	-9.47342500
16.49999920	-0.15871060	-32.78174000	-9.47342500
16.69999919	0.00000000	-32.03740000	-9.47342500
16.89999917	0.00000000	-31.61909000	-9.47342500
17.09999916	0.00000000	-31.20078000	-9.47342500
17.29999915	0.00000000	-30.45644000	-9.47342500
17.49999914	0.00000000	-30.13041000	-9.47342500
17.69999913	0.00000000	-30.45644000	-9.47342500
17.89999911	0.00000000	-31.24384000	-9.51648500
18.09999910	0.00000000	-32.03740000	-9.84867000
18.29999909	0.00000000	-33.24926000	-10.21161000
18.49999908	0.00000000	-34.78716000	-9.84867000
18.69999907	0.00000000	-36.32505000	-9.51648500
18.89999905	0.00000000	-37.43848000	-9.47342500
19.09999904	-0.15871060	-37.39542000	-9.47342500
19.29999903	0.00000000	-35.85752000	-9.47342500
19.49999902	0.00000000	-33.11393000	-9.47342500
19.69999901	0.00000000	-29.57062000	-9.47342500
19.89999900	0.00000000	-25.38755000	-9.47342500
20.09999898	0.00000000	-21.99188000	-9.47342500
20.29999897	0.00000000	-21.19833000	-9.47342500
20.49999896	0.00000000	-22.73007000	-9.47342500
20.69999895	0.00000000	-26.35950000	-9.47342500
20.89999894	0.00000000	-32.59719000	-9.47342500
21.09999892	0.00000000	-40.64345000	-9.47342500
21.29999891	0.00000000	-47.95152000	-9.47342500
21.49999890	0.00000000	-52.55905000	-9.47342500
21.69999889	0.00000000	-53.25418000	-9.51648500
21.89999888	0.00000000	-48.93578000	-9.84867000
22.09999886	0.00000000	-39.99754000	-10.21161000
22.29999885	0.00000000	-27.99582000	-9.84867000
22.49999884	0.00000000	-15.29281000	-9.51648500
22.69999883	0.00000000	-5.33341500	-9.47342500
22.89999882	0.00000000	-1.10113200	-9.47342500
23.09999881	0.00000000	-3.84473400	-9.43036400
23.29999879	0.00000000	-13.19513000	-9.05511800
23.49999878	0.00000000	-27.98966000	-8.31077700
23.69999877	0.00000000	-45.71850000	-7.93553100
23.89999876	0.00000000	-62.27854000	-7.89247000
24.09999875	0.00000000	-72.98843000	-7.93553100
24.29999873	0.00000000	-74.89542000	-8.35998900
24.49999872	0.00000000	-66.66461000	-9.51648500
24.69999871	0.00000000	-49.67397000	-11.04823000
24.89999870	0.00000000	-27.30069000	-12.62918000
25.09999869	0.00000000	-5.33341500	-14.16092000
25.29999867	0.00000000	10.90059000	-15.27436000
25.49999866	0.00000000	17.83341000	-15.23130000
25.69999865	0.00000000	13.55192000	-13.65650000
25.89999864	0.00000000	-1.14419300	-10.58686000
26.09999863	0.00000000	-23.19759000	-6.68676100
26.29999862	0.00000000	-47.90846000	-2.82972400
26.49999860	0.00000000	-69.49433000	0.60285430
26.69999859	0.00000000	-82.61565000	2.09153500
26.89999858	0.00000000	-84.15353000	0.88582670
27.09999857	0.00000000	-73.73277000	-2.97121000
27.29999856	0.00000000	-53.72170000	-9.23351300
27.49999854	0.00000000	-29.38607000	-16.53543000
27.69999853	0.00000000	-6.53912400	-23.86811000
27.89999852	0.00000000	10.48228000	-28.80167000
28.09999851	0.00000000	17.78420000	-29.95817000
28.29999850	0.00000000	13.60113000	-26.75935000
28.49999848	0.00000000	-0.63976370	-19.00221000
28.69999847	0.00000000	-21.10605000	-7.80634800
28.89999846	0.00000000	-43.11638000	4.09079700
29.09999845	0.00000000	-61.68184000	13.79798000
29.29999844	0.00000000	-72.61318000	19.14985000
29.49999843	0.00000000	-74.61860000	19.09449000
29.69999841	0.00000000	-68.04872000	12.45694000
29.89999840	0.00000000	-54.14001000	0.51673230
30.09999839	0.00000000	-36.41117000	-14.25935000
30.29999838	0.00000000	-18.96531000	-29.26919000
30.49999837	0.00000000	-5.42568800	-41.16019000
30.69999835	0.00000000	1.59325800	-46.13681000
30.89999834	0.00000000	0.89812980	-43.11023000
31.09999833	0.00000000	-6.36072800	-33.03395000
31.29999832	0.00000000	-17.98720000	-17.93184000
31.49999831	0.00000000	-31.53297000	-0.51058070
31.69999829	0.00000000	-44.32209000	15.61885000
31.89999828	0.00000000	-53.62943000	26.48253000
32.09999827	0.00000000	-57.95398000	29.55832000
32.29999826	0.00000000	-56.79134000	24.94463000
32.49999825	0.00000000	-50.60285000	12.92446000
32.69999824	0.00000000	-40.60039000	-3.66633800
32.89999822	0.00000000	-29.43528000	-21.46284000
33.09999821	0.00000000	-20.12795000	-36.88484000
33.29999820	0.00000000	-14.26550000	-46.17987000
33.49999819	0.00000000	-12.68455000	-47.76082000
33.69999818	0.00000000	-15.38509000	-41.57849000
33.89999816	0.00000000	-21.52436000	-28.84473000
34.09999815	0.00000000	-29.61983000	-12.62918000
34.29999814	0.00000000	-37.34621000	3.62942900
34.49999813	0.00000000	-43.16560000	16.77534000
34.69999812	0.00000000	-45.85999000	24.07111000
34.89999810	0.00000000	-44.74655000	23.73892000
35.09999809	0.00000000	-40.55733000	16.03715000
35.29999808	0.00000000	-34.73794000	3.34645700
35.49999807	0.00000000	-28.59252000	-11.70029000
35.69999806	0.00000000	-23.61589000	-25.22145000
35.89999805	0.00000000	-21.65969000	-34.51648000
36.09999803	0.00000000	-22.73007000	-37.99828000
36.29999802	0.00000000	-25.84892000	-34.47342000
36.49999801	0.00000000	-30.50566000	-24.93848000
36.69999800	0.00000000	-35.81446000	-11.89099000
36.89999799	0.00000000	-39.67150000	0.38139760
37.09999797	0.00000000	-40.84030000	8.92593500
37.29999796	0.00000000	-39.71457000	12.03863000
37.49999795	0.00000000	-36.18971000	9.38730200
37.69999794	0.00000000	-31.24384000	2.04847400
37.89999793	0.00000000	-26.26722000	-8.26771600
38.09999791	0.00000000	-23.15453000	-18.57775000
38.29999790	0.00000000	-22.31176000	-25.09227000
38.49999789	0.00000000	-23.10531000	-26.34104000
38.69999788	0.00000000	-25.80585000	-22.44094000
38.89999787	0.00000000	-29.70595000	-14.43775000
39.09999786	0.00000000	-33.99360000	-4.50295200
39.29999784	0.00000000	-38.60113000	3.49409400
39.49999783	0.00000000	-41.62770000	7.39419200
39.69999782	0.00000000	-42.09522000	6.23154500
39.89999781	0.00000000	-40.55733000	0.46751960
40.09999780	0.00000000	-37.43848000	-8.40305000
40.29999778	0.00000000	-33.20005000	-18.30093000
40.49999777	0.00000000	-28.92470000	-25.92274000
40.69999776	0.00000000	-25.38755000	-28.24803000
40.89999775	0.00000000	-22.68701000	-25.27067000
41.09999774	0.00000000	-21.57357000	-18.30093000
41.29999772	0.00000000	-22.68701000	-9.09817800
41.49999771	0.00000000	-25.38755000	0.14148620
41.69999770	0.00000000	-28.92470000	6.69291300
41.89999769	0.00000000	-33.15699000	9.38730200
42.09999768	0.00000000	-36.97096000	7.43725300
42.29999767	0.00000000	-38.97638000	0.93503930
42.49999765	0.00000000	-39.43774000	-7.84940900
42.69999764	0.00000000	-39.01944000	-16.35089000
42.89999763	0.00000000	-37.43848000	-22.48400000
43.09999762	0.00000000	-34.73794000	-24.85236000
43.29999761	0.00000000	-31.66830000	-22.99459000
43.49999759	0.00000000	-28.96776000	-18.43627000
43.69999758	0.00000000	-27.38681000	-12.62918000
43.89999757	0.00000000	-26.96850000	-6.82209600
44.09999756	0.00000000	-27.34375000	-2.17765700
44.29999755	0.00000000	-28.45718000	0.51673230
44.49999753	0.00000000	-29.57062000	0.55979330
44.69999752	0.00000000	-29.99508000	-1.71013800
44.89999751	0.00000000	-30.03814000	-5.15501900
45.09999750	0.00000000	-30.08120000	-9.05511800
45.29999749	0.00000000	-30.50566000	-12.49385000
45.49999748	0.00000000	-31.71137000	-14.81299000
45.69999746	0.00000000	-33.66756000	-15.23130000
45.89999745	0.00000000	-36.36811000	-14.11786000
46.09999744	0.00000000	-39.06250000	-12.21087000
46.29999743	0.00000000	-40.93258000	-9.89173200
46.49999742	0.00000000	-41.25246000	-7.93553100
46.69999740	0.00000000	-38.88410000	-6.36072800
46.89999739	0.00000000	-34.27657000	-5.24729300
47.09999738	0.00000000	-28.45718000	-5.24729300
47.29999737	0.00000000	-22.64394000	-6.40378900
47.49999736	0.00000000	-18.03642000	-8.31077700
47.69999734	0.00000000	-15.76033000	-10.67298000
47.89999733	0.00000000	-17.00910000	-12.95522000
48.09999732	0.00000000	-22.03494000	-14.85605000
48.29999731	0.00000000	-30.13041000	-15.23130000
48.49999730	0.00000000	-38.97638000	-14.11786000
48.69999729	0.00000000	-46.32751000	-12.16781000
48.89999727	0.00000000	-50.51673000	-9.42421200
49.09999726	0.00000000	-50.14148000	-6.36072800
49.29999725	0.00000000	-45.12180000	-3.66633800
49.49999724	0.00000000	-37.02018000	-2.17150600
49.69999723	0.00000000	-27.34375000	-2.54675200
49.89999721	0.00000000	-18.54700000	-4.82283400
50.09999720	0.00000000	-13.15207000	-7.93553100
50.29999719	0.00000000	-12.72761000	-11.42347000
50.49999718	0.00000000	-16.91683000	-14.90526000
50.69999717	0.00000000	-24.31102000	-17.18750000
50.89999715	0.00000000	-33.53223000	-17.92569000
51.09999714	0.00000000	-42.36589000	-16.39395000
51.29999713	0.00000000	-47.72391000	-12.96137000
51.49999712	0.00000000	-48.56053000	-9.09817800
51.69999711	0.00000000	-44.74655000	-5.19808000
51.89999710	0.00000000	-37.81373000	-2.12844500
52.09999708	0.00000000	-29.71210000	-0.59670270
52.29999707	0.00000000	-22.03494000	-1.01501000
52.49999706	0.00000000	-17.42741000	-3.70939900
52.69999705	0.00000000	-17.00910000	-7.89247000
52.89999704	0.00000000	-20.45399000	-12.11860000
53.09999702	0.00000000	-27.01156000	-15.23130000
53.29999701	0.00000000	-34.60876000	-16.76919000
53.49999700	0.00000000	-40.79109000	-16.39395000
53.69999699	0.00000000	-43.49163000	-14.11786000
53.89999698	0.00000000	-42.79035000	-11.04823000
54.09999696	0.00000000	-38.92716000	-7.98474400
54.29999695	0.00000000	-33.15699000	-5.66560000
54.49999694	0.00000000	-27.01156000	-4.91510800
54.69999693	0.00000000	-22.03494000	-5.61638700
54.89999692	0.00000000	-20.07874000	-7.51722400
55.09999691	0.00000000	-21.19833000	-9.42421200
55.29999689	0.00000000	-24.68627000	-10.96211000
55.49999688	0.00000000	-30.08735000	-11.70029000
55.69999687	0.00000000	-35.81446000	-10.96211000
55.89999686	0.00000000	-40.04675000	-9.42421200
56.09999685	0.00000000	-41.58464000	-7.51722400
56.29999683	0.00000000	-40.08981000	-5.66560000
56.49999682	0.00000000	-36.27584000	-5.33341500
56.69999681	0.00000000	-31.66830000	-6.82209600
56.89999680	0.00000000	-27.38681000	-9.51648500
57.09999679	0.00000000	-24.31102000	-12.58612000
57.29999677	0.00000000	-23.15453000	-15.27436000
57.49999676	0.00000000	-24.26796000	-16.76919000
57.69999675	0.00000000	-26.96850000	-16.35089000
57.89999674	0.00000000	-30.41338000	-13.65650000
58.09999673	0.00000000	-33.90133000	-9.43036400
58.29999672	0.00000000	-36.18971000	-4.77977300
58.49999670	0.00000000	-37.02018000	-0.55364170
58.69999669	0.00000000	-36.23277000	2.09153500
58.89999668	0.00000000	-34.36884000	2.04847400
59.09999667	0.00000000	-32.03740000	-1.06422200
59.29999666	0.00000000	-30.08120000	-6.82209600
59.49999664	0.00000000	-28.54946000	-13.69956000
59.69999663	0.00000000	-27.76206000	-19.46358000
59.89999662	0.00000000	-28.17421000	-22.57628000
60.09999661	0.00000000	-29.25074000	-22.53322000
60.29999660	0.00000000	-30.78248000	-19.04527000
60.49999658	0.00000000	-31.57603000	-12.54306000
60.69999657	0.00000000	-31.99434000	-5.24729300
60.89999656	0.00000000	-32.36343000	0.97810030
61.09999655	0.00000000	-31.95128000	5.20423200
61.29999654	0.00000000	-31.24384000	6.32381900
61.49999653	0.00000000	-30.45644000	3.58636800
61.69999651	0.00000000	-30.13041000	-2.54675200
61.89999650	0.00000000	-30.45644000	-10.62992000
62.09999649	0.00000000	-31.24384000	-18.30093000
62.29999648	0.00000000	-32.03740000	-23.73892000
62.49999647	0.00000000	-33.15699000	-25.64591000
62.69999645	0.00000000	-33.90133000	-23.73892000
62.89999644	0.00000000	-33.53223000	-18.35015000
63.09999643	0.00000000	-32.78174000	-11.04823000
63.29999642	0.00000000	-31.57603000	-3.66633800
63.49999641	0.00000000	-30.08120000	2.51599400
63.69999639	0.00000000	-28.92470000	6.32381900
63.89999638	0.00000000	-28.50024000	6.32381900
64.09999637	0.00000000	-28.54946000	2.51599400
64.29999636	0.00000000	-29.29380000	-3.62327700
64.49999635	0.00000000	-30.82554000	-10.58686000
64.69999634	0.00000000	-31.95128000	-16.76919000
64.89999632	0.00000000	-32.78174000	-21.03838000
65.09999631	0.00000000	-33.10777000	-22.57628000
65.29999630	0.00000000	-32.78174000	-21.08760000
65.49999629	0.00000000	-31.99434000	-17.27362000
65.69999628	0.00000000	-31.20078000	-12.62918000
65.89999626	0.00000000	-30.08120000	-7.93553100
66.09999625	0.00000000	-29.34301000	-3.66633800
66.29999624	0.00000000	-29.70595000	-0.55364170
66.49999623	0.00000000	-30.45644000	1.02116100
66.69999622	0.00000000	-31.66215000	1.02116100
66.89999620	0.00000000	-33.15699000	-0.51058070
67.09999619	0.00000000	-34.27657000	-3.24803100
67.29999618	0.00000000	-34.23351000	-6.72982200
67.49999617	0.00000000	-32.73868000	-10.58686000
67.69999616	0.00000000	-30.41338000	-13.69956000
67.89999615	0.00000000	-28.08194000	-15.74188000
68.09999613	0.00000000	-25.80585000	-17.27362000
68.29999612	0.00000000	-24.73548000	-18.01796000
68.49999611	0.00000000	-25.89198000	-17.23056000
68.69999610	0.00000000	-28.92470000	-15.23130000
68.89999609	0.00000000	-32.78174000	-11.74336000
69.09999607	0.00000000	-36.27584000	-7.14812900
69.29999606	0.00000000	-39.01944000	-3.24803100
69.49999605	0.00000000	-40.51427000	-0.13533460
69.69999604	0.00000000	-40.08981000	1.76550200
69.89999603	0.00000000	-37.34621000	1.35334600
70.09999601	0.00000000	-32.73868000	-0.97194880
70.29999600	0.00000000	-27.34375000	-5.24729300
70.49999599	0.00000000	-22.68701000	-10.58686000
70.69999598	0.00000000	-19.61737000	-15.27436000
70.89999597	0.00000000	-18.87303000	-18.76845000
71.09999596	0.00000000	-21.19833000	-20.62008000
71.29999594	0.00000000	-25.80585000	-19.46358000
71.49999593	0.00000000	-31.61909000	-15.69882000
71.69999592	0.00000000	-37.39542000	-11.04823000
71.89999591	0.00000000	-41.67076000	-6.40378900
72.09999590	0.00000000	-43.58390000	-2.54675200
72.29999588	0.00000000	-42.79035000	-0.59670270
72.49999587	0.00000000	-38.97638000	-0.55364170
72.69999586	0.00000000	-33.57529000	-2.12844500
72.89999585	0.00000000	-28.12500000	-5.15501900
73.09999584	0.00000000	-23.10531000	-8.63681000
73.29999582	0.00000000	-20.03568000	-11.33735000
73.49999581	0.00000000	-19.61737000	-13.28125000
73.69999580	0.00000000	-21.52436000	-13.65650000
73.89999579	0.00000000	-25.38755000	-12.58612000
74.09999578	0.00000000	-29.99508000	-11.09744000
74.29999577	0.00000000	-34.27657000	-9.89173200
74.49999575	0.00000000	-37.39542000	-9.14124000
74.69999574	0.00000000	-38.97638000	-8.77829600
74.89999573	0.00000000	-38.93332000	-9.51648500
75.09999572	0.00000000	-37.02018000	-10.58686000
75.29999571	0.00000000	-33.57529000	-10.95595000
75.49999569	0.00000000	-30.13041000	-10.58686000
75.69999568	0.00000000	-27.38681000	-9.38115100
75.89999567	0.00000000	-25.84892000	-7.47416300
76.09999566	0.00000000	-25.80585000	-5.15501900
76.29999565	0.00000000	-26.91929000	-3.29109200
76.49999563	0.00000000	-28.45718000	-2.50369100
76.69999562	0.00000000	-30.03814000	-3.33415300
76.89999561	0.00000000	-31.52682000	-5.66560000
77.09999560	0.00000000	-32.31422000	-9.51648500
77.29999559	0.00000000	-31.95128000	-13.74262000
77.49999558	0.00000000	-31.28691000	-17.18750000
77.69999556	0.00000000	-30.87475000	-19.08834000
77.89999555	0.00000000	-31.28691000	-18.30093000
78.09999554	0.00000000	-31.99434000	-15.27436000
78.29999553	0.00000000	-32.78174000	-10.95595000
78.49999552	0.00000000	-33.15699000	-5.98548200
78.69999550	0.00000000	-33.15699000	-1.34719500
78.89999549	0.00000000	-32.73252000	1.35334600
79.09999548	0.00000000	-31.52682000	2.13459600
79.29999547	0.00000000	-29.61983000	0.55979330
79.49999546	0.00000000	-27.34375000	-3.24803100
79.69999544	0.00000000	-25.84892000	-7.89247000
79.89999543	0.00000000	-25.80585000	-12.53691000
80.09999542	0.00000000	-26.91929000	-16.35089000
80.29999541	0.00000000	-28.54946000	-17.97490000
80.49999540	0.00000000	-30.88090000	-17.60581000
80.69999539	0.00000000	-33.90133000	-16.06176000
80.89999537	0.00000000	-35.81446000	-12.96137000
81.09999536	0.00000000	-36.23277000	-9.51648500
81.29999535	0.00000000	-35.43922000	-6.36072800
81.49999534	0.00000000	-33.15699000	-3.66633800
81.69999533	0.00000000	-30.45644000	-2.08538400
81.89999531	0.00000000	-28.12500000	-1.66707700
82.09999530	0.00000000	-26.18110000	-2.08538400
82.29999529	0.00000000	-25.43061000	-3.61712600
82.49999528	0.00000000	-25.80585000	-5.93626900
82.69999527	0.00000000	-27.34375000	-8.31077700
82.89999525	0.00000000	-29.61983000	-11.04823000
83.09999524	0.00000000	-31.52682000	-13.74262000
83.29999523	0.00000000	-32.73252000	-15.64960000
83.49999522	0.00000000	-33.15699000	-16.43701000
83.69999521	0.00000000	-33.15699000	-15.64960000
83.89999520	0.00000000	-32.78174000	-13.74262000
84.09999518	0.00000000	-31.99434000	-10.96211000
84.29999517	0.00000000	-31.24384000	-7.51722400
84.49999516	0.00000000	-30.45644000	-4.03543200
84.69999515	0.00000000	-30.08120000	-1.71013800
84.89999514	0.00000000	-30.03814000	-0.55364170
85.09999512	0.00000000	-30.03814000	-0.97194880
85.29999511	0.00000000	-29.99508000	-3.29109200
85.49999510	0.00000000	-29.61983000	-6.72982200
85.69999509	0.00000000	-28.87549000	-10.67298000
85.89999508	0.00000000	-28.54946000	-14.49311000
86.09999506	0.00000000	-28.87549000	-17.55659000
86.29999505	0.00000000	-29.66289000	-18.30093000
86.49999504	0.00000000	-30.41338000	-16.81225000
86.69999503	0.00000000	-31.24384000	-13.69956000
86.89999502	0.00000000	-31.99434000	-9.43036400
87.09999501	0.00000000	-32.78174000	-4.82898600
87.29999499	0.00000000	-33.10777000	-1.02116100
87.49999498	0.00000000	-32.73252000	0.51673230
87.69999497	0.00000000	-31.57603000	-0.55364170
87.89999496	0.00000000	-30.03814000	-3.29109200
88.09999495	0.00000000	-28.50024000	-7.19734200
88.29999493	0.00000000	-27.34375000	-12.16166000
88.49999492	0.00000000	-26.96850000	-16.35089000
88.69999491	0.00000000	-27.34375000	-18.30093000
88.89999490	0.00000000	-28.50024000	-17.92569000
89.09999489	0.00000000	-30.03814000	-15.18824000
89.29999487	0.00000000	-31.57603000	-10.58686000
89.49999486	0.00000000	-32.73252000	-5.24729300
89.69999485	0.00000000	-33.15699000	-1.02116100
89.89999484	0.00000000	-33.10777000	0.93503930
90.09999483	0.00000000	-32.36343000	0.55979330
90.29999482	0.00000000	-30.87475000	-2.17765700
90.49999480	0.00000000	-30.08120000	-6.77903500
90.69999479	0.00000000	-29.66289000	-12.11860000
90.89999478	0.00000000	-29.25074000	-16.35089000
91.09999477	0.00000000	-29.28765000	-18.25787000
91.29999476	0.00000000	-29.25074000	-17.50738000
91.49999474	0.00000000	-29.66289000	-14.07480000
91.69999473	0.00000000	-29.99508000	-9.47342500
91.89999472	0.00000000	-29.99508000	-4.77977300
92.09999471	0.00000000	-29.66289000	-0.64591530
92.29999470	0.00000000	-29.29380000	1.25492100
92.49999468	0.00000000	-29.66289000	-0.22145670
92.69999467	0.00000000	-30.03814000	-3.66633800
92.89999466	0.00000000	-30.50566000	-8.31077700
93.09999465	0.00000000	-31.61909000	-13.28125000
93.29999464	0.00000000	-32.73252000	-16.72613000
93.49999463	0.00000000	-33.10777000	-17.88263000
93.69999461	0.00000000	-32.73252000	-16.35089000
93.89999460	0.00000000	-31.57603000	-12.53691000
94.09999459	0.00000000	-29.99508000	-7.93553100
94.29999458	0.00000000	-28.08194000	-3.70939900
94.49999457	0.00000000	-26.13189000	-1.01501000
94.69999455	0.00000000	-25.01230000	-0.63976370
94.89999454	0.00000000	-24.60015000	-2.54675200
95.09999453	0.00000000	-25.43061000	-6.35457700
95.29999452	0.00000000	-27.38681000	-10.53765000
95.49999451	0.00000000	-30.50566000	-13.65650000
95.69999449	0.00000000	-34.27657000	-15.23130000
95.89999448	0.00000000	-36.97712000	-15.23130000
96.09999447	0.00000000	-37.77067000	-13.69956000
96.29999446	0.00000000	-37.02018000	-11.00517000
96.49999445	0.00000000	-34.65182000	-7.93553100
96.69999444	0.00000000	-31.20078000	-5.24729300
96.89999442	0.00000000	-27.34375000	-3.70939900
97.09999441	0.00000000	-24.22490000	-3.66633800
97.29999440	0.00000000	-22.26870000	-4.82283400
97.49999439	0.00000000	-21.52436000	-6.72982200
97.69999438	0.00000000	-22.68701000	-9.05511800
97.89999436	0.00000000	-25.43061000	-10.96211000
98.09999435	0.00000000	-29.29995000	-12.11860000
98.29999434	0.00000000	-33.85827000	-12.11860000
98.49999433	0.00000000	-36.97712000	-11.04823000
98.69999432	0.00000000	-38.18897000	-9.89173200
98.89999430	0.00000000	-38.18282000	-9.09817800
99.09999429	0.00000000	-36.23277000	-8.31077700
99.29999428	0.00000000	-33.20005000	-7.93553100
99.49999427	0.00000000	-30.03814000	-7.84940900
99.69999426	0.00000000	-26.91929000	-7.47416300
99.89999425	0.00000000	-24.22490000	-6.72982200
100.09999423	0.00000000	-22.68701000	-6.35457700
100.29999422	0.00000000	-22.68701000	-6.31151500
100.49999421	0.00000000	-24.22490000	-6.31151500
100.69999420	0.00000000	-26.91929000	-6.35457700
100.89999419	0.00000000	-29.99508000	-6.82209600
101.09999417	0.00000000	-32.68946000	-8.31077700
101.29999416	0.00000000	-34.31963000	-10.21161000
101.49999415	0.00000000	-35.11934000	-11.38041000
101.69999414	0.00000000	-35.48228000	-12.16166000
101.89999413	0.00000000	-34.65182000	-12.11860000
102.09999411	0.00000000	-32.73868000	-10.96211000
102.29999410	0.00000000	-30.03814000	-9.00590400
102.49999409	0.00000000	-27.34375000	-6.31151500
102.69999408	0.00000000	-25.43061000	-3.66633800
102.89999407	0.00000000	-24.60015000	-2.12844500
103.09999406	0.00000000	-25.01230000	-2.12844500
103.29999404	0.00000000	-26.08883000	-3.66633800
103.49999403	0.00000000	-27.70669000	-6.36072800
103.69999402	0.00000000	-29.25074000	-9.47342500
103.89999401	0.00000000	-31.24384000	-12.53691000
104.09999400	0.00000000	-33.06471000	-14.85605000
104.29999398	0.00000000	-33.90133000	-15.60654000
104.49999397	0.00000000	-33.48917000	-14.81299000
104.69999396	0.00000000	-32.40649000	-12.16166000
104.89999395	0.00000000	-30.83169000	-8.72908400
105.09999394	0.00000000	-29.66289000	-6.02854300
105.29999392	0.00000000	-28.45718000	-4.03543200
105.49999391	0.00000000	-27.38681000	-3.29109200
105.69999390	0.00000000	-27.34375000	-3.66633800
105.89999389	0.00000000	-28.08194000	-5.24729300
106.09999388	0.00000000	-28.87549000	-7.89247000
106.29999387	0.00000000	-30.03814000	-10.53765000
106.49999385	0.00000000	-31.15157000	-12.11860000
106.69999384	0.00000000	-31.57603000	-12.53691000
106.89999383	0.00000000	-31.57603000	-12.11860000
107.09999382	0.00000000	-31.15157000	-10.58686000
107.29999381	0.00000000	-30.03814000	-8.31077700
107.49999379	0.00000000	-28.87549000	-6.40378900
107.69999378	0.00000000	-28.12500000	-5.24729300
107.89999377	0.00000000	-27.76206000	-5.24729300
108.09999376	0.00000000	-28.50024000	-6.36072800
108.29999375	0.00000000	-29.61983000	-7.89247000
108.49999374	0.00000000	-30.41338000	-9.42421200
108.69999372	0.00000000	-31.20078000	-10.58686000
108.89999371	0.00000000	-31.57603000	-11.00517000
109.09999370	0.00000000	-31.57603000	-11.00517000
109.29999369	0.00000000	-31.15157000	-10.53765000
109.49999368	0.00000000	-30.03814000	-9.00590400
109.69999366	0.00000000	-28.87549000	-6.77903500
109.89999365	0.00000000	-28.08194000	-5.24729300
110.09999364	0.00000000	-27.34375000	-4.82898600
110.29999363	0.00000000	-27.34375000	-5.19808000
110.49999362	0.00000000	-28.08194000	-6.36072800
110.69999360	0.00000000	-28.87549000	-7.89247000
110.89999359	0.00000000	-30.03814000	-9.42421200
111.09999358	0.00000000	-31.15157000	-10.58686000
111.29999357	0.00000000	-31.57603000	-11.00517000
111.49999356	0.00000000	-31.57603000	-11.04823000
111.69999355	0.00000000	-31.20078000	-11.00517000
111.89999353	0.00000000	-30.45644000	-10.58686000
112.09999352	0.00000000	-30.03814000	-9.42421200
112.29999351	0.00000000	-29.61983000	-7.98474400
112.49999350	0.00000000	-28.87549000	-7.14812900
112.69999349	0.00000000	-28.54946000	-7.09891700
112.89999347	0.00000000	-28.87549000	-6.72982200
113.09999346	0.00000000	-29.61983000	-6.77903500
113.29999345	0.00000000	-29.99508000	-7.47416300
113.49999344	0.00000000	-30.03814000	-7.89247000
113.69999343	0.00000000	-30.03814000	-8.31077700
113.89999341	0.00000000	-30.03814000	-9.05511800
114.09999340	0.00000000	-30.03814000	-9.43036400
114.29999339	0.00000000	-30.03814000	-9.47342500
114.49999338	0.00000000	-30.03814000	-9.51648500
114.69999337	0.00000000	-30.03814000	-9.84867000
114.89999336	0.00000000	-30.03814000	-10.21161000
115.09999334	0.00000000	-29.99508000	-9.84867000
115.29999333	0.00000000	-29.61983000	-9.51648500
115.49999332	0.00000000	-28.92470000	-9.43036400
115.69999331	0.00000000	-28.92470000	-9.00590400
115.89999330	0.00000000	-29.61983000	-7.89247000
116.09999328	0.00000000	-29.99508000	-6.77903500
116.29999327	0.00000000	-30.03814000	-6.35457700
116.49999326	0.00000000	-30.03814000	-6.35457700
116.69999325	0.00000000	-30.03814000	-6.72982200
116.89999324	0.00000000	-29.99508000	-7.51722400
117.09999322	0.00000000	-29.61983000	-8.26771600
117.29999321	0.00000000	-28.87549000	-9.09817800
117.49999320	0.00000000	-28.50024000	-9.84867000
117.69999319	0.00000000	-28.45718000	-10.62992000
117.89999318	0.00000000	-28.45718000	-10.95595000
118.09999317	0.00000000	-28.45718000	-10.62992000
118.29999315	0.00000000	-28.45718000	-9.84867000
118.49999314	0.00000000	-28.50024000	-9.05511800
118.69999313	0.00000000	-28.92470000	-7.89247000
118.89999312	0.00000000	-30.03814000	-6.77903500
119.09999311	0.00000000	-31.15157000	-6.35457700
119.29999309	0.00000000	-31.57603000	-6.31151500
119.49999308	0.00000000	-31.57603000	-6.31151500
119.69999307	0.00000000	-31.20078000	-6.35457700
119.89999306	0.00000000	-30.37032000	-6.72982200
120.09999305	0.00000000	-29.24459000	-7.51722400
120.29999303	0.00000000	-27.71284000	-8.26771600
120.49999302	0.00000000	-26.96850000	-9.05511800
120.69999301	0.00000000	-26.87623000	-9.43036400
120.89999300	0.00000000	-26.91929000	-9.47342500
121.09999299	0.00000000	-27.34375000	-9.47342500
121.29999298	0.00000000	-28.45718000	-9.47342500
121.49999296	0.00000000	-29.61983000	-9.43036400
121.69999295	0.00000000	-30.45644000	-9.05511800
121.89999294	0.00000000	-31.57603000	-8.31077700
122.09999293	0.00000000	-32.31422000	-7.93553100
122.29999292	0.00000000	-31.95128000	-7.84940900
122.49999290	0.00000000	-31.20078000	-7.47416300
122.69999289	0.00000000	-30.03814000	-6.77903500
122.89999288	0.00000000	-28.87549000	-6.77903500
123.09999287	0.00000000	-28.08194000	-7.47416300
123.29999286	0.00000000	-27.29453000	-7.89247000
123.49999284	0.00000000	-26.91929000	-8.31077700
123.69999283	0.00000000	-26.91929000	-9.05511800
123.89999282	0.00000000	-27.29453000	-9.43036400
124.09999281	0.00000000	-28.08194000	-9.47342500
124.29999280	0.00000000	-28.83243000	-9.47342500
124.49999279	0.00000000	-29.66289000	-9.47342500
124.69999277	0.00000000	-30.41338000	-9.43036400
124.89999276	0.00000000	-31.20078000	-9.05511800
125.09999275	0.00000000	-31.57603000	-8.31077700
125.29999274	0.00000000	-31.57603000	-7.93553100
125.49999273	0.00000000	-31.20078000	-7.84940900
125.69999271	0.00000000	-30.41338000	-7.47416300
125.89999270	0.00000000	-29.61983000	-6.72982200
126.09999269	0.00000000	-28.45718000	-6.40378900
126.29999268	0.00000000	-27.34375000	-6.72982200
126.49999267	0.00000000	-26.91929000	-7.47416300
126.69999265	0.00000000	-26.91929000	-7.89247000
126.89999264	0.00000000	-27.34375000	-8.31077700
127.09999263	0.00000000	-28.45718000	-9.05511800
127.29999262	0.00000000	-29.61983000	-9.43036400
127.49999261	0.00000000	-30.41338000	-9.47342500
127.69999260	0.00000000	-31.20078000	-9.43036400
127.89999258	0.00000000	-31.52682000	-9.05511800
128.09999257	0.00000000	-31.20078000	-8.31077700
128.29999256	0.00000000	-30.41338000	-7.93553100
128.49999255	0.00000000	-29.61983000	-7.89247000
128.69999254	0.00000000	-28.45718000	-7.89247000
128.89999252	0.00000000	-27.34375000	-7.89247000
129.09999251	0.00000000	-26.96850000	-7.89247000
129.29999250	0.00000000	-27.29453000	-7.93553100
129.49999249	0.00000000	-28.08194000	-8.31077700
129.69999248	0.00000000	-28.87549000	-9.05511800
129.89999246	0.00000000	-30.03814000	-9.38115100
130.09999245	0.00000000	-31.15157000	-9.05511800
130.29999244	0.00000000	-31.52682000	-8.31077700
130.49999243	0.00000000	-31.20078000	-7.93553100
130.69999242	0.00000000	-30.41338000	-7.89247000
130.89999241	0.00000000	-29.66289000	-7.89247000
131.09999239	0.00000000	-28.83243000	-7.89247000
131.29999238	0.00000000	-28.08194000	-7.89247000
131.49999237	0.00000000	-27.29453000	-7.89247000
131.69999236	0.00000000	-26.96850000	-7.93553100
131.89999235	0.00000000	-27.29453000	-8.31077700
132.09999233	0.00000000	-28.08194000	-9.05511800
132.29999232	0.00000000	-28.83243000	-9.43036400
132.49999231	0.00000000	-29.61983000	-9.47342500
132.69999230	0.00000000	-29.99508000	-9.38115100
132.89999229	0.00000000	-29.99508000	-8.63681000
133.09999227	0.00000000	-29.66289000	-7.14812900
133.29999226	0.00000000	-29.25074000	-6.40378900
133.49999225	0.00000000	-29.24459000	-6.31151500
133.69999224	0.00000000	-28.87549000	-6.35457700
133.89999223	0.00000000	-28.87549000	-6.72982200
134.09999222	0.00000000	-29.24459000	-7.51722400
134.29999220	0.00000000	-29.20767000	-8.26771600
134.49999219	0.00000000	-29.24459000	-9.05511800
134.69999218	0.00000000	-28.83243000	-9.43036400
134.89999217	0.00000000	-28.50024000	-9.47342500
135.09999216	0.00000000	-28.45718000	-9.47342500
135.29999214	0.00000000	-28.45718000	-9.43036400
135.49999213	0.00000000	-28.50024000	-9.05511800
135.69999212	0.00000000	-28.87549000	-8.26771600
135.89999211	0.00000000	-29.66289000	-7.51722400
136.09999210	0.00000000	-30.37032000	-6.72982200
136.29999208	0.00000000	-30.82554000	-6.35457700
136.49999207	0.00000000	-30.78863000	-6.31151500
136.69999206	0.00000000	-30.82554000	-6.35457700
136.89999205	0.00000000	-30.37032000	-6.72982200
137.09999204	0.00000000	-29.66289000	-7.51722400
137.29999203	0.00000000	-28.83243000	-8.26771600
137.49999201	0.00000000	-28.08194000	-9.05511800
137.69999200	0.00000000	-27.29453000	-9.43036400
137.89999199	0.00000000	-26.96850000	-9.47342500
138.09999198	0.00000000	-27.29453000	-9.47342500
138.29999197	0.00000000	-28.08194000	-9.43036400
138.49999195	0.00000000	-28.83243000	-9.05511800
138.69999194	0.00000000	-29.61983000	-8.31077700
138.89999193	0.00000000	-29.99508000	-7.89247000
139.09999192	0.00000000	-30.03814000	-7.47416300
139.29999191	0.00000000	-29.99508000	-6.72982200
139.49999189	0.00000000	-29.61983000	-6.40378900
139.69999188	0.00000000	-28.87549000	-6.68676100
139.89999187	0.00000000	-28.50024000	-7.09891700
140.09999186	0.00000000	-28.45718000	-7.14812900
140.29999185	0.00000000	-28.45718000	-7.93553100
140.49999184	0.00000000	-28.45718000	-9.00590400
140.69999182	0.00000000	-28.45718000	-9.43036400
140.89999181	0.00000000	-28.50024000	-9.47342500
141.09999180	0.00000000	-28.87549000	-9.47342500
141.29999179	0.00000000	-29.61983000	-9.43036400
141.49999178	0.00000000	-29.99508000	-9.05511800
141.69999176	0.00000000	-29.99508000	-8.26771600
141.89999175	0.00000000	-29.66289000	-7.51722400
142.09999174	0.00000000	-29.25074000	-6.72982200
142.29999173	0.00000000	-29.24459000	-6.35457700
142.49999172	0.00000000	-28.83243000	-6.35457700
142.69999170	0.00000000	-28.50024000	-6.72982200
142.89999169	0.00000000	-28.45718000	-7.51722400
143.09999168	0.00000000	-28.45718000	-8.26771600
143.29999167	0.00000000	-28.45718000	-9.05511800
143.49999166	0.00000000	-28.45718000	-9.43036400
143.69999165	0.00000000	-28.45718000	-9.47342500
143.89999163	0.00000000	-28.45718000	-9.43036400
144.09999162	0.00000000	-28.45718000	-9.05511800
144.29999161	0.00000000	-28.45718000	-8.26771600
144.49999160	0.00000000	-28.45718000	-7.51722400
144.69999159	0.00000000	-28.41412000	-6.72982200
144.89999157	0.00000000	-28.08194000	-6.35457700
145.09999156	0.00000000	-27.71284000	-6.31151500
145.29999155	0.00000000	-28.12500000	-6.35457700
145.49999154	0.00000000	-28.83243000	-6.77903500
145.69999153	0.00000000	-29.61983000	-7.89247000
145.89999151	0.00000000	-29.99508000	-9.00590400
146.09999150	0.00000000	-29.99508000	-9.43036400
146.29999149	0.00000000	-29.61983000	-9.47342500
146.49999148	0.00000000	-28.87549000	-9.47342500
146.69999147	0.00000000	-28.50024000	-9.43036400
146.89999146	0.00000000	-28.45718000	-9.05511800
147.09999144	0.00000000	-28.45718000	-8.31077700
147.29999143	0.00000000	-28.50024000	-7.89247000
147.49999142	0.00000000	-28.83243000	-7.47416300
147.69999141	0.00000000	-29.20152000	-6.72982200
147.89999140	0.00000000	-28.87549000	-6.40378900
148.09999138	0.00000000	-28.92470000	-6.72982200
148.29999137	0.00000000	-29.61983000	-7.47416300
148.49999136	0.00000000	-29.94586000	-7.84940900
148.69999135	0.00000000	-29.61983000	-7.93553100
148.89999134	0.00000000	-28.87549000	-8.26771600
149.09999132	0.00000000	-28.50024000	-8.67987200
149.29999131	0.00000000	-28.45718000	-8.64296200
149.49999130	0.00000000	-28.45718000	-8.67987200
149.69999129	0.00000000	-28.45718000	-8.26771600
149.89999128	0.00000000	-28.45718000	-7.89247000
150.09999127	0.00000000	-28.45718000	-7.47416300
150.29999125	0.00000000	-28.41412000	-6.72982200
150.49999124	0.00000000	-28.08194000	-6.40378900
150.69999123	0.00000000	-27.76206000	-6.68676100
150.89999122	0.00000000	-28.50024000	-7.09891700
151.09999121	0.00000000	-29.52756000	-7.10506800
151.29999119	0.00000000	-29.57062000	-7.51722400
151.49999118	0.00000000	-28.87549000	-7.84940900
151.69999117	0.00000000	-28.50024000	-7.89247000
151.89999116	0.00000000	-28.45718000	-7.89247000
152.09999115	0.00000000	-28.45718000	-7.89247000
152.29999113	0.00000000	-28.41412000	-7.89247000
152.49999112	0.00000000	-28.03888000	-7.89247000
152.69999111	0.00000000	-27.29453000	-7.89247000
152.89999110	0.00000000	-26.96850000	-7.89247000
153.09999109	0.00000000	-27.29453000	-7.89247000
153.29999108	0.00000000	-28.03888000	-7.89247000
153.49999106	0.00000000	-28.45718000	-7.89247000
153.69999105	0.00000000	-28.87549000	-7.89247000
153.89999104	0.00000000	-29.61983000	-7.89247000
154.09999103	0.00000000	-29.94586000	-7.89247000
154.29999102	0.00000000	-29.61983000	-7.89247000
154.49999100	0.00000000	-28.87549000	-7.89247000
154.69999099	0.00000000	-28.50024000	-7.89247000
154.89999098	0.00000000	-28.41412000	-7.89247000
155.09999097	0.00000000	-28.03888000	-7.93553100
155.29999096	0.00000000	-27.29453000	-8.26771600
155.49999094	0.00000000	-26.91929000	-8.63681000
155.69999093	0.00000000	-26.87623000	-8.26771600
155.89999092	0.00000000	-26.91929000	-7.93553100
156.09999091	0.00000000	-27.29453000	-7.84940900
156.29999090	0.00000000	-28.03888000	-7.47416300
156.49999089	0.00000000	-28.45718000	-6.72982200
156.69999087	0.00000000	-28.87549000	-6.35457700
156.89999086	0.00000000	-29.57062000	-6.31151500
157.09999085	0.00000000	-29.61983000	-6.35457700
157.29999084	0.00000000	-29.29380000	-6.72982200
157.49999083	0.00000000	-29.61983000	-7.47416300
157.69999081	0.00000000	-29.57062000	-7.84940900
157.89999080	0.00000000	-28.87549000	-7.89247000
158.09999079	0.00000000	-28.45718000	-7.93553100
158.29999078	0.00000000	-28.03888000	-8.26771600
158.49999077	0.00000000	-27.29453000	-8.63681000
158.69999075	0.00000000	-26.96850000	-8.26771600
158.89999074	0.00000000	-27.25147000	-7.93553100
159.09999073	0.00000000	-27.66363000	-7.84940900
159.29999072	0.00000000	-27.66978000	-7.47416300
159.49999071	0.00000000	-28.08194000	-6.72982200
159.69999070	0.00000000	-28.41412000	-6.35457700
159.89999068	0.00000000	-28.45718000	-6.35457700
160.09999067	0.00000000	-28.50024000	-6.72982200
160.29999066	0.00000000	-28.83243000	-7.47416300
160.49999065	0.00000000	-29.20152000	-7.84940900
160.69999064	0.00000000	-28.83243000	-7.89247000
160.89999062	0.00000000	-28.50024000	-7.89247000
161.09999061	0.00000000	-28.45718000	-7.89247000
161.29999060	0.00000000	-28.45718000	-7.89247000
161.49999059	0.00000000	-28.45718000	-7.89247000
161.69999058	0.00000000	-28.41412000	-7.89247000
161.89999056	0.00000000	-28.03888000	-7.89247000
162.09999055	0.00000000	-27.34375000	-7.89247000
162.29999054	0.00000000	-27.29453000	-7.89247000
162.49999053	0.00000000	-27.66363000	-7.89247000
162.69999052	0.00000000	-27.66978000	-7.89247000
162.89999051	0.00000000	-28.08194000	-7.89247000
163.09999049	0.00000000	-28.41412000	-7.89247000
163.29999048	0.00000000	-28.45718000	-7.89247000
163.49999047	0.00000000	-28.45718000	-7.89247000
163.69999046	0.00000000	-28.45718000	-7.89247000
163.89999045	0.00000000	-28.45718000	-7.89247000
164.09999043	0.00000000	-28.45718000	-7.89247000
164.29999042	0.00000000	-28.41412000	-7.89247000
164.49999041	0.00000000	-28.03888000	-7.84940900
164.69999040	0.00000000	-27.34375000	-7.51722400
164.89999039	0.00000000	-27.29453000	-7.14812900
165.09999037	0.00000000	-27.62057000	-7.51722400
165.29999036	0.00000000	-27.29453000	-7.84940900
165.49999035	0.00000000	-27.34375000	-7.89247000
165.69999034	0.00000000	-28.03888000	-7.89247000
165.89999033	0.00000000	-28.41412000	-7.89247000
166.09999032	0.00000000	-28.45718000	-7.89247000
166.29999030	0.00000000	-28.45718000	-7.89247000
166.49999029	0.00000000	-28.45718000	-7.89247000
166.69999028	0.00000000	-28.45718000	-7.89247000
166.89999027	0.00000000	-28.45718000	-7.89247000
167.09999026	0.00000000	-28.45718000	-7.89247000
167.29999024	0.00000000	-28.45718000	-7.89247000
167.49999023	0.00000000	-28.45718000	-7.89247000
167.69999022	0.00000000	-28.41412000	-7.89247000
167.89999021	0.00000000	-28.08194000	-7.89247000
168.09999020	0.00000000	-27.71284000	-7.89247000
168.29999018	0.00000000	-28.08194000	-7.89247000
168.49999017	0.00000000	-28.36491000	-7.89247000
168.69999016	0.00000000	-28.08194000	-7.89247000
168.89999015	0.00000000	-27.71284000	-7.89247000
169.09999014	0.00000000	-28.08194000	-7.89247000
169.29999013	0.00000000	-28.41412000	-7.89247000
169.49999011	0.00000000	-28.45718000	-7.89247000
169.69999010	0.00000000	-28.45718000	-7.89247000
169.89999009	0.00000000	-28.45718000	-7.89247000
170.09999008	0.00000000	-28.45718000	-7.89247000
170.29999007	0.00000000	-28.41412000	-7.89247000
170.49999005	0.00000000	-28.08194000	-7.89247000
170.69999004	0.00000000	-27.71284000	-7.89247000
170.89999003	0.00000000	-28.03888000	-7.89247000
171.09999002	0.00000000	-28.03888000	-7.89247000
171.29999001	0.00000000	-27.71284000	-7.89247000
171.49998999	0.00000000	-28.08194000	-7.89247000
171.69998998	0.00000000	-28.41412000	-7.89247000
171.89998997	0.00000000	-28.45718000	-7.89247000
172.09998996	0.00000000	-28.45718000	-7.89247000
172.29998995	0.00000000	-28.45718000	-7.89247000
172.49998994	0.00000000	-28.45718000	-7.89247000
172.69998992	0.00000000	-28.45718000	-7.89247000
172.89998991	0.00000000	-28.45718000	-7.89247000
173.09998990	0.00000000	-28.45718000	-7.89247000
173.29998989	0.00000000	-28.45718000	-7.89247000
173.49998988	0.00000000	-28.45718000	-7.89247000
173.69998986	0.00000000	-28.45718000	-7.89247000
173.89998985	0.00000000	-28.41412000	-7.89247000
174.09998984	0.00000000	-28.03888000	-7.89247000
174.29998983	0.00000000	-27.29453000	-7.89247000
174.49998982	0.00000000	-26.96850000	-7.89247000
174.69998980	0.00000000	-27.29453000	-7.89247000
174.89998979	0.00000000	-28.03888000	-7.89247000
175.09998978	0.00000000	-28.41412000	-7.89247000
175.29998977	0.00000000	-28.45718000	-7.89247000
175.49998976	0.00000000	-28.45718000	-7.89247000
175.69998975	0.00000000	-28.45718000	-7.89247000
175.89998973	0.00000000	-28.45718000	-7.89247000
176.09998972	0.00000000	-28.45718000	-7.89247000
176.29998971	0.00000000	-28.45718000	-7.89247000
176.49998970	0.00000000	-28.45718000	-7.89247000
176.69998969	0.00000000	-28.45718000	-7.89247000
176.89998967	0.00000000	-28.41412000	-7.89247000
177.09998966	0.00000000	-28.03888000	-7.89247000
177.29998965	0.00000000	-27.29453000	-7.89247000
177.49998964	0.00000000	-26.96850000	-7.89247000
177.69998963	0.00000000	-27.29453000	-7.89247000
177.89998961	0.00000000	-28.03888000	-7.89247000
178.09998960	0.00000000	-28.41412000	-7.89247000
178.29998959	0.00000000	-28.45718000	-7.89247000
178.49998958	0.00000000	-28.45718000	-7.89247000
178.69998957	0.00000000	-28.45718000	-7.89247000
178.89998956	0.00000000	-28.41412000	-7.89247000
179.09998954	0.00000000	-28.03888000	-7.89247000
179.29998953	0.00000000	-27.34375000	-7.89247000
179.49998952	0.00000000	-27.29453000	-7.89247000
179.69998951	0.00000000	-27.62057000	-7.89247000
179.89998950	0.00000000	-27.29453000	-7.89247000
180.09998948	0.00000000	-27.29453000	-7.89247000
180.29998947	0.00000000	-27.62057000	-7.89247000
180.49998946	0.00000000	-27.25147000	-7.89247000
180.69998945	0.00000000	-26.96850000	-7.89247000
180.89998944	0.00000000	-27.29453000	-7.89247000
181.09998942	0.00000000	-28.03888000	-7.89247000
181.29998941	0.00000000	-28.41412000	-7.89247000
181.49998940	0.00000000	-28.45718000	-7.84940900
181.69998939	0.00000000	-28.41412000	-7.51722400
181.89998938	0.00000000	-28.03888000	-7.14812900
182.09998937	0.00000000	-27.29453000	-7.51722400
182.29998935	0.00000000	-26.96850000	-7.84940900
182.49998934	0.00000000	-27.25147000	-7.89247000
182.69998933	0.00000000	-27.62057000	-7.89247000
182.89998932	0.00000000	-27.29453000	-7.89247000
183.09998931	0.00000000	-27.34375000	-7.89247000
183.29998929	0.00000000	-28.03888000	-7.89247000
183.49998928	0.00000000	-28.41412000	-7.89247000
183.69998927	0.00000000	-28.45718000	-7.89247000
183.89998926	0.00000000	-28.45718000	-7.89247000
184.09998925	0.00000000	-28.45718000	-7.84940900
184.29998923	0.00000000	-28.45718000	-7.47416300
184.49998922	0.00000000	-28.41412000	-6.72982200
184.69998921	0.00000000	-28.03888000	-6.35457700
184.89998920	0.00000000	-27.29453000	-6.31151500
185.09998919	0.00000000	-26.91929000	-6.35457700
185.29998918	0.00000000	-26.87623000	-6.72982200
185.49998916	0.00000000	-26.87623000	-7.47416300
185.69998915	0.00000000	-26.87623000	-7.84940900
185.89998914	0.00000000	-26.87623000	-7.89247000
186.09998913	0.00000000	-26.91929000	-7.89247000
186.29998912	0.00000000	-27.25147000	-7.89247000
186.49998910	0.00000000	-27.62057000	-7.89247000
186.69998909	0.00000000	-27.29453000	-7.89247000
186.89998908	0.00000000	-27.34375000	-7.84940900
187.09998907	0.00000000	-28.03888000	-7.47416300
187.29998906	0.00000000	-28.41412000	-6.72982200
187.49998904	0.00000000	-28.45718000	-6.35457700
187.69998903	0.00000000	-28.41412000	-6.31151500
187.89998902	0.00000000	-28.03888000	-6.35457700
188.09998901	0.00000000	-27.29453000	-6.68676100
188.29998900	0.00000000	-26.96850000	-7.09891700
188.49998899	0.00000000	-27.25147000	-7.10506800
188.69998897	0.00000000	-27.62057000	-7.51722400
188.89998896	0.00000000	-27.25147000	-7.84940900
189.09998895	0.00000000	-26.91929000	-7.89247000
189.29998894	0.00000000	-26.87623000	-7.89247000
189.49998893	0.00000000	-26.91929000	-7.89247000
189.69998891	0.00000000	-27.29453000	-7.89247000
189.89998890	0.00000000	-28.03888000	-7.89247000
190.09998889	0.00000000	-28.41412000	-7.89247000
190.29998888	0.00000000	-28.45718000	-7.84940900
190.49998887	0.00000000	-28.41412000	-7.47416300
190.69998885	0.00000000	-28.03888000	-6.77903500
190.89998884	0.00000000	-27.29453000	-6.77903500
191.09998883	0.00000000	-26.91929000	-7.47416300
191.29998882	0.00000000	-26.87623000	-7.80019600
191.49998881	0.00000000	-26.87623000	-7.51722400
191.69998880	0.00000000	-26.87623000	-7.14812900
191.89998878	0.00000000	-26.87623000	-7.51722400
192.09998877	0.00000000	-26.87623000	-7.84940900
192.29998876	0.00000000	-26.91929000	-7.89247000
192.49998875	0.00000000	-27.29453000	-7.89247000
192.69998874	0.00000000	-28.03888000	-7.89247000
192.89998872	0.00000000	-28.41412000	-7.89247000
193.09998871	0.00000000	-28.45718000	-7.89247000
193.29998870	0.00000000	-28.45718000	-7.89247000
193.49998869	0.00000000	-28.45718000	-7.84940900
193.69998868	0.00000000	-28.41412000	-7.47416300
193.89998866	0.00000000	-28.03888000	-6.77903500
194.09998865	0.00000000	-27.29453000	-6.77903500
194.29998864	0.00000000	-26.91929000	-7.47416300
194.49998863	0.00000000	-26.87623000	-7.84940900
194.69998862	0.00000000	-26.87623000	-7.89247000
194.89998861	0.00000000	-26.91929000	-7.89247000
195.09998859	0.00000000	-27.25147000	-7.89247000
195.29998858	0.00000000	-27.66363000	-7.89247000
195.49998857	0.00000000	-27.66978000	-7.89247000
195.69998856	0.00000000	-28.03888000	-7.89247000
195.89998855	0.00000000	-28.03888000	-7.89247000
196.09998853	0.00000000	-27.66978000	-7.89247000
