Time	Channel A	Channel B	Channel C
(us)	(V)	(mV)	(mV)

-4.53333289	0.00000000	4.74286400	7.89247000
-4.33333290	0.00000000	4.74286400	7.89247000
-4.13333291	0.00000000	4.74286400	7.89247000
-3.93333293	0.00000000	4.74286400	7.89247000
-3.73333294	0.00000000	4.74286400	7.89247000
-3.53333295	0.00000000	4.74286400	7.89247000
-3.33333296	0.00000000	4.74286400	7.89247000
-3.13333297	0.00000000	4.74286400	7.89247000
-2.93333299	0.00000000	4.74286400	7.89247000
-2.73333300	0.00000000	4.74286400	7.89247000
-2.53333301	0.00000000	4.74286400	7.89247000
-2.33333302	0.00000000	4.74286400	7.84940900
-2.13333303	0.00000000	4.74286400	7.56028500
-1.93333304	0.00000000	4.74286400	7.52337600
-1.73333306	0.00000000	4.74286400	8.26156400
-1.53333307	0.00000000	4.74286400	8.22465500
-1.33333308	0.00000000	4.74286400	7.93553100
-1.13333309	0.00000000	4.74286400	7.89247000
-0.93333310	0.00000000	4.74286400	7.89247000
-0.73333312	0.00000000	4.74286400	7.89247000
-0.53333313	0.00000000	4.74286400	7.89247000
-0.33333314	0.15871060	4.74286400	7.89247000
-0.13333315	0.47736220	4.74286400	7.89247000
0.06666684	0.95533960	4.74286400	7.89247000
0.26666682	0.95533960	4.74286400	7.89247000
0.46666681	0.95533960	4.74286400	7.89247000
0.66666680	0.47736220	4.74286400	7.89247000
0.86666679	-0.15871060	4.74286400	7.89247000
1.06666678	-1.11466500	4.74286400	7.89247000
1.26666677	-2.07062000	4.74286400	7.89247000
1.46666675	-2.70792300	4.74286400	7.89247000
1.66666674	-2.70792300	4.74286400	7.89247000
1.86666673	-1.75196900	4.74286400	7.89247000
2.06666672	0.00000000	4.74286400	7.89247000
2.26666671	1.91129400	4.74286400	7.89247000
2.46666669	3.98191400	4.74286400	7.89247000
2.66666668	5.09719500	4.74286400	7.89247000
2.86666667	5.09719500	4.74286400	7.84940900
3.06666666	3.66326300	4.74286400	7.51722400
3.26666665	0.95533960	4.74286400	7.10506800
3.46666663	-2.38927200	4.74286400	7.14197800
3.66666662	-5.57517200	4.74286400	7.10506800
3.86666661	-7.64579200	4.74286400	7.56028500
4.06666660	-7.80511800	4.74286400	8.26771600
4.26666659	-5.89382400	4.74286400	9.05511800
4.46666658	-2.38927200	4.74286400	9.38115100
4.66666656	1.91129400	4.74286400	9.05511800
4.86666655	6.21247500	4.74286400	8.31077700
5.06666654	8.76107300	4.74286400	7.93553100
5.26666653	9.39837600	4.74286400	7.89247000
5.46666652	7.64579200	4.74286400	7.84940900
5.66666650	3.82258900	4.74286400	7.51722400
5.86666649	-0.95533960	4.74286400	7.14812900
6.06666648	-5.41584600	4.74286400	7.51722400
6.26666647	-8.60174700	4.74286400	7.89247000
6.46666646	-9.39837600	4.74286400	8.31077700
6.66666644	-8.12377000	4.74286400	9.05511800
6.86666643	-4.61921700	4.74286400	9.38115100
7.06666642	-0.31803640	4.74286400	9.05511800
7.26666641	3.82258900	4.74286400	8.31077700
7.46666640	6.69045300	4.74286400	7.93553100
7.66666639	7.80511800	4.74286400	7.89247000
7.86666637	6.84916400	4.74286400	7.89247000
8.06666636	4.45989200	4.74286400	7.89247000
8.26666635	1.11466500	4.74286400	7.89247000
8.46666634	-1.91129400	4.74286400	7.89247000
8.66666633	-4.30056600	4.74286400	7.89247000
8.86666631	-5.09719500	4.74286400	7.89247000
9.06666630	-4.77854300	4.74286400	7.89247000
9.26666629	-3.18590100	4.74286400	7.89247000
9.46666628	-1.27399100	4.74286400	7.89247000
9.66666627	0.63668800	4.74286400	7.89247000
9.86666625	1.91129400	4.74286400	7.89247000
10.06666624	2.54859700	4.74286400	7.89247000
10.26666623	2.38927200	4.74286400	7.89247000
10.46666622	1.75196900	4.74286400	7.89247000
10.66666621	0.79601380	4.74286400	7.89247000
10.86666620	0.00000000	4.74286400	7.89247000
11.06666618	-0.63668800	4.74286400	7.89247000
11.26666617	-0.95533960	4.74286400	7.89247000
11.46666616	-0.95533960	4.74286400	7.89247000
11.66666615	-0.79601380	4.74286400	7.89247000
11.86666614	-0.47736220	4.74286400	7.89247000
12.06666612	-0.15871060	4.74286400	7.89247000
12.26666611	-0.15871060	4.74286400	7.89247000
12.46666610	0.00000000	4.74286400	7.89247000
12.66666609	0.00000000	4.74286400	7.89247000
12.86666608	0.00000000	4.74286400	7.89247000
13.06666606	0.00000000	4.74286400	7.89247000
13.26666605	0.00000000	4.74286400	7.89247000
13.46666604	0.00000000	4.74286400	7.89247000
13.66666603	0.00000000	4.74286400	7.89247000
13.86666602	0.00000000	4.74286400	7.89247000
14.06666601	-0.15871060	4.74286400	7.89247000
14.26666599	-0.15871060	4.74286400	7.89247000
14.46666598	-0.15871060	4.74286400	7.89247000
14.66666597	0.00000000	4.74286400	7.89247000
14.86666596	0.00000000	4.74286400	7.89247000
15.06666595	0.00000000	4.74286400	7.89247000
15.26666593	0.00000000	4.74286400	7.89247000
15.46666592	0.00000000	4.74286400	7.89247000
15.66666591	0.00000000	4.74286400	7.89247000
15.86666590	0.00000000	4.74286400	7.89247000
16.06666589	0.00000000	4.74286400	7.89247000
16.26666587	0.00000000	4.74286400	7.89247000
16.46666586	0.00000000	4.74286400	7.89247000
16.66666585	-0.15871060	4.74286400	7.89247000
16.86666584	0.00000000	4.78592500	7.89247000
17.06666583	0.00000000	5.16117100	7.89247000
17.26666582	0.00000000	5.90551100	7.89247000
17.46666580	0.00000000	6.28075700	7.89247000
17.66666579	0.00000000	6.32381900	7.89247000
17.86666578	0.00000000	6.28075700	7.89247000
18.06666577	0.00000000	5.85629900	7.89247000
18.26666576	0.00000000	4.69980300	7.89247000
18.46666574	0.00000000	3.16190900	7.89247000
18.66666573	0.00000000	1.62401600	7.89247000
18.86666572	0.00000000	0.46751960	7.89247000
19.06666571	0.00000000	0.09227362	7.89247000
19.26666570	0.00000000	0.55364170	7.89247000
19.46666568	0.00000000	2.50984200	7.89247000
19.66666567	0.00000000	5.99163300	7.89247000
19.86666566	0.00000000	9.86097400	7.89247000
20.06666565	0.00000000	13.71801000	7.89247000
20.26666564	0.00000000	16.32628000	7.89247000
20.46666563	0.00000000	16.28322000	7.89247000
20.66666561	0.00000000	13.20743000	7.89247000
20.86666560	0.00000000	7.72637700	7.89247000
21.06666559	0.00000000	0.74434050	7.89247000
21.26666558	0.00000000	-6.97588500	7.89247000
21.46666557	0.00000000	-13.07210000	7.89247000
21.66666555	0.00000000	-15.77264000	7.89247000
21.86666554	0.00000000	-14.14862000	7.89247000
22.06666553	0.00000000	-7.86786400	7.89247000
22.26666552	0.00000000	2.60211600	7.89247000
22.46666551	0.00000000	15.29897000	7.89247000
22.66666549	0.00000000	26.88238000	7.89247000
22.86666548	0.00000000	34.56570000	7.89247000
23.06666547	0.00000000	36.38041000	7.93553100
23.26666546	0.00000000	30.51796000	8.31077700
23.46666545	0.00000000	17.77190000	9.05511800
23.66666544	0.00000000	1.11343500	9.43036400
23.86666542	0.00000000	-16.28322000	9.47342500
24.06666541	0.00000000	-30.51796000	9.47342500
24.26666540	0.00000000	-37.73991000	9.43036400
24.46666539	0.00000000	-35.35925000	9.00590400
24.66666538	0.00000000	-22.94537000	7.84940900
24.86666536	0.00000000	-3.26033400	6.31151500
25.06666535	0.00000000	19.53740000	4.73671200
25.26666534	0.00000000	39.91757000	3.24803100
25.46666533	0.00000000	52.66363000	2.50369100
25.66666532	0.00000000	54.57677000	3.29109200
25.86666530	0.00000000	45.31250000	5.24729300
26.06666529	0.00000000	26.70398000	8.40305000
26.26666528	0.00000000	2.74360200	12.62918000
26.46666527	0.00000000	-21.54281000	16.81225000
26.66666526	0.00000000	-40.05906000	19.50664000
26.86666525	0.00000000	-48.16068000	19.83883000
27.06666523	0.00000000	-44.34055000	17.50738000
27.26666522	0.00000000	-29.26919000	12.45079000
27.46666521	0.00000000	-6.93282500	5.85014700
27.66666520	0.00000000	17.44587000	-1.53174200
27.86666519	0.00000000	38.33661000	-8.40920300
28.06666517	0.00000000	51.50098000	-12.54921000
28.26666516	0.00000000	54.20152000	-12.13091000
28.46666515	0.00000000	45.73080000	-6.69906400
28.66666514	0.00000000	28.42027000	2.59596400
28.86666513	0.00000000	6.79133800	14.21014000
29.06666511	0.00000000	-14.09941000	25.77510000
29.26666510	0.00000000	-30.00738000	34.60876000
29.46666509	0.00000000	-37.78297000	38.41658000
29.66666508	0.00000000	-36.28814000	35.67913000
29.86666507	0.00000000	-26.28568000	26.75935000
30.06666506	0.00000000	-10.46998000	13.19513000
30.26666504	0.00000000	7.35113100	-2.60211600
30.46666503	0.00000000	23.59129000	-16.86762000
30.66666502	0.00000000	34.84252000	-26.11343000
30.86666501	0.00000000	38.80413000	-28.43258000
31.06666500	0.00000000	35.77140000	-22.95768000
31.26666498	0.00000000	26.88238000	-10.59301000
31.46666497	0.00000000	14.13632000	6.40378900
31.66666496	0.00000000	0.55364170	24.15723000
31.86666495	0.00000000	-11.44808000	38.84104000
32.06666494	0.00000000	-19.58661000	47.29330000
32.26666492	0.00000000	-21.91806000	47.29330000
32.46666491	0.00000000	-18.51624000	38.84104000
32.66666490	0.00000000	-10.42077000	24.15723000
32.86666489	0.00000000	0.00000000	6.36072800
33.06666488	0.00000000	10.51304000	-11.01132000
33.26666487	0.00000000	19.39591000	-24.16338000
33.46666485	0.00000000	24.79084000	-30.38878000
33.66666484	0.00000000	25.16609000	-28.80782000
33.86666483	0.00000000	20.65084000	-19.55585000
34.06666482	0.00000000	12.93061000	-4.50910400
34.26666481	0.00000000	4.41067900	12.49385000
34.46666479	0.00000000	-3.72170300	28.34030000
34.66666478	0.00000000	-9.44881800	39.48696000
34.86666477	0.00000000	-11.02977000	43.02411000
35.06666476	0.00000000	-8.37844500	38.84104000
35.26666475	0.00000000	-2.65132900	28.43258000
35.46666473	0.00000000	4.23228400	14.12401000
35.66666472	0.00000000	10.09473000	-0.88582670
35.86666471	0.00000000	13.95792000	-13.23819000
36.06666470	0.00000000	15.48966000	-19.83883000
36.26666469	0.00000000	13.58268000	-19.88804000
36.46666468	0.00000000	9.39345400	-13.70571000
36.66666466	0.00000000	4.36761800	-2.55905500
36.86666465	0.00000000	-0.65206690	10.45152000
37.06666464	0.00000000	-4.05388800	21.64739000
37.26666463	0.00000000	-4.88435000	28.20497000
37.46666462	0.00000000	-2.93430100	29.03543000
37.66666460	0.00000000	0.88582670	24.02190000
37.86666459	0.00000000	5.90551100	14.90526000
38.06666458	0.00000000	10.51304000	4.50295200
38.26666457	0.00000000	13.63189000	-3.91240100
38.46666456	0.00000000	14.78838000	-8.55068800
38.66666454	0.00000000	13.63189000	-7.72022600
38.86666453	0.00000000	10.55610000	-1.67322800
39.06666452	0.00000000	6.28075700	7.51722400
39.26666451	0.00000000	1.67322800	16.67692000
39.46666450	0.00000000	-2.18996000	23.22835000
39.66666449	0.00000000	-4.14616100	25.09227000
39.86666447	0.00000000	-4.18922200	21.69045000
40.06666446	0.00000000	-2.65132900	13.98868000
40.26666445	0.00000000	0.09227362	4.41067900
40.46666444	0.00000000	3.58021600	-4.78592500
40.66666443	0.00000000	7.48646600	-10.50074000
40.86666441	0.00000000	10.93135000	-10.92520000
41.06666440	0.00000000	13.29970000	-6.32381900
41.26666439	0.00000000	14.05020000	2.17765700
41.46666438	0.00000000	13.29970000	12.49385000
41.66666437	0.00000000	10.93135000	21.69045000
41.86666435	0.00000000	7.48646600	26.71629000
42.06666434	0.00000000	3.58021600	26.80241000
42.26666433	0.00000000	0.13533460	22.52707000
42.46666432	0.00000000	-2.23302100	14.85605000
42.66666431	0.00000000	-3.02657500	5.66560000
42.86666430	0.00000000	-2.65132900	-2.04847400
43.06666428	0.00000000	-1.07037400	-6.74212600
43.26666427	0.00000000	1.58095500	-7.89862200
43.46666426	0.00000000	4.32455700	-5.20423200
43.66666425	0.00000000	6.65600300	0.51058070
43.86666424	0.00000000	8.59990100	7.43110200
44.06666422	0.00000000	9.39345400	13.61343000
44.26666421	0.00000000	9.44266700	17.88263000
44.46666420	0.00000000	9.11048200	19.42052000
44.66666419	0.00000000	8.69832600	17.93184000
44.86666418	0.00000000	8.69217500	14.16708000
45.06666416	0.00000000	8.23695900	9.89173200
45.26666415	0.00000000	7.48646600	5.98548200
45.46666414	0.00000000	6.23154500	2.54675200
45.66666413	0.00000000	4.27534400	1.01501000
45.86666412	0.00000000	1.53789400	1.71013800
46.06666411	0.00000000	-1.53789400	3.57406500
46.26666409	0.00000000	-4.18922200	5.93626900
46.46666408	0.00000000	-5.30265700	8.26771600
46.66666407	0.00000000	-4.14616100	10.58686000
46.86666406	0.00000000	-1.02731300	12.11860000
47.06666405	0.00000000	3.67249000	12.53691000
47.26666403	0.00000000	9.48572700	12.16166000
47.46666402	0.00000000	15.25591000	10.96211000
47.66666401	0.00000000	19.44513000	9.05511800
47.86666400	0.00000000	20.55856000	6.72982200
48.06666399	0.00000000	17.81496000	4.77977300
48.26666397	0.00000000	11.67569000	3.24803100
48.46666396	0.00000000	3.53715500	2.54675200
48.66666395	0.00000000	-4.56446800	3.70939900
48.86666394	0.00000000	-11.11590000	6.31151500
49.06666393	0.00000000	-14.14862000	9.05511800
49.26666392	0.00000000	-12.61073000	11.42347000
49.46666390	0.00000000	-6.79749000	13.69956000
49.66666389	0.00000000	2.04847400	14.81299000
49.86666388	0.00000000	11.67569000	14.07480000
50.06666387	0.00000000	19.39591000	12.11860000
50.26666386	0.00000000	23.63435000	9.00590400
50.46666384	0.00000000	23.25910000	5.15501900
50.66666383	0.00000000	18.23942000	1.71013800
50.86666382	0.00000000	10.18086000	-0.55979330
51.06666381	0.00000000	0.88582670	-0.55979330
51.26666380	0.00000000	-7.12352300	1.71013800
51.46666379	0.00000000	-11.76796000	5.19808000
51.66666377	0.00000000	-11.44808000	9.47342500
51.86666376	0.00000000	-7.25885800	13.65650000
52.06666375	0.00000000	-0.65206690	16.35089000
52.26666374	0.00000000	7.43725300	16.76919000
52.46666373	0.00000000	14.65305000	15.23130000
52.66666371	0.00000000	18.51624000	12.16166000
52.86666370	0.00000000	17.81496000	8.31077700
53.06666369	0.00000000	13.63189000	4.82283400
53.26666368	0.00000000	7.48646600	2.12844500
53.46666367	0.00000000	0.92888770	1.01501000
53.66666365	0.00000000	-4.09694900	2.12844500
53.86666364	0.00000000	-6.79749000	4.77977300
54.06666363	0.00000000	-6.37303100	7.84940900
54.26666362	0.00000000	-2.56520700	10.53765000
54.46666361	0.00000000	3.16190900	12.07554000
54.66666360	0.00000000	8.93208600	12.11860000
54.86666358	0.00000000	13.16437000	10.96211000
55.06666357	0.00000000	14.70226000	9.05511800
55.26666356	0.00000000	13.20743000	6.77903500
55.46666355	0.00000000	9.39345400	5.29035400
55.66666354	0.00000000	4.74286400	5.29035400
55.86666352	0.00000000	0.13533460	6.77903500
56.06666351	0.00000000	-3.30339500	9.05511800
56.26666350	0.00000000	-4.09694900	10.96211000
56.46666349	0.00000000	-2.60826800	12.11860000
56.66666348	0.00000000	0.51058070	12.07554000
56.86666346	0.00000000	4.74286400	10.49459000
57.06666345	0.00000000	8.93208600	7.42495000
57.26666344	0.00000000	11.62648000	3.62327700
57.46666343	0.00000000	12.09400000	0.59670270
57.66666342	0.00000000	10.93135000	-0.55979330
57.86666341	0.00000000	8.59990100	0.64591530
58.06666339	0.00000000	5.16117100	4.12770700
58.26666338	0.00000000	2.13459600	9.51648500
58.46666337	0.00000000	0.51058070	15.23130000
58.66666336	0.00000000	0.13533460	19.46358000
58.86666335	0.00000000	0.88582670	20.99532000
59.06666333	0.00000000	2.78666300	19.42052000
59.26666332	0.00000000	4.69980300	14.76993000
59.46666331	0.00000000	6.28075700	7.89247000
59.66666330	0.00000000	7.39419200	0.97194880
59.86666329	0.00000000	7.43725300	-4.09079700
60.06666327	0.00000000	6.69906400	-6.74212600
60.26666326	0.00000000	5.94857300	-5.89936000
60.46666325	0.00000000	5.11811000	-0.93503930
60.66666324	0.00000000	4.41067900	6.36072800
60.86666323	0.00000000	4.04773600	14.07480000
61.06666322	0.00000000	4.78592500	20.62008000
61.26666320	0.00000000	5.85629900	24.06496000
61.46666319	0.00000000	6.28075700	23.68971000
61.66666318	0.00000000	6.32381900	19.42052000
61.86666317	0.00000000	6.28075700	12.11860000
62.06666316	0.00000000	5.85629900	3.66633800
62.26666314	0.00000000	4.69980300	-3.67249000
62.46666313	0.00000000	3.16190900	-8.27386800
62.66666312	0.00000000	1.67322800	-9.06126900
62.86666311	0.00000000	0.92888770	-5.62253900
63.06666310	0.00000000	1.67322800	0.55364170
63.26666308	0.00000000	3.20497000	8.26771600
63.46666307	0.00000000	5.16117100	15.97564000
63.66666306	0.00000000	7.43725300	21.37057000
63.86666305	0.00000000	8.97514600	23.73892000
64.06666304	0.00000000	9.39345400	22.53322000
64.26666303	0.00000000	9.01820900	17.97490000
64.46666301	0.00000000	7.81250000	11.42347000
64.66666300	0.00000000	5.90551100	4.87204700
64.86666299	0.00000000	3.58021600	-0.60285430
65.06666298	0.00000000	1.67322800	-4.04773600
65.26666297	0.00000000	0.51058070	-4.87819900
65.46666295	0.00000000	0.55364170	-2.97736200
65.66666294	0.00000000	2.04847400	0.51058070
65.86666293	0.00000000	4.32455700	5.15501900
66.06666292	0.00000000	6.28075700	10.16855000
66.26666291	0.00000000	7.81250000	14.07480000
66.46666289	0.00000000	8.55684000	16.81225000
66.66666288	0.00000000	7.76943800	17.97490000
66.86666287	0.00000000	5.90551100	17.23056000
67.06666286	0.00000000	3.62942900	15.36663000
67.26666285	0.00000000	2.09153500	12.95522000
67.46666284	0.00000000	1.67322800	10.21161000
67.66666282	0.00000000	2.09153500	6.68676100
67.86666281	0.00000000	3.67249000	3.24803100
68.06666280	0.00000000	6.36687900	0.51058070
68.26666279	0.00000000	9.35039300	-1.02116100
68.46666278	0.00000000	11.25123000	-1.06422200
68.66666276	0.00000000	10.83907000	0.13533460
68.86666275	0.00000000	8.55684000	2.50369100
69.06666274	0.00000000	4.69980300	6.40378900
69.26666273	0.00000000	0.51058070	11.00517000
69.46666272	0.00000000	-2.60826800	15.27436000
69.66666270	0.00000000	-4.18922200	18.35015000
69.86666269	0.00000000	-4.09694900	19.50664000
70.06666268	0.00000000	-1.72244100	18.35015000
70.26666267	0.00000000	3.25418300	15.23130000
70.46666266	0.00000000	8.97514600	10.58686000
70.66666265	0.00000000	13.63189000	5.19808000
70.86666263	0.00000000	16.36934000	0.55364170
71.06666262	0.00000000	16.74459000	-2.51599400
71.26666261	0.00000000	14.78838000	-3.25418300
71.46666260	0.00000000	10.46998000	-1.02116100
71.66666259	0.00000000	4.32455700	2.82972400
71.86666257	0.00000000	-2.18996000	7.10506800
72.06666256	0.00000000	-6.79749000	11.74336000
72.26666255	0.00000000	-8.42150500	15.18824000
72.46666254	0.00000000	-7.25885800	16.76919000
72.66666253	0.00000000	-3.77091500	16.39395000
72.86666251	0.00000000	1.67322800	14.11786000
73.06666250	0.00000000	7.81250000	11.04823000
73.26666249	0.00000000	13.20743000	7.98474400
73.46666248	0.00000000	16.32628000	5.66560000
73.66666247	0.00000000	16.74459000	4.87204700
73.86666246	0.00000000	14.78838000	5.19808000
74.06666244	0.00000000	10.55610000	6.31151500
74.26666243	0.00000000	5.21038300	7.47416300
74.46666242	0.00000000	0.55364170	8.22465500
74.66666241	0.00000000	-2.60826800	8.58759800
74.86666240	0.00000000	-4.14616100	7.80019600
75.06666238	0.00000000	-3.72170300	6.36072800
75.26666237	0.00000000	-1.07037400	5.19808000
75.46666236	0.00000000	2.74360200	4.87204700
75.66666235	0.00000000	6.23154500	5.66560000
75.86666234	0.00000000	8.97514600	7.98474400
76.06666232	0.00000000	10.51304000	11.04823000
76.26666231	0.00000000	10.55610000	14.11786000
76.46666230	0.00000000	9.39345400	16.39395000
76.66666229	0.00000000	7.48646600	16.71998000
76.86666228	0.00000000	5.25344500	14.81299000
77.06666227	0.00000000	4.09079700	10.91289000
77.26666225	0.00000000	4.36761800	5.93626900
77.46666224	0.00000000	4.69980300	0.92888770
77.66666223	0.00000000	4.74286400	-2.51599400
77.86666222	0.00000000	4.69980300	-3.71555100
78.06666221	0.00000000	4.32455700	-2.51599400
78.26666219	0.00000000	3.53715500	0.97194880
78.46666218	0.00000000	2.78666300	6.40378900
78.66666217	0.00000000	2.04847400	12.49385000
78.86666216	0.00000000	2.09153500	17.55659000
79.06666215	0.00000000	3.20497000	20.25714000
79.26666213	0.00000000	4.78592500	20.66929000
79.46666212	0.00000000	6.74212600	18.30093000
79.66666211	0.00000000	9.01820900	13.74262000
79.86666210	0.00000000	10.51304000	8.31077700
80.06666209	0.00000000	10.55610000	3.29109200
80.26666208	0.00000000	9.39345400	-0.60285430
80.46666206	0.00000000	7.43725300	-2.50984200
80.66666205	0.00000000	4.74286400	-2.18380900
80.86666204	0.00000000	2.04847400	0.13533460
81.06666203	0.00000000	0.13533460	3.62327700
81.26666202	0.00000000	-0.65206690	7.84940900
81.46666200	0.00000000	0.13533460	11.74951000
81.66666199	0.00000000	2.04847400	14.49311000
81.86666198	0.00000000	4.74286400	16.43701000
82.06666197	0.00000000	7.39419200	16.81225000
82.26666196	0.00000000	8.97514600	15.69882000
82.46666194	0.00000000	9.39345400	13.74262000
82.66666193	0.00000000	9.01820900	11.00517000
82.86666192	0.00000000	7.86171200	7.89247000
83.06666191	0.00000000	6.28075700	4.77977300
83.26666190	0.00000000	4.36761800	2.04232300
83.46666189	0.00000000	2.46678100	0.13533460
83.66666187	0.00000000	1.71628900	-0.60285430
83.86666186	0.00000000	2.04847400	0.55364170
84.06666185	0.00000000	3.16190900	3.19881900
84.26666184	0.00000000	4.27534400	6.36072800
84.46666183	0.00000000	4.69980300	9.89173200
84.66666181	0.00000000	4.74286400	13.69956000
84.86666180	0.00000000	4.74286400	16.39395000
85.06666179	0.00000000	4.78592500	17.18750000
85.26666178	0.00000000	5.16117100	16.39395000
85.46666177	0.00000000	5.90551100	13.65650000
85.66666175	0.00000000	6.28075700	9.43036400
85.86666174	0.00000000	6.32381900	4.77977300
86.06666173	0.00000000	6.32381900	0.55364170
86.26666172	0.00000000	6.28075700	-2.14074800
86.46666171	0.00000000	5.90551100	-2.50984200
86.66666170	0.00000000	5.11811000	-0.60285430
86.86666168	0.00000000	4.32455700	3.24803100
87.06666167	0.00000000	3.16190900	7.89247000
87.26666166	0.00000000	2.04847400	12.53691000
87.46666165	0.00000000	1.67322800	16.35089000
87.66666164	0.00000000	2.04847400	17.88263000
87.86666162	0.00000000	3.20497000	16.76919000
88.06666161	0.00000000	4.74286400	13.69956000
88.26666160	0.00000000	6.32381900	9.43036400
88.46666159	0.00000000	7.81250000	4.82898600
88.66666158	0.00000000	8.59990100	0.97194880
88.86666156	0.00000000	8.18774500	-0.93503930
89.06666155	0.00000000	7.06815900	-0.55979330
89.26666154	0.00000000	5.11811000	2.12844500
89.46666153	0.00000000	3.25418300	6.35457700
89.66666152	0.00000000	2.04847400	10.95595000
89.86666151	0.00000000	1.67322800	14.81299000
90.06666149	0.00000000	1.99926200	16.71998000
90.26666148	0.00000000	2.82972400	16.35089000
90.46666147	0.00000000	3.95546200	13.65650000
90.66666146	0.00000000	5.48720400	9.43036400
90.86666145	0.00000000	6.23154500	4.82898600
91.06666143	0.00000000	6.32381900	1.02116100
91.26666142	0.00000000	6.32381900	-0.51673230
91.46666141	0.00000000	6.28075700	0.59670270
91.66666140	0.00000000	5.90551100	3.70939900
91.86666139	0.00000000	5.21038300	8.31077700
92.06666137	0.00000000	5.16117100	13.23819000
92.26666136	0.00000000	5.48720400	16.30167000
92.46666135	0.00000000	5.11811000	16.76919000
92.66666134	0.00000000	4.78592500	15.23130000
92.86666133	0.00000000	4.69980300	12.07554000
93.06666132	0.00000000	4.32455700	7.51722400
93.26666130	0.00000000	3.53715500	2.92199800
93.46666129	0.00000000	2.82972400	0.27066930
93.66666128	0.00000000	2.41756900	-0.18454720
93.86666127	0.00000000	2.82972400	1.75935000
94.06666126	0.00000000	3.62942900	5.19808000
94.26666124	0.00000000	5.21038300	9.47342500
94.46666123	0.00000000	7.48646600	13.61343000
94.66666122	0.00000000	9.39345400	15.92642000
94.86666121	0.00000000	10.55610000	15.56348000
95.06666120	0.00000000	10.51304000	13.28125000
95.26666118	0.00000000	8.97514600	9.43036400
95.46666117	0.00000000	6.28075700	5.24729300
95.66666116	0.00000000	3.20497000	2.12844500
95.86666115	0.00000000	0.46751960	0.59670270
96.06666114	0.00000000	-1.44562000	0.97194880
96.26666113	0.00000000	-2.23302100	3.29109200
96.46666111	0.00000000	-1.40255900	6.68676100
96.66666110	0.00000000	0.88582670	10.16855000
96.86666109	0.00000000	4.41067900	12.49385000
97.06666108	0.00000000	8.23695900	13.69956000
97.26666107	0.00000000	11.71875000	13.61343000
97.46666105	0.00000000	13.63189000	11.74951000
97.66666104	0.00000000	13.67495000	8.72908400
97.86666103	0.00000000	12.09400000	6.40378900
98.06666102	0.00000000	9.01820900	4.82283400
98.26666101	0.00000000	5.16117100	4.08464600
98.46666099	0.00000000	1.62401600	4.82283400
98.66666098	0.00000000	-1.44562000	6.31151500
98.86666097	0.00000000	-3.34645700	7.84940900
99.06666096	0.00000000	-2.98351400	9.00590400
99.26666095	0.00000000	-1.07037400	9.43036400
99.46666094	0.00000000	2.04847400	9.47342500
99.66666092	0.00000000	5.85629900	9.47342500
99.86666091	0.00000000	9.01820900	9.47342500
100.06666090	0.00000000	11.34966000	9.47342500
100.26666089	0.00000000	12.88140000	9.51648500
100.46666088	0.00000000	12.46924000	9.89173200
100.66666086	0.00000000	10.59916000	10.58686000
100.86666085	0.00000000	7.86171200	10.53765000
101.06666084	0.00000000	4.78592500	9.42421200
101.26666083	0.00000000	2.04847400	7.89247000
101.46666082	0.00000000	0.09227362	6.31151500
101.66666080	0.00000000	-1.07037400	4.77977300
101.86666079	0.00000000	-1.02731300	3.66633800
102.06666078	0.00000000	0.46751960	3.66633800
102.26666077	0.00000000	2.78666300	4.82283400
102.46666076	0.00000000	5.11811000	6.77903500
102.66666075	0.00000000	7.48646600	9.47342500
102.86666073	0.00000000	9.35039300	12.11860000
103.06666072	0.00000000	10.18086000	13.69956000
103.26666071	0.00000000	9.76870100	14.07480000
103.46666070	0.00000000	8.64911400	13.28125000
103.66666069	0.00000000	6.69906400	10.96211000
103.86666067	0.00000000	4.78592500	7.89247000
104.06666066	0.00000000	3.20497000	4.82283400
104.26666065	0.00000000	2.04847400	2.50369100
104.46666064	0.00000000	1.67322800	1.75319900
104.66666063	0.00000000	2.04847400	2.50369100
104.86666061	0.00000000	3.20497000	4.82283400
105.06666060	0.00000000	4.74286400	7.84940900
105.26666059	0.00000000	6.28075700	10.58686000
105.46666058	0.00000000	7.43725300	12.49385000
105.66666057	0.00000000	7.86171200	13.28125000
105.86666056	0.00000000	7.86171200	12.49385000
106.06666054	0.00000000	7.43725300	10.62992000
106.26666053	0.00000000	6.28075700	8.31077700
106.46666052	0.00000000	4.78592500	6.36072800
106.66666051	0.00000000	3.62942900	4.82283400
106.86666050	0.00000000	3.25418300	4.08464600
107.06666048	0.00000000	3.62942900	4.87204700
107.26666047	0.00000000	4.74286400	6.68676100
107.46666046	0.00000000	5.85629900	8.63681000
107.66666045	0.00000000	6.28075700	9.79945900
107.86666044	0.00000000	6.32381900	10.58686000
108.06666042	0.00000000	6.28075700	10.53765000
108.26666041	0.00000000	5.85629900	9.42421200
108.46666040	0.00000000	4.74286400	7.89247000
108.66666039	0.00000000	3.62942900	6.36072800
108.86666038	0.00000000	3.20497000	5.24729300
109.06666037	0.00000000	3.20497000	5.19808000
109.26666035	0.00000000	3.62942900	5.93626900
109.46666034	0.00000000	4.74286400	6.77903500
109.66666033	0.00000000	5.90551100	8.31077700
109.86666032	0.00000000	6.69906400	10.16855000
110.06666031	0.00000000	7.48646600	10.95595000
110.26666029	0.00000000	7.81250000	11.00517000
110.46666028	0.00000000	7.43725300	10.58686000
110.66666027	0.00000000	6.28075700	9.42421200
110.86666026	0.00000000	4.78592500	7.89247000
111.06666025	0.00000000	3.62942900	6.36072800
111.26666023	0.00000000	3.20497000	5.19808000
111.46666022	0.00000000	3.16190900	4.82898600
111.66666021	0.00000000	3.20497000	5.19808000
111.86666020	0.00000000	3.62942900	6.31151500
112.06666019	0.00000000	4.74286400	7.47416300
112.26666018	0.00000000	5.85629900	8.26771600
112.46666016	0.00000000	6.28075700	9.05511800
112.66666015	0.00000000	6.32381900	9.43036400
112.86666014	0.00000000	6.28075700	9.47342500
113.06666013	0.00000000	5.90551100	9.43036400
113.26666012	0.00000000	5.11811000	9.05511800
113.46666010	0.00000000	4.41067900	8.31077700
113.66666009	0.00000000	3.99852300	7.93553100
113.86666008	0.00000000	4.36761800	7.89247000
114.06666007	0.00000000	4.69980300	7.89247000
114.26666006	0.00000000	4.78592500	7.89247000
114.46666004	0.00000000	5.11811000	7.84940900
114.66666003	0.00000000	5.53026500	7.47416300
114.86666002	0.00000000	5.53641700	6.72982200
115.06666001	0.00000000	5.94857300	6.35457700
115.26666000	0.00000000	6.28075700	6.35457700
115.46665999	0.00000000	6.28075700	6.72982200
115.66665997	0.00000000	5.90551100	7.47416300
115.86665996	0.00000000	5.16117100	7.89247000
116.06665995	0.00000000	4.78592500	8.35998900
116.26665994	0.00000000	4.74286400	9.42421200
116.46665993	0.00000000	4.74286400	10.21161000
116.66665991	0.00000000	4.74286400	10.21776000
116.86665990	0.00000000	4.74286400	10.25467000
117.06665989	0.00000000	4.78592500	9.79945900
117.26665988	0.00000000	5.16117100	9.05511800
117.46665987	0.00000000	5.90551100	7.89247000
117.66665985	0.00000000	6.32381900	6.77903500
117.86665984	0.00000000	6.74212600	6.35457700
118.06665983	0.00000000	7.43725300	6.31151500
118.26665982	0.00000000	7.43725300	6.31151500
118.46665981	0.00000000	6.69906400	6.35457700
118.66665980	0.00000000	5.90551100	6.77903500
118.86665978	0.00000000	4.74286400	7.89247000
119.06665977	0.00000000	3.58021600	9.00590400
119.26665976	0.00000000	2.82972400	9.43036400
119.46665975	0.00000000	2.41756900	9.47342500
119.66665974	0.00000000	2.82972400	9.47342500
119.86665972	0.00000000	3.58021600	9.47342500
120.06665971	0.00000000	4.78592500	9.43036400
120.26665970	0.00000000	6.28075700	9.05511800
120.46665969	0.00000000	7.43725300	8.26771600
120.66665968	0.00000000	7.86171200	7.51722400
120.86665966	0.00000000	7.90477300	6.72982200
121.06665965	0.00000000	7.86171200	6.35457700
121.26665964	0.00000000	7.43725300	6.31151500
121.46665963	0.00000000	6.28075700	6.31151500
121.66665962	0.00000000	4.78592500	6.35457700
121.86665961	0.00000000	3.62942900	6.72982200
122.06665959	0.00000000	3.20497000	7.51722400
122.26665958	0.00000000	3.16190900	8.26771600
122.46665957	0.00000000	3.20497000	9.05511800
122.66665956	0.00000000	3.62942900	9.43036400
122.86665955	0.00000000	4.74286400	9.47342500
123.06665953	0.00000000	5.90551100	9.47342500
123.26665952	0.00000000	6.69906400	9.43036400
123.46665951	0.00000000	7.48646600	9.05511800
123.66665950	0.00000000	7.81250000	8.31077700
123.86665949	0.00000000	7.48646600	7.89247000
124.06665947	0.00000000	6.74212600	7.47416300
124.26665946	0.00000000	6.32381900	6.72982200
124.46665945	0.00000000	5.85629900	6.35457700
124.66665944	0.00000000	4.74286400	6.35457700
124.86665943	0.00000000	3.62942900	6.72982200
125.06665942	0.00000000	3.20497000	7.51722400
125.26665940	0.00000000	3.16190900	8.22465500
125.46665939	0.00000000	3.20497000	8.67987200
125.66665938	0.00000000	3.58021600	8.68602300
125.86665937	0.00000000	4.36761800	9.09817800
126.06665936	0.00000000	5.11811000	9.43036400
126.26665934	0.00000000	5.90551100	9.43036400
126.46665933	0.00000000	6.32381900	9.05511800
126.66665932	0.00000000	6.69906400	8.31077700
126.86665931	0.00000000	7.06815900	7.93553100
127.06665930	0.00000000	6.65600300	7.89247000
127.26665928	0.00000000	5.94857300	7.89247000
127.46665927	0.00000000	5.11811000	7.89247000
127.66665926	0.00000000	4.36761800	7.89247000
127.86665925	0.00000000	3.58021600	7.89247000
128.06665924	0.00000000	3.25418300	7.89247000
128.26665923	0.00000000	3.58021600	7.89247000
128.46665921	0.00000000	4.36761800	7.89247000
128.66665920	0.00000000	5.16117100	7.93553100
128.86665919	0.00000000	6.32381900	8.26771600
129.06665918	0.00000000	7.39419200	8.63681000
129.26665917	0.00000000	7.43725300	8.26771600
129.46665915	0.00000000	6.69906400	7.93553100
129.66665914	0.00000000	5.90551100	7.84940900
129.86665913	0.00000000	4.74286400	7.51722400
130.06665912	0.00000000	3.62942900	7.14812900
130.26665911	0.00000000	3.20497000	7.51722400
130.46665909	0.00000000	3.20497000	7.84940900
130.66665908	0.00000000	3.62942900	7.93553100
130.86665907	0.00000000	4.74286400	8.26771600
131.06665906	0.00000000	5.85629900	8.63681000
131.26665905	0.00000000	6.32381900	8.31077700
131.46665904	0.00000000	6.69906400	8.31077700
131.66665902	0.00000000	7.06815900	8.63681000
131.86665901	0.00000000	6.65600300	8.22465500
132.06665900	0.00000000	5.94857300	7.51722400
132.26665899	0.00000000	5.16117100	6.72982200
132.46665898	0.00000000	4.78592500	6.35457700
132.66665896	0.00000000	4.74286400	6.35457700
132.86665895	0.00000000	4.74286400	6.72982200
133.06665894	0.00000000	4.74286400	7.51722400
133.26665893	0.00000000	4.78592500	8.26771600
133.46665892	0.00000000	5.16117100	9.05511800
133.66665890	0.00000000	5.90551100	9.43036400
133.86665889	0.00000000	6.23154500	9.47342500
134.06665888	0.00000000	5.90551100	9.43036400
134.26665887	0.00000000	5.16117100	9.00590400
134.46665886	0.00000000	4.78592500	7.89247000
134.66665885	0.00000000	4.74286400	6.77903500
134.86665883	0.00000000	4.78592500	6.35457700
135.06665882	0.00000000	5.16117100	6.35457700
135.26665881	0.00000000	5.90551100	6.68676100
135.46665880	0.00000000	6.28075700	7.09891700
135.66665879	0.00000000	6.32381900	7.10506800
135.86665877	0.00000000	6.28075700	7.56028500
136.06665876	0.00000000	5.90551100	8.26771600
136.26665875	0.00000000	5.11811000	9.05511800
136.46665874	0.00000000	4.36761800	9.43036400
136.66665873	0.00000000	3.58021600	9.43036400
136.86665871	0.00000000	3.25418300	9.05511800
137.06665870	0.00000000	3.58021600	8.31077700
137.26665869	0.00000000	4.36761800	7.93553100
137.46665868	0.00000000	5.11811000	7.84940900
137.66665867	0.00000000	5.94857300	7.47416300
137.86665866	0.00000000	6.65600300	6.72982200
138.06665864	0.00000000	7.06815900	6.35457700
138.26665863	0.00000000	6.69906400	6.31151500
138.46665862	0.00000000	6.32381900	6.35457700
138.66665861	0.00000000	5.90551100	6.72982200
138.86665860	0.00000000	5.16117100	7.51722400
139.06665858	0.00000000	4.78592500	8.26771600
139.26665857	0.00000000	4.74286400	9.05511800
139.46665856	0.00000000	4.74286400	9.47342500
139.66665855	0.00000000	4.78592500	9.84867000
139.86665854	0.00000000	5.16117100	10.21161000
140.06665852	0.00000000	5.90551100	9.79945900
140.26665851	0.00000000	6.28075700	9.09817800
140.46665850	0.00000000	6.32381900	8.26771600
140.66665849	0.00000000	6.32381900	7.47416300
140.86665848	0.00000000	6.28075700	6.36072800
141.06665847	0.00000000	5.90551100	5.61638700
141.26665845	0.00000000	5.16117100	5.98548200
141.46665844	0.00000000	4.78592500	6.68676100
141.66665843	0.00000000	4.74286400	7.51722400
141.86665842	0.00000000	4.74286400	8.26771600
142.06665841	0.00000000	4.78592500	9.05511800
142.26665839	0.00000000	5.16117100	9.43036400
142.46665838	0.00000000	5.90551100	9.47342500
142.66665837	0.00000000	6.28075700	9.43036400
142.86665836	0.00000000	6.32381900	9.05511800
143.06665835	0.00000000	6.28075700	8.26771600
143.26665834	0.00000000	5.90551100	7.51722400
143.46665832	0.00000000	5.16117100	6.72982200
143.66665831	0.00000000	4.78592500	6.35457700
143.86665830	0.00000000	4.74286400	6.31151500
144.06665829	0.00000000	4.74286400	6.35457700
144.26665828	0.00000000	4.78592500	6.72982200
144.46665826	0.00000000	5.16117100	7.51722400
144.66665825	0.00000000	5.90551100	8.26771600
144.86665824	0.00000000	6.28075700	9.05511800
145.06665823	0.00000000	6.32381900	9.43036400
145.26665822	0.00000000	6.28075700	9.47342500
145.46665820	0.00000000	5.90551100	9.43036400
145.66665819	0.00000000	5.16117100	9.05511800
145.86665818	0.00000000	4.78592500	8.31077700
146.06665817	0.00000000	4.74286400	7.89247000
146.26665816	0.00000000	4.74286400	7.47416300
146.46665815	0.00000000	4.78592500	6.72982200
146.66665813	0.00000000	5.16117100	6.40378900
146.86665812	0.00000000	5.90551100	6.72982200
147.06665811	0.00000000	6.28075700	7.47416300
147.26665810	0.00000000	6.32381900	7.84940900
147.46665809	0.00000000	6.32381900	7.93553100
147.66665807	0.00000000	6.28075700	8.31077700
147.86665806	0.00000000	5.90551100	9.00590400
148.06665805	0.00000000	5.16117100	9.00590400
148.26665804	0.00000000	4.78592500	8.31077700
148.46665803	0.00000000	4.74286400	7.93553100
148.66665801	0.00000000	4.74286400	7.89247000
148.86665800	0.00000000	4.74286400	7.89247000
149.06665799	0.00000000	4.74286400	7.84940900
149.26665798	0.00000000	4.78592500	7.51722400
149.46665797	0.00000000	5.16117100	7.14812900
149.66665796	0.00000000	5.90551100	7.51722400
149.86665794	0.00000000	6.28075700	7.84940900
150.06665793	0.00000000	6.32381900	7.89247000
150.26665792	0.00000000	6.32381900	7.89247000
150.46665791	0.00000000	6.28075700	7.93553100
150.66665790	0.00000000	5.90551100	8.31077700
150.86665788	0.00000000	5.16117100	9.05511800
151.06665787	0.00000000	4.78592500	9.43036400
151.26665786	0.00000000	4.74286400	9.43036400
151.46665785	0.00000000	4.74286400	9.05511800
151.66665784	0.00000000	4.74286400	8.31077700
151.86665782	0.00000000	4.78592500	7.93553100
152.06665781	0.00000000	5.16117100	7.89247000
152.26665780	0.00000000	5.90551100	7.89247000
152.46665779	0.00000000	6.28075700	7.89247000
152.66665778	0.00000000	6.32381900	7.89247000
152.86665777	0.00000000	6.32381900	7.89247000
153.06665775	0.00000000	6.32381900	7.89247000
153.26665774	0.00000000	6.28075700	7.89247000
153.46665773	0.00000000	5.90551100	7.93553100
153.66665772	0.00000000	5.16117100	8.31077700
153.86665771	0.00000000	4.78592500	9.00590400
154.06665769	0.00000000	4.74286400	9.00590400
154.26665768	0.00000000	4.74286400	8.35998900
154.46665767	0.00000000	4.74286400	8.31077700
154.66665766	0.00000000	4.74286400	8.63681000
154.86665765	0.00000000	4.78592500	8.26771600
155.06665763	0.00000000	5.16117100	7.93553100
155.26665762	0.00000000	5.90551100	7.89247000
155.46665761	0.00000000	6.28075700	7.89247000
155.66665760	0.00000000	6.32381900	7.89247000
155.86665759	0.00000000	6.32381900	7.89247000
156.06665758	0.00000000	6.32381900	7.89247000
156.26665756	0.00000000	6.32381900	7.89247000
156.46665755	0.00000000	6.28075700	7.93553100
156.66665754	0.00000000	5.90551100	8.31077700
156.86665753	0.00000000	5.16117100	9.05511800
157.06665752	0.00000000	4.78592500	9.43036400
157.26665750	0.00000000	4.74286400	9.47342500
157.46665749	0.00000000	4.74286400	9.47342500
157.66665748	0.00000000	4.74286400	9.43036400
157.86665747	0.00000000	4.78592500	9.05511800
158.06665746	0.00000000	5.16117100	8.31077700
158.26665744	0.00000000	5.90551100	7.89247000
158.46665743	0.00000000	6.28075700	7.51722400
158.66665742	0.00000000	6.32381900	7.14812900
158.86665741	0.00000000	6.32381900	7.51722400
159.06665740	0.00000000	6.32381900	7.84940900
159.26665739	0.00000000	6.28075700	7.93553100
159.46665737	0.00000000	5.94857300	8.31077700
159.66665736	0.00000000	5.53641700	9.05511800
159.86665735	0.00000000	5.53026500	9.43036400
160.06665734	0.00000000	5.11811000	9.47342500
160.26665733	0.00000000	4.78592500	9.47342500
160.46665731	0.00000000	4.74286400	9.43036400
160.66665730	0.00000000	4.74286400	9.05511800
160.86665729	0.00000000	4.74286400	8.31077700
161.06665728	0.00000000	4.74286400	7.89247000
161.26665727	0.00000000	4.78592500	7.51722400
161.46665725	0.00000000	5.16117100	7.14812900
161.66665724	0.00000000	5.90551100	7.51722400
161.86665723	0.00000000	6.28075700	7.84940900
162.06665722	0.00000000	6.32381900	7.89247000
162.26665721	0.00000000	6.32381900	7.93553100
162.46665720	0.00000000	6.32381900	8.31077700
162.66665718	0.00000000	6.32381900	9.05511800
162.86665717	0.00000000	6.28075700	9.38115100
163.06665716	0.00000000	5.90551100	9.09817800
163.26665715	0.00000000	5.16117100	8.68602300
163.46665714	0.00000000	4.78592500	8.67987200
163.66665712	0.00000000	4.74286400	8.26771600
163.86665711	0.00000000	4.78592500	7.93553100
164.06665710	0.00000000	5.11811000	7.89247000
164.26665709	0.00000000	5.48720400	7.89247000
164.46665708	0.00000000	5.16117100	7.89247000
164.66665706	0.00000000	5.21038300	7.89247000
164.86665705	0.00000000	5.90551100	7.89247000
165.06665704	0.00000000	6.28075700	7.89247000
165.26665703	0.00000000	6.32381900	7.89247000
165.46665702	0.00000000	6.32381900	7.89247000
165.66665701	0.00000000	6.32381900	7.89247000
165.86665699	0.00000000	6.28075700	7.89247000
166.06665698	0.00000000	5.90551100	7.89247000
166.26665697	0.00000000	5.16117100	7.89247000
166.46665696	0.00000000	4.78592500	7.89247000
166.66665695	0.00000000	4.74286400	7.89247000
166.86665693	0.00000000	4.74286400	7.89247000
167.06665692	0.00000000	4.74286400	7.89247000
167.26665691	0.00000000	4.78592500	7.89247000
167.46665690	0.00000000	5.16117100	7.89247000
167.66665689	0.00000000	5.90551100	7.89247000
167.86665687	0.00000000	6.28075700	7.89247000
168.06665686	0.00000000	6.32381900	7.89247000
168.26665685	0.00000000	6.32381900	7.89247000
168.46665684	0.00000000	6.32381900	7.89247000
168.66665683	0.00000000	6.32381900	7.89247000
168.86665682	0.00000000	6.28075700	7.89247000
169.06665680	0.00000000	5.90551100	7.89247000
169.26665679	0.00000000	5.16117100	7.89247000
169.46665678	0.00000000	4.78592500	7.89247000
169.66665677	0.00000000	4.74286400	7.89247000
169.86665676	0.00000000	4.74286400	7.89247000
170.06665674	0.00000000	4.74286400	7.89247000
170.26665673	0.00000000	4.78592500	7.89247000
170.46665672	0.00000000	5.16117100	7.89247000
170.66665671	0.00000000	5.90551100	7.89247000
170.86665670	0.00000000	6.28075700	7.89247000
171.06665668	0.00000000	6.28075700	7.89247000
171.26665667	0.00000000	5.94857300	7.89247000
171.46665666	0.00000000	5.57947800	7.89247000
171.66665665	0.00000000	5.94857300	7.89247000
171.86665664	0.00000000	6.28075700	7.89247000
172.06665663	0.00000000	6.28075700	7.89247000
172.26665661	0.00000000	5.90551100	7.89247000
172.46665660	0.00000000	5.21038300	7.89247000
172.66665659	0.00000000	5.16117100	7.89247000
172.86665658	0.00000000	5.48720400	7.89247000
173.06665657	0.00000000	5.16117100	7.89247000
173.26665655	0.00000000	5.16117100	7.89247000
173.46665654	0.00000000	5.53026500	7.89247000
173.66665653	0.00000000	5.53641700	7.89247000
173.86665652	0.00000000	5.94857300	7.89247000
174.06665651	0.00000000	6.23154500	7.89247000
174.26665649	0.00000000	5.94857300	7.89247000
174.46665648	0.00000000	5.57947800	7.89247000
174.66665647	0.00000000	5.90551100	7.89247000
174.86665646	0.00000000	5.85629900	7.89247000
175.06665645	0.00000000	5.16117100	7.89247000
175.26665644	0.00000000	4.78592500	7.89247000
175.46665642	0.00000000	4.78592500	7.89247000
175.66665641	0.00000000	5.16117100	7.89247000
175.86665640	0.00000000	5.90551100	7.89247000
176.06665639	0.00000000	6.28075700	7.89247000
176.26665638	0.00000000	6.32381900	7.89247000
176.46665636	0.00000000	6.32381900	7.89247000
176.66665635	0.00000000	6.32381900	7.89247000
176.86665634	0.00000000	6.32381900	7.89247000
177.06665633	0.00000000	6.32381900	7.89247000
177.26665632	0.00000000	6.28075700	7.89247000
177.46665630	0.00000000	5.90551100	7.89247000
177.66665629	0.00000000	5.21038300	7.89247000
177.86665628	0.00000000	5.16117100	7.89247000
178.06665627	0.00000000	5.53026500	7.89247000
178.26665626	0.00000000	5.53641700	7.89247000
178.46665625	0.00000000	5.90551100	7.89247000
178.66665623	0.00000000	5.90551100	7.89247000
178.86665622	0.00000000	5.57947800	7.89247000
179.06665621	0.00000000	5.94857300	7.89247000
179.26665620	0.00000000	6.28075700	7.89247000
179.46665619	0.00000000	6.32381900	7.89247000
179.66665617	0.00000000	6.32381900	7.89247000
179.86665616	0.00000000	6.32381900	7.89247000
180.06665615	0.00000000	6.32381900	7.89247000
180.26665614	0.00000000	6.28075700	7.89247000
180.46665613	0.00000000	5.90551100	7.89247000
180.66665611	0.00000000	5.21038300	7.89247000
180.86665610	0.00000000	5.16117100	7.89247000
181.06665609	0.00000000	5.48720400	7.89247000
181.26665608	0.00000000	5.16117100	7.93553100
181.46665607	0.00000000	5.21038300	8.26771600
181.66665606	0.00000000	5.90551100	8.67987200
181.86665604	0.00000000	6.28075700	8.64296200
182.06665603	0.00000000	6.32381900	8.67987200
182.26665602	0.00000000	6.32381900	8.26771600
182.46665601	0.00000000	6.32381900	7.98474400
182.66665600	0.00000000	6.32381900	8.26771600
182.86665598	0.00000000	6.32381900	8.63681000
183.06665597	0.00000000	6.32381900	8.26771600
183.26665596	0.00000000	6.32381900	7.93553100
183.46665595	0.00000000	6.32381900	7.89247000
183.66665594	0.00000000	6.32381900	7.89247000
183.86665592	0.00000000	6.32381900	7.89247000
184.06665591	0.00000000	6.28075700	7.89247000
184.26665590	0.00000000	5.90551100	7.89247000
184.46665589	0.00000000	5.16117100	7.93553100
184.66665588	0.00000000	4.78592500	8.31077700
184.86665587	0.00000000	4.78592500	9.00590400
185.06665585	0.00000000	5.16117100	9.00590400
185.26665584	0.00000000	5.85629900	8.31077700
185.46665583	0.00000000	5.90551100	7.93553100
185.66665582	0.00000000	5.57947800	7.89247000
185.86665581	0.00000000	5.94857300	7.84940900
186.06665579	0.00000000	6.28075700	7.51722400
186.26665578	0.00000000	6.32381900	7.10506800
186.46665577	0.00000000	6.32381900	7.14197800
186.66665576	0.00000000	6.28075700	7.10506800
186.86665575	0.00000000	5.90551100	7.51722400
187.06665573	0.00000000	5.16117100	7.84940900
187.26665572	0.00000000	4.78592500	7.93553100
187.46665571	0.00000000	4.74286400	8.31077700
187.66665570	0.00000000	4.74286400	9.05511800
187.86665569	0.00000000	4.78592500	9.43036400
188.06665568	0.00000000	5.16117100	9.47342500
188.26665566	0.00000000	5.90551100	9.43036400
188.46665565	0.00000000	6.28075700	9.05511800
188.66665564	0.00000000	6.32381900	8.31077700
188.86665563	0.00000000	6.32381900	7.89247000
189.06665562	0.00000000	6.32381900	7.47416300
189.26665560	0.00000000	6.32381900	6.77903500
189.46665559	0.00000000	6.32381900	6.77903500
189.66665558	0.00000000	6.28075700	7.47416300
189.86665557	0.00000000	5.90551100	7.84940900
190.06665556	0.00000000	5.16117100	7.89247000
190.26665554	0.00000000	4.78592500	7.89247000
190.46665553	0.00000000	4.74286400	7.89247000
190.66665552	0.00000000	4.74286400	7.89247000
190.86665551	0.00000000	4.74286400	7.93553100
191.06665550	0.00000000	4.78592500	8.31077700
191.26665549	0.00000000	5.16117100	9.00590400
191.46665547	0.00000000	5.90551100	9.00590400
191.66665546	0.00000000	6.28075700	8.31077700
191.86665545	0.00000000	6.32381900	7.93553100
192.06665544	0.00000000	6.32381900	7.89247000
192.26665543	0.00000000	6.32381900	7.89247000
192.46665541	0.00000000	6.32381900	7.89247000
192.66665540	0.00000000	6.28075700	7.89247000
192.86665539	0.00000000	5.90551100	7.89247000
193.06665538	0.00000000	5.21038300	7.89247000
193.26665537	0.00000000	5.16117100	7.89247000
193.46665535	0.00000000	5.48720400	7.89247000
193.66665534	0.00000000	5.11811000	7.89247000
193.86665533	0.00000000	4.83513700	7.93553100
194.06665532	0.00000000	5.16117100	8.26771600
194.26665531	0.00000000	5.90551100	8.67987200
194.46665530	0.00000000	6.28075700	8.64296200
194.66665528	0.00000000	6.32381900	8.67987200
194.86665527	0.00000000	6.32381900	8.26771600
195.06665526	0.00000000	6.32381900	7.93553100
195.26665525	0.00000000	6.32381900	7.89247000
195.46665524	0.00000000	6.32381900	7.89247000
195.66665522	0.00000000	6.32381900	7.89247000
195.86665521	0.00000000	6.28075700	7.89247000
196.06665520	0.00000000	5.94857300	7.89247000
