Time	Channel A	Channel B	Channel C
(us)	(V)	(mV)	(mV)

-4.49999956	0.00000000	4.74286400	7.89247000
-4.29999957	0.00000000	4.74286400	7.89247000
-4.09999958	0.00000000	4.74286400	7.89247000
-3.89999959	0.00000000	4.74286400	7.89247000
-3.69999960	0.00000000	4.74286400	7.89247000
-3.49999962	0.00000000	4.74286400	7.89247000
-3.29999963	0.00000000	4.74286400	7.89247000
-3.09999964	0.00000000	4.74286400	7.89247000
-2.89999965	0.00000000	4.74286400	7.89247000
-2.69999966	0.00000000	4.74286400	7.89247000
-2.49999968	0.00000000	4.74286400	7.89247000
-2.29999969	0.00000000	4.74286400	7.89247000
-2.09999970	0.00000000	4.74286400	7.89247000
-1.89999971	0.00000000	4.74286400	7.89247000
-1.69999972	0.00000000	4.74286400	7.89247000
-1.49999973	0.00000000	4.74286400	7.89247000
-1.29999975	0.00000000	4.74286400	7.89247000
-1.09999976	0.00000000	4.74286400	7.89247000
-0.89999977	0.00000000	4.74286400	7.89247000
-0.69999978	0.00000000	4.74286400	7.89247000
-0.49999979	0.00000000	4.74286400	7.89247000
-0.29999981	0.31803640	4.74286400	7.89247000
-0.09999982	0.63668800	4.74286400	7.89247000
0.10000017	0.95533960	4.74286400	7.89247000
0.30000016	0.95533960	4.74286400	7.89247000
0.50000015	0.79601380	4.74286400	7.89247000
0.70000013	0.31803640	4.74286400	7.89247000
0.90000012	-0.47736220	4.74286400	7.89247000
1.10000011	-1.43331700	4.74286400	7.89247000
1.30000010	-2.38927200	4.74286400	7.89247000
1.50000009	-2.70792300	4.78592500	7.93553100
1.70000008	-2.38927200	5.11811000	8.26771600
1.90000006	-1.27399100	5.48720400	8.63681000
2.10000005	0.63668800	5.11811000	8.26771600
2.30000004	2.70792300	4.78592500	7.93553100
2.50000003	4.45989200	4.74286400	7.89247000
2.70000002	5.41584600	4.74286400	7.84940900
2.90000000	4.77854300	4.74286400	7.51722400
3.09999999	2.86724900	4.74286400	7.14812900
3.29999998	-0.15871060	4.74286400	7.51722400
3.49999997	-3.50393700	4.74286400	7.84940900
3.69999996	-6.37180100	4.74286400	7.89247000
3.89999994	-7.96444400	4.74286400	7.93553100
4.09999993	-7.48646600	4.78592500	8.26771600
4.29999992	-4.93786900	5.11811000	8.67987200
4.49999991	-1.11466500	5.53026500	8.64296200
4.69999990	3.34522600	5.49335600	8.67987200
4.89999989	7.16781500	5.53026500	8.26771600
5.09999987	9.23905000	5.11811000	7.93553100
5.29999986	9.07972400	4.78592500	7.89247000
5.49999985	6.53112700	4.74286400	7.84940900
5.69999984	2.38927200	4.74286400	7.51722400
5.89999983	-2.38927200	4.74286400	7.14812900
6.09999981	-6.69045300	4.74286400	7.51722400
6.29999980	-9.07972400	4.74286400	7.84940900
6.49999979	-9.23905000	4.74286400	7.89247000
6.69999978	-7.16781500	4.78592500	7.89247000
6.89999977	-3.34522600	5.11811000	7.89247000
7.09999975	0.95533960	5.48720400	7.89247000
7.29999974	4.93786900	5.11811000	7.89247000
7.49999973	7.16781500	4.78592500	7.89247000
7.69999972	7.64579200	4.74286400	7.89247000
7.89999971	6.21247500	4.74286400	7.89247000
8.09999970	3.34522600	4.74286400	7.89247000
8.29999968	0.15871060	4.74286400	7.89247000
8.49999967	-2.86724900	4.74286400	7.89247000
8.69999966	-4.77854300	4.74286400	7.89247000
8.89999965	-5.25652100	4.74286400	7.89247000
9.09999964	-4.30056600	4.74286400	7.89247000
9.29999962	-2.70792300	4.74286400	7.89247000
9.49999961	-0.63668800	4.74286400	7.89247000
9.69999960	1.11466500	4.74286400	7.89247000
9.89999959	2.22994600	4.74286400	7.89247000
10.09999958	2.54859700	4.74286400	7.89247000
10.29999956	2.22994600	4.74286400	7.89247000
10.49999955	1.43331700	4.74286400	7.89247000
10.69999954	0.63668800	4.74286400	7.89247000
10.89999953	-0.15871060	4.78592500	7.89247000
11.09999952	-0.79601380	5.11811000	7.89247000
11.29999951	-0.95533960	5.48720400	7.93553100
11.49999949	-0.95533960	5.11811000	8.26771600
11.69999948	-0.79601380	4.78592500	8.63681000
11.89999947	-0.47736220	4.78592500	8.26771600
12.09999946	-0.15871060	5.11811000	7.93553100
12.29999945	-0.15871060	5.48720400	7.89247000
12.49999943	-0.15871060	5.11811000	7.89247000
12.69999942	0.00000000	4.78592500	7.89247000
12.89999941	0.00000000	4.74286400	7.89247000
13.09999940	0.15871060	4.74286400	7.89247000
13.29999939	0.00000000	4.74286400	7.89247000
13.49999937	0.00000000	4.74286400	7.89247000
13.69999936	0.00000000	4.74286400	7.89247000
13.89999935	0.00000000	4.74286400	7.89247000
14.09999934	-0.15871060	4.74286400	7.89247000
14.29999933	-0.15871060	4.74286400	7.89247000
14.49999932	-0.15871060	4.74286400	7.89247000
14.69999930	0.00000000	4.74286400	7.89247000
14.89999929	0.00000000	4.74286400	7.89247000
15.09999928	0.00000000	4.74286400	7.89247000
15.29999927	0.00000000	4.74286400	7.89247000
15.49999926	0.00000000	4.74286400	7.89247000
15.69999924	0.00000000	4.74286400	7.89247000
15.89999923	0.00000000	4.74286400	7.89247000
16.09999922	0.00000000	4.74286400	7.89247000
16.29999921	0.00000000	4.74286400	7.89247000
16.49999920	-0.15871060	4.78592500	7.89247000
16.69999919	0.00000000	5.16117100	7.89247000
16.89999917	0.00000000	5.90551100	7.89247000
17.09999916	0.00000000	6.28075700	7.89247000
17.29999915	0.00000000	6.36687900	7.89247000
17.49999914	0.00000000	6.69906400	7.89247000
17.69999913	0.00000000	7.01894700	7.89247000
17.89999911	0.00000000	6.28075700	7.89247000
18.09999910	0.00000000	5.16117100	7.89247000
18.29999909	0.00000000	4.32455700	7.89247000
18.49999908	0.00000000	3.11884800	7.89247000
18.69999907	0.00000000	1.62401600	7.89247000
18.89999905	0.00000000	0.51058070	7.89247000
19.09999904	0.00000000	0.51058070	7.89247000
19.29999903	0.00000000	1.71628900	7.89247000
19.49999902	0.00000000	4.04773600	7.89247000
19.69999901	0.00000000	7.57258800	7.89247000
19.89999900	0.00000000	11.39887000	7.89247000
20.09999898	0.00000000	14.88066000	7.89247000
20.29999897	0.00000000	16.70152000	7.89247000
20.49999896	0.00000000	15.95103000	7.89247000
20.69999895	0.00000000	12.37697000	7.89247000
20.89999894	0.00000000	6.55757800	7.89247000
21.09999892	0.00000000	-1.16264800	7.89247000
21.29999891	0.00000000	-8.46456700	7.89247000
21.49999890	0.00000000	-13.49655000	7.89247000
21.69999889	0.00000000	-15.30512000	7.89247000
21.89999888	0.00000000	-12.14321000	7.89247000
22.09999886	0.00000000	-4.01082700	7.89247000
22.29999885	0.00000000	7.20964500	7.89247000
22.49999884	0.00000000	19.62352000	7.89247000
22.69999883	0.00000000	30.37647000	7.89247000
22.89999882	0.00000000	36.84793000	7.93553100
23.09999881	0.00000000	36.33735000	8.31077700
23.29999879	0.00000000	27.82357000	9.05511800
23.49999878	0.00000000	13.12131000	9.43036400
23.69999877	0.00000000	-4.65059000	9.51648500
23.89999876	0.00000000	-21.63509000	9.84867000
24.09999875	0.00000000	-33.55069000	10.21161000
24.29999873	0.00000000	-37.36466000	9.79945900
24.49999872	0.00000000	-31.50221000	9.05511800
24.69999871	0.00000000	-16.75689000	7.80019600
24.89999870	0.00000000	4.09079700	5.93626900
25.09999869	0.00000000	26.46407000	3.99237200
25.29999867	0.00000000	44.61737000	2.87278500
25.49999866	0.00000000	54.61983000	2.50369100
25.69999865	0.00000000	53.78321000	3.70939900
25.89999864	0.00000000	41.36319000	6.40378900
26.09999863	0.00000000	20.18947000	9.89173200
26.29999862	0.00000000	-4.92741100	13.79183000
26.49999860	0.00000000	-27.68824000	17.18750000
26.69999859	0.00000000	-43.17790000	19.13140000
26.89999858	0.00000000	-47.78543000	18.67618000
27.09999857	0.00000000	-40.43430000	15.92642000
27.29999856	0.00000000	-22.70546000	10.45152000
27.49999854	0.00000000	1.20570900	3.15575800
27.69999853	0.00000000	25.12303000	-4.18307100
27.89999852	0.00000000	43.77460000	-9.89788300
28.09999851	0.00000000	53.45718000	-12.21703000
28.29999850	0.00000000	52.70669000	-10.22392000
28.49999848	0.00000000	41.49852000	-4.32455700
28.69999847	0.00000000	22.60704000	5.75787400
28.89999846	0.00000000	0.59670270	18.01796000
29.09999845	0.00000000	-19.49434000	28.84473000
29.29999844	0.00000000	-33.08317000	36.14665000
29.49999843	0.00000000	-37.82603000	37.99828000
29.69999841	0.00000000	-33.59375000	32.94168000
29.89999840	0.00000000	-21.63509000	22.11491000
30.09999839	0.00000000	-4.65059000	7.38188900
30.29999838	0.00000000	13.12131000	-8.36614100
30.49999837	0.00000000	27.90969000	-21.09375000
30.69999835	0.00000000	37.22318000	-27.69439000
30.89999834	0.00000000	39.59153000	-27.27608000
31.09999833	0.00000000	34.61491000	-19.46973000
31.29999832	0.00000000	24.18799000	-5.16117100
31.49999831	0.00000000	10.64838000	12.54306000
31.69999829	0.00000000	-3.30339500	29.53986000
31.89999828	0.00000000	-14.51772000	41.94759000
32.09999827	0.00000000	-21.11835000	47.71161000
32.29999826	0.00000000	-21.54281000	45.33710000
32.49999825	0.00000000	-16.19094000	34.56570000
32.69999824	0.00000000	-6.93282500	18.39321000
32.89999822	0.00000000	4.27534400	0.55364170
33.09999821	0.00000000	14.74532000	-15.66191000
33.29999820	0.00000000	22.51476000	-26.90084000
33.49999819	0.00000000	26.37180000	-30.76402000
33.69999818	0.00000000	25.21530000	-26.90084000
33.89999816	0.00000000	19.48819000	-15.66191000
34.09999815	0.00000000	11.02362000	0.51058070
34.29999814	0.00000000	2.13459600	17.88263000
34.49999813	0.00000000	-5.21653500	32.56643000
34.69999812	0.00000000	-9.44881800	41.48622000
34.89999810	0.00000000	-9.49187900	43.02411000
35.09999809	0.00000000	-5.67790300	36.88484000
35.29999808	0.00000000	0.41830710	24.57554000
35.49999807	0.00000000	7.01894700	9.52263600
35.69999806	0.00000000	12.42003000	-5.16117100
35.89999805	0.00000000	15.90797000	-16.31397000
36.09999803	0.00000000	16.23400000	-20.95841000
36.29999802	0.00000000	13.25664000	-18.35630000
36.49999801	0.00000000	8.28001900	-9.89788300
36.69999800	0.00000000	3.25418300	2.04232300
36.89999799	0.00000000	-1.02731300	14.72072000
37.09999797	0.00000000	-3.67864200	24.71087000
37.29999796	0.00000000	-3.67864200	29.36146000
37.49999795	0.00000000	-1.02731300	27.87278000
37.69999794	0.00000000	3.20497000	20.99532000
37.89999793	0.00000000	7.86171200	11.04823000
38.09999791	0.00000000	12.09400000	1.06422200
38.29999790	0.00000000	14.78838000	-6.23154500
38.49999789	0.00000000	15.16363000	-8.92593500
38.69999788	0.00000000	13.25664000	-6.23154500
38.89999787	0.00000000	9.39345400	1.01501000
39.09999786	0.00000000	4.78592500	10.58686000
39.29999784	0.00000000	0.51058070	19.37131000
39.49999783	0.00000000	-2.60826800	24.76009000
39.69999782	0.00000000	-4.14616100	25.08612000
39.89999781	0.00000000	-3.77091500	20.10950000
40.09999780	0.00000000	-1.44562000	10.96211000
40.29999778	0.00000000	1.99926200	1.01501000
40.49999777	0.00000000	5.90551100	-6.69291300
40.69999776	0.00000000	9.44266700	-10.54995000
40.89999775	0.00000000	12.55536000	-9.34424200
41.09999774	0.00000000	14.83760000	-3.21112200
41.29999772	0.00000000	15.21284000	6.36072800
41.49999771	0.00000000	13.67495000	16.30167000
41.69999770	0.00000000	10.59916000	23.68971000
41.89999769	0.00000000	6.69906400	27.13459000
42.09999768	0.00000000	2.82972400	25.96580000
42.29999767	0.00000000	-0.65206690	19.83883000
42.49999765	0.00000000	-2.56520700	11.09744000
42.69999764	0.00000000	-2.65132900	2.54675200
42.89999763	0.00000000	-1.48868100	-4.00467500
43.09999762	0.00000000	0.46751960	-7.52952700
43.29999761	0.00000000	3.16190900	-7.11737200
43.49999759	0.00000000	5.85629900	-3.34645700
43.69999758	0.00000000	7.81250000	2.82972400
43.89999757	0.00000000	9.01820900	9.33809000
44.09999756	0.00000000	9.44266700	14.76993000
44.29999755	0.00000000	9.48572700	17.92569000
44.49999753	0.00000000	9.44266700	18.67618000
44.69999752	0.00000000	9.06742000	17.13213000
44.89999751	0.00000000	8.32308000	12.96137000
45.09999750	0.00000000	7.90477300	8.40305000
45.29999749	0.00000000	7.43725300	4.87204700
45.49999748	0.00000000	6.23154500	2.50369100
45.69999746	0.00000000	4.27534400	1.71013800
45.89999745	0.00000000	1.53789400	2.08538400
46.09999744	0.00000000	-1.48868100	3.66633800
46.29999743	0.00000000	-3.81397600	6.31151500
46.49999742	0.00000000	-4.51525500	9.00590400
46.69999740	0.00000000	-3.30339500	10.96211000
46.89999739	0.00000000	0.59670270	12.16166000
47.09999738	0.00000000	6.36687900	12.53691000
47.29999737	0.00000000	12.55536000	12.11860000
47.49999736	0.00000000	17.95029000	10.58686000
47.69999734	0.00000000	20.97687000	8.26771600
47.89999733	0.00000000	20.60162000	5.98548200
48.09999732	0.00000000	16.70152000	4.03543200
48.29999731	0.00000000	10.09473000	3.29109200
48.49999730	0.00000000	1.62401600	3.62327700
48.69999729	0.00000000	-6.42224400	4.82283400
48.89999727	0.00000000	-11.49114000	6.77903500
49.09999726	0.00000000	-12.98597000	9.51648500
49.29999725	0.00000000	-10.27928000	12.53691000
49.49999724	0.00000000	-3.30954700	14.81299000
49.69999723	0.00000000	5.53641700	15.23130000
49.89999721	0.00000000	14.78838000	14.07480000
50.09999720	0.00000000	21.67815000	11.70029000
50.29999719	0.00000000	24.05266000	7.84940900
50.49999718	0.00000000	22.13952000	3.66633800
50.69999717	0.00000000	16.32628000	0.55364170
50.89999715	0.00000000	7.86171200	-0.93503930
51.09999714	0.00000000	-0.98425190	-0.18454720
51.29999713	0.00000000	-7.91092400	2.87278500
51.49999712	0.00000000	-11.02977000	6.72982200
51.69999711	0.00000000	-9.86712600	11.00517000
51.89999710	0.00000000	-4.88435000	14.81299000
52.09999708	0.00000000	2.78666300	16.76919000
52.29999707	0.00000000	10.46998000	16.76919000
52.49999706	0.00000000	16.28322000	14.81299000
52.69999705	0.00000000	18.97761000	11.00517000
52.89999704	0.00000000	17.81496000	6.77903500
53.09999702	0.00000000	13.20743000	3.29109200
53.29999701	0.00000000	6.32381900	0.97194880
53.49999700	0.00000000	-0.55979330	0.59670270
53.69999699	0.00000000	-5.21653500	2.12844500
53.89999698	0.00000000	-6.74827700	5.15501900
54.09999696	0.00000000	-4.84128900	8.58759800
54.29999695	0.00000000	0.13533460	10.91289000
54.49999694	0.00000000	6.23154500	12.11860000
54.69999693	0.00000000	11.67569000	12.07554000
54.89999692	0.00000000	15.12057000	10.58686000
55.09999691	0.00000000	15.90797000	8.31077700
55.29999689	0.00000000	13.58268000	6.44685000
55.49999688	0.00000000	9.01820900	5.66560000
55.69999687	0.00000000	3.62942900	6.40378900
55.89999686	0.00000000	-0.98425190	7.93553100
56.09999685	0.00000000	-3.67864200	9.84867000
56.29999683	0.00000000	-3.67864200	11.74951000
56.49999682	0.00000000	-1.02731300	12.45079000
56.69999681	0.00000000	3.16190900	11.70029000
56.89999680	0.00000000	7.43725300	9.33809000
57.09999679	0.00000000	10.93135000	5.89320800
57.29999677	0.00000000	13.20743000	2.08538400
57.49999676	0.00000000	13.20743000	-0.55979330
57.69999675	0.00000000	10.97441000	-0.93503930
57.89999674	0.00000000	7.90477300	1.02116100
58.09999673	0.00000000	4.78592500	5.29035400
58.29999672	0.00000000	2.09153500	11.04823000
58.49999670	0.00000000	0.55364170	16.76919000
58.69999669	0.00000000	0.51058070	20.57702000
58.89999668	0.00000000	1.67322800	20.99532000
59.09999667	0.00000000	3.53715500	18.30093000
59.29999666	0.00000000	5.53026500	13.23819000
59.49999664	0.00000000	7.03125000	6.26845500
59.69999663	0.00000000	8.22465500	-0.93503930
59.89999662	0.00000000	8.18774500	-5.94857300
60.09999661	0.00000000	7.48646600	-7.11122000
60.29999660	0.00000000	6.32381900	-4.78592500
60.49999658	0.00000000	5.21038300	1.02116100
60.69999657	0.00000000	4.83513700	9.05511800
60.89999656	0.00000000	5.16117100	16.76919000
61.09999655	0.00000000	5.94857300	22.57628000
61.29999654	0.00000000	6.69906400	25.22145000
61.49999653	0.00000000	7.48646600	23.68971000
61.69999651	0.00000000	7.81250000	18.30093000
61.89999650	0.00000000	7.43725300	10.58686000
62.09999649	0.00000000	6.28075700	2.12844500
62.29999648	0.00000000	4.74286400	-4.83513700
62.49999647	0.00000000	3.20497000	-8.64911400
62.69999645	0.00000000	2.04847400	-8.68602300
62.89999644	0.00000000	1.67322800	-4.42298200
63.09999643	0.00000000	2.09153500	2.46063000
63.29999642	0.00000000	3.62942900	10.58686000
63.49999641	0.00000000	5.94857300	17.88263000
63.69999639	0.00000000	8.23695900	22.53322000
63.89999638	0.00000000	10.13779000	23.68971000
64.09999637	0.00000000	10.51304000	21.03838000
64.29999636	0.00000000	9.39345400	15.69882000
64.49999635	0.00000000	7.43725300	9.47342500
64.69999634	0.00000000	4.78592500	3.24803100
64.89999632	0.00000000	2.46678100	-2.14074800
65.09999631	0.00000000	1.29798200	-5.20423200
65.29999630	0.00000000	0.88582670	-5.24729300
65.49999629	0.00000000	1.71628900	-2.60211600
65.69999628	0.00000000	3.58021600	1.62401600
65.89999626	0.00000000	5.90551100	6.31151500
66.09999625	0.00000000	7.81250000	10.95595000
66.29999624	0.00000000	8.97514600	14.81299000
66.49999623	0.00000000	8.97514600	16.81225000
66.69999622	0.00000000	7.81250000	17.27362000
66.89999620	0.00000000	5.90551100	16.85531000
67.09999619	0.00000000	3.62942900	15.23130000
67.29999618	0.00000000	2.13459600	12.21087000
67.49999617	0.00000000	2.09153500	8.68602300
67.69999616	0.00000000	3.25418300	5.56102300
67.89999615	0.00000000	5.21038300	2.41141700
68.09999613	0.00000000	7.86171200	0.13533460
68.29999612	0.00000000	10.13779000	-1.06422200
68.49999611	0.00000000	10.88829000	-1.02116100
68.69999610	0.00000000	10.13779000	0.55364170
68.89999609	0.00000000	7.76943800	3.66633800
69.09999607	0.00000000	4.32455700	7.93553100
69.29999606	0.00000000	0.46751960	12.58612000
69.49999605	0.00000000	-2.60826800	16.81225000
69.69999604	0.00000000	-4.09694900	19.50664000
69.89999603	0.00000000	-3.30339500	19.88189000
70.09999601	0.00000000	0.17839570	17.97490000
70.29999600	0.00000000	5.16117100	14.07480000
70.49999599	0.00000000	10.59916000	9.05511800
70.69999598	0.00000000	15.16363000	3.66633800
70.89999597	0.00000000	17.48893000	-0.55979330
71.09999596	0.00000000	16.70152000	-2.55905500
71.29999594	0.00000000	13.29970000	-2.55905500
71.49999593	0.00000000	8.23695900	-0.55979330
71.69999592	0.00000000	2.78666300	3.66633800
71.89999591	0.00000000	-2.65132900	8.96284400
72.09999590	0.00000000	-6.79749000	13.23819000
72.29999588	0.00000000	-7.95398600	15.60654000
72.49999587	0.00000000	-5.67790300	16.39395000
72.69999586	0.00000000	-1.07037400	15.23130000
72.89999585	0.00000000	4.74286400	12.58612000
73.09999584	0.00000000	10.55610000	9.51648500
73.29999582	0.00000000	15.16363000	6.82209600
73.49999581	0.00000000	17.48893000	5.24729300
73.69999580	0.00000000	16.74459000	4.82898600
73.89999579	0.00000000	13.67495000	5.19808000
74.09999578	0.00000000	9.01820900	6.36072800
74.29999577	0.00000000	3.67249000	7.80019600
74.49999575	0.00000000	-0.60900590	8.54453700
74.69999574	0.00000000	-2.98351400	7.80019600
74.89999573	0.00000000	-3.77091500	6.36072800
75.09999572	0.00000000	-2.56520700	5.19808000
75.29999571	0.00000000	0.46751960	4.82898600
75.49999569	0.00000000	4.32455700	5.19808000
75.69999568	0.00000000	7.76943800	6.44685000
75.89999567	0.00000000	10.13779000	8.72908400
76.09999566	0.00000000	10.93135000	11.83563000
76.29999565	0.00000000	10.59916000	14.49311000
76.49999563	0.00000000	9.44266700	16.39395000
76.69999562	0.00000000	7.90477300	16.30167000
76.89999561	0.00000000	6.36687900	13.65650000
77.09999560	0.00000000	5.21038300	9.43036400
77.29999559	0.00000000	4.78592500	4.77977300
77.49999558	0.00000000	4.74286400	0.51058070
77.69999556	0.00000000	4.74286400	-2.51599400
77.89999555	0.00000000	4.69980300	-3.29724400
78.09999554	0.00000000	4.32455700	-1.31028500
78.29999553	0.00000000	3.58021600	2.87893700
78.49999552	0.00000000	3.20497000	8.67987200
78.69999550	0.00000000	3.20497000	14.07480000
78.89999549	0.00000000	3.62942900	18.35015000
79.09999548	0.00000000	4.78592500	20.62008000
79.29999547	0.00000000	6.32381900	19.83883000
79.49999546	0.00000000	7.90477300	16.43701000
79.69999544	0.00000000	9.44266700	11.42347000
79.89999543	0.00000000	10.55610000	6.40378900
80.09999542	0.00000000	10.51304000	2.08538400
80.29999541	0.00000000	8.97514600	-1.02116100
80.49999540	0.00000000	6.32381900	-2.50984200
80.69999539	0.00000000	3.62942900	-1.76550200
80.89999537	0.00000000	1.67322800	1.29183100
81.09999536	0.00000000	0.51058070	5.11195900
81.29999535	0.00000000	0.51058070	9.05511800
81.49999534	0.00000000	1.67322800	12.53691000
81.69999533	0.00000000	3.62942900	15.27436000
81.89999531	0.00000000	6.32381900	16.81225000
82.09999530	0.00000000	8.97514600	16.81225000
82.29999529	0.00000000	10.51304000	15.27436000
82.49999528	0.00000000	10.55610000	12.58612000
82.69999527	0.00000000	9.44266700	9.47342500
82.89999525	0.00000000	7.86171200	6.31151500
83.09999524	0.00000000	5.94857300	3.24803100
83.29999523	0.00000000	3.99852300	0.92888770
83.49999522	0.00000000	2.87893700	0.09227362
83.69999521	0.00000000	2.41756900	0.09227362
83.89999520	0.00000000	2.82972400	0.92888770
84.09999518	0.00000000	3.58021600	3.29109200
84.29999517	0.00000000	4.74286400	6.77903500
84.49999516	0.00000000	5.85629900	11.00517000
84.69999515	0.00000000	6.28075700	14.85605000
84.89999514	0.00000000	6.32381900	17.18750000
85.09999512	0.00000000	6.32381900	17.92569000
85.29999511	0.00000000	6.32381900	16.35089000
85.49999510	0.00000000	6.36687900	12.53691000
85.69999509	0.00000000	6.74212600	7.93553100
85.89999508	0.00000000	7.48646600	3.62327700
86.09999506	0.00000000	7.81250000	0.13533460
86.29999505	0.00000000	7.48646600	-2.14074800
86.49999504	0.00000000	6.69906400	-2.09153500
86.69999503	0.00000000	5.90551100	0.55364170
86.89999502	0.00000000	4.69980300	4.77977300
87.09999501	0.00000000	3.20497000	9.43036400
87.29999499	0.00000000	2.09153500	13.69956000
87.49999498	0.00000000	2.09153500	16.76919000
87.69999497	0.00000000	3.20497000	17.88263000
87.89999496	0.00000000	4.74286400	16.35089000
88.09999495	0.00000000	6.32381900	12.53691000
88.29999493	0.00000000	7.86171200	7.93553100
88.49999492	0.00000000	9.01820900	3.66633800
88.69999491	0.00000000	9.39345400	0.59670270
88.89999490	0.00000000	8.97514600	-0.55979330
89.09999489	0.00000000	7.43725300	0.59670270
89.29999487	0.00000000	5.21038300	3.66633800
89.49999486	0.00000000	3.62942900	7.93553100
89.69999485	0.00000000	2.82972400	12.49385000
89.89999484	0.00000000	2.46678100	15.92642000
90.09999483	0.00000000	3.20497000	16.71998000
90.29999482	0.00000000	4.32455700	15.23130000
90.49999480	0.00000000	5.11811000	12.11860000
90.69999479	0.00000000	5.94857300	7.89247000
90.89999478	0.00000000	6.69906400	3.66633800
91.09999477	0.00000000	7.48646600	0.64591530
91.29999476	0.00000000	7.81250000	-0.14148620
91.49999474	0.00000000	7.48646600	1.75935000
91.69999473	0.00000000	6.74212600	5.19808000
91.89999472	0.00000000	6.36687900	9.47342500
92.09999471	0.00000000	6.32381900	13.65650000
92.29999470	0.00000000	6.28075700	16.30167000
92.49999468	0.00000000	5.90551100	16.35089000
92.69999467	0.00000000	5.16117100	14.03174000
92.89999466	0.00000000	4.74286400	10.21161000
93.09999465	0.00000000	4.32455700	5.57332700
93.29999464	0.00000000	3.58021600	1.75935000
93.49999463	0.00000000	3.20497000	-0.55979330
93.69999461	0.00000000	3.20497000	-0.51673230
93.89999460	0.00000000	3.58021600	2.12844500
94.09999459	0.00000000	4.45989200	6.35457700
94.29999458	0.00000000	6.00393600	10.95595000
94.49999457	0.00000000	8.64911400	14.76993000
94.69999455	0.00000000	10.51304000	16.30167000
94.89999454	0.00000000	10.97441000	15.18824000
95.09999453	0.00000000	10.55610000	12.11860000
95.29999452	0.00000000	8.97514600	7.93553100
95.49999451	0.00000000	6.28075700	4.08464600
95.69999449	0.00000000	3.20497000	1.75319900
95.89999448	0.00000000	0.51058070	0.97194880
96.09999447	0.00000000	-1.07037400	2.12844500
96.29999446	0.00000000	-1.40255900	4.77977300
96.49999445	0.00000000	-0.23375980	7.89247000
96.69999444	0.00000000	2.82972400	10.96211000
96.89999442	0.00000000	6.28075700	13.23819000
97.09999441	0.00000000	9.44266700	13.65650000
97.29999440	0.00000000	12.13706000	12.53691000
97.49999439	0.00000000	13.67495000	10.62992000
97.69999438	0.00000000	13.63189000	8.31077700
97.89999436	0.00000000	11.71875000	6.40378900
98.09999435	0.00000000	8.23695900	5.19808000
98.29999434	0.00000000	4.36761800	4.82898600
98.49999433	0.00000000	0.51058070	5.19808000
98.69999432	0.00000000	-2.18996000	6.36072800
98.89999430	0.00000000	-2.98351400	7.84940900
99.09999429	0.00000000	-2.23302100	9.00590400
99.29999428	0.00000000	0.13533460	9.43036400
99.49999427	0.00000000	3.58021600	9.43036400
99.69999426	0.00000000	7.48646600	9.09817800
99.89999425	0.00000000	10.93135000	8.72908400
100.09999423	0.00000000	13.25664000	9.09817800
100.29999422	0.00000000	13.67495000	9.47342500
100.49999421	0.00000000	12.55536000	9.89173200
100.69999420	0.00000000	10.59916000	10.58686000
100.89999419	0.00000000	7.86171200	10.53765000
101.09999417	0.00000000	4.74286400	9.42421200
101.29999416	0.00000000	1.67322800	7.89247000
101.49999415	0.00000000	-0.60900590	6.31151500
101.69999414	0.00000000	-1.02731300	4.77977300
101.89999413	0.00000000	0.04306102	3.66633800
102.09999411	0.00000000	1.62401600	3.70939900
102.29999410	0.00000000	3.62942900	5.24729300
102.49999409	0.00000000	6.32381900	7.89247000
102.69999408	0.00000000	8.97514600	10.62992000
102.89999407	0.00000000	10.55610000	12.91215000
103.09999406	0.00000000	10.97441000	14.43775000
103.29999404	0.00000000	10.55610000	14.03174000
103.49999403	0.00000000	9.01820900	12.16781000
103.69999402	0.00000000	6.74212600	9.42421200
103.89999401	0.00000000	4.78592500	6.36072800
104.09999400	0.00000000	3.20497000	3.66633800
104.29999398	0.00000000	2.09153500	2.12844500
104.49999397	0.00000000	2.04847400	2.08538400
104.69999396	0.00000000	2.78666300	3.29109200
104.89999395	0.00000000	3.58021600	5.57332700
105.09999394	0.00000000	4.78592500	8.67987200
105.29999392	0.00000000	6.28075700	11.33735000
105.49999391	0.00000000	7.43725300	13.28125000
105.69999390	0.00000000	7.81250000	13.65650000
105.89999389	0.00000000	7.43725300	12.53691000
106.09999388	0.00000000	6.32381900	10.58686000
106.29999387	0.00000000	5.16117100	7.93553100
106.49999385	0.00000000	4.41067900	5.66560000
106.69999384	0.00000000	3.99852300	4.82898600
106.89999383	0.00000000	4.36761800	4.77977300
107.09999382	0.00000000	4.78592500	5.24729300
107.29999381	0.00000000	5.57947800	6.77903500
107.49999379	0.00000000	7.06815900	9.00590400
107.69999378	0.00000000	7.81250000	10.53765000
107.89999377	0.00000000	7.86171200	10.95595000
108.09999376	0.00000000	7.43725300	10.58686000
108.29999375	0.00000000	6.32381900	9.42421200
108.49999374	0.00000000	5.16117100	7.89247000
108.69999372	0.00000000	4.36761800	6.36072800
108.89999371	0.00000000	3.58021600	5.29035400
109.09999370	0.00000000	3.29724400	5.61638700
109.29999369	0.00000000	3.99852300	7.09891700
109.49999368	0.00000000	5.53026500	8.26771600
109.69999366	0.00000000	6.69906400	9.51648500
109.89999365	0.00000000	7.90477300	11.00517000
110.09999364	0.00000000	8.97514600	12.11860000
110.29999363	0.00000000	8.97514600	12.11860000
110.49999362	0.00000000	7.86171200	11.00517000
110.69999360	0.00000000	6.32381900	9.47342500
110.89999359	0.00000000	4.78592500	7.89247000
111.09999358	0.00000000	3.62942900	6.36072800
111.29999357	0.00000000	3.20497000	5.19808000
111.49999356	0.00000000	3.20497000	4.82898600
111.69999355	0.00000000	3.62942900	5.19808000
111.89999353	0.00000000	4.74286400	6.31151500
112.09999352	0.00000000	5.90551100	7.47416300
112.29999351	0.00000000	6.65600300	8.26771600
112.49999350	0.00000000	7.11122000	9.05511800
112.69999349	0.00000000	7.07431000	9.43036400
112.89999347	0.00000000	7.06815900	9.47342500
113.09999346	0.00000000	6.28075700	9.43036400
113.29999345	0.00000000	5.21038300	9.00590400
113.49999344	0.00000000	4.78592500	7.93553100
113.69999343	0.00000000	4.74286400	7.19734200
113.89999341	0.00000000	4.74286400	7.51722400
114.09999340	0.00000000	4.78592500	7.84940900
114.29999339	0.00000000	5.16117100	7.84940900
114.49999338	0.00000000	5.90551100	7.47416300
114.69999337	0.00000000	6.28075700	6.72982200
114.89999336	0.00000000	6.32381900	6.35457700
115.09999334	0.00000000	6.32381900	6.31151500
115.29999333	0.00000000	6.32381900	6.35457700
115.49999332	0.00000000	6.28075700	6.72982200
115.69999331	0.00000000	5.90551100	7.51722400
115.89999330	0.00000000	5.16117100	8.26771600
116.09999328	0.00000000	4.78592500	9.05511800
116.29999327	0.00000000	4.74286400	9.43036400
116.49999326	0.00000000	4.74286400	9.47342500
116.69999325	0.00000000	4.74286400	9.47342500
116.89999324	0.00000000	4.78592500	9.43036400
117.09999322	0.00000000	5.16117100	9.05511800
117.29999321	0.00000000	5.94857300	8.31077700
117.49999320	0.00000000	6.69906400	7.89247000
117.69999319	0.00000000	7.48646600	7.42495000
117.89999318	0.00000000	7.86171200	6.36072800
118.09999317	0.00000000	7.90477300	5.61638700
118.29999315	0.00000000	7.86171200	5.98548200
118.49999314	0.00000000	7.43725300	6.68676100
118.69999313	0.00000000	6.32381900	7.51722400
118.89999312	0.00000000	5.16117100	8.26771600
119.09999311	0.00000000	4.36761800	9.05511800
119.29999309	0.00000000	3.58021600	9.43036400
119.49999308	0.00000000	3.25418300	9.47342500
119.69999307	0.00000000	3.62942900	9.47342500
119.89999306	0.00000000	4.74286400	9.43036400
120.09999305	0.00000000	5.90551100	9.05511800
120.29999303	0.00000000	6.74212600	8.31077700
120.49999302	0.00000000	7.90477300	7.93553100
120.69999301	0.00000000	8.97514600	7.84940900
120.89999300	0.00000000	9.01820900	7.47416300
121.09999299	0.00000000	8.28001900	6.72982200
121.29999298	0.00000000	7.48646600	6.40378900
121.49999296	0.00000000	6.28075700	6.72982200
121.69999295	0.00000000	4.78592500	7.47416300
121.89999294	0.00000000	3.62942900	7.84940900
122.09999293	0.00000000	3.20497000	7.93553100
122.29999292	0.00000000	3.20497000	8.31077700
122.49999290	0.00000000	3.58021600	9.05511800
122.69999289	0.00000000	4.36761800	9.43036400
122.89999288	0.00000000	5.16117100	9.47342500
123.09999287	0.00000000	6.32381900	9.47342500
123.29999286	0.00000000	7.43725300	9.43036400
123.49999284	0.00000000	7.86171200	9.05511800
123.69999283	0.00000000	7.90477300	8.31077700
123.89999282	0.00000000	7.86171200	7.89247000
124.09999281	0.00000000	7.48646600	7.47416300
124.29999280	0.00000000	6.69906400	6.72982200
124.49999279	0.00000000	5.94857300	6.40378900
124.69999277	0.00000000	5.16117100	6.72982200
124.89999276	0.00000000	4.74286400	7.47416300
125.09999275	0.00000000	4.36761800	7.89247000
125.29999274	0.00000000	3.99852300	8.31077700
125.49999273	0.00000000	4.36761800	9.05511800
125.69999271	0.00000000	4.74286400	9.43036400
125.89999270	0.00000000	5.21038300	9.47342500
126.09999269	0.00000000	6.32381900	9.47342500
126.29999268	0.00000000	7.43725300	9.43036400
126.49999267	0.00000000	7.86171200	9.05511800
126.69999265	0.00000000	7.90477300	8.31077700
126.89999264	0.00000000	7.86171200	7.93553100
127.09999263	0.00000000	7.43725300	7.89247000
127.29999262	0.00000000	6.32381900	7.89247000
127.49999261	0.00000000	5.16117100	7.89247000
127.69999260	0.00000000	4.36761800	7.89247000
127.89999258	0.00000000	3.58021600	7.89247000
128.09999257	0.00000000	3.25418300	7.89247000
128.29999256	0.00000000	3.62942900	7.89247000
128.49999255	0.00000000	4.78592500	7.89247000
128.69999254	0.00000000	6.28075700	7.93553100
128.89999252	0.00000000	7.43725300	8.26771600
129.09999251	0.00000000	7.86171200	8.63681000
129.29999250	0.00000000	7.86171200	8.26771600
129.49999249	0.00000000	7.48646600	7.93553100
129.69999248	0.00000000	6.69906400	7.89247000
129.89999246	0.00000000	5.90551100	7.89247000
130.09999245	0.00000000	4.74286400	7.89247000
130.29999244	0.00000000	3.67249000	7.89247000
130.49999243	0.00000000	3.62942900	7.93553100
130.69999242	0.00000000	4.36761800	8.31077700
130.89999241	0.00000000	5.16117100	9.05511800
131.09999239	0.00000000	6.32381900	9.38115100
131.29999238	0.00000000	7.43725300	9.05511800
131.49999237	0.00000000	7.86171200	8.31077700
131.69999236	0.00000000	7.90477300	7.89247000
131.89999235	0.00000000	7.86171200	7.47416300
132.09999233	0.00000000	7.43725300	6.72982200
132.29999232	0.00000000	6.32381900	6.35457700
132.49999231	0.00000000	5.21038300	6.35457700
132.69999230	0.00000000	4.78592500	6.72982200
132.89999229	0.00000000	4.74286400	7.51722400
133.09999227	0.00000000	4.78592500	8.26771600
133.29999226	0.00000000	5.16117100	9.05511800
133.49999225	0.00000000	5.90551100	9.43036400
133.69999224	0.00000000	6.28075700	9.47342500
133.89999223	0.00000000	6.32381900	9.43036400
134.09999222	0.00000000	6.32381900	9.05511800
134.29999220	0.00000000	6.32381900	8.26771600
134.49999219	0.00000000	6.32381900	7.56028500
134.69999218	0.00000000	6.32381900	7.10506800
134.89999217	0.00000000	6.32381900	7.09891700
135.09999216	0.00000000	6.32381900	6.68676100
135.29999214	0.00000000	6.32381900	6.40378900
135.49999213	0.00000000	6.32381900	6.72982200
135.69999212	0.00000000	6.32381900	7.51722400
135.89999211	0.00000000	6.32381900	8.26771600
136.09999210	0.00000000	6.28075700	9.05511800
136.29999208	0.00000000	5.90551100	9.43036400
136.49999207	0.00000000	5.16117100	9.47342500
136.69999206	0.00000000	4.78592500	9.47342500
136.89999205	0.00000000	4.74286400	9.43036400
137.09999204	0.00000000	4.78592500	9.05511800
137.29999203	0.00000000	5.16117100	8.31077700
137.49999201	0.00000000	5.90551100	7.89247000
137.69999200	0.00000000	6.32381900	7.47416300
137.89999199	0.00000000	6.74212600	6.72982200
138.09999198	0.00000000	7.43725300	6.35457700
138.29999197	0.00000000	7.43725300	6.31151500
138.49999195	0.00000000	6.69906400	6.35457700
138.69999194	0.00000000	5.94857300	6.72982200
138.89999193	0.00000000	5.16117100	7.51722400
139.09999192	0.00000000	4.78592500	8.26771600
139.29999191	0.00000000	4.74286400	9.05511800
139.49999189	0.00000000	4.78592500	9.43036400
139.69999188	0.00000000	5.16117100	9.47342500
139.89999187	0.00000000	5.90551100	9.47342500
140.09999186	0.00000000	6.32381900	9.43036400
140.29999185	0.00000000	6.69906400	9.00590400
140.49999184	0.00000000	7.06815900	7.89247000
140.69999182	0.00000000	6.65600300	6.77903500
140.89999181	0.00000000	5.99163300	6.35457700
141.09999180	0.00000000	5.53641700	6.31151500
141.29999179	0.00000000	5.53026500	6.35457700
141.49999178	0.00000000	5.11811000	6.72982200
141.69999176	0.00000000	4.78592500	7.51722400
141.89999175	0.00000000	4.78592500	8.31077700
142.09999174	0.00000000	5.16117100	9.42421200
142.29999173	0.00000000	5.90551100	10.16855000
142.49999172	0.00000000	6.28075700	9.84867000
142.69999170	0.00000000	6.32381900	9.47342500
142.89999169	0.00000000	6.32381900	9.05511800
143.09999168	0.00000000	6.32381900	8.26771600
143.29999167	0.00000000	6.32381900	7.51722400
143.49999166	0.00000000	6.28075700	6.72982200
143.69999165	0.00000000	5.90551100	6.35457700
143.89999163	0.00000000	5.21038300	6.35457700
144.09999162	0.00000000	5.21038300	6.72982200
144.29999161	0.00000000	5.90551100	7.51722400
144.49999160	0.00000000	6.28075700	8.26771600
144.69999159	0.00000000	6.32381900	9.05511800
144.89999157	0.00000000	6.32381900	9.43036400
145.09999156	0.00000000	6.32381900	9.47342500
145.29999155	0.00000000	6.32381900	9.47342500
145.49999154	0.00000000	6.32381900	9.43036400
145.69999153	0.00000000	6.28075700	9.05511800
145.89999151	0.00000000	5.90551100	8.31077700
146.09999150	0.00000000	5.21038300	7.89247000
146.29999149	0.00000000	5.21038300	7.47416300
146.49999148	0.00000000	5.90551100	6.77903500
146.69999147	0.00000000	6.28075700	6.77903500
146.89999146	0.00000000	6.32381900	7.47416300
147.09999144	0.00000000	6.32381900	7.84940900
147.29999143	0.00000000	6.32381900	7.93553100
147.49999142	0.00000000	6.32381900	8.31077700
147.69999141	0.00000000	6.32381900	9.00590400
147.89999140	0.00000000	6.32381900	9.05511800
148.09999138	0.00000000	6.32381900	8.72908400
148.29999137	0.00000000	6.28075700	9.05511800
148.49999136	0.00000000	5.90551100	9.00590400
148.69999135	0.00000000	5.16117100	8.31077700
148.89999134	0.00000000	4.83513700	7.93553100
149.09999132	0.00000000	5.16117100	7.89247000
149.29999131	0.00000000	5.90551100	7.89247000
149.49999130	0.00000000	6.28075700	7.89247000
149.69999129	0.00000000	6.32381900	7.89247000
149.89999128	0.00000000	6.32381900	7.89247000
150.09999127	0.00000000	6.32381900	7.89247000
150.29999125	0.00000000	6.32381900	7.93553100
150.49999124	0.00000000	6.28075700	8.31077700
150.69999123	0.00000000	5.94857300	9.05511800
150.89999122	0.00000000	5.57947800	9.43036400
151.09999121	0.00000000	5.90551100	9.43036400
151.29999119	0.00000000	5.85629900	9.05511800
151.49999118	0.00000000	5.21038300	8.31077700
151.69999117	0.00000000	5.21038300	7.93553100
151.89999116	0.00000000	5.90551100	7.89247000
152.09999115	0.00000000	6.28075700	7.89247000
152.29999113	0.00000000	6.32381900	7.89247000
152.49999112	0.00000000	6.32381900	7.89247000
152.69999111	0.00000000	6.32381900	7.89247000
152.89999110	0.00000000	6.32381900	7.89247000
153.09999109	0.00000000	6.32381900	7.89247000
153.29999108	0.00000000	6.32381900	7.93553100
153.49999106	0.00000000	6.32381900	8.31077700
153.69999105	0.00000000	6.28075700	9.05511800
153.89999104	0.00000000	5.90551100	9.43036400
154.09999103	0.00000000	5.16117100	9.43036400
154.29999102	0.00000000	4.78592500	9.09817800
154.49999100	0.00000000	4.74286400	8.68602300
154.69999099	0.00000000	4.78592500	8.67987200
154.89999098	0.00000000	5.16117100	8.26771600
155.09999097	0.00000000	5.90551100	7.93553100
155.29999096	0.00000000	6.28075700	7.89247000
155.49999094	0.00000000	6.32381900	7.89247000
155.69999093	0.00000000	6.36687900	7.93553100
155.89999092	0.00000000	6.69906400	8.26771600
156.09999091	0.00000000	7.06815900	8.63681000
156.29999090	0.00000000	6.69906400	8.26771600
156.49999089	0.00000000	6.36687900	7.98474400
156.69999087	0.00000000	6.28075700	8.31077700
156.89999086	0.00000000	5.90551100	9.05511800
157.09999085	0.00000000	5.16117100	9.43036400
157.29999084	0.00000000	4.78592500	9.47342500
157.49999083	0.00000000	4.78592500	9.43036400
157.69999081	0.00000000	5.16117100	9.05511800
157.89999080	0.00000000	5.90551100	8.31077700
158.09999079	0.00000000	6.28075700	7.93553100
158.29999078	0.00000000	6.32381900	7.84940900
158.49999077	0.00000000	6.32381900	7.47416300
158.69999075	0.00000000	6.32381900	6.77903500
158.89999074	0.00000000	6.32381900	6.77903500
159.09999073	0.00000000	6.32381900	7.47416300
159.29999072	0.00000000	6.32381900	7.89247000
159.49999071	0.00000000	6.32381900	8.31077700
159.69999070	0.00000000	6.28075700	9.05511800
159.89999068	0.00000000	5.90551100	9.43036400
160.09999067	0.00000000	5.21038300	9.47342500
160.29999066	0.00000000	5.21038300	9.47342500
160.49999065	0.00000000	5.85629900	9.43036400
160.69999064	0.00000000	5.90551100	9.05511800
160.89999062	0.00000000	5.57947800	8.31077700
161.09999061	0.00000000	5.94857300	7.93553100
161.29999060	0.00000000	6.28075700	7.89247000
161.49999059	0.00000000	6.32381900	7.89247000
161.69999058	0.00000000	6.32381900	7.89247000
161.89999056	0.00000000	6.32381900	7.89247000
162.09999055	0.00000000	6.32381900	7.89247000
162.29999054	0.00000000	6.32381900	7.89247000
162.49999053	0.00000000	6.32381900	7.93553100
162.69999052	0.00000000	6.32381900	8.31077700
162.89999051	0.00000000	6.32381900	9.05511800
163.09999049	0.00000000	6.28075700	9.38115100
163.29999048	0.00000000	5.90551100	9.05511800
163.49999047	0.00000000	5.16117100	8.31077700
163.69999046	0.00000000	4.78592500	7.93553100
163.89999045	0.00000000	4.74286400	7.89247000
164.09999043	0.00000000	4.78592500	7.89247000
164.29999042	0.00000000	5.16117100	7.89247000
164.49999041	0.00000000	5.90551100	7.89247000
164.69999040	0.00000000	6.28075700	7.89247000
164.89999039	0.00000000	6.32381900	7.89247000
165.09999037	0.00000000	6.36687900	7.89247000
165.29999036	0.00000000	6.69906400	7.89247000
165.49999035	0.00000000	7.06815900	7.89247000
165.69999034	0.00000000	6.69906400	7.89247000
165.89999033	0.00000000	6.36687900	7.89247000
166.09999032	0.00000000	6.28075700	7.89247000
166.29999030	0.00000000	5.90551100	7.89247000
166.49999029	0.00000000	5.21038300	7.89247000
166.69999028	0.00000000	5.16117100	7.89247000
166.89999027	0.00000000	5.53026500	7.89247000
167.09999026	0.00000000	5.53641700	7.89247000
167.29999024	0.00000000	5.94857300	7.89247000
167.49999023	0.00000000	6.28075700	7.89247000
167.69999022	0.00000000	6.32381900	7.89247000
167.89999021	0.00000000	6.32381900	7.89247000
168.09999020	0.00000000	6.32381900	7.89247000
168.29999018	0.00000000	6.32381900	7.89247000
168.49999017	0.00000000	6.32381900	7.89247000
168.69999016	0.00000000	6.32381900	7.89247000
168.89999015	0.00000000	6.32381900	7.89247000
169.09999014	0.00000000	6.32381900	7.89247000
169.29999013	0.00000000	6.32381900	7.89247000
169.49999011	0.00000000	6.32381900	7.89247000
169.69999010	0.00000000	6.32381900	7.89247000
169.89999009	0.00000000	6.32381900	7.89247000
170.09999008	0.00000000	6.32381900	7.89247000
170.29999007	0.00000000	6.32381900	7.89247000
170.49999005	0.00000000	6.32381900	7.89247000
170.69999004	0.00000000	6.32381900	7.89247000
170.89999003	0.00000000	6.32381900	7.89247000
171.09999002	0.00000000	6.32381900	7.89247000
171.29999001	0.00000000	6.32381900	7.89247000
171.49998999	0.00000000	6.32381900	7.89247000
171.69998998	0.00000000	6.32381900	7.89247000
171.89998997	0.00000000	6.32381900	7.89247000
172.09998996	0.00000000	6.32381900	7.89247000
172.29998995	0.00000000	6.32381900	7.89247000
172.49998994	0.00000000	6.32381900	7.89247000
172.69998992	0.00000000	6.32381900	7.89247000
172.89998991	0.00000000	6.32381900	7.93553100
173.09998990	0.00000000	6.32381900	8.26771600
173.29998989	0.00000000	6.32381900	8.63681000
173.49998988	0.00000000	6.32381900	8.26771600
173.69998986	0.00000000	6.32381900	7.93553100
173.89998985	0.00000000	6.32381900	7.89247000
174.09998984	0.00000000	6.32381900	7.89247000
174.29998983	0.00000000	6.32381900	7.89247000
174.49998982	0.00000000	6.32381900	7.89247000
174.69998980	0.00000000	6.32381900	7.89247000
174.89998979	0.00000000	6.32381900	7.89247000
175.09998978	0.00000000	6.28075700	7.89247000
175.29998977	0.00000000	5.94857300	7.89247000
175.49998976	0.00000000	5.57947800	7.89247000
175.69998975	0.00000000	5.94857300	7.89247000
175.89998973	0.00000000	6.28075700	7.89247000
176.09998972	0.00000000	6.32381900	7.89247000
176.29998971	0.00000000	6.32381900	7.93553100
176.49998970	0.00000000	6.32381900	8.26771600
176.69998969	0.00000000	6.32381900	8.63681000
176.89998967	0.00000000	6.32381900	8.26771600
177.09998966	0.00000000	6.32381900	7.93553100
177.29998965	0.00000000	6.32381900	7.89247000
177.49998964	0.00000000	6.32381900	7.89247000
177.69998963	0.00000000	6.32381900	7.89247000
177.89998961	0.00000000	6.32381900	7.89247000
178.09998960	0.00000000	6.32381900	7.89247000
178.29998959	0.00000000	6.32381900	7.89247000
178.49998958	0.00000000	6.32381900	7.89247000
178.69998957	0.00000000	6.32381900	7.89247000
178.89998956	0.00000000	6.32381900	7.89247000
179.09998954	0.00000000	6.32381900	7.89247000
179.29998953	0.00000000	6.32381900	7.89247000
179.49998952	0.00000000	6.32381900	7.89247000
179.69998951	0.00000000	6.32381900	7.89247000
179.89998950	0.00000000	6.32381900	7.89247000
180.09998948	0.00000000	6.32381900	7.89247000
180.29998947	0.00000000	6.32381900	7.89247000
180.49998946	0.00000000	6.32381900	7.89247000
180.69998945	0.00000000	6.32381900	7.89247000
180.89998944	0.00000000	6.32381900	7.89247000
181.09998942	0.00000000	6.32381900	7.89247000
181.29998941	0.00000000	6.32381900	7.93553100
181.49998940	0.00000000	6.32381900	8.31077700
181.69998939	0.00000000	6.32381900	9.05511800
181.89998938	0.00000000	6.32381900	9.43036400
182.09998937	0.00000000	6.32381900	9.47342500
182.29998935	0.00000000	6.32381900	9.43036400
182.49998934	0.00000000	6.32381900	9.05511800
182.69998933	0.00000000	6.32381900	8.31077700
182.89998932	0.00000000	6.32381900	7.93553100
183.09998931	0.00000000	6.32381900	7.89247000
183.29998929	0.00000000	6.32381900	7.89247000
183.49998928	0.00000000	6.32381900	7.89247000
183.69998927	0.00000000	6.32381900	7.89247000
183.89998926	0.00000000	6.32381900	7.89247000
184.09998925	0.00000000	6.32381900	7.89247000
184.29998923	0.00000000	6.32381900	7.93553100
184.49998922	0.00000000	6.32381900	8.31077700
184.69998921	0.00000000	6.32381900	9.00590400
184.89998920	0.00000000	6.32381900	9.05511800
185.09998919	0.00000000	6.32381900	8.68602300
185.29998918	0.00000000	6.32381900	8.67987200
185.49998916	0.00000000	6.32381900	8.26771600
185.69998915	0.00000000	6.32381900	7.93553100
185.89998914	0.00000000	6.32381900	7.89247000
186.09998913	0.00000000	6.32381900	7.89247000
186.29998912	0.00000000	6.28075700	7.84940900
186.49998910	0.00000000	5.99163300	7.51722400
186.69998909	0.00000000	5.95472400	7.14812900
186.89998908	0.00000000	6.69291300	7.51722400
187.09998907	0.00000000	6.65600300	7.84940900
187.29998906	0.00000000	6.36687900	7.93553100
187.49998904	0.00000000	6.32381900	8.31077700
187.69998903	0.00000000	6.32381900	9.05511800
187.89998902	0.00000000	6.32381900	9.43036400
188.09998901	0.00000000	6.32381900	9.43036400
188.29998900	0.00000000	6.32381900	9.05511800
188.49998899	0.00000000	6.32381900	8.31077700
188.69998897	0.00000000	6.32381900	7.93553100
188.89998896	0.00000000	6.32381900	7.89247000
189.09998895	0.00000000	6.32381900	7.89247000
189.29998894	0.00000000	6.32381900	7.89247000
189.49998893	0.00000000	6.32381900	7.89247000
189.69998891	0.00000000	6.32381900	7.89247000
189.89998890	0.00000000	6.32381900	7.89247000
190.09998889	0.00000000	6.32381900	7.89247000
190.29998888	0.00000000	6.32381900	7.89247000
190.49998887	0.00000000	6.32381900	7.89247000
190.69998885	0.00000000	6.32381900	7.89247000
190.89998884	0.00000000	6.32381900	7.89247000
191.09998883	0.00000000	6.32381900	7.89247000
191.29998882	0.00000000	6.32381900	7.89247000
191.49998881	0.00000000	6.32381900	7.89247000
191.69998880	0.00000000	6.32381900	7.89247000
191.89998878	0.00000000	6.32381900	7.89247000
192.09998877	0.00000000	6.32381900	7.89247000
192.29998876	0.00000000	6.32381900	7.89247000
192.49998875	0.00000000	6.32381900	7.89247000
192.69998874	0.00000000	6.32381900	7.89247000
192.89998872	0.00000000	6.32381900	7.89247000
193.09998871	0.00000000	6.32381900	7.89247000
193.29998870	0.00000000	6.32381900	7.89247000
193.49998869	0.00000000	6.32381900	7.89247000
193.69998868	0.00000000	6.32381900	7.89247000
193.89998866	0.00000000	6.32381900	7.93553100
194.09998865	0.00000000	6.32381900	8.31077700
194.29998864	0.00000000	6.32381900	9.00590400
194.49998863	0.00000000	6.32381900	9.05511800
194.69998862	0.00000000	6.32381900	8.68602300
194.89998861	0.00000000	6.32381900	8.67987200
195.09998859	0.00000000	6.32381900	8.26771600
195.29998858	0.00000000	6.32381900	7.93553100
195.49998857	0.00000000	6.32381900	7.89247000
195.69998856	0.00000000	6.32381900	7.89247000
195.89998855	0.00000000	6.32381900	7.89247000
196.09998853	0.00000000	6.32381900	7.89247000
