Time	Channel A	Channel B	Channel C
(us)	(V)	(mV)	(mV)

-4.49999956	0.00000000	7.90477300	8.67987200
-4.29999957	0.00000000	7.90477300	8.31077700
-4.09999958	0.00000000	7.90477300	8.35998900
-3.89999959	0.00000000	7.90477300	9.00590400
-3.69999960	0.00000000	7.90477300	9.00590400
-3.49999962	0.00000000	7.90477300	8.31077700
-3.29999963	0.00000000	7.90477300	7.93553100
-3.09999964	0.00000000	7.90477300	7.89247000
-2.89999965	0.00000000	7.90477300	7.89247000
-2.69999966	0.00000000	7.90477300	7.89247000
-2.49999968	0.00000000	7.90477300	7.93553100
-2.29999969	0.00000000	7.90477300	8.26771600
-2.09999970	0.00000000	7.90477300	8.63681000
-1.89999971	0.00000000	7.90477300	8.31077700
-1.69999972	0.00000000	7.90477300	8.31077700
-1.49999973	0.00000000	7.90477300	8.63681000
-1.29999975	0.00000000	7.90477300	8.26771600
-1.09999976	0.00000000	7.90477300	7.93553100
-0.89999977	0.00000000	7.90477300	7.89247000
-0.69999978	0.00000000	7.90477300	7.93553100
-0.49999979	0.00000000	7.90477300	8.31077700
-0.29999981	0.31803640	7.86171200	9.05511800
-0.09999982	0.63668800	7.52952700	9.38115100
0.10000017	0.95533960	7.16043300	9.09817800
0.30000016	1.11466500	7.48646600	8.68602300
0.50000015	0.79601380	7.48646600	8.67987200
0.70000013	0.15871060	7.16043300	8.26771600
0.90000012	-0.63668800	7.52952700	7.93553100
1.10000011	-1.59264300	7.86171200	7.89247000
1.30000010	-2.38927200	7.90477300	7.93553100
1.50000009	-2.86724900	7.90477300	8.31077700
1.70000008	-2.38927200	7.94783400	9.05511800
1.90000006	-1.11466500	8.28001900	9.43036400
2.10000005	0.79601380	8.64911400	9.47342500
2.30000004	3.02657500	8.28001900	9.47342500
2.50000003	4.61921700	7.94783400	9.43036400
2.70000002	5.41584600	7.90477300	9.05511800
2.90000000	4.61921700	7.90477300	8.31077700
3.09999999	2.54859700	7.90477300	7.93553100
3.29999998	-0.63668800	7.90477300	7.89247000
3.49999997	-3.98191400	7.90477300	7.89247000
3.69999996	-6.69045300	7.90477300	7.93553100
3.89999994	-7.96444400	7.90477300	8.31077700
4.09999993	-7.32714100	7.90477300	9.05511800
4.29999992	-4.45989200	7.90477300	9.43036400
4.49999991	-0.47736220	7.90477300	9.47342500
4.69999990	3.82258900	7.90477300	9.47342500
4.89999989	7.48646600	7.90477300	9.47342500
5.09999987	9.39837600	7.90477300	9.43036400
5.29999986	8.92039900	7.86171200	9.00590400
5.49999985	6.05315000	7.52952700	7.93553100
5.69999984	1.75196900	7.16043300	7.24040300
5.89999983	-3.02657500	7.48646600	7.89247000
6.09999981	-7.00848900	7.52952700	8.63681000
6.29999980	-9.23905000	7.53567900	8.68602300
6.49999979	-9.07972400	8.27386800	9.09817800
6.69999978	-6.84916400	8.23695900	9.43036400
6.89999977	-2.86724900	7.94783400	9.47342500
7.09999975	1.59264300	7.90477300	9.43036400
7.29999974	5.25652100	7.90477300	9.05511800
7.49999973	7.48646600	7.90477300	8.31077700
7.69999972	7.64579200	7.90477300	7.93553100
7.89999971	5.89382400	7.90477300	7.89247000
8.09999970	3.02657500	7.90477300	7.89247000
8.29999968	-0.31803640	7.90477300	7.89247000
8.49999967	-3.02657500	7.90477300	7.89247000
8.69999966	-4.77854300	7.90477300	7.93553100
8.89999965	-5.09719500	7.90477300	8.31077700
9.09999964	-4.14124000	7.90477300	9.05511800
9.29999962	-2.38927200	7.90477300	9.43036400
9.49999961	-0.47736220	7.90477300	9.43036400
9.69999960	1.27399100	7.90477300	9.05511800
9.89999959	2.22994600	7.90477300	8.31077700
10.09999958	2.54859700	7.90477300	7.93553100
10.29999956	2.07062000	7.90477300	7.93553100
10.49999955	1.27399100	7.90477300	8.31077700
10.69999954	0.47736220	7.90477300	9.00590400
10.89999953	-0.31803640	7.90477300	9.05511800
11.09999952	-0.79601380	7.90477300	8.72908400
11.29999951	-0.95533960	7.90477300	9.05511800
11.49999949	-0.95533960	7.90477300	9.05511800
11.69999948	-0.63668800	7.90477300	8.68602300
11.89999947	-0.47736220	7.90477300	8.67987200
12.09999946	-0.15871060	7.90477300	8.26771600
12.29999945	-0.15871060	7.90477300	7.93553100
12.49999943	0.00000000	7.90477300	7.89247000
12.69999942	0.00000000	7.90477300	7.89247000
12.89999941	0.00000000	7.90477300	7.89247000
13.09999940	0.00000000	7.90477300	7.89247000
13.29999939	0.00000000	7.90477300	7.89247000
13.49999937	0.00000000	7.90477300	7.89247000
13.69999936	0.00000000	7.90477300	7.93553100
13.89999935	0.00000000	7.90477300	8.26771600
14.09999934	-0.15871060	7.90477300	8.63681000
14.29999933	-0.15871060	7.90477300	8.26771600
14.49999932	-0.15871060	7.90477300	7.93553100
14.69999930	-0.15871060	7.90477300	7.89247000
14.89999929	0.00000000	7.90477300	7.89247000
15.09999928	0.00000000	7.90477300	7.89247000
15.29999927	0.00000000	7.90477300	7.89247000
15.49999926	0.00000000	7.90477300	7.89247000
15.69999924	0.00000000	7.90477300	7.89247000
15.89999923	0.00000000	7.86171200	7.89247000
16.09999922	0.00000000	7.52952700	7.89247000
16.29999921	0.00000000	7.16043300	7.93553100
16.49999920	0.00000000	7.57258800	8.31077700
16.69999919	-0.15871060	8.28001900	9.00590400
16.89999917	-0.15871060	9.06742000	9.00590400
17.09999916	0.00000000	9.44266700	8.31077700
17.29999915	0.00000000	9.48572700	7.93553100
17.49999914	0.00000000	9.48572700	7.89247000
17.69999913	0.00000000	9.44266700	7.89247000
17.89999911	0.00000000	9.01820900	7.89247000
18.09999910	0.00000000	7.86171200	7.93553100
18.29999909	0.00000000	6.32381900	8.26771600
18.49999908	0.00000000	4.78592500	8.63681000
18.69999907	0.00000000	3.58021600	8.31077700
18.89999905	-0.15871060	2.82972400	8.31077700
19.09999904	0.00000000	2.50984200	8.67987200
19.29999903	0.00000000	3.75861200	8.64296200
19.49999902	0.00000000	6.79133800	8.67987200
19.69999901	0.00000000	10.69144000	8.26771600
19.89999900	0.00000000	14.56078000	7.98474400
20.09999898	0.00000000	17.99951000	8.26771600
20.29999897	0.00000000	19.44513000	8.67987200
20.49999896	0.00000000	17.90723000	8.64296200
20.69999895	0.00000000	13.63189000	8.67987200
20.89999894	0.00000000	7.39419200	8.26771600
21.09999892	0.00000000	0.04306102	7.93553100
21.29999891	0.00000000	-6.88361200	7.89247000
21.49999890	0.00000000	-11.49114000	7.89247000
21.69999889	0.00000000	-12.56767000	7.89247000
21.89999888	0.00000000	-8.98129900	7.89247000
22.09999886	0.00000000	-0.47367120	7.89247000
22.29999885	0.00000000	11.15896000	7.89247000
22.49999884	0.00000000	23.53592000	7.89247000
22.69999883	0.00000000	34.28272000	7.93553100
22.89999882	0.00000000	39.96678000	8.31077700
23.09999881	0.00000000	38.37967000	9.05511800
23.29999879	0.00000000	29.40452000	9.47342500
23.49999878	0.00000000	14.32702000	9.89173200
23.69999877	0.00000000	-3.81397600	10.62992000
23.89999876	0.00000000	-20.38017000	11.00517000
24.09999875	0.00000000	-31.59449000	11.00517000
24.29999873	0.00000000	-34.57800000	10.53765000
24.49999872	0.00000000	-27.91584000	9.05511800
24.69999871	0.00000000	-12.05709000	7.14812900
24.89999870	0.00000000	9.52879000	5.93626900
25.09999869	0.00000000	31.53912000	4.73671200
25.29999867	0.00000000	48.93578000	3.66633800
25.49999866	0.00000000	57.73868000	3.66633800
25.69999865	0.00000000	55.36417000	4.87204700
25.89999864	0.00000000	41.45546000	7.24040300
26.09999863	0.00000000	19.48819000	11.09129000
26.29999862	0.00000000	-5.25959600	15.27436000
26.49999860	0.00000000	-27.26993000	18.39321000
26.69999859	0.00000000	-41.54773000	19.93110000
26.89999858	0.00000000	-44.62352000	19.46358000
27.09999857	0.00000000	-35.73449000	16.30167000
27.29999856	0.00000000	-16.84301000	10.49459000
27.49999854	0.00000000	7.43725300	3.15575800
27.69999853	0.00000000	31.02854000	-4.18307100
27.89999852	0.00000000	48.84966000	-9.89788300
28.09999851	0.00000000	57.36343000	-12.12475000
28.29999850	0.00000000	54.71210000	-9.38730200
28.49999848	0.00000000	42.00910000	-2.04847400
28.69999847	0.00000000	22.69931000	8.40305000
28.89999846	0.00000000	1.02116100	20.01722000
29.09999845	0.00000000	-18.28863000	30.42569000
29.29999844	0.00000000	-31.08391000	37.30315000
29.49999843	0.00000000	-34.66412000	38.37352000
29.69999841	0.00000000	-29.31225000	32.56643000
29.89999840	0.00000000	-16.93528000	20.95226000
30.09999839	0.00000000	0.09227362	5.89320800
30.29999838	0.00000000	17.82111000	-9.57185000
30.49999837	0.00000000	32.19119000	-21.84424000
30.69999835	0.00000000	40.38509000	-28.01427000
30.89999834	0.00000000	41.63386000	-26.07037000
31.09999833	0.00000000	36.19587000	-16.81841000
31.29999832	0.00000000	25.39370000	-2.09768700
31.49999831	0.00000000	11.48499000	15.32357000
31.69999829	0.00000000	-2.05462600	31.91437000
31.89999828	0.00000000	-12.56767000	44.22367000
32.09999827	0.00000000	-18.38090000	48.86811000
32.29999826	0.00000000	-18.42397000	45.01722000
32.49999825	0.00000000	-13.02903000	33.81520000
32.69999824	0.00000000	-3.77091500	17.18750000
32.89999822	0.00000000	7.43725300	-0.93503930
33.09999821	0.00000000	17.86417000	-16.81841000
33.29999820	0.00000000	25.25836000	-27.23302000
33.49999819	0.00000000	28.37721000	-29.97047000
33.69999818	0.00000000	26.83932000	-24.58169000
33.89999816	0.00000000	21.06914000	-12.59227000
34.09999815	0.00000000	12.60458000	3.62327700
34.29999814	0.00000000	3.75861200	20.62008000
34.49999813	0.00000000	-3.21112200	34.51648000
34.69999812	0.00000000	-6.74827700	42.64886000
34.89999810	0.00000000	-6.74827700	43.06717000
35.09999809	0.00000000	-3.26033400	36.14665000
35.29999808	0.00000000	3.25418300	23.78199000
35.49999807	0.00000000	10.51304000	8.35998900
35.69999806	0.00000000	16.28322000	-6.23154500
35.89999805	0.00000000	19.02067000	-16.31397000
36.09999803	0.00000000	18.32554000	-19.84498000
36.29999802	0.00000000	15.25591000	-16.77534000
36.49999801	0.00000000	10.59916000	-7.94783400
36.69999800	0.00000000	5.21038300	4.36146600
36.89999799	0.00000000	0.64591530	16.63386000
37.09999797	0.00000000	-1.67938000	25.91658000
37.29999796	0.00000000	-0.93503930	29.77977000
37.49999795	0.00000000	2.09153500	27.91584000
37.69999794	0.00000000	6.36687900	20.99532000
37.89999793	0.00000000	10.97441000	11.00517000
38.09999791	0.00000000	14.83760000	0.73203740
38.29999790	0.00000000	16.79380000	-6.55757800
38.49999789	0.00000000	16.79380000	-8.09547100
38.69999788	0.00000000	14.83760000	-4.36761800
38.89999787	0.00000000	11.02362000	3.33415300
39.09999786	0.00000000	6.79133800	12.49385000
39.29999784	0.00000000	3.25418300	20.57702000
39.49999783	0.00000000	0.51058070	25.13533000
39.69999782	0.00000000	-0.98425190	24.76009000
39.89999781	0.00000000	-0.60900590	19.37131000
40.09999780	0.00000000	1.67322800	10.54380000
40.29999778	0.00000000	4.78592500	0.59670270
40.49999777	0.00000000	8.32308000	-7.39419200
40.69999776	0.00000000	12.18012000	-10.50689000
40.89999775	0.00000000	15.25591000	-8.23080600
41.09999774	0.00000000	16.83686000	-1.67322800
41.29999772	0.00000000	16.83686000	7.94168200
41.49999771	0.00000000	15.25591000	17.88263000
41.69999770	0.00000000	12.18012000	25.22145000
41.89999769	0.00000000	8.32308000	28.29109000
42.09999768	0.00000000	4.83513700	26.38410000
42.29999767	0.00000000	2.09153500	19.88189000
42.49999765	0.00000000	0.51058070	11.04823000
42.69999764	0.00000000	0.13533460	2.17765700
42.89999763	0.00000000	0.92888770	-4.74286400
43.09999762	0.00000000	3.25418300	-7.85556000
43.29999761	0.00000000	6.28075700	-6.74212600
43.49999759	0.00000000	9.01820900	-2.18380900
43.69999758	0.00000000	10.97441000	4.36146600
43.89999757	0.00000000	12.18012000	10.91289000
44.09999756	0.00000000	12.55536000	16.35089000
44.29999755	0.00000000	12.22933000	19.42052000
44.49999753	0.00000000	11.48499000	19.46358000
44.69999752	0.00000000	11.10974000	16.81225000
44.89999751	0.00000000	11.02362000	12.62918000
45.09999750	0.00000000	10.59916000	8.40305000
45.29999749	0.00000000	9.44266700	5.24729300
45.49999748	0.00000000	7.86171200	3.29109200
45.69999746	0.00000000	5.85629900	2.50369100
45.89999745	0.00000000	3.16190900	3.29109200
46.09999744	0.00000000	0.46751960	5.15501900
46.29999743	0.00000000	-1.44562000	7.47416300
46.49999742	0.00000000	-2.14074800	9.42421200
46.69999740	0.00000000	-0.51673230	11.04823000
46.89999739	0.00000000	3.75861200	12.53691000
47.09999738	0.00000000	9.86097400	13.28125000
47.29999737	0.00000000	16.08637000	12.49385000
47.49999736	0.00000000	20.70005000	10.62992000
47.69999734	0.00000000	23.39444000	8.31077700
47.89999733	0.00000000	22.55782000	6.36072800
48.09999732	0.00000000	18.28248000	4.77977300
48.29999731	0.00000000	11.34350000	3.70939900
48.49999730	0.00000000	2.84202700	4.08464600
48.69999729	0.00000000	-4.47219400	5.98548200
48.89999727	0.00000000	-9.49187900	8.31077700
49.09999726	0.00000000	-10.56225000	11.04823000
49.29999725	0.00000000	-6.74827700	13.69956000
49.49999724	0.00000000	0.55364170	15.23130000
49.69999723	0.00000000	9.48572700	15.23130000
49.89999721	0.00000000	18.32554000	13.69956000
50.09999720	0.00000000	24.88312000	10.96211000
50.29999719	0.00000000	27.16535000	7.47416300
50.49999718	0.00000000	24.88312000	3.66633800
50.69999717	0.00000000	18.32554000	0.97194880
50.89999715	0.00000000	9.48572700	0.17839570
51.09999714	0.00000000	0.59670270	0.97194880
51.29999713	0.00000000	-6.32997000	3.70939900
51.49999712	0.00000000	-9.35654400	7.89247000
51.69999711	0.00000000	-7.49261800	12.11860000
51.89999710	0.00000000	-1.35334600	15.23130000
52.09999708	0.00000000	6.69906400	16.81225000
52.29999707	0.00000000	14.78838000	16.76919000
52.49999706	0.00000000	20.51550000	14.81299000
52.69999705	0.00000000	22.13952000	11.00517000
52.89999704	0.00000000	19.86343000	6.82209600
53.09999702	0.00000000	14.83760000	3.70939900
53.29999701	0.00000000	7.94783400	2.12844500
53.49999700	0.00000000	1.43946800	2.12844500
53.69999699	0.00000000	-2.47293300	3.66633800
53.89999698	0.00000000	-3.63558100	6.36072800
54.09999696	0.00000000	-1.67938000	9.38115100
54.29999695	0.00000000	3.29724400	11.70029000
54.49999694	0.00000000	9.39345400	12.49385000
54.69999693	0.00000000	14.78838000	12.16166000
54.89999692	0.00000000	17.86417000	10.96211000
55.09999691	0.00000000	17.90723000	9.05511800
55.29999689	0.00000000	15.21284000	6.82209600
55.49999688	0.00000000	10.59916000	5.70866100
55.69999687	0.00000000	5.25344500	6.44685000
55.89999686	0.00000000	1.02116100	8.31077700
56.09999685	0.00000000	-0.93503930	10.62992000
56.29999683	0.00000000	-0.55979330	12.49385000
56.49999682	0.00000000	2.13459600	13.23819000
56.69999681	0.00000000	6.32381900	12.07554000
56.89999680	0.00000000	10.55610000	9.38115100
57.09999679	0.00000000	13.67495000	5.89320800
57.29999677	0.00000000	15.25591000	2.08538400
57.49999676	0.00000000	15.21284000	-0.51673230
57.69999675	0.00000000	13.29970000	-0.51673230
57.89999674	0.00000000	9.90403500	2.17765700
58.09999673	0.00000000	6.83439900	6.82209600
58.29999672	0.00000000	4.83513700	12.58612000
58.49999670	0.00000000	3.67249000	17.92569000
58.69999669	0.00000000	3.67249000	20.99532000
58.89999668	0.00000000	4.83513700	20.99532000
59.09999667	0.00000000	6.74212600	17.88263000
59.29999666	0.00000000	9.01820900	12.11860000
59.49999664	0.00000000	10.55610000	5.20423200
59.69999663	0.00000000	10.97441000	-0.97810030
59.89999662	0.00000000	10.64838000	-5.20423200
60.09999661	0.00000000	9.86097400	-6.32381900
60.29999660	0.00000000	9.06742000	-3.58636800
60.49999658	0.00000000	7.94783400	2.54675200
60.69999657	0.00000000	7.20964500	10.62992000
60.89999656	0.00000000	7.57258800	18.30093000
61.09999655	0.00000000	8.28001900	23.73892000
61.29999654	0.00000000	9.06742000	25.59670000
61.49999653	0.00000000	9.44266700	23.31447000
61.69999651	0.00000000	9.44266700	17.14444000
61.89999650	0.00000000	9.01820900	9.09817800
62.09999649	0.00000000	7.86171200	0.97194880
62.29999648	0.00000000	6.36687900	-5.20423200
62.49999647	0.00000000	5.16117100	-8.27386800
62.69999645	0.00000000	4.41067900	-7.48031400
62.89999644	0.00000000	4.04773600	-2.51599400
63.09999643	0.00000000	4.87819900	4.82898600
63.29999642	0.00000000	6.74212600	12.91215000
63.49999641	0.00000000	9.06742000	20.20177000
63.69999639	0.00000000	10.97441000	24.06496000
63.89999638	0.00000000	12.18012000	24.15723000
64.09999637	0.00000000	12.55536000	21.08760000
64.29999636	0.00000000	12.13706000	15.64960000
64.49999635	0.00000000	10.55610000	9.09817800
64.69999634	0.00000000	7.90477300	2.55290300
64.89999632	0.00000000	5.25344500	-2.09768700
65.09999631	0.00000000	3.71555100	-4.09079700
65.29999630	0.00000000	3.67249000	-3.71555100
65.49999629	0.00000000	4.78592500	-1.02116100
65.69999628	0.00000000	6.36687900	3.20497000
65.89999626	0.00000000	8.32308000	7.84940900
66.09999625	0.00000000	10.55610000	12.16166000
66.29999624	0.00000000	11.67569000	15.64960000
66.49999623	0.00000000	10.97441000	17.97490000
66.69999622	0.00000000	9.48572700	18.39321000
66.89999620	0.00000000	7.86171200	17.27362000
67.09999619	0.00000000	5.99163300	15.32357000
67.29999618	0.00000000	4.50910400	12.58612000
67.49999617	0.00000000	4.87819900	9.47342500
67.69999616	0.00000000	6.36687900	6.36072800
67.89999615	0.00000000	8.37229300	3.61712600
68.09999613	0.00000000	11.06668000	1.66707700
68.29999612	0.00000000	13.63189000	0.46136810
68.49999611	0.00000000	14.41314000	0.17839570
68.69999610	0.00000000	12.88755000	1.34719500
68.89999609	0.00000000	10.18086000	4.45374000
69.09999607	0.00000000	6.28075700	8.31077700
69.29999606	0.00000000	2.09153500	12.62918000
69.49999605	0.00000000	-0.93503930	16.81225000
69.69999604	0.00000000	-1.72244100	19.50664000
69.89999603	0.00000000	0.17839570	19.88189000
70.09999601	0.00000000	3.67249000	17.93184000
70.29999600	0.00000000	8.37229300	13.69956000
70.49999599	0.00000000	13.76107000	8.31077700
70.69999598	0.00000000	18.32554000	3.29109200
70.89999597	0.00000000	20.65084000	-0.60285430
71.09999596	0.00000000	19.86343000	-2.50984200
71.29999594	0.00000000	16.36934000	-2.14074800
71.49999593	0.00000000	10.59916000	0.59670270
71.69999592	0.00000000	4.04773600	5.15501900
71.89999591	0.00000000	-1.35334600	10.16855000
72.09999590	0.00000000	-4.84128900	14.03174000
72.29999588	0.00000000	-5.21653500	16.39395000
72.49999587	0.00000000	-2.56520700	16.76919000
72.69999586	0.00000000	2.09153500	15.27436000
72.89999585	0.00000000	7.90477300	12.58612000
73.09999584	0.00000000	13.67495000	9.51648500
73.29999582	0.00000000	17.95029000	6.82209600
73.49999581	0.00000000	19.90650000	5.29035400
73.69999580	0.00000000	19.48819000	5.24729300
73.89999579	0.00000000	16.36934000	6.31151500
74.09999578	0.00000000	11.06668000	7.47416300
74.29999577	0.00000000	5.67175200	8.26771600
74.49999575	0.00000000	1.75935000	9.00590400
74.69999574	0.00000000	-0.60900590	8.96284400
74.89999573	0.00000000	-0.98425190	7.84940900
75.09999572	0.00000000	0.55364170	6.36072800
75.29999571	0.00000000	3.62942900	5.24729300
75.49999569	0.00000000	7.48646600	5.29035400
75.69999568	0.00000000	10.93135000	6.82209600
75.89999567	0.00000000	13.25664000	9.51648500
76.09999566	0.00000000	13.67495000	12.58612000
76.29999565	0.00000000	12.60458000	15.27436000
76.49999563	0.00000000	11.06668000	16.76919000
76.69999562	0.00000000	9.48572700	16.35089000
76.89999561	0.00000000	7.94783400	13.61343000
77.09999560	0.00000000	6.83439900	9.05511800
77.29999559	0.00000000	6.79133800	4.04158400
77.49999558	0.00000000	7.48646600	0.17839570
77.69999556	0.00000000	7.86171200	-2.18380900
77.89999555	0.00000000	7.86171200	-2.50984200
78.09999554	0.00000000	7.43725300	-0.55979330
78.29999553	0.00000000	6.32381900	3.70939900
78.49999552	0.00000000	5.25344500	9.47342500
78.69999550	0.00000000	5.21038300	15.23130000
78.89999549	0.00000000	5.99163300	19.46358000
79.09999548	0.00000000	7.16043300	21.04454000
79.29999547	0.00000000	9.11048200	19.88189000
79.49999546	0.00000000	11.02362000	16.43701000
79.69999544	0.00000000	12.60458000	11.42347000
79.89999543	0.00000000	13.67495000	6.35457700
80.09999542	0.00000000	13.29970000	1.71013800
80.29999541	0.00000000	11.39887000	-1.72244100
80.49999540	0.00000000	9.06742000	-2.50984200
80.69999539	0.00000000	6.32381900	-1.02116100
80.89999537	0.00000000	3.67249000	2.08538400
81.09999536	0.00000000	2.17765700	6.31151500
81.29999535	0.00000000	2.55290300	10.58686000
81.49999534	0.00000000	4.78592500	14.07480000
81.69999533	0.00000000	7.48646600	16.43701000
81.89999531	0.00000000	9.81791200	17.23056000
82.09999530	0.00000000	11.81102000	16.85531000
82.29999529	0.00000000	12.93061000	15.32357000
82.49999528	0.00000000	13.29970000	12.95522000
82.69999527	0.00000000	12.13706000	10.21161000
82.89999525	0.00000000	9.90403500	6.72982200
83.09999524	0.00000000	7.94783400	3.66633800
83.29999523	0.00000000	6.36687900	1.66707700
83.49999522	0.00000000	5.25344500	0.51058070
83.69999521	0.00000000	5.21038300	0.55364170
83.89999520	0.00000000	5.94857300	2.08538400
84.09999518	0.00000000	6.69906400	4.82283400
84.29999517	0.00000000	7.48646600	8.35998900
84.49999516	0.00000000	7.90477300	12.58612000
84.69999515	0.00000000	8.28001900	16.39395000
84.89999514	0.00000000	8.64911400	18.35015000
85.09999512	0.00000000	8.32308000	18.35015000
85.29999511	0.00000000	8.37229300	16.39395000
85.49999510	0.00000000	9.06742000	12.53691000
85.69999509	0.00000000	9.48572700	7.93553100
85.89999508	0.00000000	9.86097400	3.66633800
86.09999506	0.00000000	10.23007000	0.55364170
86.29999505	0.00000000	9.81791200	-0.97810030
86.49999504	0.00000000	9.06742000	-0.55979330
86.69999503	0.00000000	7.86171200	2.12844500
86.89999502	0.00000000	6.36687900	6.35457700
87.09999501	0.00000000	5.21038300	11.00517000
87.29999499	0.00000000	4.83513700	15.23130000
87.49999498	0.00000000	5.21038300	17.92569000
87.69999497	0.00000000	6.36687900	18.30093000
87.89999496	0.00000000	7.90477300	16.39395000
88.09999495	0.00000000	9.48572700	12.53691000
88.29999493	0.00000000	11.02362000	7.89247000
88.49999492	0.00000000	12.13706000	3.29109200
88.69999491	0.00000000	12.13706000	-0.14148620
88.89999490	0.00000000	11.02362000	-0.88582670
89.09999489	0.00000000	9.48572700	0.97194880
89.29999487	0.00000000	7.90477300	4.82898600
89.49999486	0.00000000	6.36687900	9.43036400
89.69999485	0.00000000	5.21038300	13.69956000
89.89999484	0.00000000	4.83513700	16.72613000
90.09999483	0.00000000	5.21038300	17.50738000
90.29999482	0.00000000	6.36687900	15.60654000
90.49999480	0.00000000	7.86171200	12.16166000
90.69999479	0.00000000	9.06742000	7.89247000
90.89999478	0.00000000	9.81791200	3.70939900
91.09999477	0.00000000	10.23007000	1.01501000
91.29999476	0.00000000	9.86097400	0.63976370
91.49999474	0.00000000	9.52879000	2.54675200
91.69999473	0.00000000	9.44266700	6.40378900
91.89999472	0.00000000	9.06742000	10.95595000
92.09999471	0.00000000	8.32308000	14.81299000
92.29999470	0.00000000	7.94783400	16.71998000
92.49999468	0.00000000	7.90477300	16.39395000
92.69999467	0.00000000	7.86171200	14.03174000
92.89999466	0.00000000	7.48646600	10.21161000
93.09999465	0.00000000	6.74212600	5.61638700
93.29999464	0.00000000	6.36687900	2.17765700
93.49999463	0.00000000	6.32381900	0.59670270
93.69999461	0.00000000	6.36687900	1.01501000
93.89999460	0.00000000	6.79133800	3.70939900
94.09999459	0.00000000	7.94783400	7.89247000
94.29999458	0.00000000	9.52879000	12.11860000
94.49999457	0.00000000	11.44193000	15.18824000
94.69999455	0.00000000	13.39198000	16.34473000
94.89999454	0.00000000	14.42544000	15.18824000
95.09999453	0.00000000	14.08710000	12.16166000
95.29999452	0.00000000	11.72490000	8.31077700
95.49999451	0.00000000	8.73523500	4.87204700
95.69999449	0.00000000	5.57947800	2.50369100
95.89999448	0.00000000	3.29724400	1.80241100
96.09999447	0.00000000	2.04847400	2.92199800
96.29999446	0.00000000	1.71628900	5.98548200
96.49999445	0.00000000	2.55290300	9.38115100
96.69999444	0.00000000	5.25344500	12.11860000
96.89999442	0.00000000	9.06742000	13.65650000
97.09999441	0.00000000	12.55536000	13.69956000
97.29999440	0.00000000	15.29897000	12.53691000
97.49999439	0.00000000	16.79380000	10.62992000
97.69999438	0.00000000	16.41855000	8.31077700
97.89999436	0.00000000	14.09326000	6.40378900
98.09999435	0.00000000	10.64838000	5.24729300
98.29999434	0.00000000	6.74212600	5.24729300
98.49999433	0.00000000	3.25418300	6.36072800
98.69999432	0.00000000	0.55364170	7.84940900
98.89999430	0.00000000	-0.55979330	9.00590400
99.09999429	0.00000000	0.55364170	9.43036400
99.29999428	0.00000000	3.25418300	9.47342500
99.49999427	0.00000000	6.74212600	9.47342500
99.69999426	0.00000000	10.59916000	9.47342500
99.89999425	0.00000000	13.71801000	9.47342500
100.09999423	0.00000000	15.67421000	9.51648500
100.29999422	0.00000000	16.41855000	9.89173200
100.49999421	0.00000000	15.25591000	10.62992000
100.69999420	0.00000000	12.60458000	10.95595000
100.89999419	0.00000000	9.48572700	10.58686000
101.09999417	0.00000000	6.36687900	9.42421200
101.29999416	0.00000000	3.67249000	7.89247000
101.49999415	0.00000000	2.13459600	6.36072800
101.69999414	0.00000000	2.09153500	5.19808000
101.89999413	0.00000000	3.25418300	4.82898600
102.09999411	0.00000000	5.21038300	5.24729300
102.29999410	0.00000000	7.90477300	6.77903500
102.49999409	0.00000000	10.55610000	9.09817800
102.69999408	0.00000000	12.18012000	11.42347000
102.89999407	0.00000000	12.97982000	13.69956000
103.09999406	0.00000000	13.34276000	14.85605000
103.29999404	0.00000000	12.55536000	14.49311000
103.49999403	0.00000000	11.02362000	13.28125000
103.69999402	0.00000000	9.06742000	10.53765000
103.89999401	0.00000000	6.79133800	6.77903500
104.09999400	0.00000000	5.21038300	3.70939900
104.29999398	0.00000000	4.41067900	2.12844500
104.49999397	0.00000000	4.04773600	2.12844500
104.69999396	0.00000000	4.83513700	3.66633800
104.89999395	0.00000000	6.32381900	6.36072800
105.09999394	0.00000000	7.90477300	9.42421200
105.29999392	0.00000000	9.44266700	12.11860000
105.49999391	0.00000000	10.59916000	13.65650000
105.69999390	0.00000000	10.97441000	13.69956000
105.89999389	0.00000000	10.59916000	12.53691000
106.09999388	0.00000000	9.48572700	10.62992000
106.29999387	0.00000000	8.32308000	8.31077700
106.49999385	0.00000000	7.52952700	6.40378900
106.69999384	0.00000000	6.79133800	5.24729300
106.89999383	0.00000000	6.79133800	5.24729300
107.09999382	0.00000000	7.52952700	6.36072800
107.29999381	0.00000000	8.28001900	7.89247000
107.49999379	0.00000000	9.11048200	9.47342500
107.69999378	0.00000000	9.81791200	10.96211000
107.89999377	0.00000000	10.18086000	11.70029000
108.09999376	0.00000000	9.44266700	10.96211000
108.29999375	0.00000000	8.32308000	9.47342500
108.49999374	0.00000000	7.52952700	7.89247000
108.69999372	0.00000000	6.74212600	6.36072800
108.89999371	0.00000000	6.36687900	5.24729300
109.09999370	0.00000000	6.36687900	5.24729300
109.29999369	0.00000000	6.79133800	6.36072800
109.49999368	0.00000000	7.94783400	7.89247000
109.69999366	0.00000000	9.44266700	9.47342500
109.89999365	0.00000000	10.59916000	11.00517000
110.09999364	0.00000000	11.02362000	12.11860000
110.29999363	0.00000000	10.97441000	12.11860000
110.49999362	0.00000000	10.23007000	11.00517000
110.69999360	0.00000000	8.69832600	9.47342500
110.89999359	0.00000000	7.57258800	7.89247000
111.09999358	0.00000000	6.74212600	6.36072800
111.29999357	0.00000000	6.36687900	5.24729300
111.49999356	0.00000000	6.36687900	5.24729300
111.69999355	0.00000000	6.79133800	6.31151500
111.89999353	0.00000000	7.90477300	7.47416300
112.09999352	0.00000000	9.06742000	8.26771600
112.29999351	0.00000000	9.81791200	9.09817800
112.49999350	0.00000000	10.23007000	9.84867000
112.69999349	0.00000000	9.86097400	10.58686000
112.89999347	0.00000000	9.48572700	10.58686000
113.09999346	0.00000000	9.06742000	9.89173200
113.29999345	0.00000000	8.32308000	9.47342500
113.49999344	0.00000000	7.94783400	9.09817800
113.69999343	0.00000000	7.90477300	8.68602300
113.89999341	0.00000000	7.90477300	8.67987200
114.09999340	0.00000000	7.90477300	8.26771600
114.29999339	0.00000000	7.90477300	7.93553100
114.49999338	0.00000000	7.94783400	7.89247000
114.69999337	0.00000000	8.32308000	7.89247000
114.89999336	0.00000000	9.06742000	7.84940900
115.09999334	0.00000000	9.44266700	7.51722400
115.29999333	0.00000000	9.48572700	7.14812900
115.49999332	0.00000000	9.44266700	7.51722400
115.69999331	0.00000000	9.06742000	7.89247000
115.89999330	0.00000000	8.32308000	8.31077700
116.09999328	0.00000000	7.94783400	9.09817800
116.29999327	0.00000000	7.90477300	9.84867000
116.49999326	0.00000000	7.90477300	10.62992000
116.69999325	0.00000000	7.90477300	10.95595000
116.89999324	0.00000000	7.90477300	10.62992000
117.09999322	0.00000000	7.94783400	9.84867000
117.29999321	0.00000000	8.32308000	9.09817800
117.49999320	0.00000000	9.11048200	8.26771600
117.69999319	0.00000000	9.86097400	7.56028500
117.89999318	0.00000000	10.64838000	7.14812900
118.09999317	0.00000000	10.97441000	7.51722400
118.29999315	0.00000000	10.59916000	7.89247000
118.49999314	0.00000000	9.48572700	8.31077700
118.69999313	0.00000000	8.32308000	9.05511800
118.89999312	0.00000000	7.52952700	9.43036400
119.09999311	0.00000000	6.74212600	9.47342500
119.29999309	0.00000000	6.36687900	9.47342500
119.49999308	0.00000000	6.32381900	9.47342500
119.69999307	0.00000000	6.41609200	9.47342500
119.89999306	0.00000000	7.16043300	9.47342500
120.09999305	0.00000000	8.69217500	9.43036400
120.29999303	0.00000000	9.81791200	9.05511800
120.49999302	0.00000000	10.64838000	8.31077700
120.69999301	0.00000000	11.02362000	7.93553100
120.89999300	0.00000000	11.02362000	7.89247000
121.09999299	0.00000000	10.59916000	7.89247000
121.29999298	0.00000000	9.44266700	7.89247000
121.49999296	0.00000000	7.90477300	7.89247000
121.69999295	0.00000000	6.36687900	7.89247000
121.89999294	0.00000000	5.25344500	7.93553100
122.09999293	0.00000000	5.21038300	8.31077700
122.29999292	0.00000000	5.94857300	9.05511800
122.49999290	0.00000000	6.69906400	9.43036400
122.69999289	0.00000000	7.52952700	9.51648500
122.89999288	0.00000000	8.28001900	9.84867000
123.09999287	0.00000000	9.11048200	10.21161000
123.29999286	0.00000000	9.86097400	9.84867000
123.49999284	0.00000000	10.64838000	9.47342500
123.69999283	0.00000000	10.97441000	9.05511800
123.89999282	0.00000000	10.64838000	8.31077700
124.09999281	0.00000000	9.86097400	7.89247000
124.29999280	0.00000000	9.11048200	7.51722400
124.49999279	0.00000000	8.28001900	7.14812900
124.69999277	0.00000000	7.52952700	7.56028500
124.89999276	0.00000000	6.74212600	8.26771600
125.09999275	0.00000000	6.36687900	9.05511800
125.29999274	0.00000000	6.36687900	9.43036400
125.49999273	0.00000000	6.74212600	9.47342500
125.69999271	0.00000000	7.52952700	9.47342500
125.89999270	0.00000000	8.28001900	9.47342500
126.09999269	0.00000000	9.11048200	9.47342500
126.29999268	0.00000000	9.86097400	9.47342500
126.49999267	0.00000000	10.64838000	9.43036400
126.69999265	0.00000000	10.97441000	9.05511800
126.89999264	0.00000000	10.59916000	8.31077700
127.09999263	0.00000000	9.48572700	7.93553100
127.29999262	0.00000000	8.37229300	7.89247000
127.49999261	0.00000000	7.90477300	7.89247000
127.69999260	0.00000000	7.48646600	7.89247000
127.89999258	0.00000000	6.74212600	7.93553100
128.09999257	0.00000000	6.41609200	8.31077700
128.29999256	0.00000000	6.79133800	9.05511800
128.49999255	0.00000000	7.90477300	9.43036400
128.69999254	0.00000000	9.06742000	9.47342500
128.89999252	0.00000000	9.86097400	9.47342500
129.09999251	0.00000000	10.59916000	9.43036400
129.29999250	0.00000000	10.59916000	9.05511800
129.49999249	0.00000000	9.86097400	8.31077700
129.69999248	0.00000000	9.06742000	7.93553100
129.89999246	0.00000000	7.90477300	7.89247000
130.09999245	0.00000000	6.79133800	7.93553100
130.29999244	0.00000000	6.36687900	8.31077700
130.49999243	0.00000000	6.36687900	9.05511800
130.69999242	0.00000000	6.79133800	9.43036400
130.89999241	0.00000000	7.90477300	9.47342500
131.09999239	0.00000000	9.06742000	9.47342500
131.29999238	0.00000000	9.86097400	9.47342500
131.49999237	0.00000000	10.59916000	9.43036400
131.69999236	0.00000000	10.59916000	9.05511800
131.89999235	0.00000000	9.86097400	8.31077700
132.09999233	0.00000000	9.11048200	7.93553100
132.29999232	0.00000000	8.32308000	7.89247000
132.49999231	0.00000000	7.94783400	7.89247000
132.69999230	0.00000000	7.90477300	7.93553100
132.89999229	0.00000000	7.90477300	8.31077700
133.09999227	0.00000000	7.90477300	9.05511800
133.29999226	0.00000000	7.94783400	9.47342500
133.49999225	0.00000000	8.32308000	9.89173200
133.69999224	0.00000000	9.06742000	10.58686000
133.89999223	0.00000000	9.44266700	10.58686000
134.09999222	0.00000000	9.44266700	9.84867000
134.29999220	0.00000000	9.06742000	9.09817800
134.49999219	0.00000000	8.37229300	8.31077700
134.69999218	0.00000000	8.32308000	7.89247000
134.89999217	0.00000000	8.69217500	7.47416300
135.09999216	0.00000000	8.69832600	6.72982200
135.29999214	0.00000000	9.11048200	6.40378900
135.49999213	0.00000000	9.44266700	6.77903500
135.69999212	0.00000000	9.44266700	7.89247000
135.89999211	0.00000000	9.06742000	9.00590400
136.09999210	0.00000000	8.32308000	9.43036400
136.29999208	0.00000000	7.90477300	9.51648500
136.49999207	0.00000000	7.52952700	9.84867000
136.69999206	0.00000000	7.16043300	10.21161000
136.89999205	0.00000000	7.52952700	9.84867000
137.09999204	0.00000000	7.90477300	9.47342500
137.29999203	0.00000000	8.32308000	9.05511800
137.49999201	0.00000000	9.06742000	8.31077700
137.69999200	0.00000000	9.44266700	7.93553100
137.89999199	0.00000000	9.48572700	7.84940900
138.09999198	0.00000000	9.48572700	7.51722400
138.29999197	0.00000000	9.44266700	7.14812900
138.49999195	0.00000000	9.06742000	7.51722400
138.69999194	0.00000000	8.32308000	7.89247000
138.89999193	0.00000000	7.94783400	8.31077700
139.09999192	0.00000000	7.90477300	9.09817800
139.29999191	0.00000000	7.90477300	9.84867000
139.49999189	0.00000000	7.94783400	10.62992000
139.69999188	0.00000000	8.32308000	10.95595000
139.89999187	0.00000000	9.06742000	10.62992000
140.09999186	0.00000000	9.44266700	9.89173200
140.29999185	0.00000000	9.48572700	9.47342500
140.49999184	0.00000000	9.48572700	9.00590400
140.69999182	0.00000000	9.44266700	7.89247000
140.89999181	0.00000000	9.06742000	6.77903500
141.09999180	0.00000000	8.32308000	6.40378900
141.29999179	0.00000000	7.94783400	6.72982200
141.49999178	0.00000000	7.90477300	7.51722400
141.69999176	0.00000000	7.90477300	8.31077700
141.89999175	0.00000000	7.94783400	9.47342500
142.09999174	0.00000000	8.32308000	10.58686000
142.29999173	0.00000000	9.06742000	11.00517000
142.49999172	0.00000000	9.44266700	11.04823000
142.69999170	0.00000000	9.48572700	11.00517000
142.89999169	0.00000000	9.44266700	10.58686000
143.09999168	0.00000000	9.06742000	9.47342500
143.29999167	0.00000000	8.32308000	8.31077700
143.49999166	0.00000000	7.94783400	7.51722400
143.69999165	0.00000000	7.90477300	6.72982200
143.89999163	0.00000000	7.90477300	6.40378900
144.09999162	0.00000000	7.94783400	6.72982200
144.29999161	0.00000000	8.32308000	7.51722400
144.49999160	0.00000000	9.06742000	8.26771600
144.69999159	0.00000000	9.44266700	9.09817800
144.89999157	0.00000000	9.48572700	9.84867000
145.09999156	0.00000000	9.48572700	10.58686000
145.29999155	0.00000000	9.44266700	10.58686000
145.49999154	0.00000000	9.06742000	9.84867000
145.69999153	0.00000000	8.32308000	9.09817800
145.89999151	0.00000000	7.94783400	8.31077700
146.09999150	0.00000000	7.90477300	7.93553100
146.29999149	0.00000000	7.90477300	7.89247000
146.49999148	0.00000000	7.94783400	7.89247000
146.69999147	0.00000000	8.32308000	7.89247000
146.89999146	0.00000000	9.06742000	7.93553100
147.09999144	0.00000000	9.44266700	8.31077700
147.29999143	0.00000000	9.48572700	9.05511800
147.49999142	0.00000000	9.48572700	9.43036400
147.69999141	0.00000000	9.44266700	9.47342500
147.89999140	0.00000000	9.06742000	9.47342500
148.09999138	0.00000000	8.32308000	9.47342500
148.29999137	0.00000000	7.94783400	9.47342500
148.49999136	0.00000000	7.90477300	9.47342500
148.69999135	0.00000000	7.90477300	9.43036400
148.89999134	0.00000000	7.94783400	9.05511800
149.09999132	0.00000000	8.32308000	8.31077700
149.29999131	0.00000000	9.06742000	7.93553100
149.49999130	0.00000000	9.44266700	7.89247000
149.69999129	0.00000000	9.48572700	7.89247000
149.89999128	0.00000000	9.48572700	7.93553100
150.09999127	0.00000000	9.48572700	8.31077700
150.29999125	0.00000000	9.48572700	9.05511800
150.49999124	0.00000000	9.44266700	9.43036400
150.69999123	0.00000000	9.06742000	9.47342500
150.89999122	0.00000000	8.32308000	9.47342500
151.09999121	0.00000000	7.94783400	9.47342500
151.29999119	0.00000000	7.90477300	9.47342500
151.49999118	0.00000000	7.90477300	9.47342500
151.69999117	0.00000000	7.90477300	9.43036400
151.89999116	0.00000000	7.94783400	9.05511800
152.09999115	0.00000000	8.32308000	8.31077700
152.29999113	0.00000000	9.06742000	7.93553100
152.49999112	0.00000000	9.44266700	7.89247000
152.69999111	0.00000000	9.48572700	7.89247000
152.89999110	0.00000000	9.48572700	7.93553100
153.09999109	0.00000000	9.48572700	8.31077700
153.29999108	0.00000000	9.44266700	9.05511800
153.49999106	0.00000000	9.06742000	9.43036400
153.69999105	0.00000000	8.37229300	9.47342500
153.89999104	0.00000000	8.32308000	9.47342500
154.09999103	0.00000000	8.64911400	9.47342500
154.29999102	0.00000000	8.28001900	9.47342500
154.49999100	0.00000000	7.94783400	9.47342500
154.69999099	0.00000000	7.90477300	9.47342500
154.89999098	0.00000000	7.94783400	9.47342500
155.09999097	0.00000000	8.32308000	9.43036400
155.29999096	0.00000000	9.06742000	9.05511800
155.49999094	0.00000000	9.44266700	8.31077700
155.69999093	0.00000000	9.48572700	7.93553100
155.89999092	0.00000000	9.48572700	7.89247000
156.09999091	0.00000000	9.48572700	7.93553100
156.29999090	0.00000000	9.44266700	8.31077700
156.49999089	0.00000000	9.06742000	9.05511800
156.69999087	0.00000000	8.32308000	9.43036400
156.89999086	0.00000000	7.94783400	9.47342500
157.09999085	0.00000000	7.90477300	9.47342500
157.29999084	0.00000000	7.90477300	9.47342500
157.49999083	0.00000000	7.90477300	9.47342500
157.69999081	0.00000000	7.94783400	9.47342500
157.89999080	0.00000000	8.32308000	9.43036400
158.09999079	0.00000000	9.01820900	9.05511800
158.29999078	0.00000000	9.06742000	8.31077700
158.49999077	0.00000000	8.74138700	7.93553100
158.69999075	0.00000000	9.11048200	7.89247000
158.89999074	0.00000000	9.44266700	7.93553100
159.09999073	0.00000000	9.48572700	8.31077700
159.29999072	0.00000000	9.44266700	9.05511800
159.49999071	0.00000000	9.06742000	9.43036400
159.69999070	0.00000000	8.32308000	9.51648500
159.89999068	0.00000000	7.94783400	9.84867000
160.09999067	0.00000000	7.90477300	10.21161000
160.29999066	0.00000000	7.90477300	9.84867000
160.49999065	0.00000000	7.90477300	9.47342500
160.69999064	0.00000000	7.90477300	9.05511800
160.89999062	0.00000000	7.90477300	8.31077700
161.09999061	0.00000000	7.94783400	7.93553100
161.29999060	0.00000000	8.32308000	7.89247000
161.49999059	0.00000000	9.06742000	7.89247000
161.69999058	0.00000000	9.44266700	7.93553100
161.89999056	0.00000000	9.48572700	8.31077700
162.09999055	0.00000000	9.48572700	9.05511800
162.29999054	0.00000000	9.48572700	9.43036400
162.49999053	0.00000000	9.44266700	9.47342500
162.69999052	0.00000000	9.06742000	9.47342500
162.89999051	0.00000000	8.32308000	9.47342500
163.09999049	0.00000000	7.94783400	9.47342500
163.29999048	0.00000000	7.90477300	9.47342500
163.49999047	0.00000000	7.90477300	9.47342500
163.69999046	0.00000000	7.90477300	9.43036400
163.89999045	0.00000000	7.90477300	9.05511800
164.09999043	0.00000000	7.90477300	8.31077700
164.29999042	0.00000000	7.94783400	7.93553100
164.49999041	0.00000000	8.32308000	7.89247000
164.69999040	0.00000000	9.06742000	7.89247000
164.89999039	0.00000000	9.44266700	7.93553100
165.09999037	0.00000000	9.48572700	8.31077700
165.29999036	0.00000000	9.48572700	9.05511800
165.49999035	0.00000000	9.48572700	9.43036400
165.69999034	0.00000000	9.48572700	9.47342500
165.89999033	0.00000000	9.44266700	9.47342500
166.09999032	0.00000000	9.06742000	9.47342500
166.29999030	0.00000000	8.32308000	9.47342500
166.49999029	0.00000000	7.94783400	9.47342500
166.69999028	0.00000000	7.90477300	9.43036400
166.89999027	0.00000000	7.90477300	9.05511800
167.09999026	0.00000000	7.94783400	8.31077700
167.29999024	0.00000000	8.32308000	7.93553100
167.49999023	0.00000000	9.06742000	7.89247000
167.69999022	0.00000000	9.44266700	7.89247000
167.89999021	0.00000000	9.48572700	7.89247000
168.09999020	0.00000000	9.48572700	7.89247000
168.29999018	0.00000000	9.48572700	7.93553100
168.49999017	0.00000000	9.48572700	8.31077700
168.69999016	0.00000000	9.48572700	9.05511800
168.89999015	0.00000000	9.48572700	9.43036400
169.09999014	0.00000000	9.44266700	9.47342500
169.29999013	0.00000000	9.06742000	9.47342500
169.49999011	0.00000000	8.32308000	9.43036400
169.69999010	0.00000000	7.99704600	9.09817800
169.89999009	0.00000000	8.28001900	8.72908400
170.09999008	0.00000000	8.69217500	9.09817800
170.29999007	0.00000000	8.65526600	9.43036400
170.49999005	0.00000000	8.73523500	9.47342500
170.69999004	0.00000000	8.69832600	9.47342500
170.89999003	0.00000000	9.11048200	9.47342500
171.09999002	0.00000000	9.44266700	9.43036400
171.29999001	0.00000000	9.48572700	9.05511800
171.49998999	0.00000000	9.48572700	8.31077700
171.69998998	0.00000000	9.48572700	7.93553100
171.89998997	0.00000000	9.44266700	7.89247000
172.09998996	0.00000000	9.11048200	7.89247000
172.29998995	0.00000000	8.69832600	7.93553100
172.49998994	0.00000000	8.69217500	8.31077700
172.69998992	0.00000000	8.28001900	9.05511800
172.89998991	0.00000000	7.94783400	9.43036400
173.09998990	0.00000000	7.94783400	9.47342500
173.29998989	0.00000000	8.32308000	9.47342500
173.49998988	0.00000000	9.06742000	9.47342500
173.69998986	0.00000000	9.44266700	9.43036400
173.89998985	0.00000000	9.44266700	9.05511800
174.09998984	0.00000000	9.11048200	8.31077700
174.29998983	0.00000000	8.74138700	7.93553100
174.49998982	0.00000000	9.11048200	7.89247000
174.69998980	0.00000000	9.44266700	7.93553100
174.89998979	0.00000000	9.44266700	8.26771600
175.09998978	0.00000000	9.06742000	8.67987200
175.29998977	0.00000000	8.37229300	8.68602300
175.49998976	0.00000000	8.32308000	9.09817800
175.69998975	0.00000000	8.69217500	9.43036400
175.89998973	0.00000000	8.69832600	9.47342500
176.09998972	0.00000000	9.11048200	9.47342500
176.29998971	0.00000000	9.44266700	9.47342500
176.49998970	0.00000000	9.48572700	9.47342500
176.69998969	0.00000000	9.48572700	9.47342500
176.89998967	0.00000000	9.48572700	9.43036400
177.09998966	0.00000000	9.48572700	9.05511800
177.29998965	0.00000000	9.48572700	8.31077700
177.49998964	0.00000000	9.48572700	7.98474400
177.69998963	0.00000000	9.44266700	8.31077700
177.89998961	0.00000000	9.11048200	9.05511800
178.09998960	0.00000000	8.74138700	9.43036400
178.29998959	0.00000000	9.11048200	9.47342500
178.49998958	0.00000000	9.44266700	9.47342500
178.69998957	0.00000000	9.48572700	9.47342500
178.89998956	0.00000000	9.48572700	9.47342500
179.09998954	0.00000000	9.48572700	9.47342500
179.29998953	0.00000000	9.48572700	9.47342500
179.49998952	0.00000000	9.48572700	9.47342500
179.69998951	0.00000000	9.48572700	9.43036400
179.89998950	0.00000000	9.48572700	9.05511800
180.09998948	0.00000000	9.44266700	8.31077700
180.29998947	0.00000000	9.11048200	7.93553100
180.49998946	0.00000000	8.74138700	7.93553100
180.69998945	0.00000000	9.06742000	8.26771600
180.89998944	0.00000000	9.06742000	8.67987200
181.09998942	0.00000000	8.69832600	8.68602300
181.29998941	0.00000000	8.73523500	9.09817800
181.49998940	0.00000000	8.69832600	9.43036400
181.69998939	0.00000000	9.11048200	9.47342500
181.89998938	0.00000000	9.44266700	9.47342500
182.09998937	0.00000000	9.48572700	9.47342500
182.29998935	0.00000000	9.48572700	9.47342500
182.49998934	0.00000000	9.48572700	9.47342500
182.69998933	0.00000000	9.44266700	9.43036400
182.89998932	0.00000000	9.11048200	9.05511800
183.09998931	0.00000000	8.74138700	8.31077700
183.29998929	0.00000000	9.11048200	7.93553100
183.49998928	0.00000000	9.44266700	7.89247000
183.69998927	0.00000000	9.44266700	7.89247000
183.89998926	0.00000000	9.11048200	7.93553100
184.09998925	0.00000000	8.74138700	8.31077700
184.29998923	0.00000000	9.06742000	9.05511800
184.49998922	0.00000000	9.06742000	9.43036400
184.69998921	0.00000000	8.74138700	9.47342500
184.89998920	0.00000000	9.11048200	9.47342500
185.09998919	0.00000000	9.44266700	9.47342500
185.29998918	0.00000000	9.48572700	9.47342500
185.49998916	0.00000000	9.48572700	9.47342500
185.69998915	0.00000000	9.48572700	9.43036400
185.89998914	0.00000000	9.48572700	9.05511800
186.09998913	0.00000000	9.48572700	8.31077700
186.29998912	0.00000000	9.48572700	7.93553100
186.49998910	0.00000000	9.48572700	7.89247000
186.69998909	0.00000000	9.48572700	7.93553100
186.89998908	0.00000000	9.48572700	8.31077700
187.09998907	0.00000000	9.44266700	9.05511800
187.29998906	0.00000000	9.06742000	9.43036400
187.49998904	0.00000000	8.32308000	9.47342500
187.69998903	0.00000000	7.99704600	9.47342500
187.89998902	0.00000000	8.32308000	9.47342500
188.09998901	0.00000000	9.06742000	9.47342500
188.29998900	0.00000000	9.44266700	9.43036400
188.49998899	0.00000000	9.48572700	9.05511800
188.69998897	0.00000000	9.48572700	8.31077700
188.89998896	0.00000000	9.48572700	7.93553100
189.09998895	0.00000000	9.48572700	7.89247000
189.29998894	0.00000000	9.48572700	7.89247000
189.49998893	0.00000000	9.48572700	7.89247000
189.69998891	0.00000000	9.44266700	7.89247000
189.89998890	0.00000000	9.06742000	7.93553100
190.09998889	0.00000000	8.37229300	8.31077700
190.29998888	0.00000000	8.32308000	9.05511800
190.49998887	0.00000000	8.69217500	9.43036400
190.69998885	0.00000000	8.69832600	9.47342500
190.89998884	0.00000000	9.11048200	9.47342500
191.09998883	0.00000000	9.44266700	9.47342500
191.29998882	0.00000000	9.48572700	9.47342500
191.49998881	0.00000000	9.48572700	9.47342500
191.69998880	0.00000000	9.48572700	9.43036400
191.89998878	0.00000000	9.48572700	9.05511800
192.09998877	0.00000000	9.48572700	8.31077700
192.29998876	0.00000000	9.48572700	7.93553100
192.49998875	0.00000000	9.48572700	7.89247000
192.69998874	0.00000000	9.48572700	7.89247000
192.89998872	0.00000000	9.48572700	7.93553100
193.09998871	0.00000000	9.44266700	8.31077700
193.29998870	0.00000000	9.06742000	9.05511800
193.49998869	0.00000000	8.37229300	9.43036400
193.69998868	0.00000000	8.37229300	9.47342500
193.89998866	0.00000000	9.06742000	9.47342500
194.09998865	0.00000000	9.44266700	9.47342500
194.29998864	0.00000000	9.48572700	9.47342500
194.49998863	0.00000000	9.48572700	9.47342500
194.69998862	0.00000000	9.48572700	9.47342500
194.89998861	0.00000000	9.48572700	9.47342500
195.09998859	0.00000000	9.48572700	9.47342500
195.29998858	0.00000000	9.44266700	9.47342500
195.49998857	0.00000000	9.11048200	9.43036400
195.69998856	0.00000000	8.74138700	9.05511800
195.89998855	0.00000000	9.06742000	8.31077700
196.09998853	0.00000000	9.06742000	7.93553100
