Time	Channel A	Channel B	Channel C
(us)	(V)	(mV)	(mV)

-4.49999956	0.00000000	-3.53715500	5.51796200
-4.29999957	0.00000000	-3.20497000	5.53026500
-4.09999958	0.00000000	-3.16190900	5.89320800
-3.89999959	0.00000000	-3.16190900	5.89320800
-3.69999960	0.00000000	-3.16190900	5.53026500
-3.49999962	0.00000000	-3.20497000	5.51796200
-3.29999963	0.00000000	-3.58021600	5.15501900
-3.09999964	0.00000000	-4.27534400	5.15501900
-2.89999965	0.00000000	-4.27534400	5.47490100
-2.69999966	0.00000000	-3.58021600	5.15501900
-2.49999968	0.00000000	-3.20497000	5.19808000
-2.29999969	0.00000000	-3.16190900	5.85014700
-2.09999970	0.00000000	-3.20497000	5.89320800
-1.89999971	0.00000000	-3.53715500	5.53026500
-1.69999972	0.00000000	-3.90625000	5.51796200
-1.49999973	0.00000000	-3.53715500	5.11195900
-1.29999975	0.00000000	-3.20497000	4.82898600
-1.09999976	0.00000000	-3.16190900	5.11195900
-0.89999977	0.00000000	-3.16190900	5.51796200
-0.69999978	0.00000000	-3.16190900	5.48105300
-0.49999979	0.00000000	-3.20497000	5.51796200
-0.29999981	0.31803640	-3.53715500	5.11195900
-0.09999982	0.63668800	-3.90625000	4.77977300
0.10000017	0.95533960	-3.58021600	4.73671200
0.30000016	0.95533960	-3.58021600	4.73671200
0.50000015	0.79601380	-3.90625000	4.73671200
0.70000013	0.31803640	-3.53715500	4.73671200
0.90000012	-0.47736220	-3.20497000	4.73671200
1.10000011	-1.59264300	-3.16190900	4.73671200
1.30000010	-2.38927200	-3.16190900	4.77977300
1.50000009	-2.70792300	-3.16190900	5.15501900
1.70000008	-2.38927200	-3.20497000	5.89320800
1.90000006	-1.27399100	-3.53715500	6.26845500
2.10000005	0.63668800	-3.94931100	6.26845500
2.30000004	2.86724900	-3.91240100	5.89320800
2.50000003	4.61921700	-3.94931100	5.15501900
2.70000002	5.41584600	-3.53715500	4.77977300
2.90000000	4.77854300	-3.25418300	4.73671200
3.09999999	2.70792300	-3.53715500	4.73671200
3.29999998	-0.31803640	-3.94931100	4.73671200
3.49999997	-3.66326300	-3.95546200	4.73671200
3.69999996	-6.53112700	-4.32455700	4.77977300
3.89999994	-7.96444400	-4.27534400	5.15501900
4.09999993	-7.32714100	-3.58021600	5.89320800
4.29999992	-4.77854300	-3.20497000	6.26845500
4.49999991	-0.79601380	-3.16190900	6.31151500
4.69999990	3.50393700	-3.16190900	6.26845500
4.89999989	7.32714100	-3.16190900	5.89320800
5.09999987	9.39837600	-3.16190900	5.15501900
5.29999986	8.92039900	-3.16190900	4.77977300
5.49999985	6.37180100	-3.20497000	4.73671200
5.69999984	2.22994600	-3.53715500	4.73671200
5.89999983	-2.54859700	-3.90625000	4.73671200
6.09999981	-6.84916400	-3.53715500	4.77977300
6.29999980	-9.23905000	-3.20497000	5.15501900
6.49999979	-9.23905000	-3.16190900	5.89320800
6.69999978	-7.00848900	-3.16190900	6.26845500
6.89999977	-3.18590100	-3.16190900	6.31151500
7.09999975	1.27399100	-3.16190900	6.31151500
7.29999974	5.09719500	-3.16190900	6.26845500
7.49999973	7.32714100	-3.20497000	5.89320800
7.69999972	7.64579200	-3.53715500	5.15501900
7.89999971	6.05315000	-3.94931100	4.77977300
8.09999970	3.18590100	-3.91240100	4.73671200
8.29999968	-0.15871060	-3.94931100	4.73671200
8.49999967	-3.02657500	-3.53715500	4.73671200
8.69999966	-4.77854300	-3.20497000	4.77977300
8.89999965	-5.09719500	-3.16190900	5.15501900
9.09999964	-4.30056600	-3.16190900	5.89320800
9.29999962	-2.54859700	-3.16190900	6.26845500
9.49999961	-0.47736220	-3.16190900	6.31151500
9.69999960	1.11466500	-3.16190900	6.26845500
9.89999959	2.22994600	-3.16190900	5.89320800
10.09999958	2.54859700	-3.16190900	5.15501900
10.29999956	2.22994600	-3.16190900	4.77977300
10.49999955	1.43331700	-3.16190900	4.73671200
10.69999954	0.47736220	-3.16190900	4.73671200
10.89999953	-0.31803640	-3.16190900	4.73671200
11.09999952	-0.79601380	-3.16190900	4.73671200
11.29999951	-0.95533960	-3.16190900	4.73671200
11.49999949	-0.95533960	-3.16190900	4.73671200
11.69999948	-0.63668800	-3.16190900	4.73671200
11.89999947	-0.31803640	-3.16190900	4.73671200
12.09999946	-0.15871060	-3.16190900	4.73671200
12.29999945	-0.15871060	-3.20497000	4.73671200
12.49999943	0.00000000	-3.53715500	4.73671200
12.69999942	0.00000000	-3.90625000	4.73671200
12.89999941	0.00000000	-3.53715500	4.73671200
13.09999940	0.00000000	-3.20497000	4.77977300
13.29999939	0.00000000	-3.16190900	5.11195900
13.49999937	0.00000000	-3.16190900	5.47490100
13.69999936	0.00000000	-3.16190900	5.11195900
13.89999935	0.00000000	-3.16190900	4.77977300
14.09999934	-0.15871060	-3.16190900	4.77977300
14.29999933	-0.15871060	-3.16190900	5.15501900
14.49999932	-0.15871060	-3.16190900	5.85014700
14.69999930	-0.15871060	-3.16190900	5.89320800
14.89999929	0.00000000	-3.16190900	5.53026500
15.09999928	0.00000000	-3.16190900	5.51796200
15.29999927	0.00000000	-3.20497000	5.11195900
15.49999926	0.00000000	-3.53715500	4.82898600
15.69999924	0.00000000	-3.90625000	5.11195900
15.89999923	0.00000000	-3.58021600	5.51796200
16.09999922	0.00000000	-3.58021600	5.53026500
16.29999921	0.00000000	-3.90625000	5.89320800
16.49999920	0.00000000	-3.53715500	5.85014700
16.69999919	-0.15871060	-3.20497000	5.19808000
16.89999917	-0.15871060	-3.11884800	5.15501900
17.09999916	0.00000000	-2.74360200	5.51796200
17.29999915	0.00000000	-1.99926200	5.48105300
17.49999914	0.00000000	-1.62401600	5.51796200
17.69999913	0.00000000	-1.62401600	5.15501900
17.89999911	0.00000000	-2.04847400	5.15501900
18.09999910	0.00000000	-3.20497000	5.51796200
18.29999909	0.00000000	-4.74286400	5.48105300
18.49999908	0.00000000	-6.32381900	5.56717500
18.69999907	0.00000000	-7.86171200	5.53026500
18.89999905	0.00000000	-8.97514600	5.89320800
19.09999904	0.00000000	-8.93208600	5.85014700
19.29999903	0.00000000	-7.39419200	5.15501900
19.49999902	0.00000000	-4.65059000	4.77977300
19.69999901	0.00000000	-1.16264800	4.77977300
19.89999900	0.00000000	2.74360200	5.11195900
20.09999898	0.00000000	6.14542300	5.47490100
20.29999897	0.00000000	8.04626000	5.11195900
20.49999896	0.00000000	7.21579700	4.77977300
20.69999895	0.00000000	3.72170300	4.77977300
20.89999894	0.00000000	-2.17765700	5.11195900
21.09999892	0.00000000	-9.86097400	5.47490100
21.29999891	0.00000000	-17.53199000	5.11195900
21.49999890	0.00000000	-22.51476000	4.77977300
21.69999889	0.00000000	-23.67741000	4.73671200
21.89999888	0.00000000	-20.47244000	4.73671200
22.09999886	0.00000000	-12.65379000	4.77977300
22.29999885	0.00000000	-1.07037400	5.15501900
22.49999884	0.00000000	11.62648000	5.89320800
22.69999883	0.00000000	22.05339000	6.26845500
22.89999882	0.00000000	27.77436000	6.31151500
23.09999881	0.00000000	26.88853000	6.35457700
23.29999879	0.00000000	18.33169000	6.72982200
23.49999878	0.00000000	3.63558100	7.42495000
23.69999877	0.00000000	-14.13632000	7.42495000
23.89999876	0.00000000	-31.12082000	6.72982200
24.09999875	0.00000000	-42.98720000	6.31151500
24.29999873	0.00000000	-46.43208000	5.89320800
24.49999872	0.00000000	-39.78223000	5.11195900
24.69999871	0.00000000	-24.32948000	4.31840500
24.89999870	0.00000000	-3.02657500	3.11269700
25.09999869	0.00000000	19.30979000	1.62401600
25.29999867	0.00000000	37.45078000	0.46136810
25.49999866	0.00000000	46.67199000	0.13533460
25.69999865	0.00000000	44.71579000	0.97194880
25.89999864	0.00000000	31.54527000	3.66633800
26.09999863	0.00000000	9.91633800	7.51722400
26.29999862	0.00000000	-15.16363000	11.38041000
26.49999860	0.00000000	-37.96136000	14.85605000
26.69999859	0.00000000	-52.99581000	16.71998000
26.89999858	0.00000000	-56.85285000	16.30167000
27.09999857	0.00000000	-48.38213000	13.14591000
27.29999856	0.00000000	-29.91511000	7.33882900
27.49999854	0.00000000	-6.32381900	0.00000000
27.69999853	0.00000000	17.31053000	-7.33882900
27.89999852	0.00000000	36.20201000	-13.05364000
28.09999851	0.00000000	45.87844000	-15.32972000
28.29999850	0.00000000	44.01451000	-12.96752000
28.49999848	0.00000000	32.10507000	-6.36687900
28.69999847	0.00000000	13.12131000	3.75246000
28.89999846	0.00000000	-8.83981200	15.69882000
29.09999845	0.00000000	-28.61097000	26.84547000
29.29999844	0.00000000	-41.78149000	34.09818000
29.49999843	0.00000000	-46.51821000	35.21161000
29.69999841	0.00000000	-41.87376000	29.45374000
29.89999840	0.00000000	-29.58292000	18.21481000
30.09999839	0.00000000	-12.55536000	3.85703700
30.29999838	0.00000000	5.21653500	-11.56496000
30.49999837	0.00000000	19.96186000	-24.24951000
30.69999835	0.00000000	28.89395000	-30.80709000
30.89999834	0.00000000	30.51796000	-30.01353000
31.09999833	0.00000000	25.12303000	-21.46899000
31.29999832	0.00000000	14.32702000	-6.78518600
31.49999831	0.00000000	0.41830710	10.96211000
31.69999829	0.00000000	-13.12131000	27.96506000
31.89999828	0.00000000	-23.67741000	40.32357000
32.09999827	0.00000000	-29.82283000	45.71235000
32.29999826	0.00000000	-30.23499000	42.59965000
32.49999825	0.00000000	-24.51402000	31.45300000
32.69999824	0.00000000	-15.25591000	15.23130000
32.89999822	0.00000000	-4.36761800	-2.60211600
33.09999821	0.00000000	6.42224400	-18.81767000
33.29999820	0.00000000	14.14862000	-30.01353000
33.49999819	0.00000000	17.31053000	-33.50147000
33.69999818	0.00000000	15.77264000	-28.90010000
33.89999816	0.00000000	10.00246000	-17.28592000
34.09999815	0.00000000	1.53789400	-1.07037400
34.29999814	0.00000000	-7.35113100	16.25861000
34.49999813	0.00000000	-14.65305000	30.56717000
34.69999812	0.00000000	-18.55930000	38.74877000
34.89999810	0.00000000	-18.19021000	39.90526000
35.09999809	0.00000000	-14.41314000	33.72293000
35.29999808	0.00000000	-8.23695900	21.41363000
35.49999807	0.00000000	-1.71628900	6.36072800
35.69999806	0.00000000	3.72170300	-8.32308000
35.89999805	0.00000000	6.79749000	-19.46973000
36.09999803	0.00000000	6.84055100	-24.11417000
36.29999802	0.00000000	4.14616100	-21.46899000
36.49999801	0.00000000	-0.46751960	-12.63533000
36.69999800	0.00000000	-5.85629900	0.04306102
36.89999799	0.00000000	-10.42077000	13.10285000
37.09999797	0.00000000	-12.78912000	23.09301000
37.29999796	0.00000000	-12.42003000	27.41142000
37.49999795	0.00000000	-10.09473000	25.51058000
37.69999794	0.00000000	-5.81323800	18.62697000
37.89999793	0.00000000	-0.51058070	8.26771600
38.09999791	0.00000000	3.72170300	-2.04847400
38.29999790	0.00000000	5.72711600	-9.34424200
38.49999789	0.00000000	5.72711600	-11.66339000
38.69999788	0.00000000	3.77091500	-8.23080600
38.89999787	0.00000000	-0.04306102	-0.60285430
39.09999786	0.00000000	-4.27534400	8.96284400
39.29999784	0.00000000	-7.81250000	17.37820000
39.49999783	0.00000000	-10.55610000	22.02264000
39.69999782	0.00000000	-12.09400000	21.97957000
39.89999781	0.00000000	-12.05093000	16.95374000
40.09999780	0.00000000	-10.13779000	7.80634800
40.29999778	0.00000000	-6.65600300	-2.14074800
40.49999777	0.00000000	-2.78666300	-9.84867000
40.69999776	0.00000000	1.11343500	-13.66265000
40.89999775	0.00000000	4.18922200	-12.12475000
41.09999774	0.00000000	5.77017700	-5.62253900
41.29999772	0.00000000	5.77017700	3.62327700
41.49999771	0.00000000	4.18922200	13.61343000
41.69999770	0.00000000	1.11343500	21.64739000
41.89999769	0.00000000	-2.74360200	25.13533000
42.09999768	0.00000000	-6.23154500	23.64665000
42.29999767	0.00000000	-8.97514600	17.83957000
42.49999765	0.00000000	-10.55610000	9.05511800
42.69999764	0.00000000	-10.93135000	-0.14148620
42.89999763	0.00000000	-10.13779000	-6.73597400
43.09999762	0.00000000	-7.86171200	-9.89788300
43.29999761	0.00000000	-5.16117100	-9.52263600
43.49999759	0.00000000	-2.78666300	-5.67175200
43.69999758	0.00000000	-0.46751960	0.46751960
43.89999757	0.00000000	1.07037400	7.38188900
44.09999756	0.00000000	1.48868100	13.14591000
44.29999755	0.00000000	1.16264800	16.25861000
44.49999753	0.00000000	0.37524600	16.35089000
44.69999752	0.00000000	-0.33218500	14.07480000
44.89999751	0.00000000	-0.78740150	10.58686000
45.09999750	0.00000000	-0.83661410	6.35457700
45.29999749	0.00000000	-1.67322800	2.50369100
45.49999748	0.00000000	-3.20497000	0.17839570
45.69999746	0.00000000	-5.21038300	-0.65206690
45.89999745	0.00000000	-7.90477300	0.13533460
46.09999744	0.00000000	-10.59916000	1.99311000
46.29999743	0.00000000	-12.51230000	4.36146600
46.49999742	0.00000000	-13.20743000	6.64370100
46.69999740	0.00000000	-11.58341000	8.63681000
46.89999739	0.00000000	-7.35113100	9.75639700
47.09999738	0.00000000	-1.58095500	10.16855000
47.29999737	0.00000000	4.23228400	9.38115100
47.49999736	0.00000000	8.88902600	7.84940900
47.69999734	0.00000000	11.58341000	5.89320800
47.89999733	0.00000000	11.49114000	3.57406500
48.09999732	0.00000000	7.95398600	1.66707700
48.29999731	0.00000000	1.02731300	0.51058070
48.49999730	0.00000000	-7.43725300	0.55364170
48.69999729	0.00000000	-15.16363000	2.08538400
48.89999727	0.00000000	-20.55856000	4.73671200
49.09999726	0.00000000	-22.05339000	7.47416300
49.29999725	0.00000000	-18.97761000	9.84867000
49.49999724	0.00000000	-12.00172000	12.11860000
49.69999723	0.00000000	-2.78666300	13.18898000
49.89999721	0.00000000	6.46530500	12.03248000
50.09999720	0.00000000	13.02903000	9.00590400
50.29999719	0.00000000	15.72958000	5.15501900
50.49999718	0.00000000	13.77338000	1.66707700
50.69999717	0.00000000	7.25885800	-1.07037400
50.89999715	0.00000000	-1.58095500	-2.55905500
51.09999714	0.00000000	-10.46998000	-2.14074800
51.29999713	0.00000000	-17.39665000	0.55364170
51.49999712	0.00000000	-20.47244000	4.73671200
51.69999711	0.00000000	-18.93455000	9.00590400
51.89999710	0.00000000	-13.20743000	12.49385000
52.09999708	0.00000000	-5.16117100	14.76993000
52.29999707	0.00000000	2.56520700	14.76993000
52.49999706	0.00000000	8.32923100	12.45079000
52.69999705	0.00000000	10.65453000	8.63681000
52.89999704	0.00000000	8.75369100	4.04158400
53.09999702	0.00000000	3.81397600	0.59670270
53.29999701	0.00000000	-2.74360200	-1.02116100
53.49999700	0.00000000	-8.88902600	-1.02116100
53.69999699	0.00000000	-13.16437000	0.51058070
53.89999698	0.00000000	-14.65305000	3.19881900
54.09999696	0.00000000	-12.74606000	6.22539300
54.29999695	0.00000000	-7.76943800	8.54453700
54.49999694	0.00000000	-1.67322800	9.33809000
54.69999693	0.00000000	3.72170300	8.96284400
54.89999692	0.00000000	6.79749000	7.43110200
55.09999691	0.00000000	6.84055100	5.19808000
55.29999689	0.00000000	4.14616100	3.66633800
55.49999688	0.00000000	-0.46751960	3.24803100
55.69999687	0.00000000	-5.81323800	3.66633800
55.89999686	0.00000000	-10.04552000	5.19808000
56.09999685	0.00000000	-12.00172000	7.47416300
56.29999683	0.00000000	-11.67569000	9.33809000
56.49999682	0.00000000	-9.30733200	10.07628000
56.69999681	0.00000000	-5.48720400	8.91978400
56.89999680	0.00000000	-0.88582670	6.26845500
57.09999679	0.00000000	2.56520700	3.15575800
57.29999677	0.00000000	4.18922200	0.04306102
57.49999676	0.00000000	4.18922200	-2.55905500
57.69999675	0.00000000	2.60826800	-3.25418300
57.89999674	0.00000000	-0.41830710	-0.93503930
58.09999673	0.00000000	-3.85703700	3.62327700
58.29999672	0.00000000	-6.18848400	9.05511800
58.49999670	0.00000000	-7.39419200	14.07480000
58.69999669	0.00000000	-7.39419200	17.83957000
58.89999668	0.00000000	-6.28075700	18.57775000
59.09999667	0.00000000	-4.74286400	15.51427000
59.29999666	0.00000000	-3.16190900	10.11934000
59.49999664	0.00000000	-1.62401600	3.15575800
59.69999663	0.00000000	-0.46751960	-3.72170300
59.89999662	0.00000000	-0.13533460	-8.36614100
60.09999661	0.00000000	-0.83661410	-9.85482200
60.29999660	0.00000000	-2.36835600	-7.52337600
60.49999658	0.00000000	-3.49409400	-1.35334600
60.69999657	0.00000000	-4.27534400	6.64370100
60.89999656	0.00000000	-4.27534400	14.39468000
61.09999655	0.00000000	-3.53715500	19.78961000
61.29999654	0.00000000	-2.78666300	22.10876000
61.49999653	0.00000000	-1.99926200	20.48474000
61.69999651	0.00000000	-1.67322800	14.76993000
61.89999650	0.00000000	-1.99926200	6.68676100
62.09999649	0.00000000	-2.82972400	-1.39640700
62.29999648	0.00000000	-3.99852300	-7.99089500
62.49999647	0.00000000	-5.90551100	-11.42962000
62.69999645	0.00000000	-7.35113100	-11.06053000
62.89999644	0.00000000	-7.39419200	-6.78518600
63.09999643	0.00000000	-6.23154500	0.51058070
63.29999642	0.00000000	-4.32455700	8.96284400
63.49999641	0.00000000	-1.99926200	16.25861000
63.69999639	0.00000000	-0.04306102	20.57702000
63.89999638	0.00000000	1.44562000	21.37057000
64.09999637	0.00000000	1.81471400	19.04527000
64.29999636	0.00000000	0.33218500	13.65650000
64.49999635	0.00000000	-1.58095500	6.77903500
64.69999634	0.00000000	-3.58021600	0.55364170
64.89999632	0.00000000	-5.85629900	-4.14000900
65.09999631	0.00000000	-7.39419200	-6.82824800
65.29999630	0.00000000	-7.76943800	-6.82824800
65.49999629	0.00000000	-7.01894700	-4.18307100
65.69999628	0.00000000	-5.07504900	0.04306102
65.89999626	0.00000000	-2.78666300	4.69365100
66.09999625	0.00000000	-0.51058070	8.96284400
66.29999624	0.00000000	0.60900590	12.11860000
66.49999623	0.00000000	-0.09227362	14.07480000
66.69999622	0.00000000	-1.58095500	14.85605000
66.89999620	0.00000000	-3.20497000	14.07480000
67.09999619	0.00000000	-5.07504900	12.16781000
67.29999618	0.00000000	-6.60063900	9.42421200
67.49999617	0.00000000	-6.56373000	6.31151500
67.69999616	0.00000000	-5.43799200	3.15575800
67.89999615	0.00000000	-3.06963600	0.04306102
68.09999613	0.00000000	-0.09227362	-2.60211600
68.29999612	0.00000000	2.23302100	-3.76476400
68.49999611	0.00000000	2.98351400	-3.02042300
68.69999610	0.00000000	2.18996000	-1.11343500
68.89999609	0.00000000	-0.55364170	1.66707700
69.09999607	0.00000000	-4.74286400	5.19808000
69.29999606	0.00000000	-8.93208600	9.47342500
69.49999605	0.00000000	-11.67569000	13.65650000
69.69999604	0.00000000	-12.46924000	16.35089000
69.89999603	0.00000000	-11.62648000	16.71998000
70.09999601	0.00000000	-8.46456700	14.81299000
70.29999600	0.00000000	-3.11884800	10.91289000
70.49999599	0.00000000	2.65132900	5.89320800
70.69999598	0.00000000	7.25885800	0.51058070
70.89999597	0.00000000	9.58415200	-3.71555100
71.09999596	0.00000000	8.79675100	-5.67175200
71.29999594	0.00000000	5.35187000	-5.29650500
71.49999593	0.00000000	-0.09227362	-2.60211600
71.69999592	0.00000000	-6.28075700	1.62401600
71.89999591	0.00000000	-12.05093000	6.26845500
72.09999590	0.00000000	-15.85876000	10.49459000
72.29999588	0.00000000	-16.28322000	13.18898000
72.49999587	0.00000000	-13.63189000	13.61343000
72.69999586	0.00000000	-8.97514600	12.16781000
72.89999585	0.00000000	-3.16190900	9.79945900
73.09999584	0.00000000	2.60826800	7.09891700
73.29999582	0.00000000	6.88361200	4.03543200
73.49999581	0.00000000	8.83981200	2.17150600
73.69999580	0.00000000	8.42150500	2.08538400
73.89999579	0.00000000	5.35187000	3.19881900
74.09999578	0.00000000	0.37524600	4.68750000
74.29999577	0.00000000	-4.65059000	5.85014700
74.49999575	0.00000000	-8.93208600	6.21924200
74.69999574	0.00000000	-11.62648000	5.85014700
74.89999573	0.00000000	-12.05093000	4.68750000
75.09999572	0.00000000	-10.55610000	3.19881900
75.29999571	0.00000000	-7.81250000	2.08538400
75.49999569	0.00000000	-4.36761800	2.12844500
75.69999568	0.00000000	-0.88582670	3.66633800
75.89999567	0.00000000	1.40255900	6.36072800
76.09999566	0.00000000	2.23302100	9.42421200
76.29999565	0.00000000	1.48868100	12.11860000
76.49999563	0.00000000	0.00000000	13.61343000
76.69999562	0.00000000	-1.53789400	13.18898000
76.89999561	0.00000000	-2.74360200	10.49459000
77.09999560	0.00000000	-3.49409400	6.26845500
77.29999559	0.00000000	-3.90625000	1.62401600
77.49999558	0.00000000	-3.53715500	-2.60211600
77.69999556	0.00000000	-3.20497000	-5.29650500
77.89999555	0.00000000	-3.20497000	-5.67175200
78.09999554	0.00000000	-3.58021600	-3.71555100
78.29999553	0.00000000	-4.36761800	0.55364170
78.49999552	0.00000000	-5.11811000	6.31151500
78.69999550	0.00000000	-5.85629900	12.07554000
78.89999549	0.00000000	-5.81323800	16.30167000
79.09999548	0.00000000	-4.65059000	17.88263000
79.29999547	0.00000000	-2.74360200	16.76919000
79.49999546	0.00000000	-0.41830710	13.65650000
79.69999544	0.00000000	1.44562000	9.00590400
79.89999543	0.00000000	2.23302100	3.62327700
80.09999542	0.00000000	1.48868100	-1.02116100
80.29999541	0.00000000	-0.04306102	-4.13385800
80.49999540	0.00000000	-2.04847400	-5.29650500
80.69999539	0.00000000	-4.74286400	-4.13385800
80.89999537	0.00000000	-7.39419200	-1.11343500
81.09999536	0.00000000	-8.93208600	2.78051200
81.29999535	0.00000000	-8.93208600	6.64370100
81.49999534	0.00000000	-7.39419200	10.16855000
81.69999533	0.00000000	-4.74286400	12.49385000
81.89999531	0.00000000	-2.04847400	13.69956000
82.09999530	0.00000000	-0.09227362	13.69956000
82.29999529	0.00000000	1.11343500	12.53691000
82.49999528	0.00000000	1.44562000	10.53765000
82.69999527	0.00000000	0.69512790	7.47416300
82.89999525	0.00000000	-1.20570900	3.99237200
83.09999524	0.00000000	-3.11884800	1.24877000
83.29999523	0.00000000	-4.69980300	-1.11343500
83.49999522	0.00000000	-5.85629900	-2.60211600
83.69999521	0.00000000	-6.23154500	-2.60211600
83.89999520	0.00000000	-5.85629900	-1.07037400
84.09999518	0.00000000	-4.74286400	1.66707700
84.29999517	0.00000000	-3.62942900	5.15501900
84.49999516	0.00000000	-3.20497000	9.05511800
84.69999515	0.00000000	-3.16190900	12.49385000
84.89999514	0.00000000	-3.16190900	14.81299000
85.09999512	0.00000000	-3.16190900	15.18824000
85.29999511	0.00000000	-3.11884800	13.65650000
85.49999510	0.00000000	-2.74360200	10.49459000
85.69999509	0.00000000	-1.99926200	5.89320800
85.89999508	0.00000000	-1.62401600	0.92888770
86.09999506	0.00000000	-1.58095500	-2.55905500
86.29999505	0.00000000	-1.62401600	-4.14000900
86.49999504	0.00000000	-2.04847400	-3.76476400
86.69999503	0.00000000	-3.20497000	-1.39640700
86.89999502	0.00000000	-4.69980300	2.46063000
87.09999501	0.00000000	-5.85629900	7.47416300
87.29999499	0.00000000	-6.23154500	12.03248000
87.49999498	0.00000000	-5.90551100	14.76993000
87.69999497	0.00000000	-5.07504900	15.14518000
87.89999496	0.00000000	-3.90625000	13.23819000
88.09999495	0.00000000	-1.95620100	9.38115100
88.29999493	0.00000000	-0.09227362	4.77977300
88.49999492	0.00000000	1.07037400	0.51058070
88.69999491	0.00000000	1.07037400	-2.55905500
88.89999490	0.00000000	-0.04306102	-3.67249000
89.09999489	0.00000000	-1.58095500	-2.14074800
89.29999487	0.00000000	-3.16190900	1.66707700
89.49999486	0.00000000	-4.69980300	6.26845500
89.69999485	0.00000000	-5.85629900	10.53765000
89.89999484	0.00000000	-6.23154500	13.60728000
90.09999483	0.00000000	-5.85629900	14.72687000
90.29999482	0.00000000	-4.69980300	13.18898000
90.49999480	0.00000000	-3.20497000	9.38115100
90.69999479	0.00000000	-1.99926200	4.77977300
90.89999478	0.00000000	-1.20570900	0.55364170
91.09999477	0.00000000	-0.46751960	-2.14074800
91.29999476	0.00000000	-0.46751960	-2.50984200
91.49999474	0.00000000	-1.20570900	-0.60285430
91.69999473	0.00000000	-1.95620100	3.24803100
91.89999472	0.00000000	-2.74360200	7.80019600
92.09999471	0.00000000	-3.11884800	11.65723000
92.29999470	0.00000000	-3.16190900	13.61343000
92.49999468	0.00000000	-3.16190900	13.61343000
92.69999467	0.00000000	-3.20497000	11.65723000
92.89999466	0.00000000	-3.58021600	7.80019600
93.09999465	0.00000000	-4.36761800	3.24803100
93.29999464	0.00000000	-5.11811000	-0.60285430
93.49999463	0.00000000	-5.85629900	-2.50984200
93.69999461	0.00000000	-5.81323800	-2.14074800
93.89999460	0.00000000	-4.69980300	0.55364170
94.09999459	0.00000000	-3.16190900	4.73671200
94.29999458	0.00000000	-1.58095500	8.96284400
94.49999457	0.00000000	0.00000000	12.03248000
94.69999455	0.00000000	1.53789400	13.18898000
94.89999454	0.00000000	2.60826800	12.03248000
95.09999453	0.00000000	2.18996000	9.00590400
95.29999452	0.00000000	-0.09227362	5.15501900
95.49999451	0.00000000	-3.11884800	1.71013800
95.69999449	0.00000000	-5.90551100	-0.64591530
95.89999448	0.00000000	-8.18774500	-1.39640700
96.09999447	0.00000000	-9.76254800	-0.64591530
96.29999446	0.00000000	-9.72563900	1.71013800
96.49999445	0.00000000	-8.55684000	5.11195900
96.69999444	0.00000000	-5.81323800	8.54453700
96.89999442	0.00000000	-1.99926200	10.49459000
97.09999441	0.00000000	1.48868100	10.91289000
97.29999440	0.00000000	4.23228400	10.11934000
97.49999439	0.00000000	5.72711600	7.84940900
97.69999438	0.00000000	5.35187000	5.19808000
97.89999436	0.00000000	3.02657500	3.24803100
98.09999435	0.00000000	-0.41830710	2.04232300
98.29999434	0.00000000	-4.32455700	1.71013800
98.49999433	0.00000000	-7.81250000	2.41141700
98.69999432	0.00000000	-10.51304000	3.94315900
98.89999430	0.00000000	-11.62648000	5.11195900
99.09999429	0.00000000	-10.51304000	6.26845500
99.29999428	0.00000000	-7.81250000	7.00664300
99.49999427	0.00000000	-4.32455700	6.68676100
99.69999426	0.00000000	-0.46751960	6.35457700
99.89999425	0.00000000	2.60826800	6.31151500
100.09999423	0.00000000	4.23228400	6.35457700
100.29999422	0.00000000	4.60752900	6.72982200
100.49999421	0.00000000	3.81397600	7.47416300
100.69999420	0.00000000	1.48868100	7.80019600
100.89999419	0.00000000	-1.58095500	7.42495000
101.09999417	0.00000000	-4.69980300	6.26845500
101.29999416	0.00000000	-7.39419200	4.73671200
101.49999415	0.00000000	-8.97514600	3.19881900
101.69999414	0.00000000	-9.35039300	2.04232300
101.89999413	0.00000000	-8.59990100	1.66707700
102.09999411	0.00000000	-6.65600300	2.04232300
102.29999410	0.00000000	-4.36761800	3.24803100
102.49999409	0.00000000	-1.99926200	5.19808000
102.69999408	0.00000000	-0.04306102	7.89247000
102.89999407	0.00000000	1.48868100	10.49459000
103.09999406	0.00000000	2.23302100	11.65723000
103.29999404	0.00000000	1.48868100	10.96211000
103.49999403	0.00000000	-0.04306102	9.38115100
103.69999402	0.00000000	-1.99926200	7.01279500
103.89999401	0.00000000	-4.32455700	3.62327700
104.09999400	0.00000000	-6.18848400	0.92888770
104.29999398	0.00000000	-7.01894700	-0.28297240
104.49999397	0.00000000	-6.65600300	-0.64591530
104.69999396	0.00000000	-5.90551100	0.55364170
104.89999395	0.00000000	-4.69980300	3.19881900
105.09999394	0.00000000	-3.16190900	6.26845500
105.29999392	0.00000000	-1.62401600	8.96284400
105.49999391	0.00000000	-0.46751960	10.49459000
105.69999390	0.00000000	-0.09227362	10.53765000
105.89999389	0.00000000	-0.46751960	9.38115100
106.09999388	0.00000000	-1.62401600	7.47416300
106.29999387	0.00000000	-3.11884800	5.15501900
106.49999385	0.00000000	-4.27534400	3.24803100
106.69999384	0.00000000	-4.69980300	2.08538400
106.89999383	0.00000000	-4.69980300	2.08538400
107.09999382	0.00000000	-4.27534400	3.24803100
107.29999381	0.00000000	-3.16190900	5.11195900
107.49999379	0.00000000	-2.04847400	7.01279500
107.69999378	0.00000000	-1.62401600	7.80019600
107.89999377	0.00000000	-1.58095500	7.84940900
108.09999376	0.00000000	-1.62401600	7.42495000
108.29999375	0.00000000	-2.04847400	6.26845500
108.49999374	0.00000000	-3.20497000	4.77977300
108.69999372	0.00000000	-4.65059000	3.62327700
108.89999371	0.00000000	-5.43799200	3.19881900
109.09999370	0.00000000	-5.07504900	3.19881900
109.29999369	0.00000000	-4.32455700	3.62327700
109.49999368	0.00000000	-3.11884800	4.77977300
109.69999366	0.00000000	-1.62401600	6.31151500
109.89999365	0.00000000	-0.46751960	7.84940900
110.09999364	0.00000000	-0.09227362	8.96284400
110.29999363	0.00000000	-0.41830710	8.96284400
110.49999362	0.00000000	-1.20570900	7.84940900
110.69999360	0.00000000	-1.99926200	6.31151500
110.89999359	0.00000000	-3.16190900	4.77977300
111.09999358	0.00000000	-4.32455700	3.62327700
111.29999357	0.00000000	-5.07504900	3.19881900
111.49999356	0.00000000	-5.43799200	3.19881900
111.69999355	0.00000000	-4.69980300	3.57406500
111.89999353	0.00000000	-3.58021600	4.36146600
112.09999352	0.00000000	-2.78666300	5.15501900
112.29999351	0.00000000	-1.99926200	6.31151500
112.49999350	0.00000000	-1.62401600	7.42495000
112.69999349	0.00000000	-1.62401600	7.80019600
112.89999347	0.00000000	-1.99926200	7.47416300
113.09999346	0.00000000	-2.74360200	6.72982200
113.29999345	0.00000000	-3.11884800	6.35457700
113.49999344	0.00000000	-3.16190900	6.26845500
113.69999343	0.00000000	-3.16190900	5.89320800
113.89999341	0.00000000	-3.16190900	5.15501900
114.09999340	0.00000000	-3.16190900	4.77977300
114.29999339	0.00000000	-3.16190900	4.73671200
114.49999338	0.00000000	-3.11884800	4.73671200
114.69999337	0.00000000	-2.74360200	4.73671200
114.89999336	0.00000000	-1.99926200	4.73671200
115.09999334	0.00000000	-1.62401600	4.73671200
115.29999333	0.00000000	-1.62401600	4.73671200
115.49999332	0.00000000	-1.99926200	4.73671200
115.69999331	0.00000000	-2.74360200	4.77977300
115.89999330	0.00000000	-3.11884800	5.19808000
116.09999328	0.00000000	-3.20497000	6.31151500
116.29999327	0.00000000	-3.53715500	7.42495000
116.49999326	0.00000000	-3.94931100	7.84940900
116.69999325	0.00000000	-3.91240100	7.84940900
116.89999324	0.00000000	-3.94931100	7.47416300
117.09999322	0.00000000	-3.49409400	6.68676100
117.29999321	0.00000000	-2.78666300	5.93626900
117.49999320	0.00000000	-1.95620100	5.11195900
117.69999319	0.00000000	-1.20570900	4.36146600
117.89999318	0.00000000	-0.41830710	3.62327700
118.09999317	0.00000000	-0.09227362	3.62327700
118.29999315	0.00000000	-0.46751960	4.31840500
118.49999314	0.00000000	-1.58095500	4.73671200
118.69999313	0.00000000	-2.74360200	5.15501900
118.89999312	0.00000000	-3.58021600	5.89320800
119.09999311	0.00000000	-4.74286400	6.31151500
119.29999309	0.00000000	-5.81323800	6.72982200
119.49999308	0.00000000	-5.85629900	7.47416300
119.69999307	0.00000000	-5.07504900	7.80019600
119.89999306	0.00000000	-3.94931100	7.47416300
120.09999305	0.00000000	-2.37450800	6.72982200
120.29999303	0.00000000	-1.24877000	6.31151500
120.49999302	0.00000000	-0.41830710	5.93626900
120.69999301	0.00000000	-0.04306102	5.53026500
120.89999300	0.00000000	-0.04306102	5.51796200
121.09999299	0.00000000	-0.46751960	5.11195900
121.29999298	0.00000000	-1.62401600	4.77977300
121.49999296	0.00000000	-3.11884800	4.73671200
121.69999295	0.00000000	-4.32455700	4.73671200
121.89999294	0.00000000	-5.11811000	4.77977300
122.09999293	0.00000000	-5.85629900	5.15501900
122.29999292	0.00000000	-5.85629900	5.93626900
122.49999290	0.00000000	-5.11811000	6.64370100
122.69999289	0.00000000	-4.32455700	7.05585600
122.89999288	0.00000000	-3.16190900	6.68676100
123.09999287	0.00000000	-1.99926200	6.35457700
123.29999286	0.00000000	-1.20570900	6.31151500
123.49999284	0.00000000	-0.41830710	6.26845500
123.69999283	0.00000000	-0.09227362	5.89320800
123.89999282	0.00000000	-0.41830710	5.15501900
124.09999281	0.00000000	-1.20570900	4.77977300
124.29999280	0.00000000	-1.95620100	4.73671200
124.49999279	0.00000000	-2.78666300	4.73671200
124.69999277	0.00000000	-3.53715500	4.73671200
124.89999276	0.00000000	-4.32455700	4.77977300
125.09999275	0.00000000	-4.69980300	5.15501900
125.29999274	0.00000000	-4.69980300	5.89320800
125.49999273	0.00000000	-4.32455700	6.26845500
125.69999271	0.00000000	-3.58021600	6.31151500
125.89999270	0.00000000	-3.16190900	6.35457700
126.09999269	0.00000000	-2.69439000	6.68676100
126.29999268	0.00000000	-1.58095500	7.05585600
126.49999267	0.00000000	-0.51058070	6.68676100
126.69999265	0.00000000	-0.46751960	6.31151500
126.89999264	0.00000000	-1.20570900	5.89320800
127.09999263	0.00000000	-1.95620100	5.15501900
127.29999262	0.00000000	-2.78666300	4.77977300
127.49999261	0.00000000	-3.53715500	4.73671200
127.69999260	0.00000000	-4.32455700	4.73671200
127.89999258	0.00000000	-4.69980300	4.73671200
128.09999257	0.00000000	-4.69980300	4.77977300
128.29999256	0.00000000	-4.32455700	5.15501900
128.49999255	0.00000000	-3.53715500	5.89320800
128.69999254	0.00000000	-2.74360200	6.26845500
128.89999252	0.00000000	-1.58095500	6.31151500
129.09999251	0.00000000	-0.51058070	6.31151500
129.29999250	0.00000000	-0.46751960	6.26845500
129.49999249	0.00000000	-1.20570900	5.89320800
129.69999248	0.00000000	-1.99926200	5.15501900
129.89999246	0.00000000	-3.16190900	4.77977300
130.09999245	0.00000000	-4.27534400	4.73671200
130.29999244	0.00000000	-4.69980300	4.77977300
130.49999243	0.00000000	-4.69980300	5.15501900
130.69999242	0.00000000	-4.27534400	5.89320800
130.89999241	0.00000000	-3.16190900	6.26845500
131.09999239	0.00000000	-2.04847400	6.31151500
131.29999238	0.00000000	-1.62401600	6.26845500
131.49999237	0.00000000	-1.58095500	5.89320800
131.69999236	0.00000000	-1.58095500	5.15501900
131.89999235	0.00000000	-1.62401600	4.77977300
132.09999233	0.00000000	-1.99926200	4.73671200
132.29999232	0.00000000	-2.74360200	4.73671200
132.49999231	0.00000000	-3.11884800	4.73671200
132.69999230	0.00000000	-3.16190900	4.77977300
132.89999229	0.00000000	-3.16190900	5.15501900
133.09999227	0.00000000	-3.16190900	5.93626900
133.29999226	0.00000000	-3.16190900	6.68676100
133.49999225	0.00000000	-3.16190900	7.47416300
133.69999224	0.00000000	-3.16190900	7.80019600
133.89999223	0.00000000	-3.16190900	7.47416300
134.09999222	0.00000000	-3.16190900	6.68676100
134.29999220	0.00000000	-3.16190900	5.93626900
134.49999219	0.00000000	-3.16190900	5.11195900
134.69999218	0.00000000	-3.16190900	4.36146600
134.89999217	0.00000000	-3.11884800	3.57406500
135.09999216	0.00000000	-2.74360200	3.24803100
135.29999214	0.00000000	-1.99926200	3.57406500
135.49999213	0.00000000	-1.62401600	4.36146600
135.69999212	0.00000000	-1.62401600	5.11195900
135.89999211	0.00000000	-1.99926200	5.93626900
136.09999210	0.00000000	-2.74360200	6.64370100
136.29999208	0.00000000	-3.16190900	7.09891700
136.49999207	0.00000000	-3.58021600	7.06200700
136.69999206	0.00000000	-4.27534400	7.09891700
136.89999205	0.00000000	-4.27534400	6.68676100
137.09999204	0.00000000	-3.58021600	6.31151500
137.29999203	0.00000000	-3.16190900	5.89320800
137.49999201	0.00000000	-2.74360200	5.15501900
137.69999200	0.00000000	-1.99926200	4.77977300
137.89999199	0.00000000	-1.62401600	4.73671200
138.09999198	0.00000000	-1.58095500	4.73671200
138.29999197	0.00000000	-1.62401600	4.73671200
138.49999195	0.00000000	-1.99926200	4.73671200
138.69999194	0.00000000	-2.78666300	4.77977300
138.89999193	0.00000000	-3.53715500	5.15501900
139.09999192	0.00000000	-4.32455700	5.89320800
139.29999191	0.00000000	-4.65059000	6.31151500
139.49999189	0.00000000	-4.32455700	6.72982200
139.69999188	0.00000000	-3.53715500	7.42495000
139.89999187	0.00000000	-2.78666300	7.42495000
140.09999186	0.00000000	-1.99926200	6.72982200
140.29999185	0.00000000	-1.62401600	6.31151500
140.49999184	0.00000000	-1.58095500	5.85014700
140.69999182	0.00000000	-1.62401600	4.73671200
140.89999181	0.00000000	-1.99926200	3.62327700
141.09999180	0.00000000	-2.74360200	3.24803100
141.29999179	0.00000000	-3.11884800	3.57406500
141.49999178	0.00000000	-3.16190900	4.36146600
141.69999176	0.00000000	-3.16190900	5.15501900
141.89999175	0.00000000	-3.16190900	6.31151500
142.09999174	0.00000000	-3.16190900	7.42495000
142.29999173	0.00000000	-3.11884800	7.84940900
142.49999172	0.00000000	-2.74360200	7.84940900
142.69999170	0.00000000	-1.99926200	7.47416300
142.89999169	0.00000000	-1.67322800	6.68676100
143.09999168	0.00000000	-1.99926200	5.93626900
143.29999167	0.00000000	-2.74360200	5.15501900
143.49999166	0.00000000	-3.11884800	4.77977300
143.69999165	0.00000000	-3.16190900	4.73671200
143.89999163	0.00000000	-3.16190900	4.73671200
144.09999162	0.00000000	-3.11884800	4.77977300
144.29999161	0.00000000	-2.74360200	5.15501900
144.49999160	0.00000000	-1.99926200	5.93626900
144.69999159	0.00000000	-1.62401600	6.68676100
144.89999157	0.00000000	-1.58095500	7.47416300
145.09999156	0.00000000	-1.62401600	7.80019600
145.29999155	0.00000000	-1.99926200	7.47416300
145.49999154	0.00000000	-2.74360200	6.68676100
145.69999153	0.00000000	-3.11884800	5.93626900
145.89999151	0.00000000	-3.16190900	5.15501900
146.09999150	0.00000000	-3.16190900	4.77977300
146.29999149	0.00000000	-3.16190900	4.73671200
146.49999148	0.00000000	-3.16190900	4.73671200
146.69999147	0.00000000	-3.11884800	4.73671200
146.89999146	0.00000000	-2.74360200	4.73671200
147.09999144	0.00000000	-1.99926200	4.77977300
147.29999143	0.00000000	-1.62401600	5.15501900
147.49999142	0.00000000	-1.62401600	5.89320800
147.69999141	0.00000000	-1.99926200	6.26845500
147.89999140	0.00000000	-2.74360200	6.31151500
148.09999138	0.00000000	-3.11884800	6.31151500
148.29999137	0.00000000	-3.16190900	6.31151500
148.49999136	0.00000000	-3.16190900	6.26845500
148.69999135	0.00000000	-3.16190900	5.89320800
148.89999134	0.00000000	-3.16190900	5.15501900
149.09999132	0.00000000	-3.11884800	4.77977300
149.29999131	0.00000000	-2.74360200	4.73671200
149.49999130	0.00000000	-1.99926200	4.73671200
149.69999129	0.00000000	-1.62401600	4.73671200
149.89999128	0.00000000	-1.58095500	4.77977300
150.09999127	0.00000000	-1.58095500	5.15501900
150.29999125	0.00000000	-1.58095500	5.93626900
150.49999124	0.00000000	-1.62401600	6.64370100
150.69999123	0.00000000	-1.99926200	7.05585600
150.89999122	0.00000000	-2.74360200	6.68676100
151.09999121	0.00000000	-3.11884800	6.35457700
151.29999119	0.00000000	-3.16190900	6.31151500
151.49999118	0.00000000	-3.16190900	6.26845500
151.69999117	0.00000000	-3.16190900	5.93626900
151.89999116	0.00000000	-3.11884800	5.53026500
152.09999115	0.00000000	-2.74360200	5.51796200
152.29999113	0.00000000	-1.99926200	5.11195900
152.49999112	0.00000000	-1.62401600	4.77977300
152.69999111	0.00000000	-1.58095500	4.73671200
152.89999110	0.00000000	-1.58095500	4.77977300
153.09999109	0.00000000	-1.58095500	5.15501900
153.29999108	0.00000000	-1.62401600	5.89320800
153.49999106	0.00000000	-1.99926200	6.26845500
153.69999105	0.00000000	-2.74360200	6.31151500
153.89999104	0.00000000	-3.11884800	6.31151500
154.09999103	0.00000000	-3.16190900	6.31151500
154.29999102	0.00000000	-3.16190900	6.31151500
154.49999100	0.00000000	-3.16190900	6.31151500
154.69999099	0.00000000	-3.16190900	6.26845500
154.89999098	0.00000000	-3.11884800	5.89320800
155.09999097	0.00000000	-2.74360200	5.15501900
155.29999096	0.00000000	-1.99926200	4.77977300
155.49999094	0.00000000	-1.62401600	4.73671200
155.69999093	0.00000000	-1.58095500	4.73671200
155.89999092	0.00000000	-1.58095500	4.73671200
156.09999091	0.00000000	-1.58095500	4.77977300
156.29999090	0.00000000	-1.62401600	5.15501900
156.49999089	0.00000000	-1.99926200	5.89320800
156.69999087	0.00000000	-2.74360200	6.26845500
156.89999086	0.00000000	-3.11884800	6.31151500
157.09999085	0.00000000	-3.16190900	6.31151500
157.29999084	0.00000000	-3.16190900	6.31151500
157.49999083	0.00000000	-3.16190900	6.31151500
157.69999081	0.00000000	-3.16190900	6.26845500
157.89999080	0.00000000	-3.11884800	5.89320800
158.09999079	0.00000000	-2.74360200	5.15501900
158.29999078	0.00000000	-1.99926200	4.77977300
158.49999077	0.00000000	-1.62401600	4.73671200
158.69999075	0.00000000	-1.58095500	4.73671200
158.89999074	0.00000000	-1.58095500	4.77977300
159.09999073	0.00000000	-1.58095500	5.15501900
159.29999072	0.00000000	-1.62401600	5.89320800
159.49999071	0.00000000	-1.99926200	6.26845500
159.69999070	0.00000000	-2.74360200	6.31151500
159.89999068	0.00000000	-3.11884800	6.35457700
160.09999067	0.00000000	-3.20497000	6.68676100
160.29999066	0.00000000	-3.53715500	7.05585600
160.49999065	0.00000000	-3.90625000	6.68676100
160.69999064	0.00000000	-3.53715500	6.31151500
160.89999062	0.00000000	-3.20497000	5.89320800
161.09999061	0.00000000	-3.16190900	5.15501900
161.29999060	0.00000000	-3.11884800	4.77977300
161.49999059	0.00000000	-2.74360200	4.73671200
161.69999058	0.00000000	-1.99926200	4.77977300
161.89999056	0.00000000	-1.62401600	5.15501900
162.09999055	0.00000000	-1.58095500	5.89320800
162.29999054	0.00000000	-1.62401600	6.26845500
162.49999053	0.00000000	-1.95620100	6.31151500
162.69999052	0.00000000	-2.36835600	6.31151500
162.89999051	0.00000000	-2.37450800	6.31151500
163.09999049	0.00000000	-2.78666300	6.31151500
163.29999048	0.00000000	-3.11884800	6.31151500
163.49999047	0.00000000	-3.16190900	6.31151500
163.69999046	0.00000000	-3.16190900	6.31151500
163.89999045	0.00000000	-3.16190900	6.26845500
164.09999043	0.00000000	-3.16190900	5.89320800
164.29999042	0.00000000	-3.11884800	5.15501900
164.49999041	0.00000000	-2.74360200	4.77977300
164.69999040	0.00000000	-1.99926200	4.73671200
164.89999039	0.00000000	-1.62401600	4.77977300
165.09999037	0.00000000	-1.58095500	5.15501900
165.29999036	0.00000000	-1.58095500	5.89320800
165.49999035	0.00000000	-1.58095500	6.26845500
165.69999034	0.00000000	-1.62401600	6.31151500
165.89999033	0.00000000	-1.99926200	6.31151500
166.09999032	0.00000000	-2.74360200	6.31151500
166.29999030	0.00000000	-3.11884800	6.31151500
166.49999029	0.00000000	-3.16190900	6.31151500
166.69999028	0.00000000	-3.16190900	6.31151500
166.89999027	0.00000000	-3.11884800	6.26845500
167.09999026	0.00000000	-2.74360200	5.89320800
167.29999024	0.00000000	-2.04847400	5.19808000
167.49999023	0.00000000	-1.99926200	5.19808000
167.69999022	0.00000000	-2.32529500	5.85014700
167.89999021	0.00000000	-1.95620100	5.89320800
168.09999020	0.00000000	-1.62401600	5.57332700
168.29999018	0.00000000	-1.58095500	5.93626900
168.49999017	0.00000000	-1.62401600	6.26845500
168.69999016	0.00000000	-1.95620100	6.31151500
168.89999015	0.00000000	-2.32529500	6.31151500
169.09999014	0.00000000	-1.99926200	6.26845500
169.29999013	0.00000000	-2.04847400	5.93626900
169.49999011	0.00000000	-2.74360200	5.57332700
169.69999010	0.00000000	-3.11884800	5.93626900
169.89999009	0.00000000	-3.16190900	6.26845500
170.09999008	0.00000000	-3.16190900	6.31151500
170.29999007	0.00000000	-3.16190900	6.31151500
170.49999005	0.00000000	-3.16190900	6.31151500
170.69999004	0.00000000	-3.11884800	6.31151500
170.89999003	0.00000000	-2.74360200	6.31151500
171.09999002	0.00000000	-1.99926200	6.31151500
171.29999001	0.00000000	-1.62401600	6.26845500
171.49998999	0.00000000	-1.58095500	5.89320800
171.69998998	0.00000000	-1.58095500	5.15501900
171.89998997	0.00000000	-1.62401600	4.77977300
172.09998996	0.00000000	-1.99926200	4.73671200
172.29998995	0.00000000	-2.74360200	4.77977300
172.49998994	0.00000000	-3.11884800	5.15501900
172.69998992	0.00000000	-3.16190900	5.89320800
172.89998991	0.00000000	-3.16190900	6.26845500
173.09998990	0.00000000	-3.16190900	6.31151500
173.29998989	0.00000000	-3.16190900	6.31151500
173.49998988	0.00000000	-3.11884800	6.31151500
173.69998986	0.00000000	-2.74360200	6.31151500
173.89998985	0.00000000	-1.99926200	6.26845500
174.09998984	0.00000000	-1.67322800	5.89320800
174.29998983	0.00000000	-1.99926200	5.19808000
174.49998982	0.00000000	-2.74360200	5.15501900
174.69998980	0.00000000	-3.11884800	5.47490100
174.89998979	0.00000000	-3.16190900	5.11195900
175.09998978	0.00000000	-3.11884800	4.82898600
175.29998977	0.00000000	-2.78666300	5.15501900
175.49998976	0.00000000	-2.41756900	5.89320800
175.69998975	0.00000000	-2.78666300	6.26845500
175.89998973	0.00000000	-3.06963600	6.31151500
176.09998972	0.00000000	-2.78666300	6.31151500
176.29998971	0.00000000	-2.37450800	6.31151500
176.49998970	0.00000000	-2.36835600	6.31151500
176.69998969	0.00000000	-1.99926200	6.31151500
176.89998967	0.00000000	-1.99926200	6.31151500
177.09998966	0.00000000	-2.36835600	6.26845500
177.29998965	0.00000000	-2.37450800	5.89320800
177.49998964	0.00000000	-2.78666300	5.15501900
177.69998963	0.00000000	-3.11884800	4.77977300
177.89998961	0.00000000	-3.16190900	4.73671200
178.09998960	0.00000000	-3.16190900	4.77977300
178.29998959	0.00000000	-3.16190900	5.15501900
178.49998958	0.00000000	-3.11884800	5.89320800
178.69998957	0.00000000	-2.78666300	6.26845500
178.89998956	0.00000000	-2.41756900	6.31151500
179.09998954	0.00000000	-2.74360200	6.31151500
179.29998953	0.00000000	-2.69439000	6.31151500
179.49998952	0.00000000	-1.99926200	6.31151500
179.69998951	0.00000000	-1.67322800	6.26845500
179.89998950	0.00000000	-1.95620100	5.89320800
180.09998948	0.00000000	-2.36835600	5.15501900
180.29998947	0.00000000	-2.33144700	4.82898600
180.49998946	0.00000000	-2.41141700	5.11195900
180.69998945	0.00000000	-2.37450800	5.51796200
180.89998944	0.00000000	-2.78666300	5.53026500
181.09998942	0.00000000	-3.11884800	5.93626900
181.29998941	0.00000000	-3.16190900	6.26845500
181.49998940	0.00000000	-3.11884800	6.31151500
181.69998939	0.00000000	-2.74360200	6.31151500
181.89998938	0.00000000	-2.04847400	6.31151500
182.09998937	0.00000000	-1.99926200	6.31151500
182.29998935	0.00000000	-2.32529500	6.31151500
182.49998934	0.00000000	-1.95620100	6.31151500
182.69998933	0.00000000	-1.62401600	6.31151500
182.89998932	0.00000000	-1.58095500	6.26845500
183.09998931	0.00000000	-1.62401600	5.89320800
183.29998929	0.00000000	-1.95620100	5.15501900
183.49998928	0.00000000	-2.32529500	4.77977300
183.69998927	0.00000000	-1.99926200	4.73671200
183.89998926	0.00000000	-2.04847400	4.77977300
184.09998925	0.00000000	-2.74360200	5.15501900
184.29998923	0.00000000	-3.11884800	5.89320800
184.49998922	0.00000000	-3.16190900	6.26845500
184.69998921	0.00000000	-3.16190900	6.31151500
184.89998920	0.00000000	-3.11884800	6.31151500
185.09998919	0.00000000	-2.74360200	6.31151500
185.29998918	0.00000000	-1.99926200	6.31151500
185.49998916	0.00000000	-1.62401600	6.26845500
185.69998915	0.00000000	-1.58095500	5.89320800
185.89998914	0.00000000	-1.58095500	5.15501900
186.09998913	0.00000000	-1.58095500	4.77977300
186.29998912	0.00000000	-1.58095500	4.73671200
186.49998910	0.00000000	-1.58095500	4.73671200
186.69998909	0.00000000	-1.62401600	4.77977300
186.89998908	0.00000000	-1.99926200	5.15501900
187.09998907	0.00000000	-2.74360200	5.89320800
187.29998906	0.00000000	-3.11884800	6.26845500
187.49998904	0.00000000	-3.16190900	6.31151500
187.69998903	0.00000000	-3.16190900	6.31151500
187.89998902	0.00000000	-3.16190900	6.31151500
188.09998901	0.00000000	-3.11884800	6.31151500
188.29998900	0.00000000	-2.74360200	6.26845500
188.49998899	0.00000000	-1.99926200	5.89320800
188.69998897	0.00000000	-1.62401600	5.15501900
188.89998896	0.00000000	-1.58095500	4.77977300
189.09998895	0.00000000	-1.58095500	4.73671200
189.29998894	0.00000000	-1.62401600	4.73671200
189.49998893	0.00000000	-1.95620100	4.73671200
189.69998891	0.00000000	-2.36835600	4.73671200
189.89998890	0.00000000	-2.37450800	4.77977300
190.09998889	0.00000000	-2.78666300	5.15501900
190.29998888	0.00000000	-3.11884800	5.89320800
190.49998887	0.00000000	-3.16190900	6.26845500
190.69998885	0.00000000	-3.16190900	6.31151500
190.89998884	0.00000000	-3.11884800	6.31151500
191.09998883	0.00000000	-2.74360200	6.31151500
191.29998882	0.00000000	-1.99926200	6.31151500
191.49998881	0.00000000	-1.62401600	6.31151500
191.69998880	0.00000000	-1.58095500	6.31151500
191.89998878	0.00000000	-1.58095500	6.26845500
192.09998877	0.00000000	-1.62401600	5.93626900
192.29998876	0.00000000	-1.95620100	5.53026500
192.49998875	0.00000000	-2.36835600	5.51796200
192.69998874	0.00000000	-2.37450800	5.15501900
192.89998872	0.00000000	-2.78666300	5.15501900
193.09998871	0.00000000	-3.11884800	5.51796200
193.29998870	0.00000000	-3.16190900	5.53026500
193.49998869	0.00000000	-3.16190900	5.93626900
193.69998868	0.00000000	-3.16190900	6.26845500
193.89998866	0.00000000	-3.11884800	6.31151500
194.09998865	0.00000000	-2.74360200	6.31151500
194.29998864	0.00000000	-1.99926200	6.31151500
194.49998863	0.00000000	-1.62401600	6.31151500
194.69998862	0.00000000	-1.58095500	6.31151500
194.89998861	0.00000000	-1.58095500	6.31151500
195.09998859	0.00000000	-1.62401600	6.26845500
195.29998858	0.00000000	-1.95620100	5.89320800
195.49998857	0.00000000	-2.36835600	5.15501900
195.69998856	0.00000000	-2.37450800	4.77977300
195.89998855	0.00000000	-2.78666300	4.77977300
196.09998853	0.00000000	-3.11884800	5.11195900
