Time	Channel A	Channel B	Channel C
(us)	(V)	(mV)	(mV)

-4.49999956	0.00000000	73.94193000	32.78174000
-4.29999957	0.00000000	74.27411000	33.06471000
-4.09999958	0.00000000	74.31717000	32.78174000
-3.89999959	0.00000000	74.31717000	32.36959000
-3.69999960	0.00000000	74.31717000	32.36343000
-3.49999962	0.00000000	74.31717000	31.95128000
-3.29999963	0.00000000	74.31717000	31.66830000
-3.09999964	0.00000000	74.31717000	31.99434000
-2.89999965	0.00000000	74.31717000	32.68946000
-2.69999966	0.00000000	74.31717000	32.68946000
-2.49999968	0.00000000	74.31717000	31.99434000
-2.29999969	0.00000000	74.27411000	31.66830000
-2.09999970	0.00000000	73.94193000	31.95128000
-1.89999971	0.00000000	73.57283000	32.32037000
-1.69999972	0.00000000	73.94193000	31.99434000
-1.49999973	0.00000000	74.27411000	31.99434000
-1.29999975	0.00000000	74.31717000	32.36343000
-1.09999976	0.00000000	74.31717000	32.36959000
-0.89999977	0.00000000	74.31717000	32.78174000
-0.69999978	0.00000000	74.31717000	33.06471000
-0.49999979	0.00000000	74.31717000	32.78174000
-0.29999981	0.31803640	74.31717000	32.41265000
-0.09999982	0.63668800	74.31717000	32.73868000
0.10000017	0.95533960	74.31717000	32.73868000
0.30000016	0.95533960	74.31717000	32.36959000
0.50000015	0.79601380	74.31717000	32.40649000
0.70000013	0.15871060	74.31717000	32.36959000
0.90000012	-0.63668800	74.31717000	32.78174000
1.10000011	-1.59264300	74.31717000	33.11393000
1.30000010	-2.38927200	74.31717000	33.15699000
1.50000009	-2.86724900	74.31717000	33.15699000
1.70000008	-2.38927200	74.31717000	33.15699000
1.90000006	-1.11466500	74.31717000	33.15699000
2.10000005	0.79601380	74.31717000	33.15699000
2.30000004	3.02657500	74.31717000	33.15699000
2.50000003	4.61921700	74.31717000	33.15699000
2.70000002	5.25652100	74.27411000	33.15699000
2.90000000	4.61921700	73.94193000	33.11393000
3.09999999	2.54859700	73.57283000	32.78174000
3.29999998	-0.63668800	73.94193000	32.41265000
3.49999997	-3.98191400	74.27411000	32.78174000
3.69999996	-6.69045300	74.31717000	33.11393000
3.89999994	-7.96444400	74.31717000	33.20005000
4.09999993	-7.16781500	74.36023000	33.57529000
4.29999992	-4.61921700	74.69241000	34.31963000
4.49999991	-0.47736220	75.06151000	34.69488000
4.69999990	3.98191400	74.69241000	34.69488000
4.89999989	7.64579200	74.36023000	34.31963000
5.09999987	9.39837600	74.31717000	33.57529000
5.29999986	8.92039900	74.31717000	33.20005000
5.49999985	6.05315000	74.31717000	33.11393000
5.69999984	1.75196900	74.31717000	32.78174000
5.89999983	-3.18590100	74.31717000	32.41265000
6.09999981	-7.16781500	74.36023000	32.82480000
6.29999980	-9.23905000	74.64935000	33.53223000
6.49999979	-9.07972400	74.72932000	34.31963000
6.69999978	-6.69045300	74.32332000	34.69488000
6.89999977	-2.70792300	74.72932000	34.69488000
7.09999975	1.59264300	74.64935000	34.31963000
7.29999974	5.41584600	74.36023000	33.53223000
7.49999973	7.48646600	74.31717000	32.82480000
7.69999972	7.64579200	74.31717000	32.41265000
7.89999971	5.73449800	74.31717000	32.78174000
8.09999970	2.86724900	74.31717000	33.11393000
8.29999968	-0.31803640	74.31717000	33.15699000
8.49999967	-3.18590100	74.31717000	33.15699000
8.69999966	-4.77854300	74.31717000	33.15699000
8.89999965	-5.09719500	74.31717000	33.15699000
9.09999964	-4.14124000	74.31717000	33.15699000
9.29999962	-2.38927200	74.31717000	33.15699000
9.49999961	-0.47736220	74.31717000	33.15699000
9.69999960	1.27399100	74.31717000	33.15699000
9.89999959	2.22994600	74.31717000	33.15699000
10.09999958	2.54859700	74.31717000	33.15699000
10.29999956	2.07062000	74.31717000	33.15699000
10.49999955	1.27399100	74.31717000	33.15699000
10.69999954	0.47736220	74.31717000	33.15699000
10.89999953	-0.31803640	74.31717000	33.15699000
11.09999952	-0.79601380	74.31717000	33.15699000
11.29999951	-0.95533960	74.31717000	33.15699000
11.49999949	-0.95533960	74.31717000	33.15699000
11.69999948	-0.63668800	74.31717000	33.15699000
11.89999947	-0.31803640	74.31717000	33.15699000
12.09999946	-0.15871060	74.31717000	33.15699000
12.29999945	-0.15871060	74.31717000	33.15699000
12.49999943	0.00000000	74.31717000	33.15699000
12.69999942	0.00000000	74.31717000	33.15699000
12.89999941	0.00000000	74.31717000	33.15699000
13.09999940	0.00000000	74.31717000	33.11393000
13.29999939	0.00000000	74.31717000	32.78174000
13.49999937	0.00000000	74.31717000	32.41265000
13.69999936	0.00000000	74.31717000	32.73868000
13.89999935	-0.15871060	74.31717000	32.68946000
14.09999934	-0.15871060	74.31717000	32.04355000
14.29999933	-0.15871060	74.31717000	32.04355000
14.49999932	-0.15871060	74.31717000	32.73868000
14.69999930	0.00000000	74.31717000	33.11393000
14.89999929	0.00000000	74.31717000	33.15699000
15.09999928	0.00000000	74.31717000	33.15699000
15.29999927	0.00000000	74.31717000	33.15699000
15.49999926	0.00000000	74.31717000	33.15699000
15.69999924	0.00000000	74.31717000	33.15699000
15.89999923	0.00000000	74.31717000	33.15699000
16.09999922	0.00000000	74.31717000	33.15699000
16.29999921	0.00000000	74.36023000	33.15699000
16.49999920	0.00000000	74.73548000	33.15699000
16.69999919	-0.15871060	75.47981000	33.15699000
16.89999917	0.00000000	75.85506000	33.15699000
17.09999916	0.00000000	75.94118000	33.15699000
17.29999915	0.00000000	76.31644000	33.15699000
17.49999914	0.00000000	77.01156000	33.15699000
17.69999913	0.00000000	77.01156000	33.15699000
17.89999911	0.00000000	76.27337000	33.15699000
18.09999910	0.00000000	75.43060000	33.15699000
18.29999909	0.00000000	73.89886000	33.15699000
18.49999908	0.00000000	71.99188000	33.15699000
18.69999907	0.00000000	70.82307000	33.15699000
18.89999905	0.00000000	70.04182000	33.15699000
19.09999904	0.00000000	70.12794000	33.15699000
19.29999903	0.00000000	71.66584000	33.15699000
19.49999902	0.00000000	74.40945000	33.15699000
19.69999901	0.00000000	77.89738000	33.20005000
19.89999900	0.00000000	81.75443000	33.53223000
20.09999898	0.00000000	84.83022000	33.90133000
20.29999897	0.00000000	86.31889000	33.53223000
20.49999896	0.00000000	85.48228000	33.20005000
20.69999895	0.00000000	81.57603000	33.15699000
20.89999894	0.00000000	75.38755000	33.15699000
21.09999892	0.00000000	67.99335000	33.15699000
21.29999891	0.00000000	60.68528000	33.15699000
21.49999890	0.00000000	55.37647000	33.15699000
21.69999889	0.00000000	54.30610000	33.15699000
21.89999888	0.00000000	58.58144000	33.15699000
22.09999886	0.00000000	67.47047000	33.20005000
22.29999885	0.00000000	79.14616000	33.53223000
22.49999884	0.00000000	91.48621000	33.90133000
22.69999883	0.00000000	101.90080000	33.57529000
22.89999882	0.00000000	107.17270000	33.57529000
23.09999881	0.00000000	105.57950000	33.94439000
23.29999879	0.00000000	96.23523000	33.95054000
23.49999878	0.00000000	81.15772000	34.40575000
23.69999877	0.00000000	63.33661000	35.11319000
23.89999876	0.00000000	46.44439000	35.85138000
24.09999875	0.00000000	35.27928000	35.85138000
24.29999873	0.00000000	32.99089000	35.11319000
24.49999872	0.00000000	40.02214000	34.31963000
24.69999871	0.00000000	55.97933000	33.11393000
24.89999870	0.00000000	77.89738000	31.57603000
25.09999869	0.00000000	100.27680000	30.04429000
25.29999867	0.00000000	117.26130000	28.88779000
25.49999866	0.00000000	125.35680000	28.55561000
25.69999865	0.00000000	122.19490000	29.34916000
25.89999864	0.00000000	107.91090000	31.71137000
26.09999863	0.00000000	85.90058000	35.15625000
26.29999862	0.00000000	61.14665000	39.05635000
26.49999860	0.00000000	39.13632000	42.45201000
26.69999859	0.00000000	24.90157000	44.35285000
26.89999858	0.00000000	22.20103000	43.52239000
27.09999857	0.00000000	31.78518000	40.03444000
27.29999856	0.00000000	50.67667000	34.18430000
27.49999854	0.00000000	74.31717000	26.83932000
27.69999853	0.00000000	97.90231000	19.50049000
27.89999852	0.00000000	116.42470000	13.78568000
28.09999851	0.00000000	125.26450000	11.55266000
28.29999850	0.00000000	122.28100000	14.29011000
28.49999848	0.00000000	108.83980000	21.63509000
28.69999847	0.00000000	89.15477000	32.12967000
28.89999846	0.00000000	67.42741000	44.07603000
29.09999845	0.00000000	48.11761000	54.85359000
29.29999844	0.00000000	35.32234000	61.36195000
29.49999843	0.00000000	31.78518000	62.10630000
29.69999841	0.00000000	37.51230000	56.25000000
29.89999840	0.00000000	50.63361000	44.63582000
30.09999839	0.00000000	67.99335000	29.58292000
30.29999838	0.00000000	85.43922000	14.15477000
30.49999837	0.00000000	99.44635000	2.21456700
30.69999835	0.00000000	108.00320000	-3.59251900
30.89999834	0.00000000	109.54110000	-2.01156500
31.09999833	0.00000000	103.76480000	6.95127900
31.29999832	0.00000000	92.22440000	22.01033000
31.49999831	0.00000000	77.94044000	40.12672000
31.69999829	0.00000000	64.35777000	56.71751000
31.89999828	0.00000000	53.88779000	68.37475000
32.09999827	0.00000000	48.44980000	72.93307000
32.29999826	0.00000000	49.14493000	69.06988000
32.49999825	0.00000000	54.91510000	57.13583000
32.69999824	0.00000000	64.22243000	40.54502000
32.89999822	0.00000000	75.43060000	22.70546000
33.09999821	0.00000000	85.85753000	6.86515700
33.29999820	0.00000000	93.25172000	-3.54330700
33.49999819	0.00000000	96.37057000	-6.23769700
33.69999818	0.00000000	94.83266000	-0.47982280
33.89999816	0.00000000	89.06249000	12.24778000
34.09999815	0.00000000	80.59792000	28.83858000
34.29999814	0.00000000	71.70891000	45.88459000
34.49999813	0.00000000	64.40083000	59.78715000
34.69999812	0.00000000	60.49458000	67.91338000
34.89999810	0.00000000	60.86368000	68.28863000
35.09999809	0.00000000	64.68381000	61.03592000
35.29999808	0.00000000	71.24138000	48.30216000
35.49999807	0.00000000	78.50639000	33.24926000
35.69999806	0.00000000	84.27657000	18.98376000
35.89999805	0.00000000	87.01402000	8.94438800
36.09999803	0.00000000	86.31889000	5.41338600
36.29999802	0.00000000	83.24926000	8.48302100
36.49999801	0.00000000	78.59251000	17.31053000
36.69999800	0.00000000	73.20374000	29.62598000
36.89999799	0.00000000	68.63311000	41.94144000
37.09999797	0.00000000	66.31397000	51.55635000
37.29999796	0.00000000	67.05216000	55.78863000
37.49999795	0.00000000	70.08488000	53.51254000
37.69999794	0.00000000	74.36023000	45.93381000
37.89999793	0.00000000	78.96776000	35.57455000
38.09999791	0.00000000	82.83096000	25.99655000
38.29999790	0.00000000	84.73794000	19.40207000
38.49999789	0.00000000	84.41190000	17.49508000
38.69999788	0.00000000	82.08661000	20.56471000
38.89999787	0.00000000	78.64173000	27.86048000
39.09999786	0.00000000	74.73548000	37.38312000
39.29999784	0.00000000	71.19833000	45.74926000
39.49999783	0.00000000	68.12868000	50.02460000
39.69999782	0.00000000	66.22169000	49.24335000
39.89999781	0.00000000	66.63385000	43.84842000
40.09999780	0.00000000	68.87303000	34.64567000
40.29999778	0.00000000	72.40403000	24.74778000
40.49999777	0.00000000	76.27337000	17.40280000
40.69999776	0.00000000	80.17347000	14.33317000
40.89999775	0.00000000	83.24926000	16.24631000
41.09999774	0.00000000	84.83022000	22.79158000
41.29999772	0.00000000	84.83022000	32.04355000
41.49999771	0.00000000	83.24926000	41.98450000
41.69999770	0.00000000	80.17347000	49.64936000
41.89999769	0.00000000	76.31644000	52.34990000
42.09999768	0.00000000	72.82849000	50.11687000
42.29999767	0.00000000	70.08488000	43.56545000
42.49999765	0.00000000	68.50394000	34.78100000
42.69999764	0.00000000	68.12868000	26.27953000
42.89999763	0.00000000	68.92224000	20.05413000
43.09999762	0.00000000	71.19833000	16.98450000
43.29999761	0.00000000	73.89886000	17.72884000
43.49999759	0.00000000	76.23032000	22.32406000
43.69999758	0.00000000	78.22342000	28.79552000
43.89999757	0.00000000	79.34301000	35.38385000
44.09999756	0.00000000	79.80437000	40.40969000
44.29999755	0.00000000	79.43528000	43.14714000
44.49999753	0.00000000	79.10310000	43.19635000
44.69999752	0.00000000	79.01697000	40.92027000
44.89999751	0.00000000	78.64173000	37.43233000
45.09999750	0.00000000	77.85432000	33.20005000
45.29999749	0.00000000	77.06077000	29.34916000
45.49999748	0.00000000	75.80585000	27.01772000
45.69999746	0.00000000	73.84965000	26.19340000
45.89999745	0.00000000	71.11221000	26.97465000
46.09999744	0.00000000	68.12868000	28.88164000
46.29999743	0.00000000	66.17863000	31.57603000
46.49999742	0.00000000	66.20940000	34.27042000
46.69999740	0.00000000	67.80266000	36.22662000
46.89999739	0.00000000	71.75196000	37.42618000
47.09999738	0.00000000	77.52214000	37.75836000
47.29999737	0.00000000	83.66756000	37.01402000
47.49999736	0.00000000	88.68725000	35.06397000
47.69999734	0.00000000	90.97564000	32.78174000
47.89999733	0.00000000	90.17593000	30.46260000
48.09999732	0.00000000	85.90058000	28.93085000
48.29999731	0.00000000	78.92471000	28.51255000
48.49999730	0.00000000	70.82307000	28.93085000
48.69999729	0.00000000	63.10285000	30.51181000
48.89999727	0.00000000	58.16314000	33.20005000
49.09999726	0.00000000	57.37573000	36.26968000
49.29999725	0.00000000	61.23892000	38.96407000
49.49999724	0.00000000	68.59006000	40.50196000
49.69999723	0.00000000	77.85432000	40.50196000
49.89999721	0.00000000	87.10630000	38.96407000
50.09999720	0.00000000	93.57775000	36.22662000
50.29999719	0.00000000	95.57085000	32.73868000
50.49999718	0.00000000	92.50738000	28.93085000
50.69999717	0.00000000	85.99286000	26.23647000
50.89999715	0.00000000	77.43602000	25.44291000
51.09999714	0.00000000	68.59006000	26.23647000
51.29999713	0.00000000	61.70029000	28.97392000
51.49999712	0.00000000	59.00590000	33.15699000
51.69999711	0.00000000	61.28198000	37.38312000
51.89999710	0.00000000	67.38435000	40.50196000
52.09999708	0.00000000	75.47981000	42.07677000
52.29999707	0.00000000	83.15698000	42.03371000
52.49999706	0.00000000	88.59498000	40.07751000
52.69999705	0.00000000	90.50811000	36.26968000
52.89999704	0.00000000	88.59498000	32.04355000
53.09999702	0.00000000	83.24926000	28.55561000
53.29999701	0.00000000	76.36565000	26.27953000
53.49999700	0.00000000	70.17101000	26.27953000
53.69999699	0.00000000	65.93873000	28.51255000
53.89999698	0.00000000	64.77608000	31.57603000
54.09999696	0.00000000	67.09522000	34.64567000
54.29999695	0.00000000	72.03493000	36.96481000
54.49999694	0.00000000	78.17421000	37.71530000
54.69999693	0.00000000	83.15698000	37.01402000
54.89999692	0.00000000	85.90058000	35.11319000
55.09999691	0.00000000	85.90058000	33.20005000
55.29999689	0.00000000	83.20619000	31.66830000
55.49999688	0.00000000	78.59251000	30.93012000
55.69999687	0.00000000	73.24680000	31.71137000
55.89999686	0.00000000	69.00836000	33.57529000
56.09999685	0.00000000	67.05216000	35.89444000
56.29999683	0.00000000	67.42741000	37.75836000
56.49999682	0.00000000	70.12794000	38.50270000
56.69999681	0.00000000	74.31717000	37.29700000
56.89999680	0.00000000	78.54945000	34.27042000
57.09999679	0.00000000	81.66830000	30.41954000
57.29999677	0.00000000	83.24926000	26.97465000
57.49999676	0.00000000	83.20619000	24.69857000
57.69999675	0.00000000	81.29305000	24.74778000
57.89999674	0.00000000	77.85432000	27.39296000
58.09999673	0.00000000	74.40945000	31.66830000
58.29999672	0.00000000	71.70891000	36.68799000
58.49999670	0.00000000	70.54626000	41.70152000
58.69999669	0.00000000	71.24754000	45.10334000
58.89999668	0.00000000	72.77928000	45.84153000
59.09999667	0.00000000	74.73548000	43.10408000
59.29999666	0.00000000	77.01156000	37.34006000
59.49999664	0.00000000	78.54945000	30.04429000
59.69999663	0.00000000	78.96776000	23.12377000
59.89999662	0.00000000	78.59251000	18.56545000
60.09999661	0.00000000	77.47908000	17.77805000
60.29999660	0.00000000	76.31644000	21.21678000
60.49999658	0.00000000	75.52288000	27.34990000
60.69999657	0.00000000	74.78469000	34.73794000
60.89999656	0.00000000	74.82775000	42.07677000
61.09999655	0.00000000	75.94118000	47.79158000
61.29999654	0.00000000	77.38681000	50.06767000
61.49999653	0.00000000	78.17421000	47.74852000
61.69999651	0.00000000	77.85432000	41.65846000
61.89999650	0.00000000	77.47908000	33.53223000
62.09999649	0.00000000	76.96850000	25.44291000
62.29999648	0.00000000	75.47981000	18.89148000
62.49999647	0.00000000	73.62204000	15.82800000
62.69999645	0.00000000	72.82849000	16.98450000
62.89999644	0.00000000	72.77928000	21.96112000
63.09999643	0.00000000	73.24680000	29.66904000
63.29999642	0.00000000	74.78469000	37.75836000
63.49999641	0.00000000	77.06077000	44.72810000
63.69999639	0.00000000	79.01697000	48.95423000
63.89999638	0.00000000	80.54871000	49.37254000
64.09999637	0.00000000	81.29305000	46.30905000
64.29999636	0.00000000	80.50565000	40.54502000
64.49999635	0.00000000	78.64173000	33.62450000
64.69999634	0.00000000	76.31644000	27.43602000
64.89999632	0.00000000	74.36023000	23.12377000
65.09999631	0.00000000	72.82849000	21.16757000
65.29999630	0.00000000	72.12721000	21.54281000
65.49999629	0.00000000	73.24680000	24.23720000
65.69999628	0.00000000	75.47981000	28.46333000
65.89999626	0.00000000	77.43602000	33.15699000
66.09999625	0.00000000	79.01697000	37.80142000
66.29999624	0.00000000	80.13041000	41.65846000
66.49999623	0.00000000	80.08734000	43.61467000
66.69999622	0.00000000	78.59251000	43.70079000
66.89999620	0.00000000	76.31644000	42.54429000
67.09999619	0.00000000	74.40945000	40.58809000
67.29999618	0.00000000	73.24680000	37.85064000
67.49999617	0.00000000	73.28986000	34.73794000
67.69999616	0.00000000	74.82775000	31.57603000
67.89999615	0.00000000	77.47908000	28.51255000
68.09999613	0.00000000	80.17347000	26.19340000
68.29999612	0.00000000	82.08661000	25.39985000
68.49999611	0.00000000	82.83096000	25.77510000
68.69999610	0.00000000	81.62524000	27.39296000
68.89999609	0.00000000	78.54945000	30.51181000
69.09999607	0.00000000	74.36023000	34.73794000
69.29999606	0.00000000	70.50320000	39.00713000
69.49999605	0.00000000	68.17175000	42.49508000
69.69999604	0.00000000	67.38435000	44.82037000
69.89999603	0.00000000	68.63927000	45.14640000
70.09999601	0.00000000	72.12721000	43.19635000
70.29999600	0.00000000	77.52214000	38.96407000
70.49999599	0.00000000	83.20619000	33.57529000
70.69999598	0.00000000	87.10630000	28.51255000
70.89999597	0.00000000	88.31815000	24.28026000
71.09999596	0.00000000	87.52460000	22.01033000
71.29999594	0.00000000	84.36269000	22.74852000
71.49999593	0.00000000	78.96776000	25.77510000
71.69999592	0.00000000	72.82233000	30.04429000
71.89999591	0.00000000	67.42741000	34.64567000
72.09999590	0.00000000	64.30856000	38.54576000
72.29999588	0.00000000	63.89025000	40.87721000
72.49999587	0.00000000	65.88951000	41.65846000
72.69999586	0.00000000	70.54626000	40.50196000
72.89999585	0.00000000	77.01156000	37.85064000
73.09999584	0.00000000	82.83096000	34.78100000
73.29999582	0.00000000	86.73721000	32.08661000
73.49999581	0.00000000	88.68725000	30.51181000
73.69999580	0.00000000	87.89984000	30.09350000
73.89999579	0.00000000	84.83022000	30.46260000
74.09999578	0.00000000	80.17347000	31.57603000
74.29999577	0.00000000	74.78469000	32.68946000
74.49999575	0.00000000	70.17101000	33.06471000
74.69999574	0.00000000	67.42741000	32.68946000
74.89999573	0.00000000	67.05216000	31.53297000
75.09999572	0.00000000	68.92224000	30.04429000
75.29999571	0.00000000	72.36097000	28.97392000
75.49999569	0.00000000	75.85506000	29.34916000
75.69999568	0.00000000	78.96776000	31.29306000
75.89999567	0.00000000	81.29305000	33.99360000
76.09999566	0.00000000	82.08661000	37.47539000
76.29999565	0.00000000	81.71136000	40.45275000
76.49999563	0.00000000	80.22269000	41.65846000
76.69999562	0.00000000	78.31569000	40.87721000
76.89999561	0.00000000	77.14690000	38.50270000
77.09999560	0.00000000	76.31644000	34.22736000
77.29999559	0.00000000	75.94118000	28.88779000
77.49999558	0.00000000	75.89813000	24.28026000
77.69999556	0.00000000	75.89813000	21.59203000
77.89999555	0.00000000	75.85506000	21.59203000
78.09999554	0.00000000	75.47981000	24.28026000
78.29999553	0.00000000	74.73548000	28.93085000
78.49999552	0.00000000	74.36023000	34.73794000
78.69999550	0.00000000	74.36023000	40.50196000
78.89999549	0.00000000	74.78469000	44.72810000
79.09999548	0.00000000	75.94118000	46.30905000
79.29999547	0.00000000	77.52214000	45.14640000
79.49999546	0.00000000	79.43528000	41.70152000
79.69999544	0.00000000	81.33611000	36.64493000
79.89999543	0.00000000	82.08661000	31.29306000
80.09999542	0.00000000	81.71136000	26.61171000
80.29999541	0.00000000	80.13041000	23.90502000
80.49999540	0.00000000	77.47908000	23.07455000
80.69999539	0.00000000	74.78469000	24.28026000
80.89999537	0.00000000	72.82849000	27.34990000
81.09999536	0.00000000	71.66584000	31.57603000
81.29999535	0.00000000	71.70891000	35.85138000
81.49999534	0.00000000	73.24680000	39.38238000
81.69999533	0.00000000	75.89813000	42.07677000
81.89999531	0.00000000	78.59251000	43.23941000
82.09999530	0.00000000	80.59792000	42.54429000
82.29999529	0.00000000	82.12967000	41.00639000
82.49999528	0.00000000	82.83096000	39.00713000
82.69999527	0.00000000	81.71136000	36.26968000
82.89999525	0.00000000	79.47834000	33.15699000
83.09999524	0.00000000	77.52214000	30.04429000
83.29999523	0.00000000	75.94118000	27.34990000
83.49999522	0.00000000	74.78469000	25.81816000
83.69999521	0.00000000	74.40945000	25.81816000
83.89999520	0.00000000	74.73548000	27.34990000
84.09999518	0.00000000	75.52288000	30.08735000
84.29999517	0.00000000	76.27337000	33.57529000
84.49999516	0.00000000	77.06077000	37.47539000
84.69999515	0.00000000	77.43602000	40.92027000
84.89999514	0.00000000	77.47908000	43.23941000
85.09999512	0.00000000	77.47908000	43.56545000
85.29999511	0.00000000	77.47908000	41.65846000
85.49999510	0.00000000	77.52214000	37.80142000
85.69999509	0.00000000	77.89738000	33.15699000
85.89999508	0.00000000	78.64173000	28.51255000
86.09999506	0.00000000	79.01697000	24.69857000
86.29999505	0.00000000	79.01697000	23.16683000
86.49999504	0.00000000	78.59251000	24.23720000
86.69999503	0.00000000	77.43602000	26.97465000
86.89999502	0.00000000	75.94118000	30.88090000
87.09999501	0.00000000	74.78469000	35.89444000
87.29999499	0.00000000	74.36023000	40.45275000
87.49999498	0.00000000	74.36023000	43.19635000
87.69999497	0.00000000	74.82775000	43.56545000
87.89999496	0.00000000	76.36565000	41.65846000
88.09999495	0.00000000	78.59251000	37.75836000
88.29999493	0.00000000	80.13041000	32.82480000
88.49999492	0.00000000	80.59792000	28.18651000
88.69999491	0.00000000	80.59792000	25.48597000
88.89999490	0.00000000	80.17347000	24.70472000
89.09999489	0.00000000	78.96776000	26.27953000
89.29999487	0.00000000	77.10384000	30.09350000
89.49999486	0.00000000	75.20300000	34.69488000
89.69999485	0.00000000	74.40945000	38.92101000
89.89999484	0.00000000	74.36023000	41.61540000
90.09999483	0.00000000	74.78469000	42.03371000
90.29999482	0.00000000	75.89813000	40.50196000
90.49999480	0.00000000	77.06077000	37.34006000
90.69999479	0.00000000	77.85432000	32.78174000
90.89999478	0.00000000	78.64173000	28.18651000
91.09999477	0.00000000	79.01697000	25.53518000
91.29999476	0.00000000	79.06004000	25.12303000
91.49999474	0.00000000	79.01697000	27.43602000
91.69999473	0.00000000	78.64173000	31.61909000
91.89999472	0.00000000	77.89738000	36.22662000
92.09999471	0.00000000	77.52214000	40.07751000
92.29999470	0.00000000	77.47908000	41.99065000
92.49999468	0.00000000	77.43602000	41.61540000
92.69999467	0.00000000	77.06077000	38.92101000
92.89999466	0.00000000	76.31644000	34.69488000
93.09999465	0.00000000	75.89813000	30.09350000
93.29999464	0.00000000	75.47981000	26.27953000
93.49999463	0.00000000	74.78469000	24.74778000
93.69999461	0.00000000	74.78469000	25.86122000
93.89999460	0.00000000	75.56593000	28.93085000
94.09999459	0.00000000	76.73474000	33.15699000
94.29999458	0.00000000	78.68478000	37.38312000
94.49999457	0.00000000	80.59792000	40.45275000
94.69999455	0.00000000	82.12967000	41.61540000
94.89999454	0.00000000	82.87401000	40.45275000
95.09999453	0.00000000	82.08661000	37.43233000
95.29999452	0.00000000	80.17347000	33.57529000
95.49999451	0.00000000	77.47908000	30.13656000
95.69999449	0.00000000	74.73548000	27.81127000
95.89999448	0.00000000	72.40403000	27.43602000
96.09999447	0.00000000	70.50320000	28.93085000
96.29999446	0.00000000	70.17101000	31.62524000
96.49999445	0.00000000	71.70891000	34.68873000
96.69999444	0.00000000	74.82775000	37.43233000
96.89999442	0.00000000	79.01697000	39.33932000
97.09999441	0.00000000	82.87401000	40.08366000
97.29999440	0.00000000	85.24852000	38.92101000
97.49999439	0.00000000	86.41116000	36.31274000
97.69999438	0.00000000	85.99286000	33.61835000
97.89999436	0.00000000	83.66756000	31.66830000
98.09999435	0.00000000	80.22269000	30.51181000
98.29999434	0.00000000	76.31644000	30.51181000
98.49999433	0.00000000	72.82849000	31.62524000
98.69999432	0.00000000	70.12794000	33.15699000
98.89999430	0.00000000	69.01452000	34.68873000
99.09999429	0.00000000	70.17101000	35.85138000
99.29999428	0.00000000	73.20374000	36.22047000
99.49999427	0.00000000	77.06077000	35.89444000
99.69999426	0.00000000	80.59792000	35.19931000
99.89999425	0.00000000	83.71062000	35.19931000
100.09999423	0.00000000	85.99286000	35.89444000
100.29999422	0.00000000	86.36810000	36.26968000
100.49999421	0.00000000	84.87327000	36.31274000
100.69999420	0.00000000	82.17889000	36.31274000
100.89999419	0.00000000	79.06004000	36.22047000
101.09999417	0.00000000	75.94118000	35.43307000
101.29999416	0.00000000	73.24680000	33.53223000
101.49999415	0.00000000	71.66584000	31.66830000
101.69999414	0.00000000	71.29060000	30.46260000
101.89999413	0.00000000	72.04109000	30.09350000
102.09999411	0.00000000	73.98499000	30.51181000
102.29999410	0.00000000	76.27337000	32.04355000
102.49999409	0.00000000	78.64173000	34.36269000
102.69999408	0.00000000	80.59792000	36.68799000
102.89999407	0.00000000	82.12967000	38.96407000
103.09999406	0.00000000	82.87401000	40.08366000
103.29999404	0.00000000	82.12967000	39.33932000
103.49999403	0.00000000	80.59792000	37.43233000
103.69999402	0.00000000	78.64173000	34.68873000
103.89999401	0.00000000	76.31644000	31.62524000
104.09999400	0.00000000	74.40945000	28.93085000
104.29999398	0.00000000	73.24680000	27.39296000
104.49999397	0.00000000	73.24680000	27.39296000
104.69999396	0.00000000	74.36023000	28.93085000
104.89999395	0.00000000	75.89813000	31.62524000
105.09999394	0.00000000	77.47908000	34.68873000
105.29999392	0.00000000	79.01697000	37.38312000
105.49999391	0.00000000	80.13041000	38.92101000
105.69999390	0.00000000	80.17347000	38.92101000
105.89999389	0.00000000	79.43528000	37.38312000
106.09999388	0.00000000	78.64173000	34.73794000
106.29999387	0.00000000	77.47908000	32.04355000
106.49999385	0.00000000	76.36565000	30.13656000
106.69999384	0.00000000	75.99039000	29.34916000
106.89999383	0.00000000	76.31644000	30.04429000
107.09999382	0.00000000	77.10384000	31.20078000
107.29999381	0.00000000	77.85432000	32.41265000
107.49999379	0.00000000	78.64173000	34.31963000
107.69999378	0.00000000	79.01697000	35.80217000
107.89999377	0.00000000	79.01697000	36.22047000
108.09999376	0.00000000	78.59251000	35.85138000
108.29999375	0.00000000	77.47908000	34.68873000
108.49999374	0.00000000	76.31644000	33.15699000
108.69999372	0.00000000	75.56593000	31.66830000
108.89999371	0.00000000	75.15379000	30.88090000
109.09999370	0.00000000	75.56593000	31.25000000
109.29999369	0.00000000	76.31644000	31.99434000
109.49999368	0.00000000	77.52214000	33.24926000
109.69999366	0.00000000	79.01697000	35.11319000
109.89999365	0.00000000	80.17347000	37.01402000
110.09999364	0.00000000	80.59792000	37.75836000
110.29999363	0.00000000	80.59792000	37.42618000
110.49999362	0.00000000	80.17347000	36.26968000
110.69999360	0.00000000	79.01697000	34.73794000
110.89999359	0.00000000	77.52214000	33.20005000
111.09999358	0.00000000	76.36565000	32.04355000
111.29999357	0.00000000	75.99039000	31.61909000
111.49999356	0.00000000	76.31644000	31.61909000
111.69999355	0.00000000	77.10384000	32.04355000
111.89999353	0.00000000	77.85432000	33.15699000
112.09999352	0.00000000	78.68478000	34.31963000
112.29999351	0.00000000	79.43528000	35.11319000
112.49999350	0.00000000	80.17347000	35.89444000
112.69999349	0.00000000	80.17347000	36.26968000
112.89999347	0.00000000	79.47834000	36.26968000
113.09999346	0.00000000	79.06004000	35.89444000
113.29999345	0.00000000	78.64173000	35.15625000
113.49999344	0.00000000	77.89738000	34.78100000
113.69999343	0.00000000	77.52214000	34.73794000
113.89999341	0.00000000	77.47908000	34.69488000
114.09999340	0.00000000	77.52214000	34.31963000
114.29999339	0.00000000	77.89738000	33.57529000
114.49999338	0.00000000	78.64173000	33.20005000
114.69999337	0.00000000	79.01697000	33.15699000
114.89999336	0.00000000	79.06004000	33.15699000
115.09999334	0.00000000	79.06004000	33.15699000
115.29999333	0.00000000	79.06004000	33.15699000
115.49999332	0.00000000	79.06004000	33.20005000
115.69999331	0.00000000	79.06004000	33.57529000
115.89999330	0.00000000	79.01697000	34.36269000
116.09999328	0.00000000	78.64173000	35.11319000
116.29999327	0.00000000	77.89738000	35.89444000
116.49999326	0.00000000	77.52214000	36.26968000
116.69999325	0.00000000	77.47908000	36.26968000
116.89999324	0.00000000	77.47908000	35.89444000
117.09999322	0.00000000	77.52214000	35.11319000
117.29999321	0.00000000	77.89738000	34.36269000
117.49999320	0.00000000	78.68478000	33.53223000
117.69999319	0.00000000	79.43528000	32.78174000
117.89999318	0.00000000	80.22269000	31.99434000
118.09999317	0.00000000	80.54871000	31.66830000
118.29999315	0.00000000	80.22269000	31.99434000
118.49999314	0.00000000	79.39222000	32.73868000
118.69999313	0.00000000	78.26648000	33.15699000
118.89999312	0.00000000	76.73474000	33.57529000
119.09999311	0.00000000	75.99039000	34.31963000
119.29999309	0.00000000	75.89813000	34.69488000
119.49999308	0.00000000	75.94118000	34.73794000
119.69999307	0.00000000	76.36565000	34.73794000
119.89999306	0.00000000	77.47908000	34.73794000
120.09999305	0.00000000	78.64173000	34.69488000
120.29999303	0.00000000	79.43528000	34.31963000
120.49999302	0.00000000	80.22269000	33.57529000
120.69999301	0.00000000	80.59792000	33.15699000
120.89999300	0.00000000	80.59792000	32.73868000
121.09999299	0.00000000	80.17347000	31.99434000
121.29999298	0.00000000	79.01697000	31.61909000
121.49999296	0.00000000	77.52214000	31.61909000
121.69999295	0.00000000	76.36565000	31.99434000
121.89999294	0.00000000	75.94118000	32.73868000
122.09999293	0.00000000	75.89813000	33.15699000
122.29999292	0.00000000	75.94118000	33.57529000
122.49999290	0.00000000	76.31644000	34.31963000
122.69999289	0.00000000	77.10384000	34.69488000
122.89999288	0.00000000	77.89738000	34.73794000
123.09999287	0.00000000	79.06004000	34.73794000
123.29999286	0.00000000	80.17347000	34.73794000
123.49999284	0.00000000	80.59792000	34.69488000
123.69999283	0.00000000	80.64099000	34.31963000
123.89999282	0.00000000	80.59792000	33.57529000
124.09999281	0.00000000	80.17347000	33.20005000
124.29999280	0.00000000	79.06004000	33.15699000
124.49999279	0.00000000	77.94660000	33.15699000
124.69999277	0.00000000	77.47908000	33.15699000
124.89999276	0.00000000	77.06077000	33.20005000
125.09999275	0.00000000	76.36565000	33.57529000
125.29999274	0.00000000	76.36565000	34.31963000
125.49999273	0.00000000	77.06077000	34.73794000
125.69999271	0.00000000	77.47908000	35.15625000
125.89999270	0.00000000	77.89738000	35.85138000
126.09999269	0.00000000	78.68478000	35.85138000
126.29999268	0.00000000	79.43528000	35.15625000
126.49999267	0.00000000	80.22269000	34.78100000
126.69999265	0.00000000	80.59792000	34.73794000
126.89999264	0.00000000	80.59792000	34.69488000
127.09999263	0.00000000	80.17347000	34.31963000
127.29999262	0.00000000	79.06004000	33.62450000
127.49999261	0.00000000	77.89738000	33.62450000
127.69999260	0.00000000	77.10384000	34.31963000
127.89999258	0.00000000	76.36565000	34.69488000
128.09999257	0.00000000	76.36565000	34.73794000
128.29999256	0.00000000	77.10384000	34.73794000
128.49999255	0.00000000	77.89738000	34.73794000
128.69999254	0.00000000	79.10310000	34.73794000
128.89999252	0.00000000	80.54871000	34.73794000
129.09999251	0.00000000	81.33611000	34.73794000
129.29999250	0.00000000	80.97318000	34.73794000
129.49999249	0.00000000	80.26574000	34.73794000
129.69999248	0.00000000	79.43528000	34.73794000
129.89999246	0.00000000	78.68478000	34.73794000
130.09999245	0.00000000	77.89738000	34.73794000
130.29999244	0.00000000	77.52214000	34.73794000
130.49999243	0.00000000	77.52214000	34.73794000
130.69999242	0.00000000	77.89738000	34.73794000
130.89999241	0.00000000	78.68478000	34.73794000
131.09999239	0.00000000	79.43528000	34.73794000
131.29999238	0.00000000	80.22269000	34.69488000
131.49999237	0.00000000	80.59792000	34.36269000
131.69999236	0.00000000	80.59792000	33.95054000
131.89999235	0.00000000	80.22269000	33.90133000
132.09999233	0.00000000	79.43528000	33.11393000
132.29999232	0.00000000	78.68478000	32.08661000
132.49999231	0.00000000	77.89738000	32.04355000
132.69999230	0.00000000	77.52214000	32.73868000
132.89999229	0.00000000	77.52214000	33.15699000
133.09999227	0.00000000	77.89738000	33.57529000
133.29999226	0.00000000	78.64173000	34.31963000
133.49999225	0.00000000	79.01697000	34.69488000
133.69999224	0.00000000	79.06004000	34.73794000
133.89999223	0.00000000	79.06004000	34.69488000
134.09999222	0.00000000	79.06004000	34.31963000
134.29999220	0.00000000	79.01697000	33.57529000
134.49999219	0.00000000	78.68478000	33.15699000
134.69999218	0.00000000	78.31569000	32.73868000
134.89999217	0.00000000	78.68478000	31.99434000
135.09999216	0.00000000	79.01697000	31.66830000
135.29999214	0.00000000	79.06004000	31.99434000
135.49999213	0.00000000	79.06004000	32.78174000
135.69999212	0.00000000	79.06004000	33.53223000
135.89999211	0.00000000	79.06004000	34.31963000
136.09999210	0.00000000	79.01697000	34.73794000
136.29999208	0.00000000	78.64173000	35.15625000
136.49999207	0.00000000	77.89738000	35.85138000
136.69999206	0.00000000	77.52214000	35.85138000
136.89999205	0.00000000	77.52214000	35.15625000
137.09999204	0.00000000	77.89738000	34.73794000
137.29999203	0.00000000	78.68478000	34.31963000
137.49999201	0.00000000	79.43528000	33.57529000
137.69999200	0.00000000	80.22269000	33.20005000
137.89999199	0.00000000	80.59792000	33.15699000
138.09999198	0.00000000	80.59792000	33.15699000
138.29999197	0.00000000	80.22269000	33.15699000
138.49999195	0.00000000	79.43528000	33.20005000
138.69999194	0.00000000	78.68478000	33.57529000
138.89999193	0.00000000	77.89738000	34.31963000
139.09999192	0.00000000	77.52214000	34.73794000
139.29999191	0.00000000	77.52214000	35.15625000
139.49999189	0.00000000	77.89738000	35.89444000
139.69999188	0.00000000	78.64173000	36.22047000
139.89999187	0.00000000	79.06004000	35.89444000
140.09999186	0.00000000	79.47834000	35.15625000
140.29999185	0.00000000	80.22269000	34.73794000
140.49999184	0.00000000	80.59792000	34.31963000
140.69999182	0.00000000	80.59792000	33.57529000
140.89999181	0.00000000	80.22269000	33.15699000
141.09999180	0.00000000	79.47834000	32.78174000
141.29999179	0.00000000	79.06004000	32.41265000
141.49999178	0.00000000	78.68478000	32.82480000
141.69999176	0.00000000	78.31569000	33.57529000
141.89999175	0.00000000	78.68478000	34.73794000
142.09999174	0.00000000	79.01697000	35.85138000
142.29999173	0.00000000	79.10310000	36.26968000
142.49999172	0.00000000	79.43528000	36.31274000
142.69999170	0.00000000	79.84743000	36.26968000
142.89999169	0.00000000	79.81052000	35.85138000
143.09999168	0.00000000	79.84743000	34.73794000
143.29999167	0.00000000	79.43528000	33.62450000
143.49999166	0.00000000	79.10310000	33.15699000
143.69999165	0.00000000	79.06004000	32.78174000
143.89999163	0.00000000	79.06004000	32.41265000
144.09999162	0.00000000	79.06004000	32.82480000
144.29999161	0.00000000	79.06004000	33.53223000
144.49999160	0.00000000	79.10310000	34.36269000
144.69999159	0.00000000	79.43528000	35.11319000
144.89999157	0.00000000	79.84743000	35.89444000
145.09999156	0.00000000	79.81052000	36.22047000
145.29999155	0.00000000	79.84743000	35.89444000
145.49999154	0.00000000	79.43528000	35.15625000
145.69999153	0.00000000	79.10310000	34.73794000
145.89999151	0.00000000	79.06004000	34.31963000
146.09999150	0.00000000	79.06004000	33.57529000
146.29999149	0.00000000	79.06004000	33.20005000
146.49999148	0.00000000	79.10310000	33.15699000
146.69999147	0.00000000	79.47834000	33.15699000
146.89999146	0.00000000	80.22269000	33.20005000
147.09999144	0.00000000	80.59792000	33.57529000
147.29999143	0.00000000	80.64099000	34.31963000
147.49999142	0.00000000	80.59792000	34.69488000
147.69999141	0.00000000	80.22269000	34.73794000
147.89999140	0.00000000	79.47834000	34.73794000
148.09999138	0.00000000	79.10310000	34.73794000
148.29999137	0.00000000	79.06004000	34.73794000
148.49999136	0.00000000	79.06004000	34.73794000
148.69999135	0.00000000	79.06004000	34.69488000
148.89999134	0.00000000	79.06004000	34.31963000
149.09999132	0.00000000	79.10310000	33.57529000
149.29999131	0.00000000	79.47834000	33.20005000
149.49999130	0.00000000	80.22269000	33.15699000
149.69999129	0.00000000	80.59792000	33.15699000
149.89999128	0.00000000	80.59792000	33.20005000
150.09999127	0.00000000	80.22269000	33.57529000
150.29999125	0.00000000	79.47834000	34.31963000
150.49999124	0.00000000	79.10310000	34.69488000
150.69999123	0.00000000	79.06004000	34.73794000
150.89999122	0.00000000	79.06004000	34.73794000
151.09999121	0.00000000	79.06004000	34.73794000
151.29999119	0.00000000	79.06004000	34.69488000
151.49999118	0.00000000	79.06004000	34.31963000
151.69999117	0.00000000	79.06004000	33.57529000
151.89999116	0.00000000	79.06004000	33.20005000
152.09999115	0.00000000	79.06004000	33.15699000
152.29999113	0.00000000	79.10310000	33.15699000
152.49999112	0.00000000	79.47834000	33.15699000
152.69999111	0.00000000	80.22269000	33.20005000
152.89999110	0.00000000	80.54871000	33.57529000
153.09999109	0.00000000	80.22269000	34.31963000
153.29999108	0.00000000	79.47834000	34.69488000
153.49999106	0.00000000	79.10310000	34.73794000
153.69999105	0.00000000	79.06004000	34.73794000
153.89999104	0.00000000	79.06004000	34.73794000
154.09999103	0.00000000	79.01697000	34.73794000
154.29999102	0.00000000	78.64173000	34.73794000
154.49999100	0.00000000	77.94660000	34.73794000
154.69999099	0.00000000	77.94660000	34.73794000
154.89999098	0.00000000	78.64173000	34.69488000
155.09999097	0.00000000	79.01697000	34.31963000
155.29999096	0.00000000	79.10310000	33.57529000
155.49999094	0.00000000	79.47834000	33.20005000
155.69999093	0.00000000	80.22269000	33.15699000
155.89999092	0.00000000	80.59792000	33.20005000
156.09999091	0.00000000	80.59792000	33.57529000
156.29999090	0.00000000	80.22269000	34.31963000
156.49999089	0.00000000	79.47834000	34.69488000
156.69999087	0.00000000	79.10310000	34.78100000
156.89999086	0.00000000	79.06004000	35.15625000
157.09999085	0.00000000	79.06004000	35.89444000
157.29999084	0.00000000	79.06004000	36.22047000
157.49999083	0.00000000	79.06004000	35.89444000
157.69999081	0.00000000	79.10310000	35.15625000
157.89999080	0.00000000	79.43528000	34.78100000
158.09999079	0.00000000	79.84743000	34.69488000
158.29999078	0.00000000	79.85359000	34.31963000
158.49999077	0.00000000	80.26574000	33.57529000
158.69999075	0.00000000	80.59792000	33.24926000
158.89999074	0.00000000	80.64099000	33.57529000
159.09999073	0.00000000	80.64099000	34.31963000
159.29999072	0.00000000	80.64099000	34.73794000
159.49999071	0.00000000	80.59792000	35.15625000
159.69999070	0.00000000	80.22269000	35.89444000
159.89999068	0.00000000	79.47834000	36.26968000
160.09999067	0.00000000	79.10310000	36.26968000
160.29999066	0.00000000	79.06004000	35.89444000
160.49999065	0.00000000	79.06004000	35.15625000
160.69999064	0.00000000	79.06004000	34.78100000
160.89999062	0.00000000	79.06004000	34.69488000
161.09999061	0.00000000	79.10310000	34.36269000
161.29999060	0.00000000	79.47834000	33.95054000
161.49999059	0.00000000	80.22269000	33.98745000
161.69999058	0.00000000	80.59792000	33.95054000
161.89999056	0.00000000	80.64099000	34.36269000
162.09999055	0.00000000	80.64099000	34.69488000
162.29999054	0.00000000	80.64099000	34.73794000
162.49999053	0.00000000	80.59792000	34.73794000
162.69999052	0.00000000	80.22269000	34.73794000
162.89999051	0.00000000	79.47834000	34.73794000
163.09999049	0.00000000	79.10310000	34.73794000
163.29999048	0.00000000	79.06004000	34.73794000
163.49999047	0.00000000	79.06004000	34.73794000
163.69999046	0.00000000	79.06004000	34.69488000
163.89999045	0.00000000	79.06004000	34.36269000
164.09999043	0.00000000	79.06004000	33.95054000
164.29999042	0.00000000	79.10310000	33.94439000
164.49999041	0.00000000	79.43528000	33.53223000
164.69999040	0.00000000	79.84743000	33.20005000
164.89999039	0.00000000	79.85359000	33.15699000
165.09999037	0.00000000	80.26574000	33.15699000
165.29999036	0.00000000	80.59792000	33.15699000
165.49999035	0.00000000	80.59792000	33.20005000
165.69999034	0.00000000	80.22269000	33.57529000
165.89999033	0.00000000	79.47834000	34.31963000
166.09999032	0.00000000	79.10310000	34.69488000
166.29999030	0.00000000	79.06004000	34.73794000
166.49999029	0.00000000	79.06004000	34.73794000
166.69999028	0.00000000	79.01697000	34.69488000
166.89999027	0.00000000	78.68478000	34.31963000
167.09999026	0.00000000	78.31569000	33.57529000
167.29999024	0.00000000	78.68478000	33.20005000
167.49999023	0.00000000	79.06004000	33.15699000
167.69999022	0.00000000	79.47834000	33.15699000
167.89999021	0.00000000	80.22269000	33.15699000
168.09999020	0.00000000	80.59792000	33.15699000
168.29999018	0.00000000	80.64099000	33.20005000
168.49999017	0.00000000	80.64099000	33.57529000
168.69999016	0.00000000	80.59792000	34.27042000
168.89999015	0.00000000	80.22269000	34.31963000
169.09999014	0.00000000	79.47834000	33.99360000
169.29999013	0.00000000	79.10310000	34.36269000
169.49999011	0.00000000	79.06004000	34.64567000
169.69999010	0.00000000	79.06004000	34.36269000
169.89999009	0.00000000	79.06004000	33.99360000
170.09999008	0.00000000	79.10310000	34.36269000
170.29999007	0.00000000	79.47834000	34.69488000
170.49999005	0.00000000	80.22269000	34.73794000
170.69999004	0.00000000	80.59792000	34.73794000
170.89999003	0.00000000	80.64099000	34.73794000
171.09999002	0.00000000	80.64099000	34.73794000
171.29999001	0.00000000	80.64099000	34.73794000
171.49998999	0.00000000	80.64099000	34.73794000
171.69998998	0.00000000	80.64099000	34.73794000
171.89998997	0.00000000	80.64099000	34.73794000
172.09998996	0.00000000	80.64099000	34.73794000
172.29998995	0.00000000	80.59792000	34.73794000
172.49998994	0.00000000	80.22269000	34.73794000
172.69998992	0.00000000	79.52755000	34.73794000
172.89998991	0.00000000	79.52755000	34.73794000
173.09998990	0.00000000	80.22269000	34.73794000
173.29998989	0.00000000	80.59792000	34.73794000
173.49998988	0.00000000	80.64099000	34.73794000
173.69998986	0.00000000	80.64099000	34.73794000
173.89998985	0.00000000	80.64099000	34.73794000
174.09998984	0.00000000	80.64099000	34.73794000
174.29998983	0.00000000	80.64099000	34.73794000
174.49998982	0.00000000	80.64099000	34.73794000
174.69998980	0.00000000	80.64099000	34.73794000
174.89998979	0.00000000	80.59792000	34.73794000
175.09998978	0.00000000	80.26574000	34.73794000
175.29998977	0.00000000	79.89664000	34.73794000
175.49998976	0.00000000	80.26574000	34.73794000
175.69998975	0.00000000	80.59792000	34.73794000
175.89998973	0.00000000	80.64099000	34.73794000
176.09998972	0.00000000	80.64099000	34.73794000
176.29998971	0.00000000	80.64099000	34.73794000
176.49998970	0.00000000	80.64099000	34.73794000
176.69998969	0.00000000	80.64099000	34.73794000
176.89998967	0.00000000	80.64099000	34.73794000
177.09998966	0.00000000	80.64099000	34.73794000
177.29998965	0.00000000	80.64099000	34.73794000
177.49998964	0.00000000	80.59792000	34.73794000
177.69998963	0.00000000	80.26574000	34.73794000
177.89998961	0.00000000	79.85359000	34.73794000
178.09998960	0.00000000	79.89050000	34.73794000
178.29998959	0.00000000	79.85359000	34.73794000
178.49998958	0.00000000	80.26574000	34.73794000
178.69998957	0.00000000	80.59792000	34.73794000
178.89998956	0.00000000	80.64099000	34.73794000
179.09998954	0.00000000	80.64099000	34.73794000
179.29998953	0.00000000	80.64099000	34.73794000
179.49998952	0.00000000	80.64099000	34.73794000
179.69998951	0.00000000	80.64099000	34.69488000
179.89998950	0.00000000	80.64099000	34.31963000
180.09998948	0.00000000	80.64099000	33.57529000
180.29998947	0.00000000	80.59792000	33.20005000
180.49998946	0.00000000	80.22269000	33.15699000
180.69998945	0.00000000	79.52755000	33.15699000
180.89998944	0.00000000	79.47834000	33.15699000
181.09998942	0.00000000	79.80437000	33.20005000
181.29998941	0.00000000	79.43528000	33.57529000
181.49998940	0.00000000	79.15231000	34.31963000
181.69998939	0.00000000	79.43528000	34.69488000
181.89998938	0.00000000	79.84743000	34.73794000
182.09998937	0.00000000	79.85359000	34.73794000
182.29998935	0.00000000	80.26574000	34.69488000
182.49998934	0.00000000	80.59792000	34.31963000
182.69998933	0.00000000	80.64099000	33.57529000
182.89998932	0.00000000	80.64099000	33.20005000
183.09998931	0.00000000	80.64099000	33.15699000
183.29998929	0.00000000	80.59792000	33.15699000
183.49998928	0.00000000	80.26574000	33.15699000
183.69998927	0.00000000	79.85359000	33.15699000
183.89998926	0.00000000	79.89050000	33.20005000
184.09998925	0.00000000	79.85359000	33.57529000
184.29998923	0.00000000	80.26574000	34.31963000
184.49998922	0.00000000	80.54871000	34.69488000
184.69998921	0.00000000	80.26574000	34.73794000
184.89998920	0.00000000	79.89664000	34.73794000
185.09998919	0.00000000	80.26574000	34.73794000
185.29998918	0.00000000	80.59792000	34.73794000
185.49998916	0.00000000	80.64099000	34.73794000
185.69998915	0.00000000	80.64099000	34.69488000
185.89998914	0.00000000	80.64099000	34.31963000
186.09998913	0.00000000	80.64099000	33.57529000
186.29998912	0.00000000	80.64099000	33.20005000
186.49998910	0.00000000	80.64099000	33.20005000
186.69998909	0.00000000	80.64099000	33.57529000
186.89998908	0.00000000	80.64099000	34.31963000
187.09998907	0.00000000	80.64099000	34.69488000
187.29998906	0.00000000	80.59792000	34.78100000
187.49998904	0.00000000	80.26574000	35.15625000
187.69998903	0.00000000	79.89664000	35.89444000
187.89998902	0.00000000	80.26574000	36.22047000
188.09998901	0.00000000	80.59792000	35.89444000
188.29998900	0.00000000	80.64099000	35.15625000
188.49998899	0.00000000	80.64099000	34.78100000
188.69998897	0.00000000	80.64099000	34.73794000
188.89998896	0.00000000	80.64099000	34.73794000
189.09998895	0.00000000	80.64099000	34.69488000
189.29998894	0.00000000	80.64099000	34.36269000
189.49998893	0.00000000	80.64099000	33.99360000
189.69998891	0.00000000	80.59792000	34.36269000
189.89998890	0.00000000	80.26574000	34.73794000
190.09998889	0.00000000	79.89664000	35.11319000
190.29998888	0.00000000	80.26574000	35.47613000
190.49998887	0.00000000	80.59792000	35.11319000
190.69998885	0.00000000	80.64099000	34.78100000
190.89998884	0.00000000	80.64099000	34.73794000
191.09998883	0.00000000	80.64099000	34.73794000
191.29998882	0.00000000	80.64099000	34.73794000
191.49998881	0.00000000	80.64099000	34.73794000
191.69998880	0.00000000	80.64099000	34.73794000
191.89998878	0.00000000	80.64099000	34.73794000
192.09998877	0.00000000	80.64099000	34.73794000
192.29998876	0.00000000	80.64099000	34.69488000
192.49998875	0.00000000	80.64099000	34.36269000
192.69998874	0.00000000	80.64099000	33.99360000
192.89998872	0.00000000	80.64099000	34.36269000
193.09998871	0.00000000	80.64099000	34.69488000
193.29998870	0.00000000	80.64099000	34.73794000
193.49998869	0.00000000	80.64099000	34.73794000
193.69998868	0.00000000	80.64099000	34.73794000
193.89998866	0.00000000	80.64099000	34.73794000
194.09998865	0.00000000	80.64099000	34.73794000
194.29998864	0.00000000	80.64099000	34.73794000
194.49998863	0.00000000	80.64099000	34.73794000
194.69998862	0.00000000	80.64099000	34.73794000
194.89998861	0.00000000	80.64099000	34.73794000
195.09998859	0.00000000	80.64099000	34.69488000
195.29998858	0.00000000	80.64099000	34.31963000
195.49998857	0.00000000	80.64099000	33.57529000
195.69998856	0.00000000	80.64099000	33.20005000
195.89998855	0.00000000	80.59792000	33.15699000
196.09998853	0.00000000	80.22269000	33.15699000
