Time	Channel A	Channel B
(us)	(V)	(mV)

-4.49999956	0.00000000	36.36196000
-4.29999957	0.00000000	36.36196000
-4.09999958	0.00000000	36.36196000
-3.89999959	0.00000000	36.36196000
-3.69999960	0.00000000	36.36196000
-3.49999962	0.00000000	36.36196000
-3.29999963	0.00000000	36.36196000
-3.09999964	0.00000000	36.36196000
-2.89999965	0.00000000	36.26353000
-2.69999966	0.00000000	35.54380000
-2.49999968	0.00000000	34.73794000
-2.29999969	0.00000000	35.54380000
-2.09999970	0.00000000	36.26353000
-1.89999971	0.00000000	36.36196000
-1.69999972	0.00000000	36.31274000
-1.49999973	0.00000000	35.90059000
-1.29999975	0.00000000	35.09473000
-1.09999976	0.00000000	34.68258000
-0.89999977	0.00000000	34.68258000
-0.69999978	0.00000000	35.09473000
-0.49999979	0.00000000	35.85138000
-0.29999981	0.35125490	35.90059000
-0.09999982	0.70250980	35.50074000
0.10000017	1.05376500	35.54380000
0.30000016	1.05376500	35.50074000
0.50000015	0.70250980	35.94980000
0.70000013	0.17531990	36.31274000
0.90000012	-0.70250980	36.36196000
1.10000011	-1.75689000	36.36196000
1.30000010	-2.45940000	36.36196000
1.50000009	-2.81127000	36.36196000
1.70000008	-2.28408000	36.36196000
1.90000006	-1.05376500	36.36196000
2.10000005	0.87844490	36.36196000
2.30000004	2.98659000	36.31274000
2.50000003	4.74409400	35.90059000
2.70000002	5.44660400	35.09473000
2.90000000	4.56816000	34.68258000
3.09999999	2.45940000	34.63336000
3.29999998	-0.70250980	34.68258000
3.49999997	-4.21690500	35.09473000
3.69999996	-6.85223900	35.90059000
3.89999994	-8.08255400	36.31274000
4.09999993	-7.20410900	36.36196000
4.29999992	-4.39283900	36.36196000
4.49999991	-0.17531990	36.36196000
4.69999990	4.21690500	36.31274000
4.89999989	7.73129900	35.90059000
5.09999987	9.48818900	35.09473000
5.29999986	8.78567900	34.68258000
5.49999985	5.79847400	34.68258000
5.69999984	1.40563500	35.09473000
5.89999983	-3.33846000	35.90059000
6.09999981	-7.20410900	36.31274000
6.29999980	-9.31225400	36.36196000
6.49999979	-8.96099900	36.41117000
6.69999978	-6.50098400	36.77411000
6.89999977	-2.45940000	37.17397000
7.09999975	1.93282500	36.77411000
7.29999974	5.44660400	36.41117000
7.49999973	7.55536400	36.36196000
7.69999972	7.37942900	36.31274000
7.89999971	5.62254000	35.94980000
8.09999970	2.63533500	35.54995000
8.29999968	-0.70250980	35.94980000
8.49999967	-3.33846000	36.31274000
8.69999966	-4.91941500	36.36196000
8.89999965	-5.09534900	36.36196000
9.09999964	-3.86565000	36.36196000
9.29999962	-2.10814500	36.36196000
9.49999961	0.00000000	36.36196000
9.69999960	1.40563500	36.36196000
9.89999959	2.28408000	36.36196000
10.09999958	2.45940000	36.36196000
10.29999956	1.93282500	36.36196000
10.49999955	1.05376500	36.36196000
10.69999954	0.17531990	36.36196000
10.89999953	-0.52657480	36.36196000
11.09999952	-0.87844490	36.36196000
11.29999951	-0.87844490	36.36196000
11.49999949	-0.70250980	36.36196000
11.69999948	-0.52657480	36.36196000
11.89999947	-0.17531990	36.36196000
12.09999946	0.00000000	36.36196000
12.29999945	0.00000000	36.36196000
12.49999943	0.00000000	36.36196000
12.69999942	-0.17531990	36.36196000
12.89999941	-0.17531990	36.36196000
13.09999940	-0.17531990	36.31274000
13.29999939	0.00000000	35.94980000
13.49999937	0.00000000	35.54995000
13.69999936	0.00000000	35.94980000
13.89999935	0.00000000	36.31274000
14.09999934	0.00000000	36.36196000
14.29999933	0.00000000	36.36196000
14.49999932	0.00000000	36.31274000
14.69999930	0.00000000	35.94980000
14.89999929	0.00000000	35.54995000
15.09999928	0.00000000	35.94980000
15.29999927	0.00000000	36.31274000
15.49999926	0.00000000	36.36196000
15.69999924	0.00000000	36.36196000
15.89999923	0.00000000	36.36196000
16.09999922	0.00000000	36.36196000
16.29999921	0.00000000	36.36196000
16.49999920	0.00000000	36.36196000
16.69999919	0.00000000	36.36196000
16.89999917	0.00000000	36.36196000
17.09999916	0.00000000	36.36196000
17.29999915	0.00000000	36.36196000
17.49999914	0.00000000	36.36196000
17.69999913	0.00000000	36.36196000
17.89999911	0.00000000	36.36196000
18.09999910	0.00000000	36.36196000
18.29999909	0.00000000	36.36196000
18.49999908	0.00000000	36.36196000
18.69999907	0.00000000	36.36196000
18.89999905	0.00000000	36.36196000
19.09999904	0.00000000	36.36196000
19.29999903	0.00000000	36.36196000
19.49999902	0.00000000	36.36196000
19.69999901	0.00000000	36.36196000
19.89999900	0.00000000	36.36196000
20.09999898	0.00000000	36.36196000
20.29999897	0.00000000	36.36196000
20.49999896	0.00000000	36.36196000
20.69999895	0.00000000	36.36196000
20.89999894	0.00000000	36.36196000
21.09999892	0.00000000	36.36196000
21.29999891	0.00000000	36.36196000
21.49999890	0.00000000	36.41117000
21.69999889	0.00000000	36.72490000
21.89999888	0.00000000	36.71875000
22.09999886	0.00000000	35.54995000
22.29999885	0.00000000	35.19316000
22.49999884	0.00000000	35.90059000
22.69999883	0.00000000	36.31274000
22.89999882	0.00000000	36.36196000
23.09999881	0.00000000	36.36196000
23.29999879	0.00000000	36.31274000
23.49999878	0.00000000	35.90059000
23.69999877	0.00000000	35.09473000
23.89999876	0.00000000	34.73179000
24.09999875	0.00000000	35.14394000
24.29999873	0.00000000	36.36196000
24.49999872	0.00000000	37.63533000
24.69999871	0.00000000	38.50886000
24.89999870	0.00000000	39.41929000
25.09999869	0.00000000	40.19439000
25.29999867	0.00000000	40.59424000
25.49999866	0.00000000	39.68380000
25.69999865	0.00000000	37.58612000
25.89999864	0.00000000	34.63336000
26.09999863	0.00000000	31.68061000
26.29999862	0.00000000	29.53371000
26.49999860	0.00000000	28.26648000
26.69999859	0.00000000	28.36491000
26.89999858	0.00000000	30.55487000
27.09999857	0.00000000	35.24237000
27.29999856	0.00000000	41.56004000
27.49999854	0.00000000	47.87770000
27.69999853	0.00000000	52.51599000
27.89999852	0.00000000	54.15231000
28.09999851	0.00000000	51.96235000
28.29999850	0.00000000	45.54011000
28.49999848	0.00000000	35.80832000
28.69999847	0.00000000	24.80315000
28.89999846	0.00000000	15.06521000
29.09999845	0.00000000	8.84596300
29.29999844	0.00000000	8.49532500
29.49999843	0.00000000	15.36048000
29.69999841	0.00000000	28.05733000
29.89999840	0.00000000	44.56200000
30.09999839	0.00000000	60.56840000
30.29999838	0.00000000	71.98573000
30.49999837	0.00000000	76.11343000
30.69999835	0.00000000	70.97072000
30.89999834	0.00000000	56.95743000
31.09999833	0.00000000	37.08169000
31.29999832	0.00000000	15.47736000
31.49999831	0.00000000	-2.66363200
31.69999829	0.00000000	-13.21358000
31.89999828	0.00000000	-13.11516000
32.09999827	0.00000000	-1.64862200
32.29999826	0.00000000	19.08834000
32.49999825	0.00000000	44.51279000
32.69999824	0.00000000	69.03297000
32.89999822	0.00000000	87.16781000
33.09999821	0.00000000	93.89764000
33.29999820	0.00000000	87.57997000
33.49999819	0.00000000	69.74039000
33.69999818	0.00000000	43.90994000
33.89999816	0.00000000	15.62500000
34.09999815	0.00000000	-8.06471300
34.29999814	0.00000000	-21.62278000
34.49999813	0.00000000	-22.43479000
34.69999812	0.00000000	-9.75024500
34.89999810	0.00000000	13.48425000
35.09999809	0.00000000	41.41240000
35.29999808	0.00000000	68.11023000
35.49999807	0.00000000	87.53075000
35.69999806	0.00000000	95.17101000
35.89999805	0.00000000	89.31470000
36.09999803	0.00000000	71.98573000
36.29999802	0.00000000	47.42249000
36.49999801	0.00000000	20.77387000
36.69999800	0.00000000	-1.59940900
36.89999799	0.00000000	-14.28396000
37.09999797	0.00000000	-14.38238000
37.29999796	0.00000000	-2.61441900
37.49999795	0.00000000	17.26132000
37.69999794	0.00000000	40.90182000
37.89999793	0.00000000	62.45694000
38.09999791	0.00000000	76.42715000
38.29999790	0.00000000	80.33956000
38.49999789	0.00000000	73.62204000
38.69999788	0.00000000	58.93824000
38.89999787	0.00000000	40.34203000
39.09999786	0.00000000	22.60088000
39.29999784	0.00000000	9.86712600
39.49999783	0.00000000	4.76747000
39.69999782	0.00000000	8.08316900
39.89999781	0.00000000	18.57775000
40.09999780	0.00000000	32.80019000
40.29999778	0.00000000	46.30290000
40.49999777	0.00000000	55.22883000
40.69999776	0.00000000	58.32923000
40.89999775	0.00000000	55.78247000
41.09999774	0.00000000	48.69586000
41.29999772	0.00000000	39.06250000
41.49999771	0.00000000	30.65330000
41.69999770	0.00000000	25.50443000
41.89999769	0.00000000	24.18184000
42.09999768	0.00000000	26.63017000
42.29999767	0.00000000	31.21924000
42.49999765	0.00000000	36.26353000
42.69999764	0.00000000	40.49582000
42.89999763	0.00000000	42.63656000
43.09999762	0.00000000	42.68578000
43.29999761	0.00000000	41.04945000
43.49999759	0.00000000	38.55807000
43.69999758	0.00000000	36.46038000
43.89999757	0.00000000	35.19316000
44.09999756	0.00000000	35.14394000
44.29999755	0.00000000	35.94980000
44.49999753	0.00000000	36.72490000
44.69999752	0.00000000	37.12475000
44.89999751	0.00000000	36.26353000
45.09999750	0.00000000	34.68258000
45.29999749	0.00000000	33.35999000
45.49999748	0.00000000	32.58489000
45.69999746	0.00000000	32.59719000
45.89999745	0.00000000	34.36884000
46.09999744	0.00000000	37.23548000
46.29999743	0.00000000	40.64345000
46.49999742	0.00000000	43.14714000
46.69999740	0.00000000	44.41437000
46.89999739	0.00000000	43.90994000
47.09999738	0.00000000	40.95103000
47.29999737	0.00000000	36.36196000
47.49999736	0.00000000	31.72982000
47.69999734	0.00000000	28.36491000
47.89999733	0.00000000	27.04232000
48.09999732	0.00000000	27.90354000
48.29999731	0.00000000	30.45644000
48.49999730	0.00000000	34.73179000
48.69999729	0.00000000	39.73302000
48.89999727	0.00000000	43.95915000
49.09999726	0.00000000	46.09990000
49.29999725	0.00000000	46.14911000
49.49999724	0.00000000	44.46358000
49.69999723	0.00000000	41.51083000
49.89999721	0.00000000	38.09670000
50.09999720	0.00000000	34.73179000
50.29999719	0.00000000	32.18504000
50.49999718	0.00000000	31.26845000
50.69999717	0.00000000	31.21924000
50.89999715	0.00000000	31.72982000
51.09999714	0.00000000	33.40920000
51.29999713	0.00000000	35.90059000
51.49999712	0.00000000	38.04749000
51.69999711	0.00000000	39.83145000
51.89999710	0.00000000	41.51083000
52.09999708	0.00000000	42.73499000
52.29999707	0.00000000	42.78420000
52.49999706	0.00000000	41.92298000
52.69999705	0.00000000	40.64345000
52.89999704	0.00000000	38.45964000
53.09999702	0.00000000	35.94980000
53.29999701	0.00000000	33.40920000
53.49999700	0.00000000	31.72982000
53.69999699	0.00000000	31.31767000
53.89999698	0.00000000	32.13582000
54.09999696	0.00000000	34.27042000
54.29999695	0.00000000	36.82332000
54.49999694	0.00000000	39.83145000
54.69999693	0.00000000	42.68578000
54.89999692	0.00000000	43.95915000
55.09999691	0.00000000	43.14714000
55.29999689	0.00000000	41.04945000
55.49999688	0.00000000	38.04749000
55.69999687	0.00000000	34.73179000
55.89999686	0.00000000	32.18504000
56.09999685	0.00000000	31.31767000
56.29999683	0.00000000	31.72982000
56.49999682	0.00000000	33.45841000
56.69999681	0.00000000	36.41117000
56.89999680	0.00000000	39.78223000
57.09999679	0.00000000	42.68578000
57.29999677	0.00000000	43.95915000
57.49999676	0.00000000	43.14714000
57.69999675	0.00000000	41.04945000
57.89999674	0.00000000	38.04749000
58.09999673	0.00000000	34.68258000
58.29999672	0.00000000	31.72982000
58.49999670	0.00000000	30.04429000
58.69999669	0.00000000	30.09350000
58.89999668	0.00000000	32.18504000
59.09999667	0.00000000	35.95595000
59.29999666	0.00000000	39.73302000
59.49999664	0.00000000	42.73499000
59.69999663	0.00000000	44.41437000
59.89999662	0.00000000	44.36515000
60.09999661	0.00000000	42.27362000
60.29999660	0.00000000	38.50886000
60.49999658	0.00000000	34.68258000
60.69999657	0.00000000	31.26845000
60.89999656	0.00000000	28.82013000
61.09999655	0.00000000	28.82013000
61.29999654	0.00000000	31.21924000
61.49999653	0.00000000	34.22121000
61.69999651	0.00000000	37.23548000
61.89999650	0.00000000	40.64345000
62.09999649	0.00000000	43.09793000
62.29999648	0.00000000	44.00837000
62.49999647	0.00000000	43.19635000
62.69999645	0.00000000	41.51083000
62.89999644	0.00000000	39.32087000
63.09999643	0.00000000	36.41117000
63.29999642	0.00000000	33.87057000
63.49999641	0.00000000	32.53568000
63.69999639	0.00000000	31.68061000
63.89999638	0.00000000	31.72982000
64.09999637	0.00000000	32.94783000
64.29999636	0.00000000	34.63336000
64.49999635	0.00000000	36.36196000
64.69999634	0.00000000	38.14591000
64.89999632	0.00000000	40.24360000
65.09999631	0.00000000	42.37820000
65.29999630	0.00000000	43.60851000
65.49999629	0.00000000	44.05758000
65.69999628	0.00000000	43.14714000
65.89999626	0.00000000	41.00024000
66.09999625	0.00000000	37.58612000
66.29999624	0.00000000	33.40920000
66.49999623	0.00000000	30.04429000
66.69999622	0.00000000	28.31570000
66.89999620	0.00000000	28.31570000
67.09999619	0.00000000	30.04429000
67.29999618	0.00000000	33.50763000
67.49999617	0.00000000	38.55807000
67.69999616	0.00000000	44.00837000
67.89999615	0.00000000	47.82849000
68.09999613	0.00000000	49.56323000
68.29999612	0.00000000	49.05881000
68.49999611	0.00000000	45.64468000
68.69999610	0.00000000	39.78223000
68.89999609	0.00000000	33.45841000
69.09999607	0.00000000	28.36491000
69.29999606	0.00000000	25.35679000
69.49999605	0.00000000	25.00000000
69.69999604	0.00000000	27.49754000
69.89999603	0.00000000	32.53568000
70.09999601	0.00000000	38.04749000
70.29999600	0.00000000	43.19635000
70.49999599	0.00000000	47.42249000
70.69999598	0.00000000	49.46481000
70.89999597	0.00000000	48.69586000
71.09999596	0.00000000	45.28789000
71.29999594	0.00000000	40.69267000
71.49999593	0.00000000	35.54995000
71.69999592	0.00000000	31.36688000
71.89999591	0.00000000	28.72170000
72.09999590	0.00000000	27.90354000
72.29999588	0.00000000	28.77091000
72.49999587	0.00000000	31.77903000
72.69999586	0.00000000	36.36196000
72.89999585	0.00000000	41.00024000
73.09999584	0.00000000	44.36515000
73.29999582	0.00000000	45.68774000
73.49999581	0.00000000	44.87574000
73.69999580	0.00000000	42.78420000
73.89999579	0.00000000	39.78223000
74.09999578	0.00000000	36.36196000
74.29999577	0.00000000	32.99704000
74.49999575	0.00000000	30.45029000
74.69999574	0.00000000	29.63213000
74.89999573	0.00000000	30.45029000
75.09999572	0.00000000	32.99704000
75.29999571	0.00000000	36.36196000
75.49999569	0.00000000	39.78223000
75.69999568	0.00000000	42.73499000
75.89999567	0.00000000	44.36515000
76.09999566	0.00000000	43.95915000
76.29999565	0.00000000	41.46161000
76.49999563	0.00000000	38.04749000
76.69999562	0.00000000	34.22121000
76.89999561	0.00000000	30.45644000
77.09999560	0.00000000	28.36491000
77.29999559	0.00000000	28.41412000
77.49999558	0.00000000	30.91166000
77.69999556	0.00000000	35.54380000
77.89999555	0.00000000	40.18824000
78.09999554	0.00000000	44.51279000
78.29999553	0.00000000	47.77928000
78.49999552	0.00000000	48.64665000
78.69999550	0.00000000	46.51205000
78.89999549	0.00000000	42.27362000
79.09999548	0.00000000	36.31274000
79.29999547	0.00000000	30.04429000
79.49999546	0.00000000	25.40600000
79.69999544	0.00000000	23.72662000
79.89999543	0.00000000	25.35679000
80.09999542	0.00000000	29.63213000
80.29999541	0.00000000	35.54995000
80.49999540	0.00000000	42.37204000
80.69999539	0.00000000	48.24065000
80.89999537	0.00000000	52.10999000
81.09999536	0.00000000	52.87894000
81.29999535	0.00000000	50.37524000
81.49999534	0.00000000	44.82652000
81.69999533	0.00000000	37.68455000
81.89999531	0.00000000	30.45644000
82.09999530	0.00000000	25.00000000
82.29999529	0.00000000	22.40403000
82.49999528	0.00000000	23.21604000
82.69999527	0.00000000	26.63017000
82.89999525	0.00000000	32.18504000
83.09999524	0.00000000	39.37008000
83.29999523	0.00000000	46.14911000
83.49999522	0.00000000	51.24261000
83.69999521	0.00000000	53.78937000
83.89999520	0.00000000	52.97736000
84.09999518	0.00000000	49.56323000
84.29999517	0.00000000	44.00837000
84.49999516	0.00000000	36.82332000
84.69999515	0.00000000	30.04429000
84.89999514	0.00000000	24.90157000
85.09999512	0.00000000	21.99188000
85.29999511	0.00000000	22.40403000
85.49999510	0.00000000	26.21801000
85.69999509	0.00000000	32.13582000
85.89999508	0.00000000	39.37008000
86.09999506	0.00000000	46.14911000
86.29999505	0.00000000	51.29183000
86.49999504	0.00000000	54.25074000
86.69999503	0.00000000	54.20152000
86.89999502	0.00000000	50.78740000
87.09999501	0.00000000	44.46358000
87.29999499	0.00000000	36.87254000
87.49999498	0.00000000	30.04429000
87.69999497	0.00000000	24.90157000
87.89999496	0.00000000	21.99188000
88.09999495	0.00000000	22.40403000
88.29999493	0.00000000	26.21801000
88.49999492	0.00000000	32.13582000
88.69999491	0.00000000	39.37008000
88.89999490	0.00000000	46.09990000
89.09999489	0.00000000	50.78740000
89.29999487	0.00000000	52.51599000
89.49999486	0.00000000	51.24261000
89.69999485	0.00000000	47.42249000
89.89999484	0.00000000	41.51083000
90.09999483	0.00000000	35.14394000
90.29999482	0.00000000	29.63213000
90.49999480	0.00000000	25.81816000
90.69999479	0.00000000	24.95079000
90.89999478	0.00000000	26.58095000
91.09999477	0.00000000	29.99508000
91.29999476	0.00000000	34.68258000
91.49999474	0.00000000	39.78223000
91.69999473	0.00000000	44.41437000
91.89999472	0.00000000	47.37327000
92.09999471	0.00000000	47.77928000
92.29999470	0.00000000	45.73695000
92.49999468	0.00000000	41.97219000
92.69999467	0.00000000	38.14591000
92.89999466	0.00000000	34.68258000
93.09999465	0.00000000	31.77903000
93.29999464	0.00000000	30.50566000
93.49999463	0.00000000	31.26845000
93.69999461	0.00000000	32.89862000
93.89999460	0.00000000	34.73179000
94.09999459	0.00000000	37.23548000
94.29999458	0.00000000	40.18209000
94.49999457	0.00000000	41.82455000
94.69999455	0.00000000	42.37204000
94.89999454	0.00000000	41.92298000
95.09999453	0.00000000	41.09867000
95.29999452	0.00000000	39.78223000
95.49999451	0.00000000	38.14591000
95.69999449	0.00000000	36.82332000
95.89999448	0.00000000	35.99901000
96.09999447	0.00000000	35.54995000
96.29999446	0.00000000	35.94980000
96.49999445	0.00000000	36.31274000
96.69999444	0.00000000	36.41117000
96.89999442	0.00000000	36.82332000
97.09999441	0.00000000	37.68455000
97.29999440	0.00000000	38.50886000
97.49999439	0.00000000	39.37008000
97.69999438	0.00000000	39.78223000
97.89999436	0.00000000	39.83145000
98.09999435	0.00000000	39.83145000
98.29999434	0.00000000	39.78223000
98.49999433	0.00000000	39.37008000
98.69999432	0.00000000	38.55807000
98.89999430	0.00000000	38.09670000
99.09999429	0.00000000	37.63533000
99.29999428	0.00000000	36.82332000
99.49999427	0.00000000	36.41117000
99.69999426	0.00000000	36.41117000
99.89999425	0.00000000	36.82332000
100.09999423	0.00000000	37.68455000
100.29999422	0.00000000	38.50886000
100.49999421	0.00000000	39.41929000
100.69999420	0.00000000	40.24360000
100.89999419	0.00000000	41.04945000
101.09999417	0.00000000	41.04945000
101.29999416	0.00000000	40.24360000
101.49999415	0.00000000	39.37008000
101.69999414	0.00000000	38.09670000
101.89999413	0.00000000	36.87254000
102.09999411	0.00000000	36.41117000
102.29999410	0.00000000	36.36196000
102.49999409	0.00000000	36.41117000
102.69999408	0.00000000	36.87254000
102.89999407	0.00000000	38.09670000
103.09999406	0.00000000	39.37008000
103.29999404	0.00000000	40.19439000
103.49999403	0.00000000	40.64345000
103.69999402	0.00000000	40.24360000
103.89999401	0.00000000	39.83145000
104.09999400	0.00000000	39.32087000
104.29999398	0.00000000	38.09670000
104.49999397	0.00000000	36.82332000
104.69999396	0.00000000	35.99901000
104.89999395	0.00000000	35.54995000
105.09999394	0.00000000	35.99901000
105.29999392	0.00000000	36.77411000
105.49999391	0.00000000	37.68455000
105.69999390	0.00000000	38.50886000
105.89999389	0.00000000	39.37008000
106.09999388	0.00000000	39.78223000
106.29999387	0.00000000	39.83145000
106.49999385	0.00000000	39.78223000
106.69999384	0.00000000	39.32087000
106.89999383	0.00000000	38.04749000
107.09999382	0.00000000	36.41117000
107.29999381	0.00000000	35.14394000
107.49999379	0.00000000	34.73179000
107.69999378	0.00000000	35.09473000
107.89999377	0.00000000	35.94980000
108.09999376	0.00000000	36.82332000
108.29999375	0.00000000	38.14591000
108.49999374	0.00000000	39.78223000
108.69999372	0.00000000	41.04945000
108.89999371	0.00000000	41.46161000
109.09999370	0.00000000	41.04945000
109.29999369	0.00000000	39.78223000
109.49999368	0.00000000	38.09670000
109.69999366	0.00000000	36.36196000
109.89999365	0.00000000	34.68258000
110.09999364	0.00000000	33.45841000
110.29999363	0.00000000	33.50763000
110.49999362	0.00000000	35.09473000
110.69999360	0.00000000	37.22933000
110.89999359	0.00000000	38.96407000
111.09999358	0.00000000	41.14788000
111.29999357	0.00000000	43.14714000
111.49999356	0.00000000	44.00837000
111.69999355	0.00000000	43.14714000
111.89999353	0.00000000	41.09867000
112.09999352	0.00000000	38.55807000
112.29999351	0.00000000	36.36196000
112.49999350	0.00000000	34.27042000
112.69999349	0.00000000	32.59719000
112.89999347	0.00000000	32.63410000
113.09999346	0.00000000	33.87057000
113.29999345	0.00000000	36.41117000
113.49999344	0.00000000	39.37008000
113.69999343	0.00000000	41.92298000
113.89999341	0.00000000	44.00837000
114.09999340	0.00000000	44.41437000
114.29999339	0.00000000	43.19635000
114.49999338	0.00000000	41.09867000
114.69999337	0.00000000	38.55807000
114.89999336	0.00000000	36.41117000
115.09999334	0.00000000	34.68258000
115.29999333	0.00000000	33.50763000
115.49999332	0.00000000	33.91363000
115.69999331	0.00000000	35.99901000
115.89999330	0.00000000	38.50886000
116.09999328	0.00000000	41.04945000
116.29999327	0.00000000	42.73499000
116.49999326	0.00000000	43.19635000
116.69999325	0.00000000	42.78420000
116.89999324	0.00000000	41.51083000
117.09999322	0.00000000	39.83145000
117.29999321	0.00000000	38.09670000
117.49999320	0.00000000	36.41117000
117.69999319	0.00000000	35.19316000
117.89999318	0.00000000	35.19316000
118.09999317	0.00000000	36.41117000
118.29999315	0.00000000	38.09670000
118.49999314	0.00000000	39.78223000
118.69999313	0.00000000	41.04945000
118.89999312	0.00000000	41.51083000
119.09999311	0.00000000	41.51083000
119.29999309	0.00000000	41.04945000
119.49999308	0.00000000	39.78223000
119.69999307	0.00000000	38.14591000
119.89999306	0.00000000	36.87254000
120.09999305	0.00000000	36.41117000
120.29999303	0.00000000	36.41117000
120.49999302	0.00000000	36.82332000
120.69999301	0.00000000	37.68455000
120.89999300	0.00000000	38.50886000
121.09999299	0.00000000	39.37008000
121.29999298	0.00000000	39.78223000
121.49999296	0.00000000	39.78223000
121.69999295	0.00000000	39.37008000
121.89999294	0.00000000	38.50886000
122.09999293	0.00000000	37.68455000
122.29999292	0.00000000	36.82332000
122.49999290	0.00000000	36.41117000
122.69999289	0.00000000	36.36196000
122.89999288	0.00000000	36.41117000
123.09999287	0.00000000	36.87254000
123.29999286	0.00000000	38.09670000
123.49999284	0.00000000	39.32087000
123.69999283	0.00000000	39.78223000
123.89999282	0.00000000	39.83145000
124.09999281	0.00000000	39.78223000
124.29999280	0.00000000	39.32087000
124.49999279	0.00000000	38.09670000
124.69999277	0.00000000	36.87254000
124.89999276	0.00000000	36.41117000
125.09999275	0.00000000	36.41117000
125.29999274	0.00000000	36.82332000
125.49999273	0.00000000	37.68455000
125.69999271	0.00000000	38.50886000
125.89999270	0.00000000	39.41929000
126.09999269	0.00000000	40.24360000
126.29999268	0.00000000	41.04945000
126.49999267	0.00000000	41.04945000
126.69999265	0.00000000	40.24360000
126.89999264	0.00000000	39.37008000
127.09999263	0.00000000	38.09670000
127.29999262	0.00000000	36.87254000
127.49999261	0.00000000	36.41117000
127.69999260	0.00000000	36.41117000
127.89999258	0.00000000	36.87254000
128.09999257	0.00000000	38.14591000
128.29999256	0.00000000	39.78223000
128.49999255	0.00000000	41.04945000
128.69999254	0.00000000	41.51083000
128.89999252	0.00000000	41.51083000
129.09999251	0.00000000	41.09867000
129.29999250	0.00000000	40.24360000
129.49999249	0.00000000	39.41929000
129.69999248	0.00000000	38.50886000
129.89999246	0.00000000	37.68455000
130.09999245	0.00000000	36.87254000
130.29999244	0.00000000	36.92175000
130.49999243	0.00000000	38.09670000
130.69999242	0.00000000	39.32087000
130.89999241	0.00000000	39.78223000
131.09999239	0.00000000	39.83145000
131.29999238	0.00000000	39.83145000
131.49999237	0.00000000	39.83145000
131.69999236	0.00000000	39.83145000
131.89999235	0.00000000	39.78223000
132.09999233	0.00000000	39.37008000
132.29999232	0.00000000	38.55807000
132.49999231	0.00000000	38.14591000
132.69999230	0.00000000	38.14591000
132.89999229	0.00000000	38.55807000
133.09999227	0.00000000	39.37008000
133.29999226	0.00000000	39.78223000
133.49999225	0.00000000	39.83145000
133.69999224	0.00000000	39.78223000
133.89999223	0.00000000	39.37008000
134.09999222	0.00000000	38.55807000
134.29999220	0.00000000	38.09670000
134.49999219	0.00000000	37.68455000
134.69999218	0.00000000	37.28469000
134.89999217	0.00000000	37.73376000
135.09999216	0.00000000	38.50886000
135.29999214	0.00000000	39.37008000
135.49999213	0.00000000	39.83145000
135.69999212	0.00000000	40.24360000
135.89999211	0.00000000	40.59424000
136.09999210	0.00000000	39.78223000
136.29999208	0.00000000	38.60728000
136.49999207	0.00000000	38.09670000
136.69999206	0.00000000	37.63533000
136.89999205	0.00000000	36.82332000
137.09999204	0.00000000	36.41117000
137.29999203	0.00000000	36.41117000
137.49999201	0.00000000	36.87254000
137.69999200	0.00000000	38.14591000
137.89999199	0.00000000	39.78223000
138.09999198	0.00000000	41.04945000
138.29999197	0.00000000	41.51083000
138.49999195	0.00000000	41.51083000
138.69999194	0.00000000	41.04945000
138.89999193	0.00000000	39.83145000
139.09999192	0.00000000	38.55807000
139.29999191	0.00000000	37.63533000
139.49999189	0.00000000	36.41117000
139.69999188	0.00000000	35.59916000
139.89999187	0.00000000	35.99901000
140.09999186	0.00000000	36.77411000
140.29999185	0.00000000	37.68455000
140.49999184	0.00000000	38.55807000
140.69999182	0.00000000	39.83145000
140.89999181	0.00000000	41.04945000
141.09999180	0.00000000	41.51083000
141.29999179	0.00000000	41.51083000
141.49999178	0.00000000	41.04945000
141.69999176	0.00000000	39.83145000
141.89999175	0.00000000	38.60728000
142.09999174	0.00000000	38.09670000
142.29999173	0.00000000	37.58612000
142.49999172	0.00000000	36.46038000
142.69999170	0.00000000	36.06053000
142.89999169	0.00000000	37.22933000
143.09999168	0.00000000	38.04749000
143.29999167	0.00000000	38.55807000
143.49999166	0.00000000	39.41929000
143.69999165	0.00000000	40.24360000
143.89999163	0.00000000	41.09867000
144.09999162	0.00000000	41.51083000
144.29999161	0.00000000	41.51083000
144.49999160	0.00000000	41.04945000
144.69999159	0.00000000	39.83145000
144.89999157	0.00000000	38.60728000
145.09999156	0.00000000	38.14591000
145.29999155	0.00000000	38.09670000
145.49999154	0.00000000	38.09670000
145.69999153	0.00000000	38.09670000
145.89999151	0.00000000	38.09670000
146.09999150	0.00000000	38.14591000
146.29999149	0.00000000	38.55807000
146.49999148	0.00000000	39.41929000
146.69999147	0.00000000	40.24360000
146.89999146	0.00000000	41.09867000
147.09999144	0.00000000	41.51083000
147.29999143	0.00000000	41.51083000
147.49999142	0.00000000	41.09867000
147.69999141	0.00000000	40.24360000
147.89999140	0.00000000	39.41929000
148.09999138	0.00000000	38.55807000
148.29999137	0.00000000	38.14591000
148.49999136	0.00000000	38.09670000
148.69999135	0.00000000	38.09670000
148.89999134	0.00000000	38.14591000
149.09999132	0.00000000	38.55807000
149.29999131	0.00000000	39.37008000
149.49999130	0.00000000	39.83145000
149.69999129	0.00000000	40.24360000
149.89999128	0.00000000	40.64345000
150.09999127	0.00000000	40.24360000
150.29999125	0.00000000	39.83145000
150.49999124	0.00000000	39.37008000
150.69999123	0.00000000	38.55807000
150.89999122	0.00000000	38.14591000
151.09999121	0.00000000	38.09670000
151.29999119	0.00000000	38.09670000
151.49999118	0.00000000	38.09670000
151.69999117	0.00000000	38.14591000
151.89999116	0.00000000	38.55807000
152.09999115	0.00000000	39.37008000
152.29999113	0.00000000	39.78223000
152.49999112	0.00000000	39.83145000
152.69999111	0.00000000	39.83145000
152.89999110	0.00000000	39.78223000
153.09999109	0.00000000	39.37008000
153.29999108	0.00000000	38.55807000
153.49999106	0.00000000	38.14591000
153.69999105	0.00000000	38.09670000
153.89999104	0.00000000	38.09670000
154.09999103	0.00000000	38.14591000
154.29999102	0.00000000	38.55807000
154.49999100	0.00000000	39.37008000
154.69999099	0.00000000	39.78223000
154.89999098	0.00000000	39.83145000
155.09999097	0.00000000	39.83145000
155.29999096	0.00000000	39.78223000
155.49999094	0.00000000	39.41929000
155.69999093	0.00000000	39.01944000
155.89999092	0.00000000	39.41929000
156.09999091	0.00000000	39.78223000
156.29999090	0.00000000	39.83145000
156.49999089	0.00000000	39.83145000
156.69999087	0.00000000	39.83145000
156.89999086	0.00000000	39.83145000
157.09999085	0.00000000	39.78223000
157.29999084	0.00000000	39.37008000
157.49999083	0.00000000	38.55807000
157.69999081	0.00000000	38.19513000
157.89999080	0.00000000	38.50886000
158.09999079	0.00000000	38.90871000
158.29999078	0.00000000	38.55807000
158.49999077	0.00000000	38.55807000
158.69999075	0.00000000	38.95792000
158.89999074	0.00000000	38.97022000
159.09999073	0.00000000	39.41929000
159.29999072	0.00000000	39.78223000
159.49999071	0.00000000	39.78223000
159.69999070	0.00000000	39.37008000
159.89999068	0.00000000	38.55807000
160.09999067	0.00000000	38.14591000
160.29999066	0.00000000	38.14591000
160.49999065	0.00000000	38.55807000
160.69999064	0.00000000	39.37008000
160.89999062	0.00000000	39.78223000
161.09999061	0.00000000	39.88066000
161.29999060	0.00000000	40.24360000
161.49999059	0.00000000	40.64345000
161.69999058	0.00000000	40.24360000
161.89999056	0.00000000	39.88066000
162.09999055	0.00000000	39.83145000
162.29999054	0.00000000	39.83145000
162.49999053	0.00000000	39.78223000
162.69999052	0.00000000	39.41929000
162.89999051	0.00000000	39.01944000
163.09999049	0.00000000	39.41929000
163.29999048	0.00000000	39.78223000
163.49999047	0.00000000	39.83145000
163.69999046	0.00000000	39.83145000
163.89999045	0.00000000	39.83145000
164.09999043	0.00000000	39.83145000
164.29999042	0.00000000	39.83145000
164.49999041	0.00000000	39.83145000
164.69999040	0.00000000	39.83145000
164.89999039	0.00000000	39.83145000
165.09999037	0.00000000	39.88066000
165.29999036	0.00000000	40.24360000
165.49999035	0.00000000	40.64345000
165.69999034	0.00000000	40.24360000
165.89999033	0.00000000	39.88066000
166.09999032	0.00000000	39.83145000
166.29999030	0.00000000	39.83145000
166.49999029	0.00000000	39.83145000
166.69999028	0.00000000	39.83145000
166.89999027	0.00000000	39.83145000
167.09999026	0.00000000	39.83145000
167.29999024	0.00000000	39.78223000
167.49999023	0.00000000	39.37008000
167.69999022	0.00000000	38.55807000
167.89999021	0.00000000	38.14591000
168.09999020	0.00000000	38.09670000
168.29999018	0.00000000	38.14591000
168.49999017	0.00000000	38.55807000
168.69999016	0.00000000	39.37008000
168.89999015	0.00000000	39.78223000
169.09999014	0.00000000	39.83145000
169.29999013	0.00000000	39.78223000
169.49999011	0.00000000	39.41929000
169.69999010	0.00000000	38.97022000
169.89999009	0.00000000	38.95792000
170.09999008	0.00000000	38.50886000
170.29999007	0.00000000	38.14591000
170.49999005	0.00000000	38.09670000
170.69999004	0.00000000	38.09670000
170.89999003	0.00000000	38.14591000
171.09999002	0.00000000	38.55807000
171.29999001	0.00000000	39.37008000
171.49998999	0.00000000	39.78223000
171.69998998	0.00000000	39.83145000
171.89998997	0.00000000	39.83145000
172.09998996	0.00000000	39.83145000
172.29998995	0.00000000	39.83145000
172.49998994	0.00000000	39.83145000
172.69998992	0.00000000	39.83145000
172.89998991	0.00000000	39.78223000
173.09998990	0.00000000	39.41929000
173.29998989	0.00000000	39.01944000
173.49998988	0.00000000	39.41929000
173.69998986	0.00000000	39.78223000
173.89998985	0.00000000	39.83145000
174.09998984	0.00000000	39.83145000
174.29998983	0.00000000	39.88066000
174.49998982	0.00000000	40.29281000
174.69998980	0.00000000	41.09867000
174.89998979	0.00000000	41.46161000
175.09998978	0.00000000	41.09867000
175.29998977	0.00000000	40.29281000
175.49998976	0.00000000	39.88066000
175.69998975	0.00000000	39.83145000
175.89998973	0.00000000	39.83145000
176.09998972	0.00000000	39.83145000
176.29998971	0.00000000	39.83145000
176.49998970	0.00000000	39.83145000
176.69998969	0.00000000	39.88066000
176.89998967	0.00000000	40.29281000
177.09998966	0.00000000	41.09867000
177.29998965	0.00000000	41.46161000
177.49998964	0.00000000	41.09867000
177.69998963	0.00000000	40.34203000
177.89998961	0.00000000	40.29281000
178.09998960	0.00000000	40.64345000
178.29998959	0.00000000	40.24360000
178.49998958	0.00000000	39.88066000
178.69998957	0.00000000	39.83145000
178.89998956	0.00000000	39.83145000
179.09998954	0.00000000	39.83145000
179.29998953	0.00000000	39.83145000
179.49998952	0.00000000	39.83145000
179.69998951	0.00000000	39.83145000
179.89998950	0.00000000	39.83145000
180.09998948	0.00000000	39.83145000
180.29998947	0.00000000	39.83145000
180.49998946	0.00000000	39.83145000
180.69998945	0.00000000	39.83145000
180.89998944	0.00000000	39.83145000
181.09998942	0.00000000	39.83145000
181.29998941	0.00000000	39.83145000
181.49998940	0.00000000	39.83145000
181.69998939	0.00000000	39.83145000
181.89998938	0.00000000	39.83145000
182.09998937	0.00000000	39.83145000
182.29998935	0.00000000	39.83145000
182.49998934	0.00000000	39.83145000
182.69998933	0.00000000	39.83145000
182.89998932	0.00000000	39.83145000
183.09998931	0.00000000	39.83145000
183.29998929	0.00000000	39.83145000
183.49998928	0.00000000	39.83145000
183.69998927	0.00000000	39.83145000
183.89998926	0.00000000	39.83145000
184.09998925	0.00000000	39.83145000
184.29998923	0.00000000	39.83145000
184.49998922	0.00000000	39.83145000
184.69998921	0.00000000	39.83145000
184.89998920	0.00000000	39.83145000
185.09998919	0.00000000	39.83145000
185.29998918	0.00000000	39.83145000
185.49998916	0.00000000	39.83145000
185.69998915	0.00000000	39.83145000
185.89998914	0.00000000	39.83145000
186.09998913	0.00000000	39.83145000
186.29998912	0.00000000	39.83145000
186.49998910	0.00000000	39.83145000
186.69998909	0.00000000	39.88066000
186.89998908	0.00000000	40.24360000
187.09998907	0.00000000	40.64345000
187.29998906	0.00000000	40.24360000
187.49998904	0.00000000	39.88066000
187.69998903	0.00000000	39.83145000
187.89998902	0.00000000	39.83145000
188.09998901	0.00000000	39.83145000
188.29998900	0.00000000	39.83145000
188.49998899	0.00000000	39.83145000
188.69998897	0.00000000	39.83145000
188.89998896	0.00000000	39.83145000
189.09998895	0.00000000	39.88066000
189.29998894	0.00000000	40.29281000
189.49998893	0.00000000	41.09867000
189.69998891	0.00000000	41.46161000
189.89998890	0.00000000	41.14788000
190.09998889	0.00000000	40.69882000
190.29998888	0.00000000	40.69267000
190.49998887	0.00000000	40.24360000
190.69998885	0.00000000	39.88066000
190.89998884	0.00000000	39.83145000
191.09998883	0.00000000	39.83145000
191.29998882	0.00000000	39.78223000
191.49998881	0.00000000	39.41929000
191.69998880	0.00000000	39.01944000
191.89998878	0.00000000	39.46850000
192.09998877	0.00000000	40.24360000
192.29998876	0.00000000	41.09867000
192.49998875	0.00000000	41.51083000
192.69998874	0.00000000	41.56004000
192.89998872	0.00000000	41.51083000
193.09998871	0.00000000	41.09867000
193.29998870	0.00000000	40.29281000
193.49998869	0.00000000	39.88066000
193.69998868	0.00000000	39.83145000
193.89998866	0.00000000	39.83145000
194.09998865	0.00000000	39.83145000
194.29998864	0.00000000	39.83145000
194.49998863	0.00000000	39.83145000
194.69998862	0.00000000	39.83145000
194.89998861	0.00000000	39.88066000
195.09998859	0.00000000	40.29281000
195.29998858	0.00000000	41.04945000
195.49998857	0.00000000	41.04945000
195.69998856	0.00000000	40.29281000
195.89998855	0.00000000	39.88066000
196.09998853	0.00000000	39.83145000
