Time	Channel A	Channel B	Channel C
(us)	(V)	(mV)	(mV)

-4.59999956	0.00000000	-80.64099000	-25.26452000
-4.39999957	0.00000000	-80.68405000	-25.26452000
-4.19999958	0.00000000	-81.01624000	-25.26452000
-3.99999959	0.00000000	-81.38533000	-25.26452000
-3.79999960	0.00000000	-81.01624000	-25.26452000
-3.59999962	0.00000000	-80.68405000	-25.26452000
-3.39999963	0.00000000	-80.64099000	-25.26452000
-3.19999964	0.00000000	-80.68405000	-25.26452000
-2.99999965	0.00000000	-81.01624000	-25.26452000
-2.79999966	0.00000000	-81.38533000	-25.26452000
-2.59999968	0.00000000	-81.01624000	-25.26452000
-2.39999969	0.00000000	-80.68405000	-25.26452000
-2.19999970	0.00000000	-80.68405000	-25.26452000
-1.99999971	0.00000000	-81.01624000	-25.26452000
-1.79999972	0.00000000	-81.38533000	-25.26452000
-1.59999973	0.00000000	-81.01624000	-25.26452000
-1.39999975	0.00000000	-80.73326000	-25.26452000
-1.19999976	0.00000000	-81.05930000	-25.26452000
-0.99999977	0.00000000	-81.75443000	-25.26452000
-0.79999978	0.00000000	-81.75443000	-25.26452000
-0.59999979	0.00000000	-81.05930000	-25.26452000
-0.39999981	0.15871060	-80.68405000	-25.26452000
-0.19999982	0.47736220	-80.64099000	-25.26452000
0.00000017	0.79601380	-80.68405000	-25.26452000
0.20000016	0.95533960	-81.05930000	-25.26452000
0.40000015	0.95533960	-81.75443000	-25.26452000
0.60000013	0.63668800	-81.80363000	-25.26452000
0.80000012	0.00000000	-81.43454000	-25.26452000
1.00000011	-1.11466500	-81.47145000	-25.26452000
1.20000010	-2.07062000	-81.39148000	-25.26452000
1.40000009	-2.70792300	-81.42839000	-25.26452000
1.60000008	-2.70792300	-81.05930000	-25.26452000
1.80000006	-1.91129400	-81.05930000	-25.26452000
2.00000005	-0.31803640	-81.38533000	-25.26452000
2.20000004	1.59264300	-81.01624000	-25.22145000
2.40000003	3.66326300	-80.73326000	-24.88927000
2.60000002	5.09719500	-81.01624000	-24.52018000
2.80000000	5.25652100	-81.38533000	-24.88927000
2.99999999	3.98191400	-81.05930000	-25.22145000
3.19999998	1.43331700	-81.05930000	-25.26452000
3.39999997	-1.91129400	-81.38533000	-25.26452000
3.59999996	-5.09719500	-81.01624000	-25.26452000
3.79999994	-7.48646600	-80.68405000	-25.26452000
3.99999993	-7.96444400	-80.64099000	-25.22145000
4.19999992	-6.37180100	-80.59792000	-24.88927000
4.39999991	-3.02657500	-80.26574000	-24.47712000
4.59999990	1.27399100	-79.89664000	-24.51402000
4.79999989	5.41584600	-80.30881000	-24.47712000
4.99999987	8.44242100	-80.97318000	-24.88927000
5.19999986	9.55770200	-81.42839000	-25.22145000
5.39999985	7.96444400	-81.39148000	-25.26452000
5.59999984	4.45989200	-81.42839000	-25.26452000
5.79999983	-0.15871060	-81.01624000	-25.26452000
5.99999981	-4.77854300	-80.68405000	-25.26452000
6.19999980	-8.12377000	-80.64099000	-25.26452000
6.39999979	-9.39837600	-80.64099000	-25.22145000
6.59999978	-8.44242100	-80.64099000	-24.84621000
6.79999977	-5.41584600	-80.64099000	-24.10187000
6.99999975	-1.11466500	-80.64099000	-23.72662000
7.19999974	3.18590100	-80.64099000	-23.72662000
7.39999973	6.37180100	-80.64099000	-24.10187000
7.59999972	7.80511800	-80.64099000	-24.84621000
7.79999971	7.16781500	-80.64099000	-25.22145000
7.99999970	4.93786900	-80.64099000	-25.26452000
8.19999968	1.59264300	-80.64099000	-25.26452000
8.39999967	-1.59264300	-80.64099000	-25.26452000
8.59999966	-3.98191400	-80.64099000	-25.22145000
8.79999965	-5.09719500	-80.64099000	-24.84621000
8.99999964	-4.93786900	-80.64099000	-24.15108000
9.19999962	-3.50393700	-80.64099000	-24.15108000
9.39999961	-1.59264300	-80.64099000	-24.84621000
9.59999960	0.31803640	-80.64099000	-25.17224000
9.79999959	1.75196900	-80.64099000	-24.88927000
9.99999958	2.38927200	-80.64099000	-24.52018000
10.19999956	2.38927200	-80.64099000	-24.88927000
10.39999955	1.91129400	-80.64099000	-25.22145000
10.59999954	0.95533960	-80.64099000	-25.26452000
10.79999953	0.15871060	-80.64099000	-25.26452000
10.99999952	-0.47736220	-80.64099000	-25.26452000
11.19999951	-0.95533960	-80.59792000	-25.22145000
11.39999949	-0.95533960	-80.30881000	-24.88927000
11.59999948	-0.79601380	-80.27190000	-24.47712000
11.79999947	-0.63668800	-81.01009000	-24.51402000
11.99999946	-0.31803640	-80.97318000	-24.43405000
12.19999945	-0.15871060	-80.68405000	-24.47096000
12.39999943	-0.15871060	-80.64099000	-24.10187000
12.59999942	0.00000000	-80.64099000	-24.15108000
12.79999941	0.00000000	-80.64099000	-24.84621000
12.99999940	0.00000000	-80.64099000	-25.22145000
13.19999939	0.00000000	-80.64099000	-25.26452000
13.39999937	0.00000000	-80.64099000	-25.26452000
13.59999936	0.00000000	-80.64099000	-25.26452000
13.79999935	0.00000000	-80.64099000	-25.26452000
13.99999934	0.00000000	-80.64099000	-25.26452000
14.19999933	-0.15871060	-80.64099000	-25.26452000
14.39999932	-0.15871060	-80.68405000	-25.26452000
14.59999930	0.00000000	-81.01624000	-25.26452000
14.79999929	0.00000000	-81.38533000	-25.26452000
14.99999928	0.00000000	-81.01624000	-25.26452000
15.19999927	0.00000000	-80.68405000	-25.26452000
15.39999926	0.00000000	-80.64099000	-25.26452000
15.59999924	0.00000000	-80.64099000	-25.26452000
15.79999923	0.00000000	-80.64099000	-25.22145000
15.99999922	0.00000000	-80.64099000	-24.84621000
16.19999921	0.00000000	-80.64099000	-24.15108000
16.39999920	0.00000000	-80.64099000	-24.15108000
16.59999919	-0.15871060	-80.59792000	-24.84621000
16.79999917	-0.15871060	-80.22269000	-25.22145000
16.99999916	0.00000000	-79.47834000	-25.26452000
17.19999915	0.00000000	-79.10310000	-25.26452000
17.39999914	0.00000000	-79.06004000	-25.26452000
17.59999913	0.00000000	-79.06004000	-25.26452000
17.79999911	0.00000000	-79.15231000	-25.26452000
17.99999910	0.00000000	-79.89664000	-25.26452000
18.19999909	0.00000000	-81.42839000	-25.26452000
18.39999908	0.00000000	-82.59719000	-25.26452000
18.59999907	0.00000000	-83.84596000	-25.26452000
18.79999905	0.00000000	-85.29158000	-25.26452000
18.99999904	0.00000000	-86.03592000	-25.26452000
19.19999903	0.00000000	-85.24852000	-25.26452000
19.39999902	0.00000000	-83.29231000	-25.26452000
19.59999901	0.00000000	-80.17347000	-25.26452000
19.79999900	0.00000000	-76.31644000	-25.26452000
19.99999898	0.00000000	-72.82849000	-25.26452000
20.19999897	0.00000000	-70.17101000	-25.26452000
20.39999896	0.00000000	-69.47588000	-25.26452000
20.59999895	0.00000000	-71.80117000	-25.26452000
20.79999894	0.00000000	-76.45177000	-25.22145000
20.99999892	0.00000000	-82.77559000	-24.88927000
21.19999891	0.00000000	-90.45890000	-24.52018000
21.39999890	0.00000000	-97.71161000	-24.88927000
21.59999889	0.00000000	-101.48870000	-25.17224000
21.79999888	0.00000000	-100.69510000	-24.88927000
21.99999886	0.00000000	-94.83266000	-24.52018000
22.19999885	0.00000000	-84.73794000	-24.88927000
22.39999884	0.00000000	-72.36097000	-25.22145000
22.59999883	0.00000000	-60.03321000	-25.26452000
22.79999882	0.00000000	-51.23646000	-25.22145000
22.99999881	0.00000000	-48.57898000	-24.84621000
23.19999879	0.00000000	-53.27879000	-24.10187000
23.39999878	0.00000000	-64.95447000	-23.68356000
23.59999877	0.00000000	-81.56988000	-23.26525000
23.79999876	0.00000000	-99.71087000	-22.52091000
23.99999875	0.00000000	-114.70230000	-22.19488000
24.19999873	0.00000000	-122.79160000	-22.52091000
24.39999872	0.00000000	-121.54280000	-23.30832000
24.59999871	0.00000000	-110.69760000	-24.15108000
24.79999870	0.00000000	-92.08907000	-25.72589000
24.99999869	0.00000000	-69.70964000	-27.95891000
25.19999867	0.00000000	-48.49286000	-29.49065000
25.39999866	0.00000000	-33.87672000	-29.90895000
25.59999865	0.00000000	-29.64444000	-29.49065000
25.79999864	0.00000000	-37.03863000	-27.86663000
25.99999863	0.00000000	-54.77362000	-24.75394000
26.19999862	0.00000000	-78.72785000	-20.52780000
26.39999860	0.00000000	-103.06960000	-16.33858000
26.59999859	0.00000000	-122.79160000	-13.60113000
26.79999858	0.00000000	-133.13240000	-12.89985000
26.99999857	0.00000000	-131.26230000	-14.48696000
27.19999856	0.00000000	-117.77190000	-19.16830000
27.39999854	0.00000000	-96.54896000	-25.72589000
27.59999853	0.00000000	-72.17027000	-33.11393000
27.79999852	0.00000000	-50.15994000	-40.03444000
27.99999851	0.00000000	-35.45768000	-44.59276000
28.19999850	0.00000000	-31.18233000	-45.33095000
28.39999848	0.00000000	-38.06594000	-41.38779000
28.59999847	0.00000000	-53.88779000	-33.25541000
28.79999846	0.00000000	-74.73548000	-22.01649000
28.99999845	0.00000000	-95.99532000	-10.07013000
29.19999844	0.00000000	-112.65380000	-0.08612204
29.39999843	0.00000000	-121.62890000	5.25959600
29.59999841	0.00000000	-121.67810000	4.05388800
29.79999840	0.00000000	-113.20740000	-3.70324800
29.99999839	0.00000000	-98.54822000	-16.84916000
30.19999838	0.00000000	-81.10236000	-32.64640000
30.39999837	0.00000000	-64.48695000	-47.33021000
30.59999835	0.00000000	-52.07308000	-57.73868000
30.79999834	0.00000000	-46.62893000	-61.59571000
30.99999833	0.00000000	-48.44980000	-57.69562000
31.19999832	0.00000000	-56.58218000	-46.81963000
31.39999831	0.00000000	-68.92224000	-30.60408000
31.59999829	0.00000000	-82.87401000	-12.44464000
31.79999828	0.00000000	-95.25098000	3.35876000
31.99999827	0.00000000	-103.81400000	13.80413000
32.19999826	0.00000000	-106.93280000	16.04331000
32.39999825	0.00000000	-104.27530000	9.53494100
32.59999824	0.00000000	-96.96727000	-4.35531500
32.79999822	0.00000000	-86.92175000	-22.10261000
32.99999821	0.00000000	-76.45177000	-39.94832000
33.19999820	0.00000000	-67.51968000	-54.63213000
33.39999819	0.00000000	-61.74335000	-63.13361000
33.59999818	0.00000000	-60.58685000	-63.50270000
33.79999816	0.00000000	-64.35777000	-55.78863000
33.99999815	0.00000000	-71.29060000	-41.52312000
34.19999814	0.00000000	-79.39222000	-24.14493000
34.39999813	0.00000000	-87.19856000	-7.51107200
34.59999812	0.00000000	-92.93183000	5.21653500
34.79999810	0.00000000	-95.62007000	11.01747000
34.99999809	0.00000000	-93.71308000	8.79060000
35.19999808	0.00000000	-88.41042000	-0.08612204
35.39999807	0.00000000	-81.84669000	-13.60728000
35.59999806	0.00000000	-75.28912000	-29.02928000
35.79999805	0.00000000	-70.68159000	-42.55044000
35.99999803	0.00000000	-69.10064000	-51.42716000
36.19999802	0.00000000	-70.63853000	-53.70325000
36.39999801	0.00000000	-74.82775000	-48.40059000
36.59999800	0.00000000	-80.22269000	-37.67224000
36.79999799	0.00000000	-85.20546000	-24.97539000
36.99999797	0.00000000	-88.68725000	-12.99828000
37.19999796	0.00000000	-89.48080000	-4.95201700
37.39999795	0.00000000	-87.99212000	-2.58981300
37.59999794	0.00000000	-84.83022000	-6.39763700
37.79999793	0.00000000	-80.22269000	-14.80684000
37.99999791	0.00000000	-75.24606000	-25.17224000
38.19999790	0.00000000	-71.80117000	-34.74409000
38.39999789	0.00000000	-70.59547000	-40.50196000
38.59999788	0.00000000	-71.70891000	-40.92643000
38.79999787	0.00000000	-74.40945000	-36.31890000
38.99999786	0.00000000	-77.94660000	-27.86663000
39.19999784	0.00000000	-82.22194000	-18.01181000
39.39999783	0.00000000	-86.41116000	-10.34695000
39.59999782	0.00000000	-89.10555000	-7.59719500
39.79999781	0.00000000	-89.57307000	-9.51033400
39.99999780	0.00000000	-88.41042000	-15.73573000
40.19999778	0.00000000	-86.03592000	-25.30758000
40.39999777	0.00000000	-82.17889000	-35.20546000
40.59999776	0.00000000	-77.94660000	-42.08292000
40.79999775	0.00000000	-74.40945000	-43.66388000
40.99999774	0.00000000	-71.70891000	-39.85605000
41.19999772	0.00000000	-70.54626000	-32.14198000
41.39999771	0.00000000	-71.33366000	-22.14567000
41.59999770	0.00000000	-73.62204000	-12.57382000
41.79999769	0.00000000	-77.10384000	-6.39763700
41.99999768	0.00000000	-80.59792000	-4.81668300
42.19999767	0.00000000	-83.75984000	-7.92937900
42.39999765	0.00000000	-86.41116000	-15.18209000
42.59999764	0.00000000	-87.57381000	-24.37869000
42.79999763	0.00000000	-86.87254000	-32.51722000
42.99999762	0.00000000	-85.34079000	-38.31816000
43.19999761	0.00000000	-83.38459000	-40.64345000
43.39999759	0.00000000	-81.01624000	-38.74261000
43.59999758	0.00000000	-78.77706000	-33.76599000
43.79999757	0.00000000	-77.15920000	-26.83932000
43.99999756	0.00000000	-76.72858000	-19.96186000
44.19999755	0.00000000	-76.27337000	-15.27436000
44.39999753	0.00000000	-75.94118000	-13.31816000
44.59999752	0.00000000	-75.89813000	-14.06865000
44.79999751	0.00000000	-75.94118000	-17.45817000
44.99999750	0.00000000	-76.31644000	-21.64124000
45.19999749	0.00000000	-77.10384000	-25.21530000
45.39999748	0.00000000	-77.94660000	-28.32800000
45.59999746	0.00000000	-79.57062000	-30.60408000
45.79999745	0.00000000	-82.31422000	-31.02239000
45.99999744	0.00000000	-85.75910000	-29.90895000
46.19999743	0.00000000	-89.19783000	-27.95891000
46.39999742	0.00000000	-91.06176000	-25.26452000
46.59999740	0.00000000	-90.68651000	-22.57013000
46.79999739	0.00000000	-87.89984000	-20.66314000
46.99999738	0.00000000	-82.87401000	-19.83268000
47.19999737	0.00000000	-76.31644000	-20.24483000
47.39999736	0.00000000	-70.12794000	-21.36442000
47.59999734	0.00000000	-65.47121000	-23.35753000
47.79999733	0.00000000	-63.23819000	-25.59055000
47.99999732	0.00000000	-64.86221000	-27.58366000
48.19999731	0.00000000	-70.63853000	-28.75246000
48.39999730	0.00000000	-79.10310000	-29.53371000
48.59999729	0.00000000	-87.99212000	-29.44759000
48.79999727	0.00000000	-95.34325000	-27.90969000
48.99999726	0.00000000	-99.53247000	-25.21530000
49.19999725	0.00000000	-99.11417000	-22.15182000
49.39999724	0.00000000	-93.71924000	-19.45743000
49.59999723	0.00000000	-84.91634000	-17.91953000
49.79999721	0.00000000	-75.24606000	-17.91953000
49.99999720	0.00000000	-67.09522000	-19.50049000
50.19999719	0.00000000	-61.70029000	-22.57013000
50.39999718	0.00000000	-60.58685000	-26.42101000
50.59999717	0.00000000	-64.44389000	-29.90895000
50.79999715	0.00000000	-72.12721000	-32.60334000
50.99999714	0.00000000	-81.75443000	-33.67372000
51.19999713	0.00000000	-90.55118000	-32.14198000
51.39999712	0.00000000	-95.99532000	-28.32800000
51.59999711	0.00000000	-96.83193000	-23.72662000
51.79999710	0.00000000	-93.76230000	-19.45743000
51.99999708	0.00000000	-87.57381000	-16.33858000
52.19999707	0.00000000	-79.47834000	-14.80684000
52.39999706	0.00000000	-71.84424000	-15.22515000
52.59999705	0.00000000	-66.81841000	-17.91953000
52.79999704	0.00000000	-66.02485000	-22.10261000
52.99999702	0.00000000	-69.05757000	-26.32874000
53.19999701	0.00000000	-74.82775000	-29.44759000
53.39999700	0.00000000	-81.71136000	-31.02239000
53.59999699	0.00000000	-87.48154000	-31.02239000
53.79999698	0.00000000	-90.60039000	-29.49065000
53.99999696	0.00000000	-90.60039000	-26.75320000
54.19999695	0.00000000	-87.52460000	-23.35138000
54.39999694	0.00000000	-82.17889000	-20.29404000
54.59999693	0.00000000	-76.45177000	-19.16830000
54.79999692	0.00000000	-72.17642000	-19.82652000
54.99999691	0.00000000	-70.26328000	-21.77658000
55.19999689	0.00000000	-71.01377000	-24.00960000
55.39999688	0.00000000	-74.45251000	-25.91043000
55.59999687	0.00000000	-79.01697000	-26.28568000
55.79999686	0.00000000	-83.29231000	-25.21530000
55.99999685	0.00000000	-86.36810000	-23.68356000
56.19999683	0.00000000	-87.52460000	-22.15182000
56.39999682	0.00000000	-86.36810000	-20.98917000
56.59999681	0.00000000	-83.33538000	-20.66314000
56.79999680	0.00000000	-79.47834000	-21.49975000
56.99999679	0.00000000	-76.03346000	-24.19414000
57.19999677	0.00000000	-73.66510000	-27.95275000
57.39999676	0.00000000	-72.91461000	-30.97933000
57.59999675	0.00000000	-73.66510000	-32.13582000
57.79999674	0.00000000	-75.99039000	-30.97933000
57.99999673	0.00000000	-79.01697000	-27.86663000
58.19999672	0.00000000	-81.75443000	-23.21604000
58.39999670	0.00000000	-83.66756000	-17.87647000
58.59999669	0.00000000	-84.45496000	-13.64419000
58.79999668	0.00000000	-83.66756000	-11.73720000
58.99999667	0.00000000	-81.80363000	-12.57382000
59.19999666	0.00000000	-79.47834000	-16.80610000
59.39999664	0.00000000	-77.57135000	-23.30832000
59.59999663	0.00000000	-76.40871000	-29.86589000
59.79999662	0.00000000	-76.40871000	-35.29773000
59.99999661	0.00000000	-77.52214000	-38.31816000
60.19999660	0.00000000	-79.06004000	-37.94907000
60.39999658	0.00000000	-80.59792000	-34.04897000
60.59999657	0.00000000	-81.71136000	-27.49138000
60.79999656	0.00000000	-81.71136000	-19.40822000
60.99999655	0.00000000	-80.59792000	-12.15551000
61.19999654	0.00000000	-79.06004000	-7.92937900
61.39999653	0.00000000	-77.52214000	-7.92937900
61.59999651	0.00000000	-76.40871000	-12.15551000
61.79999650	0.00000000	-76.40871000	-19.45743000
61.99999649	0.00000000	-77.52214000	-27.90969000
62.19999648	0.00000000	-79.06004000	-35.25467000
62.39999647	0.00000000	-80.64099000	-39.89911000
62.59999645	0.00000000	-82.17889000	-41.06176000
62.79999644	0.00000000	-83.33538000	-38.36737000
62.99999643	0.00000000	-83.71062000	-32.60334000
63.19999642	0.00000000	-83.29231000	-25.26452000
63.39999641	0.00000000	-81.71136000	-17.87647000
63.59999639	0.00000000	-79.06004000	-11.73720000
63.79999638	0.00000000	-76.36565000	-8.25541300
63.99999637	0.00000000	-74.45251000	-8.66756800
64.19999636	0.00000000	-73.66510000	-12.48770000
64.39999635	0.00000000	-74.45251000	-19.03297000
64.59999634	0.00000000	-76.36565000	-26.28568000
64.79999632	0.00000000	-79.06004000	-32.13582000
64.99999631	0.00000000	-81.75443000	-35.71604000
65.19999630	0.00000000	-83.66756000	-37.24778000
65.39999629	0.00000000	-84.45496000	-36.45423000
65.59999628	0.00000000	-83.66756000	-32.97859000
65.79999626	0.00000000	-81.80363000	-28.04503000
65.99999625	0.00000000	-79.47834000	-22.98843000
66.19999624	0.00000000	-77.57135000	-19.08218000
66.39999623	0.00000000	-76.40871000	-16.29552000
66.59999622	0.00000000	-76.45177000	-14.76378000
66.79999620	0.00000000	-77.89738000	-14.76378000
66.99999619	0.00000000	-79.80437000	-16.29552000
67.19999618	0.00000000	-80.97318000	-18.98991000
67.39999617	0.00000000	-81.75443000	-22.10261000
67.59999616	0.00000000	-81.71136000	-25.26452000
67.79999615	0.00000000	-80.54871000	-28.37721000
67.99999613	0.00000000	-78.64173000	-31.06545000
68.19999612	0.00000000	-76.36565000	-32.64640000
68.39999611	0.00000000	-74.87081000	-33.02165000
68.59999610	0.00000000	-74.82775000	-32.22810000
68.79999609	0.00000000	-76.03346000	-29.86589000
68.99999607	0.00000000	-78.36491000	-26.37795000
69.19999606	0.00000000	-81.84669000	-22.10261000
69.39999605	0.00000000	-85.24852000	-17.87647000
69.59999604	0.00000000	-87.52460000	-14.76378000
69.79999603	0.00000000	-87.52460000	-13.22589000
69.99999601	0.00000000	-85.24852000	-13.64419000
70.19999600	0.00000000	-81.75443000	-16.38779000
70.39999599	0.00000000	-77.43602000	-20.98917000
70.59999598	0.00000000	-72.82849000	-26.37795000
70.79999597	0.00000000	-69.00836000	-31.02239000
70.99999596	0.00000000	-67.51968000	-34.13509000
71.19999594	0.00000000	-69.05757000	-35.25467000
71.39999593	0.00000000	-73.24680000	-33.71678000
71.59999592	0.00000000	-78.68478000	-29.90895000
71.79999591	0.00000000	-84.08587000	-25.26452000
71.99999590	0.00000000	-88.73031000	-20.61393000
72.19999588	0.00000000	-91.01869000	-16.80610000
72.39999587	0.00000000	-90.68651000	-15.22515000
72.59999586	0.00000000	-87.94906000	-15.92027000
72.79999585	0.00000000	-83.33538000	-17.83341000
72.99999584	0.00000000	-77.89738000	-20.57087000
73.19999582	0.00000000	-72.91461000	-23.64050000
73.39999581	0.00000000	-69.43282000	-26.32874000
73.59999580	0.00000000	-68.63927000	-27.86663000
73.79999579	0.00000000	-70.12794000	-27.86663000
73.99999578	0.00000000	-73.24680000	-26.42101000
74.19999577	0.00000000	-77.47908000	-24.56324000
74.39999575	0.00000000	-81.75443000	-23.77584000
74.59999574	0.00000000	-85.20546000	-23.72662000
74.79999573	0.00000000	-87.14935000	-24.15108000
74.99999572	0.00000000	-86.78642000	-25.30758000
75.19999571	0.00000000	-84.91634000	-26.75320000
75.39999569	0.00000000	-82.17889000	-27.53445000
75.59999568	0.00000000	-79.15231000	-27.07923000
75.79999567	0.00000000	-76.78395000	-25.53518000
75.99999566	0.00000000	-75.61516000	-22.43479000
76.19999565	0.00000000	-75.20300000	-19.08218000
76.39999563	0.00000000	-75.94118000	-16.71383000
76.59999562	0.00000000	-77.06077000	-15.96334000
76.79999561	0.00000000	-77.89738000	-16.75689000
76.99999560	0.00000000	-79.01697000	-19.54355000
77.19999559	0.00000000	-79.75516000	-24.15108000
77.39999558	0.00000000	-79.43528000	-29.49065000
77.59999556	0.00000000	-79.10310000	-33.71678000
77.79999555	0.00000000	-79.10310000	-35.67298000
77.99999554	0.00000000	-79.47834000	-35.29773000
78.19999553	0.00000000	-80.26574000	-32.56028000
78.39999552	0.00000000	-81.01624000	-27.90969000
78.59999550	0.00000000	-81.80363000	-22.10261000
78.79999549	0.00000000	-82.12967000	-16.33858000
78.99999548	0.00000000	-81.71136000	-12.15551000
79.19999547	0.00000000	-80.17347000	-10.95595000
79.39999546	0.00000000	-77.89738000	-12.85064000
79.59999544	0.00000000	-75.94118000	-16.67077000
79.79999543	0.00000000	-74.40945000	-21.72736000
79.99999542	0.00000000	-73.66510000	-26.74705000
80.19999541	0.00000000	-74.45251000	-31.06545000
80.39999540	0.00000000	-76.36565000	-34.13509000
80.59999539	0.00000000	-79.06004000	-35.25467000
80.79999537	0.00000000	-81.75443000	-33.76599000
80.99999536	0.00000000	-83.71062000	-30.32726000
81.19999535	0.00000000	-84.83022000	-26.42101000
81.39999534	0.00000000	-84.45496000	-22.14567000
81.59999533	0.00000000	-82.55412000	-18.29478000
81.79999531	0.00000000	-80.26574000	-15.92027000
81.99999530	0.00000000	-77.89738000	-14.72072000
82.19999529	0.00000000	-75.99039000	-14.76378000
82.39999528	0.00000000	-74.78469000	-16.29552000
82.59999527	0.00000000	-74.45251000	-19.03297000
82.79999525	0.00000000	-75.20300000	-22.52091000
82.99999524	0.00000000	-77.10384000	-26.37795000
83.19999523	0.00000000	-79.01697000	-29.49065000
83.39999522	0.00000000	-80.59792000	-31.48991000
83.59999521	0.00000000	-81.71136000	-32.64640000
83.79999520	0.00000000	-81.75443000	-32.56028000
83.99999518	0.00000000	-81.01624000	-30.64714000
84.19999517	0.00000000	-80.26574000	-27.17150000
84.39999516	0.00000000	-79.47834000	-23.26525000
84.59999515	0.00000000	-79.10310000	-18.98991000
84.79999514	0.00000000	-79.06004000	-15.18209000
84.99999512	0.00000000	-79.01697000	-13.27510000
85.19999511	0.00000000	-78.64173000	-13.64419000
85.39999510	0.00000000	-77.89738000	-16.33858000
85.59999509	0.00000000	-77.47908000	-20.57087000
85.79999508	0.00000000	-77.10384000	-25.26452000
85.99999506	0.00000000	-76.73474000	-29.90895000
86.19999505	0.00000000	-77.10384000	-33.71678000
86.39999504	0.00000000	-77.47908000	-35.25467000
86.59999503	0.00000000	-77.98966000	-34.09203000
86.79999502	0.00000000	-79.47834000	-30.60408000
86.99999501	0.00000000	-81.38533000	-25.21530000
87.19999499	0.00000000	-82.50491000	-19.50049000
87.39999498	0.00000000	-82.91708000	-15.22515000
87.59999497	0.00000000	-82.12967000	-13.27510000
87.79999496	0.00000000	-80.59792000	-13.64419000
87.99999495	0.00000000	-78.64173000	-16.33858000
88.19999493	0.00000000	-76.36565000	-20.57087000
88.39999492	0.00000000	-74.82775000	-25.26452000
88.59999491	0.00000000	-74.40945000	-29.82283000
88.79999490	0.00000000	-74.78469000	-32.88017000
88.99999489	0.00000000	-75.99039000	-32.93553000
89.19999487	0.00000000	-77.89738000	-31.02239000
89.39999486	0.00000000	-80.17347000	-27.49138000
89.59999485	0.00000000	-81.71136000	-22.52091000
89.79999484	0.00000000	-82.12967000	-17.96260000
89.99999483	0.00000000	-81.80363000	-15.22515000
90.19999482	0.00000000	-81.01624000	-14.84990000
90.39999480	0.00000000	-80.22269000	-16.76304000
90.59999479	0.00000000	-79.01697000	-20.61393000
90.79999478	0.00000000	-77.52214000	-25.22145000
90.99999477	0.00000000	-76.40871000	-29.44759000
91.19999476	0.00000000	-76.36565000	-32.14198000
91.39999474	0.00000000	-77.10384000	-32.46801000
91.59999473	0.00000000	-77.85432000	-30.18578000
91.79999472	0.00000000	-78.64173000	-25.59055000
91.99999471	0.00000000	-79.01697000	-20.66314000
92.19999470	0.00000000	-79.06004000	-16.76304000
92.39999468	0.00000000	-79.06004000	-14.84990000
92.59999467	0.00000000	-79.06004000	-15.22515000
92.79999466	0.00000000	-79.10310000	-17.91953000
92.99999465	0.00000000	-79.47834000	-22.14567000
93.19999464	0.00000000	-80.22269000	-26.74705000
93.39999463	0.00000000	-80.59792000	-30.56102000
93.59999461	0.00000000	-80.64099000	-32.09276000
93.79999460	0.00000000	-80.59792000	-30.97933000
93.99999459	0.00000000	-80.13041000	-27.90969000
94.19999458	0.00000000	-78.59251000	-23.68356000
94.39999457	0.00000000	-76.31644000	-19.50049000
94.59999455	0.00000000	-74.40945000	-16.80610000
94.79999454	0.00000000	-73.24680000	-16.38164000
94.99999453	0.00000000	-73.24680000	-17.91953000
95.19999452	0.00000000	-74.40945000	-20.98917000
95.39999451	0.00000000	-76.36565000	-24.84621000
95.59999449	0.00000000	-79.10310000	-28.28494000
95.79999448	0.00000000	-82.17889000	-30.60408000
95.99999447	0.00000000	-84.87327000	-30.97933000
96.19999446	0.00000000	-86.36810000	-29.44759000
96.39999445	0.00000000	-85.99286000	-26.37795000
96.59999444	0.00000000	-83.66756000	-22.57013000
96.79999442	0.00000000	-80.22269000	-19.50049000
96.99999441	0.00000000	-76.31644000	-17.91953000
97.19999440	0.00000000	-72.87155000	-17.91953000
97.39999439	0.00000000	-70.54626000	-19.45743000
97.59999438	0.00000000	-70.12794000	-22.10261000
97.79999436	0.00000000	-71.29060000	-24.79700000
97.99999435	0.00000000	-73.66510000	-26.70398000
98.19999434	0.00000000	-77.52214000	-27.53445000
98.39999433	0.00000000	-81.71136000	-27.12229000
98.59999432	0.00000000	-84.83022000	-26.04577000
98.79999430	0.00000000	-86.45423000	-24.47712000
98.99999429	0.00000000	-86.78642000	-23.35138000
99.19999428	0.00000000	-85.61761000	-22.52091000
99.39999427	0.00000000	-82.50491000	-22.14567000
99.59999426	0.00000000	-78.68478000	-22.14567000
99.79999425	0.00000000	-74.78469000	-22.47785000
99.99999423	0.00000000	-71.70891000	-22.84695000
100.19999422	0.00000000	-70.17101000	-22.47785000
100.39999421	0.00000000	-70.50320000	-22.14567000
100.59999420	0.00000000	-72.45324000	-22.10261000
100.79999419	0.00000000	-75.15379000	-22.14567000
100.99999417	0.00000000	-78.64173000	-22.52091000
101.19999416	0.00000000	-81.71136000	-23.30832000
101.39999415	0.00000000	-83.71062000	-24.15108000
101.59999414	0.00000000	-84.87327000	-25.68282000
101.79999413	0.00000000	-84.83022000	-27.49138000
101.99999411	0.00000000	-83.33538000	-27.86663000
102.19999410	0.00000000	-81.01624000	-26.75320000
102.39999409	0.00000000	-78.68478000	-24.84621000
102.59999408	0.00000000	-76.31644000	-22.47785000
102.79999407	0.00000000	-74.40945000	-20.19562000
102.99999406	0.00000000	-73.24680000	-18.29478000
103.19999404	0.00000000	-73.24680000	-17.91953000
103.39999403	0.00000000	-74.36023000	-18.98991000
103.59999402	0.00000000	-75.94118000	-20.61393000
103.79999401	0.00000000	-77.89738000	-22.93922000
103.99999400	0.00000000	-80.17347000	-26.00270000
104.19999398	0.00000000	-81.71136000	-28.28494000
104.39999397	0.00000000	-82.12967000	-29.44759000
104.59999396	0.00000000	-81.75443000	-29.02928000
104.79999395	0.00000000	-80.59792000	-26.75320000
104.99999394	0.00000000	-79.06004000	-23.72662000
105.19999392	0.00000000	-77.52214000	-21.03838000
105.39999391	0.00000000	-76.36565000	-19.45743000
105.59999390	0.00000000	-75.99039000	-19.03912000
105.79999389	0.00000000	-76.31644000	-19.45743000
105.99999388	0.00000000	-77.10384000	-20.98917000
106.19999387	0.00000000	-77.89738000	-23.26525000
106.39999385	0.00000000	-79.06004000	-25.21530000
106.59999384	0.00000000	-80.17347000	-26.75320000
106.79999383	0.00000000	-80.54871000	-27.49138000
106.99999382	0.00000000	-80.17347000	-26.75320000
107.19999381	0.00000000	-79.06004000	-25.26452000
107.39999379	0.00000000	-77.94660000	-23.68356000
107.59999378	0.00000000	-77.47908000	-22.15182000
107.79999377	0.00000000	-77.10384000	-20.98917000
107.99999376	0.00000000	-76.78395000	-20.66314000
108.19999375	0.00000000	-77.57135000	-21.40748000
108.39999374	0.00000000	-79.01697000	-23.30832000
108.59999372	0.00000000	-80.17347000	-25.21530000
108.79999371	0.00000000	-80.59792000	-26.75320000
108.99999370	0.00000000	-80.59792000	-27.49138000
109.19999369	0.00000000	-80.17347000	-26.75320000
109.39999368	0.00000000	-79.01697000	-25.26452000
109.59999366	0.00000000	-77.52214000	-23.68356000
109.79999365	0.00000000	-76.36565000	-22.15182000
109.99999364	0.00000000	-75.94118000	-20.98917000
110.19999363	0.00000000	-75.94118000	-20.62008000
110.39999362	0.00000000	-76.31644000	-20.98917000
110.59999360	0.00000000	-77.10384000	-22.15182000
110.79999359	0.00000000	-77.89738000	-23.68356000
110.99999358	0.00000000	-79.06004000	-25.21530000
111.19999357	0.00000000	-80.17347000	-26.37795000
111.39999356	0.00000000	-80.54871000	-26.79626000
111.59999355	0.00000000	-80.22269000	-26.79626000
111.79999353	0.00000000	-79.43528000	-26.37795000
111.99999352	0.00000000	-78.68478000	-25.21530000
112.19999351	0.00000000	-77.89738000	-23.72662000
112.39999350	0.00000000	-77.52214000	-22.57013000
112.59999349	0.00000000	-77.47908000	-22.14567000
112.79999347	0.00000000	-77.47908000	-22.10261000
112.99999346	0.00000000	-77.52214000	-22.14567000
113.19999345	0.00000000	-77.89738000	-22.52091000
113.39999344	0.00000000	-78.64173000	-23.26525000
113.59999343	0.00000000	-79.01697000	-23.64050000
113.79999341	0.00000000	-79.06004000	-23.68356000
113.99999340	0.00000000	-79.01697000	-23.68356000
114.19999339	0.00000000	-78.64173000	-23.68356000
114.39999338	0.00000000	-77.94660000	-23.68356000
114.59999337	0.00000000	-77.89738000	-23.68356000
114.79999336	0.00000000	-78.22342000	-23.72662000
114.99999334	0.00000000	-77.85432000	-24.05881000
115.19999333	0.00000000	-77.52214000	-24.47096000
115.39999332	0.00000000	-77.47908000	-24.47712000
115.59999331	0.00000000	-77.47908000	-24.84621000
115.79999330	0.00000000	-77.52214000	-24.79700000
115.99999328	0.00000000	-77.89738000	-24.05881000
116.19999327	0.00000000	-78.64173000	-23.30832000
116.39999326	0.00000000	-79.01697000	-22.52091000
116.59999325	0.00000000	-79.06004000	-22.14567000
116.79999324	0.00000000	-79.06004000	-22.10261000
116.99999322	0.00000000	-79.01697000	-22.14567000
117.19999321	0.00000000	-78.64173000	-22.57013000
117.39999320	0.00000000	-77.85432000	-23.68356000
117.59999319	0.00000000	-77.10384000	-24.79700000
117.79999318	0.00000000	-76.31644000	-25.22145000
117.99999317	0.00000000	-75.94118000	-25.26452000
118.19999315	0.00000000	-75.94118000	-25.22145000
118.39999314	0.00000000	-76.36565000	-24.84621000
118.59999313	0.00000000	-77.47908000	-24.10187000
118.79999312	0.00000000	-78.64173000	-23.68356000
118.99999311	0.00000000	-79.43528000	-23.26525000
119.19999309	0.00000000	-80.22269000	-22.52091000
119.39999308	0.00000000	-80.54871000	-22.14567000
119.59999307	0.00000000	-80.22269000	-22.10261000
119.79999306	0.00000000	-79.43528000	-22.10261000
119.99999305	0.00000000	-78.64173000	-22.10261000
120.19999303	0.00000000	-77.43602000	-22.14567000
120.39999302	0.00000000	-75.94118000	-22.52091000
120.59999301	0.00000000	-74.78469000	-23.26525000
120.79999300	0.00000000	-74.40945000	-23.64050000
120.99999299	0.00000000	-74.78469000	-23.72662000
121.19999298	0.00000000	-75.94118000	-24.10187000
121.39999296	0.00000000	-77.43602000	-24.84621000
121.59999295	0.00000000	-78.64173000	-25.17224000
121.79999294	0.00000000	-79.43528000	-24.84621000
121.99999293	0.00000000	-80.22269000	-24.05881000
122.19999292	0.00000000	-80.54871000	-23.30832000
122.39999290	0.00000000	-80.22269000	-22.52091000
122.59999289	0.00000000	-79.43528000	-22.14567000
122.79999288	0.00000000	-78.68478000	-22.10261000
122.99999287	0.00000000	-77.85432000	-22.10261000
123.19999286	0.00000000	-77.10384000	-22.10261000
123.39999284	0.00000000	-76.31644000	-22.14567000
123.59999283	0.00000000	-75.94118000	-22.52091000
123.79999282	0.00000000	-75.94118000	-23.30832000
123.99999281	0.00000000	-76.31644000	-24.05881000
124.19999280	0.00000000	-77.10384000	-24.84621000
124.39999279	0.00000000	-77.85432000	-25.17224000
124.59999277	0.00000000	-78.64173000	-24.84621000
124.79999276	0.00000000	-79.06004000	-24.10187000
124.99999275	0.00000000	-79.47834000	-23.72662000
125.19999274	0.00000000	-80.22269000	-23.68356000
125.39999273	0.00000000	-80.54871000	-23.64050000
125.59999271	0.00000000	-80.17347000	-23.26525000
125.79999270	0.00000000	-79.06004000	-22.52091000
125.99999269	0.00000000	-77.89738000	-22.14567000
126.19999268	0.00000000	-77.10384000	-22.10261000
126.39999267	0.00000000	-76.31644000	-22.14567000
126.59999265	0.00000000	-75.94118000	-22.52091000
126.79999264	0.00000000	-75.94118000	-23.30832000
126.99999263	0.00000000	-76.31644000	-24.01575000
127.19999262	0.00000000	-77.10384000	-24.47096000
127.39999261	0.00000000	-77.89738000	-24.47712000
127.59999260	0.00000000	-79.06004000	-24.84621000
127.79999258	0.00000000	-80.17347000	-24.79700000
127.99999257	0.00000000	-80.54871000	-24.10187000
128.19999256	0.00000000	-80.17347000	-23.68356000
128.39999255	0.00000000	-79.06004000	-23.26525000
128.59999254	0.00000000	-77.89738000	-22.52091000
128.79999252	0.00000000	-77.10384000	-22.14567000
128.99999251	0.00000000	-76.31644000	-22.10261000
129.19999250	0.00000000	-75.94118000	-22.14567000
129.39999249	0.00000000	-75.94118000	-22.52091000
129.59999248	0.00000000	-76.36565000	-23.26525000
129.79999246	0.00000000	-77.47908000	-23.64050000
129.99999245	0.00000000	-78.59251000	-23.68356000
130.19999244	0.00000000	-79.06004000	-23.68356000
130.39999243	0.00000000	-79.43528000	-23.64050000
130.59999242	0.00000000	-79.75516000	-23.26525000
130.79999241	0.00000000	-79.01697000	-22.52091000
130.99999239	0.00000000	-77.89738000	-22.14567000
131.19999238	0.00000000	-77.10384000	-22.10261000
131.39999237	0.00000000	-76.31644000	-22.14567000
131.59999236	0.00000000	-75.94118000	-22.52091000
131.79999235	0.00000000	-75.94118000	-23.30832000
131.99999233	0.00000000	-76.31644000	-24.05881000
132.19999232	0.00000000	-77.10384000	-24.84621000
132.39999231	0.00000000	-77.85432000	-25.17224000
132.59999230	0.00000000	-78.64173000	-24.84621000
132.79999229	0.00000000	-78.96776000	-24.10187000
132.99999227	0.00000000	-78.64173000	-23.68356000
133.19999226	0.00000000	-77.89738000	-23.21604000
133.39999225	0.00000000	-77.52214000	-22.10261000
133.59999224	0.00000000	-77.47908000	-21.03838000
133.79999223	0.00000000	-77.47908000	-20.98917000
133.99999222	0.00000000	-77.47908000	-21.72736000
134.19999220	0.00000000	-77.47908000	-22.47785000
134.39999219	0.00000000	-77.47908000	-23.30832000
134.59999218	0.00000000	-77.47908000	-24.05881000
134.79999217	0.00000000	-77.47908000	-24.84621000
134.99999216	0.00000000	-77.47908000	-25.22145000
135.19999214	0.00000000	-77.47908000	-25.26452000
135.39999213	0.00000000	-77.43602000	-25.22145000
135.59999212	0.00000000	-77.10384000	-24.84621000
135.79999211	0.00000000	-76.73474000	-24.05881000
135.99999210	0.00000000	-77.14690000	-23.30832000
136.19999208	0.00000000	-77.85432000	-22.52091000
136.39999207	0.00000000	-78.59251000	-22.14567000
136.59999206	0.00000000	-78.64173000	-22.10261000
136.79999205	0.00000000	-78.31569000	-22.10261000
136.99999204	0.00000000	-78.64173000	-22.14567000
137.19999203	0.00000000	-78.59251000	-22.52091000
137.39999201	0.00000000	-77.85432000	-23.30832000
137.59999200	0.00000000	-77.10384000	-24.05881000
137.79999199	0.00000000	-76.31644000	-24.84621000
137.99999198	0.00000000	-75.94118000	-25.22145000
138.19999197	0.00000000	-75.94118000	-25.26452000
138.39999195	0.00000000	-76.31644000	-25.22145000
138.59999194	0.00000000	-77.10384000	-24.84621000
138.79999193	0.00000000	-77.85432000	-24.10187000
138.99999192	0.00000000	-78.64173000	-23.68356000
139.19999191	0.00000000	-79.01697000	-23.26525000
139.39999189	0.00000000	-79.06004000	-22.52091000
139.59999188	0.00000000	-78.96776000	-22.14567000
139.79999187	0.00000000	-78.26648000	-22.10261000
139.99999186	0.00000000	-77.15920000	-22.14567000
140.19999185	0.00000000	-77.10384000	-22.52091000
140.39999184	0.00000000	-77.01156000	-23.26525000
140.59999182	0.00000000	-76.36565000	-23.68356000
140.79999181	0.00000000	-76.36565000	-24.10187000
140.99999180	0.00000000	-77.06077000	-24.84621000
141.19999179	0.00000000	-77.47908000	-25.22145000
141.39999178	0.00000000	-77.85432000	-25.22145000
141.59999176	0.00000000	-78.22342000	-24.79700000
141.79999175	0.00000000	-77.85432000	-23.68356000
141.99999174	0.00000000	-77.52214000	-22.52091000
142.19999173	0.00000000	-77.43602000	-21.72736000
142.39999172	0.00000000	-77.10384000	-20.98917000
142.59999170	0.00000000	-76.69167000	-20.98917000
142.79999169	0.00000000	-76.72858000	-21.72736000
142.99999168	0.00000000	-76.69167000	-22.52091000
143.19999167	0.00000000	-77.10384000	-23.68356000
143.39999166	0.00000000	-77.43602000	-24.79700000
143.59999165	0.00000000	-77.47908000	-25.22145000
143.79999163	0.00000000	-77.47908000	-25.22145000
143.99999162	0.00000000	-77.47908000	-24.84621000
144.19999161	0.00000000	-77.47908000	-24.10187000
144.39999160	0.00000000	-77.43602000	-23.68356000
144.59999159	0.00000000	-77.06077000	-23.26525000
144.79999157	0.00000000	-76.31644000	-22.52091000
144.99999156	0.00000000	-75.99039000	-22.10261000
145.19999155	0.00000000	-76.31644000	-21.72736000
145.39999154	0.00000000	-77.06077000	-21.40748000
145.59999153	0.00000000	-77.43602000	-22.15182000
145.79999151	0.00000000	-77.47908000	-23.21604000
145.99999150	0.00000000	-77.47908000	-23.64050000
146.19999149	0.00000000	-77.47908000	-23.68356000
146.39999148	0.00000000	-77.47908000	-23.68356000
146.59999147	0.00000000	-77.47908000	-23.68356000
146.79999146	0.00000000	-77.43602000	-23.68356000
146.99999144	0.00000000	-77.06077000	-23.64050000
147.19999143	0.00000000	-76.31644000	-23.26525000
147.39999142	0.00000000	-75.94118000	-22.52091000
147.59999141	0.00000000	-75.94118000	-22.14567000
147.79999140	0.00000000	-76.31644000	-22.10261000
147.99999138	0.00000000	-77.06077000	-22.10261000
148.19999137	0.00000000	-77.43602000	-22.10261000
148.39999136	0.00000000	-77.47908000	-22.14567000
148.59999135	0.00000000	-77.47908000	-22.52091000
148.79999134	0.00000000	-77.47908000	-23.26525000
148.99999132	0.00000000	-77.47908000	-23.64050000
149.19999131	0.00000000	-77.47908000	-23.68356000
149.39999130	0.00000000	-77.43602000	-23.68356000
149.59999129	0.00000000	-77.06077000	-23.68356000
149.79999128	0.00000000	-76.31644000	-23.68356000
149.99999127	0.00000000	-75.94118000	-23.64050000
150.19999125	0.00000000	-75.94118000	-23.26525000
150.39999124	0.00000000	-76.31644000	-22.52091000
150.59999123	0.00000000	-77.06077000	-22.14567000
150.79999122	0.00000000	-77.43602000	-22.10261000
150.99999121	0.00000000	-77.47908000	-22.10261000
151.19999119	0.00000000	-77.47908000	-22.14567000
151.39999118	0.00000000	-77.47908000	-22.52091000
151.59999117	0.00000000	-77.47908000	-23.26525000
151.79999116	0.00000000	-77.47908000	-23.64050000
151.99999115	0.00000000	-77.43602000	-23.68356000
152.19999113	0.00000000	-77.06077000	-23.68356000
152.39999112	0.00000000	-76.31644000	-23.68356000
152.59999111	0.00000000	-75.94118000	-23.68356000
152.79999110	0.00000000	-75.89813000	-23.64050000
152.99999109	0.00000000	-75.89813000	-23.26525000
153.19999108	0.00000000	-75.89813000	-22.57013000
153.39999106	0.00000000	-75.94118000	-22.52091000
153.59999105	0.00000000	-76.31644000	-22.84695000
153.79999104	0.00000000	-77.06077000	-22.52091000
153.99999103	0.00000000	-77.43602000	-22.52091000
154.19999102	0.00000000	-77.47908000	-22.84695000
154.39999100	0.00000000	-77.47908000	-22.52091000
154.59999099	0.00000000	-77.47908000	-22.57013000
154.79999098	0.00000000	-77.47908000	-23.21604000
154.99999097	0.00000000	-77.47908000	-23.26525000
155.19999096	0.00000000	-77.43602000	-22.93922000
155.39999094	0.00000000	-77.06077000	-23.30832000
155.59999093	0.00000000	-76.31644000	-23.64050000
155.79999092	0.00000000	-75.94118000	-23.68356000
155.99999091	0.00000000	-75.89813000	-23.68356000
156.19999090	0.00000000	-75.94118000	-23.68356000
156.39999089	0.00000000	-76.31644000	-23.64050000
156.59999087	0.00000000	-77.06077000	-23.26525000
156.79999086	0.00000000	-77.43602000	-22.52091000
156.99999085	0.00000000	-77.47908000	-22.14567000
157.19999084	0.00000000	-77.47908000	-22.10261000
157.39999083	0.00000000	-77.47908000	-22.10261000
157.59999081	0.00000000	-77.47908000	-22.14567000
157.79999080	0.00000000	-77.47908000	-22.52091000
157.99999079	0.00000000	-77.43602000	-23.26525000
158.19999078	0.00000000	-77.06077000	-23.64050000
158.39999077	0.00000000	-76.31644000	-23.68356000
158.59999075	0.00000000	-75.94118000	-23.68356000
158.79999074	0.00000000	-75.89813000	-23.68356000
158.99999073	0.00000000	-75.94118000	-23.68356000
159.19999072	0.00000000	-76.31644000	-23.64050000
159.39999071	0.00000000	-77.06077000	-23.26525000
159.59999070	0.00000000	-77.43602000	-22.52091000
159.79999068	0.00000000	-77.47908000	-22.14567000
159.99999067	0.00000000	-77.47908000	-22.10261000
160.19999066	0.00000000	-77.47908000	-22.10261000
160.39999065	0.00000000	-77.47908000	-22.10261000
160.59999064	0.00000000	-77.47908000	-22.10261000
160.79999062	0.00000000	-77.47908000	-22.14567000
160.99999061	0.00000000	-77.47908000	-22.52091000
161.19999060	0.00000000	-77.47908000	-23.26525000
161.39999059	0.00000000	-77.43602000	-23.64050000
161.59999058	0.00000000	-77.06077000	-23.68356000
161.79999056	0.00000000	-76.31644000	-23.68356000
161.99999055	0.00000000	-75.94118000	-23.68356000
162.19999054	0.00000000	-75.89813000	-23.64050000
162.39999053	0.00000000	-75.89813000	-23.26525000
162.59999052	0.00000000	-75.85506000	-22.52091000
162.79999051	0.00000000	-75.56593000	-22.14567000
162.99999049	0.00000000	-75.57825000	-22.10261000
163.19999048	0.00000000	-76.68553000	-22.10261000
163.39999047	0.00000000	-77.38681000	-22.14567000
163.59999046	0.00000000	-77.47908000	-22.47785000
163.79999045	0.00000000	-77.47908000	-22.89001000
163.99999043	0.00000000	-77.47908000	-22.89616000
164.19999042	0.00000000	-77.47908000	-23.30832000
164.39999041	0.00000000	-77.47908000	-23.64050000
164.59999040	0.00000000	-77.43602000	-23.68356000
164.79999039	0.00000000	-77.06077000	-23.68356000
164.99999037	0.00000000	-76.31644000	-23.64050000
165.19999036	0.00000000	-75.94118000	-23.26525000
165.39999035	0.00000000	-75.89813000	-22.52091000
165.59999034	0.00000000	-75.89813000	-22.14567000
165.79999033	0.00000000	-75.94118000	-22.10261000
165.99999032	0.00000000	-76.27337000	-22.10261000
166.19999030	0.00000000	-76.68553000	-22.10261000
166.39999029	0.00000000	-76.69167000	-22.10261000
166.59999028	0.00000000	-77.10384000	-22.10261000
166.79999027	0.00000000	-77.43602000	-22.10261000
166.99999026	0.00000000	-77.47908000	-22.14567000
167.19999024	0.00000000	-77.47908000	-22.52091000
167.39999023	0.00000000	-77.43602000	-23.26525000
167.59999022	0.00000000	-77.06077000	-23.64050000
167.79999021	0.00000000	-76.31644000	-23.64050000
167.99999020	0.00000000	-75.94118000	-23.30832000
168.19999018	0.00000000	-75.89813000	-22.93922000
168.39999017	0.00000000	-75.89813000	-23.30832000
168.59999016	0.00000000	-75.89813000	-23.64050000
168.79999015	0.00000000	-75.94118000	-23.68356000
168.99999014	0.00000000	-76.31644000	-23.68356000
169.19999013	0.00000000	-77.06077000	-23.68356000
169.39999011	0.00000000	-77.47908000	-23.68356000
169.59999010	0.00000000	-77.85432000	-23.64050000
169.79999009	0.00000000	-78.22342000	-23.30832000
169.99999008	0.00000000	-77.85432000	-22.89616000
170.19999007	0.00000000	-77.52214000	-22.93307000
170.39999005	0.00000000	-77.47908000	-22.85310000
170.59999004	0.00000000	-77.43602000	-22.93307000
170.79999003	0.00000000	-77.06077000	-22.89616000
170.99999002	0.00000000	-76.31644000	-23.30832000
171.19999001	0.00000000	-75.94118000	-23.64050000
171.39998999	0.00000000	-75.94118000	-23.68356000
171.59998998	0.00000000	-76.27337000	-23.68356000
171.79998997	0.00000000	-76.64246000	-23.68356000
171.99998996	0.00000000	-76.31644000	-23.68356000
172.19998995	0.00000000	-76.36565000	-23.64050000
172.39998994	0.00000000	-77.06077000	-23.30832000
172.59998992	0.00000000	-77.43602000	-22.89616000
172.79998991	0.00000000	-77.47908000	-22.89001000
172.99998990	0.00000000	-77.43602000	-22.52091000
173.19998989	0.00000000	-77.06077000	-22.52091000
173.39998988	0.00000000	-76.36565000	-22.84695000
173.59998986	0.00000000	-76.31644000	-22.52091000
173.79998985	0.00000000	-76.64246000	-22.52091000
173.99998984	0.00000000	-76.27337000	-22.89001000
174.19998983	0.00000000	-75.94118000	-22.89616000
174.39998982	0.00000000	-75.89813000	-23.30832000
174.59998980	0.00000000	-75.89813000	-23.64050000
174.79998979	0.00000000	-75.94118000	-23.68356000
174.99998978	0.00000000	-76.27337000	-23.68356000
175.19998977	0.00000000	-76.64246000	-23.64050000
175.39998976	0.00000000	-76.31644000	-23.30832000
175.59998975	0.00000000	-76.36565000	-22.93922000
175.79998973	0.00000000	-77.01156000	-23.26525000
175.99998972	0.00000000	-77.01156000	-23.21604000
176.19998971	0.00000000	-76.31644000	-22.52091000
176.39998970	0.00000000	-75.94118000	-22.14567000
176.59998969	0.00000000	-75.89813000	-22.10261000
176.79998967	0.00000000	-75.89813000	-22.14567000
176.99998966	0.00000000	-75.89813000	-22.52091000
177.19998965	0.00000000	-75.89813000	-23.26525000
177.39998964	0.00000000	-75.94118000	-23.64050000
177.59998963	0.00000000	-76.31644000	-23.68356000
177.79998961	0.00000000	-77.01156000	-23.68356000
177.99998960	0.00000000	-77.01156000	-23.64050000
178.19998959	0.00000000	-76.36565000	-23.26525000
178.39998958	0.00000000	-76.36565000	-22.52091000
178.59998957	0.00000000	-77.01156000	-22.14567000
178.79998956	0.00000000	-77.01156000	-22.10261000
178.99998954	0.00000000	-76.31644000	-22.10261000
179.19998953	0.00000000	-75.94118000	-22.10261000
179.39998952	0.00000000	-75.89813000	-22.10261000
179.59998951	0.00000000	-75.89813000	-22.10261000
179.79998950	0.00000000	-75.89813000	-22.10261000
179.99998948	0.00000000	-75.89813000	-22.10261000
180.19998947	0.00000000	-75.89813000	-22.10261000
180.39998946	0.00000000	-75.89813000	-22.14567000
180.59998945	0.00000000	-75.94118000	-22.52091000
180.79998944	0.00000000	-76.31644000	-23.26525000
180.99998942	0.00000000	-77.06077000	-23.64050000
181.19998941	0.00000000	-77.43602000	-23.64050000
181.39998940	0.00000000	-77.43602000	-23.26525000
181.59998939	0.00000000	-77.06077000	-22.52091000
181.79998938	0.00000000	-76.31644000	-22.14567000
181.99998937	0.00000000	-75.94118000	-22.10261000
182.19998935	0.00000000	-75.89813000	-22.10261000
182.39998934	0.00000000	-75.89813000	-22.14567000
182.59998933	0.00000000	-75.89813000	-22.52091000
182.79998932	0.00000000	-75.89813000	-23.26525000
182.99998931	0.00000000	-75.89813000	-23.64050000
183.19998929	0.00000000	-75.89813000	-23.68356000
183.39998928	0.00000000	-75.94118000	-23.68356000
183.59998927	0.00000000	-76.27337000	-23.64050000
183.79998926	0.00000000	-76.64246000	-23.30832000
183.99998925	0.00000000	-76.31644000	-22.89616000
184.19998923	0.00000000	-76.31644000	-22.89001000
184.39998922	0.00000000	-76.64246000	-22.47785000
184.59998921	0.00000000	-76.27337000	-22.14567000
184.79998920	0.00000000	-75.94118000	-22.10261000
184.99998919	0.00000000	-75.89813000	-22.10261000
185.19998918	0.00000000	-75.89813000	-22.10261000
185.39998916	0.00000000	-75.89813000	-22.10261000
185.59998915	0.00000000	-75.89813000	-22.10261000
185.79998914	0.00000000	-75.89813000	-22.14567000
185.99998913	0.00000000	-75.94118000	-22.52091000
186.19998912	0.00000000	-76.27337000	-23.26525000
186.39998910	0.00000000	-76.64246000	-23.64050000
186.59998909	0.00000000	-76.27337000	-23.64050000
186.79998908	0.00000000	-75.94118000	-23.26525000
186.99998907	0.00000000	-75.89813000	-22.52091000
187.19998906	0.00000000	-75.89813000	-22.14567000
187.39998904	0.00000000	-75.89813000	-22.10261000
187.59998903	0.00000000	-75.89813000	-22.05955000
187.79998902	0.00000000	-75.89813000	-21.72736000
187.99998901	0.00000000	-75.89813000	-21.36442000
188.19998900	0.00000000	-75.89813000	-21.72736000
188.39998899	0.00000000	-75.89813000	-22.05955000
188.59998897	0.00000000	-75.89813000	-22.14567000
188.79998896	0.00000000	-75.89813000	-22.52091000
188.99998895	0.00000000	-75.89813000	-23.26525000
189.19998894	0.00000000	-75.89813000	-23.64050000
189.39998893	0.00000000	-75.89813000	-23.68356000
189.59998891	0.00000000	-75.89813000	-23.64050000
189.79998890	0.00000000	-75.89813000	-23.26525000
189.99998889	0.00000000	-75.89813000	-22.52091000
190.19998888	0.00000000	-75.89813000	-22.14567000
190.39998887	0.00000000	-75.94118000	-22.10261000
190.59998885	0.00000000	-76.27337000	-22.10261000
190.79998884	0.00000000	-76.64246000	-22.10261000
190.99998883	0.00000000	-76.27337000	-22.10261000
191.19998882	0.00000000	-75.94118000	-22.10261000
191.39998881	0.00000000	-75.89813000	-22.10261000
191.59998880	0.00000000	-75.89813000	-22.10261000
191.79998878	0.00000000	-75.89813000	-22.10261000
191.99998877	0.00000000	-75.89813000	-22.10261000
192.19998876	0.00000000	-75.89813000	-22.14567000
192.39998875	0.00000000	-75.89813000	-22.52091000
192.59998874	0.00000000	-75.89813000	-23.26525000
192.79998872	0.00000000	-75.89813000	-23.64050000
192.99998871	0.00000000	-75.94118000	-23.68356000
193.19998870	0.00000000	-76.27337000	-23.68356000
193.39998869	0.00000000	-76.64246000	-23.64050000
193.59998868	0.00000000	-76.31644000	-23.26525000
193.79998866	0.00000000	-76.31644000	-22.52091000
193.99998865	0.00000000	-76.64246000	-22.14567000
194.19998864	0.00000000	-76.27337000	-22.10261000
194.39998863	0.00000000	-75.94118000	-22.10261000
194.59998862	0.00000000	-75.89813000	-22.10261000
194.79998861	0.00000000	-75.85506000	-22.10261000
194.99998859	0.00000000	-75.52288000	-22.10261000
195.19998858	0.00000000	-75.15379000	-22.14567000
195.39998857	0.00000000	-75.52288000	-22.47785000
195.59998856	0.00000000	-75.85506000	-22.84695000
195.79998855	0.00000000	-75.89813000	-22.47785000
195.99998853	0.00000000	-75.89813000	-22.14567000
