Time	Channel A	Channel B	Channel C
(us)	(V)	(mV)	(mV)

-4.59999956	0.00000000	-63.24434000	-16.99065000
-4.39999957	0.00000000	-63.24434000	-16.62155000
-4.19999958	0.00000000	-63.24434000	-16.94759000
-3.99999959	0.00000000	-63.24434000	-16.94759000
-3.79999960	0.00000000	-63.20127000	-16.57849000
-3.59999962	0.00000000	-62.86909000	-16.61540000
-3.39999963	0.00000000	-62.45694000	-16.53543000
-3.19999964	0.00000000	-62.49385000	-16.61540000
-2.99999965	0.00000000	-62.45694000	-16.53543000
-2.79999966	0.00000000	-62.86909000	-16.57234000
-2.59999968	0.00000000	-63.20127000	-16.16018000
-2.39999969	0.00000000	-63.20127000	-15.87721000
-2.19999970	0.00000000	-62.86909000	-16.16018000
-1.99999971	0.00000000	-62.50000000	-16.52928000
-1.79999972	0.00000000	-62.82603000	-16.16018000
-1.59999973	0.00000000	-62.82603000	-15.82800000
-1.39999975	0.00000000	-62.50000000	-15.78494000
-1.19999976	0.00000000	-62.86909000	-15.78494000
-0.99999977	0.00000000	-63.20127000	-15.82800000
-0.79999978	0.00000000	-63.24434000	-16.16018000
-0.59999979	0.00000000	-63.20127000	-16.52928000
-0.39999981	0.15871060	-62.86909000	-16.20325000
-0.19999982	0.47736220	-62.50000000	-16.25246000
0.00000017	0.79601380	-62.86909000	-16.94759000
0.20000016	0.95533960	-63.20127000	-17.32283000
0.40000015	0.95533960	-63.24434000	-17.36589000
0.60000013	0.63668800	-63.24434000	-17.36589000
0.80000012	0.00000000	-63.24434000	-17.36589000
1.00000011	-0.95533960	-63.24434000	-17.36589000
1.20000010	-1.91129400	-63.20127000	-17.32283000
1.40000009	-2.70792300	-62.82603000	-16.94759000
1.60000008	-2.70792300	-62.13090000	-16.20325000
1.80000006	-2.07062000	-62.13090000	-15.82800000
2.00000005	-0.47736220	-62.82603000	-15.78494000
2.20000004	1.59264300	-63.20127000	-15.82800000
2.40000003	3.66326300	-63.24434000	-16.20325000
2.60000002	4.93786900	-63.24434000	-16.94759000
2.80000000	5.25652100	-63.24434000	-17.32283000
2.99999999	4.14124000	-63.24434000	-17.36589000
3.19999998	1.59264300	-63.24434000	-17.36589000
3.39999997	-1.59264300	-63.20127000	-17.32283000
3.59999996	-4.93786900	-62.82603000	-16.94759000
3.79999994	-7.32714100	-62.08169000	-16.20325000
3.99999993	-7.96444400	-61.70644000	-15.82800000
4.19999992	-6.53112700	-61.66338000	-15.78494000
4.39999991	-3.34522600	-61.66338000	-15.78494000
4.59999990	0.95533960	-61.70644000	-15.82800000
4.79999989	5.25652100	-62.08169000	-16.20325000
4.99999987	8.28309500	-62.82603000	-16.99065000
5.19999986	9.55770200	-63.20127000	-17.69808000
5.39999985	8.12377000	-63.24434000	-18.11024000
5.59999984	4.77854300	-63.24434000	-17.74114000
5.79999983	0.31803640	-63.24434000	-17.40895000
5.99999981	-4.45989200	-63.24434000	-17.36589000
6.19999980	-7.96444400	-63.24434000	-17.32283000
6.39999979	-9.39837600	-63.24434000	-16.94759000
6.59999978	-8.60174700	-63.24434000	-16.20325000
6.79999977	-5.57517200	-63.24434000	-15.82800000
6.99999975	-1.43331700	-63.24434000	-15.78494000
7.19999974	2.86724900	-63.24434000	-15.82800000
7.39999973	6.21247500	-63.24434000	-16.20325000
7.59999972	7.64579200	-63.24434000	-16.94759000
7.79999971	7.16781500	-63.24434000	-17.32283000
7.99999970	5.09719500	-63.24434000	-17.36589000
8.19999968	1.91129400	-63.24434000	-17.36589000
8.39999967	-1.27399100	-63.20127000	-17.36589000
8.59999966	-3.82258900	-62.82603000	-17.32283000
8.79999965	-5.09719500	-62.13090000	-16.94759000
8.99999964	-4.93786900	-62.08169000	-16.20325000
9.19999962	-3.66326300	-62.40772000	-15.82800000
9.39999961	-1.75196900	-62.03863000	-15.78494000
9.59999960	0.15871060	-61.70644000	-15.78494000
9.79999959	1.75196900	-61.66338000	-15.78494000
9.99999958	2.54859700	-61.70644000	-15.78494000
10.19999956	2.54859700	-62.08169000	-15.78494000
10.39999955	1.91129400	-62.77681000	-15.78494000
10.59999954	0.95533960	-62.77681000	-15.78494000
10.79999953	0.15871060	-62.13090000	-15.78494000
10.99999952	-0.47736220	-62.08169000	-15.78494000
11.19999951	-0.95533960	-62.40772000	-15.78494000
11.39999949	-0.95533960	-62.03863000	-15.78494000
11.59999948	-0.79601380	-61.70644000	-15.78494000
11.79999947	-0.63668800	-61.66338000	-15.78494000
11.99999946	-0.31803640	-61.66338000	-15.82800000
12.19999945	-0.15871060	-61.66338000	-16.16018000
12.39999943	-0.15871060	-61.70644000	-16.52928000
12.59999942	0.00000000	-62.03863000	-16.16018000
12.79999941	0.00000000	-62.45079000	-15.82800000
12.99999940	0.00000000	-62.45694000	-15.78494000
13.19999939	0.15871060	-62.82603000	-15.78494000
13.39999937	0.00000000	-62.77681000	-15.78494000
13.59999936	0.00000000	-62.13090000	-15.82800000
13.79999935	0.00000000	-62.08169000	-16.20325000
13.99999934	0.00000000	-62.45079000	-16.94759000
14.19999933	-0.15871060	-62.41388000	-17.27362000
14.39999932	-0.15871060	-62.49385000	-16.99065000
14.59999930	-0.15871060	-62.41388000	-16.62155000
14.79999929	0.00000000	-62.45079000	-16.99065000
14.99999928	0.00000000	-62.03863000	-17.32283000
15.19999927	0.15871060	-61.75566000	-17.36589000
15.39999926	0.00000000	-62.08169000	-17.36589000
15.59999924	0.00000000	-62.82603000	-17.32283000
15.79999923	0.00000000	-63.20127000	-16.99065000
15.99999922	0.00000000	-63.24434000	-16.57849000
16.19999921	0.00000000	-63.20127000	-16.61540000
16.39999920	0.00000000	-62.82603000	-16.57849000
16.59999919	-0.15871060	-62.08169000	-16.94759000
16.79999917	0.00000000	-61.70644000	-16.94759000
16.99999916	0.00000000	-61.66338000	-16.62155000
17.19999915	0.00000000	-61.62032000	-16.99065000
17.39999914	0.00000000	-61.24508000	-17.32283000
17.59999913	0.00000000	-60.54995000	-17.32283000
17.79999911	0.00000000	-60.59301000	-16.94759000
17.99999910	0.00000000	-61.66338000	-16.25246000
18.19999909	0.00000000	-62.82603000	-16.25246000
18.39999908	0.00000000	-63.71186000	-16.94759000
18.59999907	0.00000000	-65.24360000	-17.27362000
18.79999905	0.00000000	-67.10752000	-16.99065000
18.99999904	0.00000000	-67.81496000	-16.62155000
19.19999903	0.00000000	-67.06447000	-16.94759000
19.39999902	0.00000000	-64.73917000	-16.94759000
19.59999901	0.00000000	-61.62032000	-16.57849000
19.79999900	0.00000000	-58.08316000	-16.57234000
19.99999898	0.00000000	-54.22613000	-16.16018000
20.19999897	0.00000000	-51.24261000	-15.82800000
20.39999896	0.00000000	-50.49828000	-15.78494000
20.59999895	0.00000000	-52.82357000	-15.78494000
20.79999894	0.00000000	-57.51722000	-15.78494000
20.99999892	0.00000000	-64.17323000	-15.82800000
21.19999891	0.00000000	-72.22563000	-16.16018000
21.39999890	0.00000000	-79.10925000	-16.52928000
21.59999889	0.00000000	-82.60334000	-16.20325000
21.79999888	0.00000000	-82.14198000	-16.25246000
21.99999886	0.00000000	-77.02386000	-16.94759000
22.19999885	0.00000000	-67.30437000	-17.27362000
22.39999884	0.00000000	-54.96432000	-16.94759000
22.59999883	0.00000000	-42.63656000	-16.20325000
22.79999882	0.00000000	-33.79675000	-15.82800000
22.99999881	0.00000000	-30.76402000	-15.78494000
23.19999879	0.00000000	-34.72564000	-15.78494000
23.39999878	0.00000000	-45.98302000	-15.74188000
23.59999877	0.00000000	-62.21702000	-15.36663000
23.79999876	0.00000000	-79.99508000	-14.62844000
23.99999875	0.00000000	-95.39246000	-14.25320000
24.19999873	0.00000000	-104.19540000	-14.25320000
24.39999872	0.00000000	-103.72790000	-14.67150000
24.59999871	0.00000000	-93.25787000	-15.83415000
24.79999870	0.00000000	-74.74163000	-17.40895000
24.99999869	0.00000000	-52.68823000	-19.32210000
25.19999867	0.00000000	-31.84055000	-21.22293000
25.39999866	0.00000000	-16.81225000	-21.96727000
25.59999865	0.00000000	-11.87869000	-21.59203000
25.79999864	0.00000000	-18.44242000	-19.97416000
25.99999863	0.00000000	-35.46383000	-16.90453000
26.19999862	0.00000000	-59.01205000	-13.00443000
26.39999860	0.00000000	-83.72293000	-9.14124000
26.59999859	0.00000000	-103.77710000	-5.70866100
26.79999858	0.00000000	-114.24090000	-4.26304100
26.99999857	0.00000000	-113.08440000	-5.80093500
27.19999856	0.00000000	-100.70130000	-10.07013000
27.39999854	0.00000000	-79.48450000	-16.29552000
27.59999853	0.00000000	-54.82283000	-23.68356000
27.79999852	0.00000000	-32.72023000	-30.97933000
27.99999851	0.00000000	-17.64887000	-36.27584000
28.19999850	0.00000000	-12.57997000	-37.39542000
28.39999848	0.00000000	-18.71924000	-33.49532000
28.59999847	0.00000000	-33.74754000	-25.35679000
28.79999846	0.00000000	-54.26919000	-14.11786000
28.99999845	0.00000000	-75.90427000	-2.17765700
29.19999844	0.00000000	-93.68233000	7.81250000
29.39999843	0.00000000	-103.77710000	13.19513000
29.59999841	0.00000000	-104.23840000	12.37082000
29.79999840	0.00000000	-95.81692000	5.39493100
29.99999839	0.00000000	-81.15772000	-7.04970500
30.19999838	0.00000000	-63.71186000	-22.47785000
30.39999837	0.00000000	-47.05339000	-37.89985000
30.59999835	0.00000000	-34.30118000	-49.42790000
30.79999834	0.00000000	-28.44488000	-54.02928000
30.99999833	0.00000000	-30.25959000	-50.54134000
31.19999832	0.00000000	-37.98597000	-39.34547000
31.39999831	0.00000000	-49.98769000	-23.12992000
31.59999829	0.00000000	-63.89641000	-5.33341500
31.79999828	0.00000000	-76.27953000	10.50689000
31.99999827	0.00000000	-84.87943000	20.91535000
32.19999826	0.00000000	-88.37352000	23.65280000
32.39999825	0.00000000	-86.46037000	18.22096000
32.59999824	0.00000000	-79.53371000	5.81323800
32.79999822	0.00000000	-69.48203000	-11.55881000
32.99999821	0.00000000	-58.63681000	-30.05044000
33.19999820	0.00000000	-49.00959000	-45.15256000
33.39999819	0.00000000	-43.19635000	-54.07234000
33.59999818	0.00000000	-42.31053000	-55.19193000
33.79999816	0.00000000	-45.38017000	-47.89616000
33.99999815	0.00000000	-51.61786000	-34.04897000
34.19999814	0.00000000	-60.08243000	-17.41511000
34.39999813	0.00000000	-68.51008000	-1.10728300
34.59999812	0.00000000	-74.32332000	11.99557000
34.79999810	0.00000000	-76.32258000	18.91609000
34.99999809	0.00000000	-74.83390000	17.75344000
35.19999808	0.00000000	-70.55241000	8.96899500
35.39999807	0.00000000	-64.40699000	-4.91510800
35.59999806	0.00000000	-57.89247000	-20.34941000
35.79999805	0.00000000	-53.28493000	-34.23351000
35.99999803	0.00000000	-51.66092000	-43.11023000
36.19999802	0.00000000	-52.82357000	-45.10950000
36.39999801	0.00000000	-56.26845000	-40.50196000
36.59999800	0.00000000	-61.28814000	-30.51181000
36.79999799	0.00000000	-66.27091000	-17.83341000
36.99999797	0.00000000	-70.13410000	-5.88705700
37.19999796	0.00000000	-71.62893000	2.56520700
37.39999795	0.00000000	-70.13410000	5.30265700
37.59999794	0.00000000	-66.36318000	1.87007900
37.79999793	0.00000000	-62.08169000	-6.17618100
37.99999791	0.00000000	-58.16929000	-16.90453000
38.19999790	0.00000000	-54.73056000	-26.80241000
38.39999789	0.00000000	-53.19881000	-32.60949000
38.59999788	0.00000000	-53.93700000	-33.03395000
38.79999787	0.00000000	-56.26845000	-28.42643000
38.99999786	0.00000000	-60.12549000	-20.01722000
39.19999784	0.00000000	-64.36392000	-10.48843000
39.39999783	0.00000000	-67.90108000	-3.14960600
39.59999782	0.00000000	-70.60162000	0.28912400
39.79999781	0.00000000	-71.71505000	-0.92273620
39.99999780	0.00000000	-70.60162000	-7.42495000
40.19999778	0.00000000	-67.90108000	-16.94759000
40.39999777	0.00000000	-64.40699000	-26.19955000
40.59999776	0.00000000	-60.50073000	-33.12008000
40.79999775	0.00000000	-57.01279000	-35.72219000
40.99999774	0.00000000	-54.26919000	-32.65871000
41.19999772	0.00000000	-52.77436000	-24.66781000
41.39999771	0.00000000	-53.14960000	-14.67766000
41.59999770	0.00000000	-55.43184000	-5.42568800
41.79999769	0.00000000	-58.54454000	1.11958700
41.99999768	0.00000000	-62.03863000	3.02657500
42.19999767	0.00000000	-65.52657000	0.00615157
42.39999765	0.00000000	-67.85802000	-6.91437000
42.59999764	0.00000000	-69.06373000	-15.74188000
42.79999763	0.00000000	-69.02066000	-24.24335000
42.99999762	0.00000000	-67.52583000	-30.38263000
43.19999761	0.00000000	-65.20053000	-32.74483000
43.39999759	0.00000000	-62.86909000	-30.84399000
43.59999758	0.00000000	-60.54995000	-25.91043000
43.79999757	0.00000000	-59.01205000	-19.32210000
43.99999756	0.00000000	-58.50147000	-12.80758000
44.19999755	0.00000000	-58.12622000	-7.75098400
44.39999753	0.00000000	-57.75713000	-5.42568800
44.59999752	0.00000000	-58.08316000	-5.75172200
44.79999751	0.00000000	-58.08316000	-8.44611200
44.99999750	0.00000000	-57.75713000	-12.62918000
45.19999749	0.00000000	-58.21850000	-16.85531000
45.39999748	0.00000000	-59.38730000	-20.01722000
45.59999746	0.00000000	-61.70644000	-21.96727000
45.79999745	0.00000000	-64.45004000	-22.71161000
45.99999744	0.00000000	-67.19980000	-21.59203000
46.19999743	0.00000000	-70.26943000	-19.32210000
46.39999742	0.00000000	-72.09030000	-16.99065000
46.59999740	0.00000000	-71.71505000	-14.62844000
46.79999739	0.00000000	-68.97145000	-12.72146000
46.99999738	0.00000000	-64.31471000	-11.55881000
47.19999737	0.00000000	-58.45841000	-11.55881000
47.39999736	0.00000000	-52.31299000	-12.72146000
47.59999734	0.00000000	-47.33637000	-14.62844000
47.79999733	0.00000000	-45.42937000	-16.94759000
47.99999732	0.00000000	-47.01033000	-18.90379000
48.19999731	0.00000000	-52.07923000	-20.47859000
48.39999730	0.00000000	-60.17470000	-21.54897000
48.59999729	0.00000000	-69.02066000	-21.17372000
48.79999727	0.00000000	-76.37180000	-19.27288000
48.99999726	0.00000000	-80.60408000	-16.94759000
49.19999725	0.00000000	-80.56102000	-14.21014000
49.39999724	0.00000000	-75.94734000	-11.55881000
49.59999723	0.00000000	-67.81496000	-10.02707000
49.79999721	0.00000000	-58.17544000	-10.02707000
49.99999720	0.00000000	-48.91732000	-11.60187000
50.19999719	0.00000000	-42.82111000	-14.67150000
50.39999718	0.00000000	-41.61540000	-18.52854000
50.59999717	0.00000000	-45.47243000	-21.96727000
50.79999715	0.00000000	-53.14960000	-24.29257000
50.99999714	0.00000000	-62.78297000	-24.66781000
51.19999713	0.00000000	-71.62278000	-23.12992000
51.39999712	0.00000000	-77.44217000	-20.01722000
51.59999711	0.00000000	-78.98006000	-15.78494000
51.79999710	0.00000000	-75.94734000	-11.55881000
51.99999708	0.00000000	-69.43897000	-8.44611200
52.19999707	0.00000000	-61.71259000	-6.90821800
52.39999706	0.00000000	-54.35531000	-7.33267600
52.59999705	0.00000000	-49.00959000	-10.02707000
52.79999704	0.00000000	-47.47170000	-14.21014000
52.99999702	0.00000000	-50.12303000	-18.43627000
53.19999701	0.00000000	-55.85014000	-21.54897000
53.39999700	0.00000000	-62.78297000	-23.12992000
53.59999699	0.00000000	-68.92839000	-23.12992000
53.79999698	0.00000000	-72.78542000	-21.54897000
53.99999696	0.00000000	-73.16068000	-18.52854000
54.19999695	0.00000000	-70.13410000	-15.08981000
54.39999694	0.00000000	-64.78223000	-12.80758000
54.59999693	0.00000000	-59.01205000	-11.97711000
54.79999692	0.00000000	-54.40452000	-12.72146000
54.99999691	0.00000000	-52.07923000	-14.25320000
55.19999689	0.00000000	-52.82357000	-16.16018000
55.39999688	0.00000000	-55.89320000	-18.06102000
55.59999687	0.00000000	-60.50073000	-18.76845000
55.79999686	0.00000000	-65.47736000	-18.06102000
55.99999685	0.00000000	-68.92839000	-16.16018000
56.19999683	0.00000000	-70.13410000	-14.29626000
56.39999682	0.00000000	-68.97145000	-13.13976000
56.59999681	0.00000000	-65.94488000	-13.13976000
56.79999680	0.00000000	-62.08169000	-14.34547000
56.99999679	0.00000000	-58.59375000	-16.67077000
57.19999677	0.00000000	-55.89320000	-20.10950000
57.39999676	0.00000000	-54.77977000	-23.12992000
57.59999675	0.00000000	-55.89320000	-24.61860000
57.79999674	0.00000000	-58.50147000	-23.82505000
57.99999673	0.00000000	-61.24508000	-20.34941000
58.19999672	0.00000000	-63.57652000	-15.36663000
58.39999670	0.00000000	-65.47736000	-9.98400600
58.59999669	0.00000000	-65.85260000	-5.75172200
58.79999668	0.00000000	-64.78223000	-3.84473400
58.99999667	0.00000000	-63.24434000	-4.63828700
59.19999666	0.00000000	-61.66338000	-8.53838500
59.39999664	0.00000000	-60.12549000	-14.67150000
59.59999663	0.00000000	-58.96899000	-21.59203000
59.79999662	0.00000000	-58.63681000	-27.35605000
59.99999661	0.00000000	-59.38730000	-30.46875000
60.19999660	0.00000000	-61.24508000	-30.37647000
60.39999658	0.00000000	-62.77681000	-26.47638000
60.59999657	0.00000000	-63.52731000	-18.85458000
60.79999656	0.00000000	-63.56421000	-10.44537000
60.99999655	0.00000000	-62.41388000	-3.80167300
61.19999654	0.00000000	-61.28814000	0.42445860
61.39999653	0.00000000	-60.08243000	1.11958700
61.59999651	0.00000000	-58.96899000	-2.68823800
61.79999650	0.00000000	-58.59375000	-9.60875900
61.99999649	0.00000000	-59.01205000	-17.74114000
62.19999648	0.00000000	-60.54995000	-25.82431000
62.39999647	0.00000000	-62.82603000	-31.53912000
62.59999645	0.00000000	-64.73302000	-33.12008000
62.79999644	0.00000000	-65.89567000	-30.46875000
62.99999643	0.00000000	-65.89567000	-24.66166000
63.19999642	0.00000000	-64.73302000	-16.99065000
63.39999641	0.00000000	-62.82603000	-9.23966500
63.59999639	0.00000000	-60.45767000	-3.46948800
63.79999638	0.00000000	-58.16929000	-0.36909450
63.99999637	0.00000000	-56.26845000	-1.15034400
64.19999636	0.00000000	-55.89320000	-5.29035400
64.39999635	0.00000000	-57.01279000	-11.14050000
64.59999634	0.00000000	-58.96899000	-17.74114000
64.79999632	0.00000000	-61.66338000	-24.24335000
64.99999631	0.00000000	-64.31471000	-28.51870000
65.19999630	0.00000000	-65.85260000	-29.73056000
65.39999629	0.00000000	-65.89567000	-28.56176000
65.59999628	0.00000000	-64.78223000	-24.75394000
65.79999626	0.00000000	-63.20127000	-19.78346000
65.99999625	0.00000000	-61.28814000	-15.45891000
66.19999624	0.00000000	-59.38730000	-11.51575000
66.39999623	0.00000000	-58.63681000	-8.44611200
66.59999622	0.00000000	-58.96899000	-6.86515700
66.79999620	0.00000000	-60.12549000	-6.86515700
66.99999619	0.00000000	-61.66338000	-8.40305000
67.19999618	0.00000000	-63.20127000	-11.09744000
67.39999617	0.00000000	-64.31471000	-14.21014000
67.59999616	0.00000000	-64.27164000	-17.36589000
67.79999615	0.00000000	-62.77681000	-20.47859000
67.99999613	0.00000000	-60.50073000	-23.17298000
68.19999612	0.00000000	-58.54454000	-24.75394000
68.39999611	0.00000000	-57.01279000	-25.17224000
68.59999610	0.00000000	-56.31151000	-24.71087000
68.79999609	0.00000000	-57.47416000	-22.71161000
68.99999607	0.00000000	-60.17470000	-18.85458000
69.19999606	0.00000000	-63.66264000	-14.25320000
69.39999605	0.00000000	-67.43970000	-9.93479300
69.59999604	0.00000000	-69.75885000	-6.48991100
69.79999603	0.00000000	-69.77116000	-4.59522600
69.99999601	0.00000000	-68.22096000	-5.37647600
70.19999600	0.00000000	-64.68996000	-8.40305000
70.39999599	0.00000000	-60.08243000	-12.72146000
70.59999598	0.00000000	-55.43184000	-17.74114000
70.79999597	0.00000000	-51.61786000	-22.75467000
70.99999596	0.00000000	-50.07997000	-26.19955000
71.19999594	0.00000000	-51.24261000	-27.39911000
71.39999593	0.00000000	-54.73056000	-26.19955000
71.59999592	0.00000000	-60.12549000	-22.75467000
71.79999591	0.00000000	-65.89567000	-17.78420000
71.99999590	0.00000000	-70.55241000	-13.13976000
72.19999588	0.00000000	-73.25295000	-9.65182000
72.39999587	0.00000000	-73.25295000	-7.70792300
72.59999586	0.00000000	-70.55241000	-8.07086500
72.79999585	0.00000000	-65.89567000	-9.93479300
72.99999584	0.00000000	-60.12549000	-12.67224000
73.19999582	0.00000000	-54.73056000	-15.74188000
73.39999581	0.00000000	-51.24261000	-18.39321000
73.59999580	0.00000000	-50.03691000	-19.59892000
73.79999579	0.00000000	-51.19340000	-19.22982000
73.99999578	0.00000000	-54.26919000	-18.15330000
74.19999577	0.00000000	-58.54454000	-16.57849000
74.39999575	0.00000000	-63.15822000	-15.50197000
74.59999574	0.00000000	-67.01525000	-15.08981000
74.79999573	0.00000000	-68.97761000	-15.87721000
74.99999572	0.00000000	-69.02066000	-17.36589000
75.19999571	0.00000000	-67.48277000	-18.90379000
75.39999569	0.00000000	-64.78223000	-19.97416000
75.59999568	0.00000000	-61.70644000	-19.55585000
75.79999567	0.00000000	-59.01205000	-17.27977000
75.99999566	0.00000000	-57.43110000	-14.21014000
76.19999565	0.00000000	-57.01279000	-11.09744000
76.39999563	0.00000000	-57.38804000	-8.44611200
76.59999562	0.00000000	-58.54454000	-7.33267600
76.79999561	0.00000000	-60.03937000	-8.48917200
76.99999560	0.00000000	-61.19586000	-11.60187000
77.19999559	0.00000000	-61.62032000	-16.20325000
77.39999558	0.00000000	-61.66338000	-21.22293000
77.59999556	0.00000000	-61.66338000	-25.08612000
77.79999555	0.00000000	-61.66338000	-27.40526000
77.99999554	0.00000000	-61.70644000	-27.35605000
78.19999553	0.00000000	-62.08169000	-24.66781000
78.39999552	0.00000000	-62.86909000	-20.01722000
78.59999550	0.00000000	-63.57652000	-14.21014000
78.79999549	0.00000000	-63.98867000	-8.48917200
78.99999548	0.00000000	-63.52731000	-4.63828700
79.19999547	0.00000000	-62.40772000	-3.80167300
79.39999546	0.00000000	-60.41461000	-5.33341500
79.59999544	0.00000000	-58.16929000	-8.82135800
79.79999543	0.00000000	-56.22539000	-13.83489000
79.99999542	0.00000000	-55.47490000	-18.85458000
80.19999541	0.00000000	-55.85014000	-23.17298000
80.39999540	0.00000000	-57.43110000	-26.24262000
80.59999539	0.00000000	-60.12549000	-27.39911000
80.79999537	0.00000000	-63.20127000	-26.24262000
80.99999536	0.00000000	-65.85260000	-23.17298000
81.19999535	0.00000000	-67.01525000	-18.90379000
81.39999534	0.00000000	-66.27091000	-14.25320000
81.59999533	0.00000000	-64.40699000	-10.02707000
81.79999531	0.00000000	-62.03863000	-7.28346400
81.99999530	0.00000000	-59.70718000	-6.44685000
82.19999529	0.00000000	-57.38804000	-6.82209600
82.39999528	0.00000000	-55.89320000	-8.40305000
82.59999527	0.00000000	-55.85014000	-11.14050000
82.79999525	0.00000000	-56.96358000	-14.62844000
82.99999524	0.00000000	-58.54454000	-18.52854000
83.19999523	0.00000000	-60.45767000	-21.96727000
83.39999522	0.00000000	-62.35851000	-24.33563000
83.59999521	0.00000000	-63.15207000	-25.08612000
83.79999520	0.00000000	-63.24434000	-24.33563000
83.99999518	0.00000000	-63.20127000	-22.01649000
84.19999517	0.00000000	-62.82603000	-18.89764000
84.39999516	0.00000000	-62.08169000	-15.32357000
84.59999515	0.00000000	-61.70644000	-11.09129000
84.79999514	0.00000000	-61.62032000	-7.28346400
84.99999512	0.00000000	-61.24508000	-5.37647600
85.19999511	0.00000000	-60.50073000	-5.75172200
85.39999510	0.00000000	-60.08243000	-8.44611200
85.59999509	0.00000000	-59.66412000	-12.67224000
85.79999508	0.00000000	-58.91978000	-17.36589000
85.99999506	0.00000000	-58.54454000	-21.96727000
86.19999505	0.00000000	-58.54454000	-25.44906000
86.39999504	0.00000000	-58.96899000	-26.61786000
86.59999503	0.00000000	-60.12549000	-25.86737000
86.79999502	0.00000000	-61.66338000	-23.08686000
86.99999501	0.00000000	-63.20127000	-18.47933000
87.19999499	0.00000000	-64.35777000	-13.09670000
87.39999498	0.00000000	-64.73302000	-8.48917200
87.59999497	0.00000000	-64.31471000	-5.80093500
87.79999496	0.00000000	-62.77681000	-5.80093500
87.99999495	0.00000000	-60.50073000	-8.44611200
88.19999493	0.00000000	-58.59375000	-12.67224000
88.39999492	0.00000000	-57.38804000	-17.32283000
88.59999491	0.00000000	-57.01279000	-21.59203000
88.79999490	0.00000000	-57.38804000	-24.66166000
88.99999489	0.00000000	-58.54454000	-25.78125000
89.19999487	0.00000000	-60.08243000	-24.20029000
89.39999486	0.00000000	-61.66338000	-20.01722000
89.59999485	0.00000000	-63.20127000	-14.67766000
89.79999484	0.00000000	-64.31471000	-10.02707000
89.99999483	0.00000000	-64.31471000	-6.95743000
90.19999482	0.00000000	-63.20127000	-6.21924200
90.39999480	0.00000000	-61.66338000	-8.48917200
90.59999479	0.00000000	-60.12549000	-12.67224000
90.79999478	0.00000000	-58.96899000	-17.32283000
90.99999477	0.00000000	-58.54454000	-21.54897000
91.19999476	0.00000000	-58.54454000	-24.24335000
91.39999474	0.00000000	-58.91978000	-24.61860000
91.59999473	0.00000000	-59.70718000	-22.66855000
91.79999472	0.00000000	-60.45767000	-18.47933000
91.99999471	0.00000000	-61.24508000	-13.51501000
92.19999470	0.00000000	-61.57111000	-9.65182000
92.39999468	0.00000000	-61.28814000	-7.33267600
92.59999467	0.00000000	-60.87598000	-7.37573800
92.79999466	0.00000000	-60.91289000	-10.02707000
92.99999465	0.00000000	-60.91904000	-14.25320000
93.19999464	0.00000000	-61.70644000	-18.85458000
93.39999463	0.00000000	-62.77681000	-22.66855000
93.59999461	0.00000000	-63.20127000	-24.20029000
93.79999460	0.00000000	-63.20127000	-23.08686000
93.99999459	0.00000000	-62.73376000	-20.01722000
94.19999458	0.00000000	-61.19586000	-15.78494000
94.39999457	0.00000000	-58.91978000	-11.60187000
94.59999455	0.00000000	-57.01279000	-8.90747900
94.79999454	0.00000000	-55.80708000	-8.48917200
94.99999453	0.00000000	-55.47490000	-9.98400600
95.19999452	0.00000000	-56.26845000	-12.72146000
95.39999451	0.00000000	-58.59375000	-16.20325000
95.59999449	0.00000000	-61.62032000	-20.01722000
95.79999448	0.00000000	-64.40699000	-22.66855000
95.99999447	0.00000000	-66.69537000	-23.08686000
96.19999446	0.00000000	-68.22096000	-21.54897000
96.39999445	0.00000000	-67.80880000	-18.47933000
96.59999444	0.00000000	-65.89567000	-14.67150000
96.79999442	0.00000000	-62.77681000	-11.60187000
96.99999441	0.00000000	-58.91978000	-10.02707000
97.19999440	0.00000000	-55.43184000	-10.02707000
97.39999439	0.00000000	-52.73130000	-11.55881000
97.59999438	0.00000000	-51.61786000	-14.21014000
97.79999436	0.00000000	-52.73130000	-16.90453000
97.99999435	0.00000000	-55.43184000	-18.81152000
98.19999434	0.00000000	-58.91978000	-19.64198000
98.39999433	0.00000000	-62.82603000	-19.27903000
98.59999432	0.00000000	-66.27091000	-18.52854000
98.79999430	0.00000000	-68.59621000	-17.32283000
98.99999429	0.00000000	-68.97145000	-15.83415000
99.19999428	0.00000000	-67.48277000	-14.67150000
99.39999427	0.00000000	-64.73917000	-14.30241000
99.59999426	0.00000000	-61.24508000	-14.58538000
99.79999425	0.00000000	-57.38804000	-14.94833000
99.99999423	0.00000000	-54.31225000	-14.58538000
100.19999422	0.00000000	-52.73130000	-14.25320000
100.39999421	0.00000000	-52.73130000	-14.21014000
100.59999420	0.00000000	-54.26919000	-14.21014000
100.79999419	0.00000000	-56.96358000	-14.25320000
100.99999417	0.00000000	-60.08243000	-14.62844000
101.19999416	0.00000000	-63.15207000	-15.40969000
101.39999415	0.00000000	-65.47736000	-16.25246000
101.59999414	0.00000000	-66.31397000	-17.78420000
101.79999413	0.00000000	-66.31397000	-19.59892000
101.99999411	0.00000000	-65.47736000	-19.97416000
102.19999410	0.00000000	-63.20127000	-18.90379000
102.39999409	0.00000000	-60.54995000	-17.32283000
102.59999408	0.00000000	-58.54454000	-15.36663000
102.79999407	0.00000000	-56.96358000	-13.04749000
102.99999406	0.00000000	-55.85014000	-11.14050000
103.19999404	0.00000000	-55.85014000	-10.02707000
103.39999403	0.00000000	-56.96358000	-10.44537000
103.59999402	0.00000000	-58.50147000	-12.72146000
103.79999401	0.00000000	-60.12549000	-15.74188000
103.99999400	0.00000000	-62.03863000	-18.47933000
104.19999398	0.00000000	-63.93946000	-20.43553000
104.39999397	0.00000000	-64.68996000	-21.54897000
104.59999396	0.00000000	-64.35777000	-21.17372000
104.79999395	0.00000000	-63.20127000	-19.27288000
104.99999394	0.00000000	-61.66338000	-16.94759000
105.19999392	0.00000000	-60.12549000	-14.21014000
105.39999391	0.00000000	-58.96899000	-11.60187000
105.59999390	0.00000000	-58.54454000	-10.44537000
105.79999389	0.00000000	-58.54454000	-11.18356000
105.99999388	0.00000000	-58.96899000	-13.04749000
106.19999387	0.00000000	-60.08243000	-15.36663000
106.39999385	0.00000000	-61.24508000	-17.27362000
106.59999384	0.00000000	-61.99557000	-18.47933000
106.79999383	0.00000000	-62.40772000	-18.85458000
106.99999382	0.00000000	-61.99557000	-18.43627000
107.19999381	0.00000000	-61.24508000	-16.90453000
107.39999379	0.00000000	-60.08243000	-14.67150000
107.59999378	0.00000000	-58.96899000	-13.13976000
107.79999377	0.00000000	-58.59375000	-12.67224000
107.99999376	0.00000000	-58.91978000	-12.72146000
108.19999375	0.00000000	-59.70718000	-13.50886000
108.39999374	0.00000000	-60.50073000	-15.40969000
108.59999372	0.00000000	-61.66338000	-17.27362000
108.79999371	0.00000000	-62.77681000	-18.47933000
108.99999370	0.00000000	-63.15207000	-18.85458000
109.19999369	0.00000000	-62.82603000	-18.47933000
109.39999368	0.00000000	-61.99557000	-17.32283000
109.59999366	0.00000000	-60.86983000	-15.78494000
109.79999365	0.00000000	-59.33809000	-14.21014000
109.99999364	0.00000000	-58.59375000	-12.72146000
110.19999363	0.00000000	-58.50147000	-11.97711000
110.39999362	0.00000000	-58.54454000	-12.72146000
110.59999360	0.00000000	-58.96899000	-14.21014000
110.79999359	0.00000000	-60.12549000	-15.78494000
110.99999358	0.00000000	-61.62032000	-17.32283000
111.19999357	0.00000000	-62.77681000	-18.47933000
111.39999356	0.00000000	-63.15207000	-18.90379000
111.59999355	0.00000000	-62.77681000	-18.90379000
111.79999353	0.00000000	-61.66338000	-18.47933000
111.99999352	0.00000000	-60.54995000	-17.32283000
112.19999351	0.00000000	-60.08243000	-15.83415000
112.39999350	0.00000000	-59.70718000	-14.67150000
112.59999349	0.00000000	-59.29502000	-14.25320000
112.79999347	0.00000000	-59.33194000	-14.21014000
112.99999346	0.00000000	-59.29502000	-14.25320000
113.19999345	0.00000000	-59.75024000	-14.62844000
113.39999344	0.00000000	-60.45767000	-15.36663000
113.59999343	0.00000000	-61.24508000	-15.74188000
113.79999341	0.00000000	-61.62032000	-15.82800000
113.99999340	0.00000000	-61.66338000	-16.16018000
114.19999339	0.00000000	-61.62032000	-16.57234000
114.39999338	0.00000000	-61.24508000	-16.57849000
114.59999337	0.00000000	-60.50073000	-16.99065000
114.79999336	0.00000000	-60.12549000	-17.32283000
114.99999334	0.00000000	-60.08243000	-17.36589000
115.19999333	0.00000000	-60.08243000	-17.36589000
115.39999332	0.00000000	-60.08243000	-17.32283000
115.59999331	0.00000000	-60.08243000	-16.94759000
115.79999330	0.00000000	-60.08243000	-16.20325000
115.99999328	0.00000000	-60.12549000	-15.78494000
116.19999327	0.00000000	-60.50073000	-15.36663000
116.39999326	0.00000000	-61.24508000	-14.62844000
116.59999325	0.00000000	-61.62032000	-14.25320000
116.79999324	0.00000000	-61.62032000	-14.21014000
116.99999322	0.00000000	-61.24508000	-14.25320000
117.19999321	0.00000000	-60.50073000	-14.67150000
117.39999320	0.00000000	-60.08243000	-15.78494000
117.59999319	0.00000000	-59.66412000	-16.89837000
117.79999318	0.00000000	-58.91978000	-17.32283000
117.99999317	0.00000000	-58.54454000	-17.36589000
118.19999315	0.00000000	-58.54454000	-17.36589000
118.39999314	0.00000000	-58.91978000	-17.32283000
118.59999313	0.00000000	-59.70718000	-16.94759000
118.79999312	0.00000000	-60.50073000	-16.16018000
118.99999311	0.00000000	-61.66338000	-15.40969000
119.19999309	0.00000000	-62.77681000	-14.62844000
119.39999308	0.00000000	-63.15207000	-14.25320000
119.59999307	0.00000000	-62.82603000	-14.21014000
119.79999306	0.00000000	-62.03863000	-14.21014000
119.99999305	0.00000000	-61.24508000	-14.21014000
120.19999303	0.00000000	-60.03937000	-14.25320000
120.39999302	0.00000000	-58.54454000	-14.62844000
120.59999301	0.00000000	-57.38804000	-15.40969000
120.79999300	0.00000000	-57.01279000	-16.16018000
120.99999299	0.00000000	-57.38804000	-16.94759000
121.19999298	0.00000000	-58.50147000	-17.32283000
121.39999296	0.00000000	-59.70718000	-17.36589000
121.59999295	0.00000000	-60.87598000	-17.32283000
121.79999294	0.00000000	-62.40772000	-16.94759000
121.99999293	0.00000000	-63.15207000	-16.20325000
122.19999292	0.00000000	-63.20127000	-15.78494000
122.39999290	0.00000000	-62.82603000	-15.36663000
122.59999289	0.00000000	-61.99557000	-14.62844000
122.79999288	0.00000000	-60.91289000	-14.21014000
122.99999287	0.00000000	-59.71333000	-13.83489000
123.19999286	0.00000000	-59.33194000	-13.46580000
123.39999284	0.00000000	-58.87672000	-13.87795000
123.59999283	0.00000000	-58.54454000	-14.58538000
123.79999282	0.00000000	-58.50147000	-15.40969000
123.99999281	0.00000000	-58.54454000	-16.16018000
124.19999280	0.00000000	-58.91978000	-16.94759000
124.39999279	0.00000000	-59.70718000	-17.32283000
124.59999277	0.00000000	-60.45767000	-17.32283000
124.79999276	0.00000000	-61.24508000	-16.94759000
124.99999275	0.00000000	-61.62032000	-16.20325000
125.19999274	0.00000000	-61.66338000	-15.82800000
125.39999273	0.00000000	-61.66338000	-15.74188000
125.59999271	0.00000000	-61.62032000	-15.36663000
125.79999270	0.00000000	-61.24508000	-14.62844000
125.99999269	0.00000000	-60.45767000	-14.25320000
126.19999268	0.00000000	-59.70718000	-14.21014000
126.39999267	0.00000000	-58.91978000	-14.25320000
126.59999265	0.00000000	-58.54454000	-14.62844000
126.79999264	0.00000000	-58.50147000	-15.36663000
126.99999263	0.00000000	-58.54454000	-15.74188000
127.19999262	0.00000000	-58.96899000	-15.78494000
127.39999261	0.00000000	-60.08243000	-15.82800000
127.59999260	0.00000000	-61.24508000	-16.16018000
127.79999258	0.00000000	-62.03863000	-16.52928000
127.99999257	0.00000000	-62.77681000	-16.16018000
128.19999256	0.00000000	-62.73376000	-15.78494000
128.39999255	0.00000000	-61.62032000	-15.40969000
128.59999254	0.00000000	-60.12549000	-15.04675000
128.79999252	0.00000000	-58.96899000	-15.36663000
128.99999251	0.00000000	-58.54454000	-15.36663000
129.19999250	0.00000000	-58.50147000	-15.04675000
129.39999249	0.00000000	-58.50147000	-15.40969000
129.59999248	0.00000000	-58.54454000	-15.74188000
129.79999246	0.00000000	-58.96899000	-15.78494000
129.99999245	0.00000000	-60.12549000	-15.78494000
130.19999244	0.00000000	-61.57111000	-15.78494000
130.39999243	0.00000000	-62.35851000	-15.78494000
130.59999242	0.00000000	-62.03863000	-15.78494000
130.79999241	0.00000000	-61.66338000	-15.78494000
130.99999239	0.00000000	-61.19586000	-15.74188000
131.19999238	0.00000000	-60.08243000	-15.36663000
131.39999237	0.00000000	-58.96899000	-14.67150000
131.59999236	0.00000000	-58.54454000	-14.67150000
131.79999235	0.00000000	-58.54454000	-15.40969000
131.99999233	0.00000000	-58.91978000	-16.16018000
132.19999232	0.00000000	-59.66412000	-16.94759000
132.39999231	0.00000000	-60.08243000	-17.32283000
132.59999230	0.00000000	-60.50073000	-17.32283000
132.79999229	0.00000000	-61.24508000	-16.94759000
132.99999227	0.00000000	-61.57111000	-16.16018000
133.19999226	0.00000000	-61.24508000	-15.36663000
133.39999225	0.00000000	-60.50073000	-14.25320000
133.59999224	0.00000000	-60.12549000	-13.51501000
133.79999223	0.00000000	-60.03937000	-13.83489000
133.99999222	0.00000000	-59.70718000	-14.21014000
134.19999220	0.00000000	-59.33809000	-14.62844000
134.39999219	0.00000000	-59.70718000	-15.40969000
134.59999218	0.00000000	-60.03937000	-16.16018000
134.79999217	0.00000000	-60.08243000	-16.94759000
134.99999216	0.00000000	-60.03937000	-17.32283000
135.19999214	0.00000000	-59.70718000	-17.36589000
135.39999213	0.00000000	-59.33809000	-17.32283000
135.59999212	0.00000000	-59.70718000	-16.94759000
135.79999211	0.00000000	-60.03937000	-16.16018000
135.99999210	0.00000000	-60.08243000	-15.40969000
136.19999208	0.00000000	-60.12549000	-14.62844000
136.39999207	0.00000000	-60.50073000	-14.25320000
136.59999206	0.00000000	-61.24508000	-14.21014000
136.79999205	0.00000000	-61.62032000	-14.21014000
136.99999204	0.00000000	-61.62032000	-14.25320000
137.19999203	0.00000000	-61.24508000	-14.62844000
137.39999201	0.00000000	-60.45767000	-15.40969000
137.59999200	0.00000000	-59.70718000	-16.16018000
137.79999199	0.00000000	-58.91978000	-16.94759000
137.99999198	0.00000000	-58.54454000	-17.32283000
138.19999197	0.00000000	-58.50147000	-17.36589000
138.39999195	0.00000000	-58.54454000	-17.36589000
138.59999194	0.00000000	-58.96899000	-17.32283000
138.79999193	0.00000000	-60.08243000	-16.89837000
138.99999192	0.00000000	-61.19586000	-15.78494000
139.19999191	0.00000000	-61.62032000	-14.67150000
139.39999189	0.00000000	-61.62032000	-14.21014000
139.59999188	0.00000000	-61.24508000	-13.79183000
139.79999187	0.00000000	-60.45767000	-13.09670000
139.99999186	0.00000000	-59.70718000	-13.09670000
140.19999185	0.00000000	-58.91978000	-13.83489000
140.39999184	0.00000000	-58.54454000	-14.58538000
140.59999182	0.00000000	-58.54454000	-15.40969000
140.79999181	0.00000000	-58.91978000	-16.16018000
140.99999180	0.00000000	-59.66412000	-16.94759000
141.19999179	0.00000000	-60.08243000	-17.32283000
141.39999178	0.00000000	-60.50073000	-17.32283000
141.59999176	0.00000000	-61.19586000	-16.94759000
141.79999175	0.00000000	-61.19586000	-16.16018000
141.99999174	0.00000000	-60.50073000	-15.36663000
142.19999173	0.00000000	-60.12549000	-14.25320000
142.39999172	0.00000000	-60.03937000	-13.51501000
142.59999170	0.00000000	-59.70718000	-13.83489000
142.79999169	0.00000000	-59.33809000	-14.21014000
142.99999168	0.00000000	-59.70718000	-14.62844000
143.19999167	0.00000000	-60.03937000	-15.40969000
143.39999166	0.00000000	-60.08243000	-16.16018000
143.59999165	0.00000000	-60.08243000	-16.94759000
143.79999163	0.00000000	-60.08243000	-17.32283000
143.99999162	0.00000000	-60.08243000	-17.32283000
144.19999161	0.00000000	-60.08243000	-16.94759000
144.39999160	0.00000000	-60.08243000	-16.16018000
144.59999159	0.00000000	-60.03937000	-15.40969000
144.79999157	0.00000000	-59.66412000	-14.62844000
144.99999156	0.00000000	-58.91978000	-14.25320000
145.19999155	0.00000000	-58.59375000	-14.21014000
145.39999154	0.00000000	-58.91978000	-14.21014000
145.59999153	0.00000000	-59.66412000	-14.25320000
145.79999151	0.00000000	-60.03937000	-14.62844000
145.99999150	0.00000000	-60.08243000	-15.36663000
146.19999149	0.00000000	-60.08243000	-15.74188000
146.39999148	0.00000000	-60.08243000	-15.78494000
146.59999147	0.00000000	-60.03937000	-15.78494000
146.79999146	0.00000000	-59.70718000	-15.78494000
146.99999144	0.00000000	-59.29502000	-15.74188000
147.19999143	0.00000000	-59.28888000	-15.36663000
147.39999142	0.00000000	-58.87672000	-14.62844000
147.59999141	0.00000000	-58.59375000	-14.25320000
147.79999140	0.00000000	-58.91978000	-14.21014000
147.99999138	0.00000000	-59.66412000	-14.21014000
148.19999137	0.00000000	-60.03937000	-14.21014000
148.39999136	0.00000000	-60.08243000	-14.25320000
148.59999135	0.00000000	-60.08243000	-14.62844000
148.79999134	0.00000000	-60.08243000	-15.36663000
148.99999132	0.00000000	-60.08243000	-15.74188000
149.19999131	0.00000000	-60.03937000	-15.78494000
149.39999130	0.00000000	-59.66412000	-15.78494000
149.59999129	0.00000000	-58.91978000	-15.78494000
149.79999128	0.00000000	-58.54454000	-15.78494000
149.99999127	0.00000000	-58.50147000	-15.74188000
150.19999125	0.00000000	-58.50147000	-15.36663000
150.39999124	0.00000000	-58.54454000	-14.62844000
150.59999123	0.00000000	-58.91978000	-14.25320000
150.79999122	0.00000000	-59.66412000	-14.25320000
150.99999121	0.00000000	-60.03937000	-14.62844000
151.19999119	0.00000000	-60.08243000	-15.36663000
151.39999118	0.00000000	-60.08243000	-15.74188000
151.59999117	0.00000000	-60.08243000	-15.78494000
151.79999116	0.00000000	-60.08243000	-15.78494000
151.99999115	0.00000000	-60.08243000	-15.78494000
152.19999113	0.00000000	-60.08243000	-15.78494000
152.39999112	0.00000000	-60.03937000	-15.78494000
152.59999111	0.00000000	-59.66412000	-15.78494000
152.79999110	0.00000000	-58.91978000	-15.78494000
152.99999109	0.00000000	-58.54454000	-15.78494000
153.19999108	0.00000000	-58.54454000	-15.78494000
153.39999106	0.00000000	-58.91978000	-15.78494000
153.59999105	0.00000000	-59.66412000	-15.78494000
153.79999104	0.00000000	-60.08243000	-15.78494000
153.99999103	0.00000000	-60.50073000	-15.74188000
154.19999102	0.00000000	-61.24508000	-15.36663000
154.39999100	0.00000000	-61.57111000	-14.67150000
154.59999099	0.00000000	-61.24508000	-14.67150000
154.79999098	0.00000000	-60.50073000	-15.36663000
154.99999097	0.00000000	-60.12549000	-15.74188000
155.19999096	0.00000000	-60.03937000	-15.78494000
155.39999094	0.00000000	-59.66412000	-15.78494000
155.59999093	0.00000000	-58.91978000	-15.78494000
155.79999092	0.00000000	-58.54454000	-15.78494000
155.99999091	0.00000000	-58.54454000	-15.78494000
156.19999090	0.00000000	-58.91978000	-15.78494000
156.39999089	0.00000000	-59.66412000	-15.74188000
156.59999087	0.00000000	-60.03937000	-15.36663000
156.79999086	0.00000000	-60.08243000	-14.62844000
156.99999085	0.00000000	-60.08243000	-14.25320000
157.19999084	0.00000000	-60.08243000	-14.21014000
157.39999083	0.00000000	-60.08243000	-14.25320000
157.59999081	0.00000000	-60.08243000	-14.58538000
157.79999080	0.00000000	-60.08243000	-14.99139000
157.99999079	0.00000000	-60.08243000	-15.00369000
158.19999078	0.00000000	-60.03937000	-15.40969000
158.39999077	0.00000000	-59.66412000	-15.74188000
158.59999075	0.00000000	-58.91978000	-15.78494000
158.79999074	0.00000000	-58.54454000	-15.78494000
158.99999073	0.00000000	-58.50147000	-15.78494000
159.19999072	0.00000000	-58.54454000	-15.74188000
159.39999071	0.00000000	-58.91978000	-15.36663000
159.59999070	0.00000000	-59.66412000	-14.62844000
159.79999068	0.00000000	-60.03937000	-14.25320000
159.99999067	0.00000000	-60.08243000	-14.21014000
160.19999066	0.00000000	-60.08243000	-14.21014000
160.39999065	0.00000000	-60.08243000	-14.21014000
160.59999064	0.00000000	-60.08243000	-14.25320000
160.79999062	0.00000000	-60.08243000	-14.62844000
160.99999061	0.00000000	-60.08243000	-15.36663000
161.19999060	0.00000000	-60.08243000	-15.74188000
161.39999059	0.00000000	-60.03937000	-15.78494000
161.59999058	0.00000000	-59.66412000	-15.78494000
161.79999056	0.00000000	-58.91978000	-15.78494000
161.99999055	0.00000000	-58.54454000	-15.78494000
162.19999054	0.00000000	-58.50147000	-15.78494000
162.39999053	0.00000000	-58.54454000	-15.74188000
162.59999052	0.00000000	-58.91978000	-15.36663000
162.79999051	0.00000000	-59.66412000	-14.62844000
162.99999049	0.00000000	-60.03937000	-14.25320000
163.19999048	0.00000000	-60.08243000	-14.25320000
163.39999047	0.00000000	-60.08243000	-14.62844000
163.59999046	0.00000000	-60.08243000	-15.36663000
163.79999045	0.00000000	-60.08243000	-15.74188000
163.99999043	0.00000000	-60.08243000	-15.78494000
164.19999042	0.00000000	-60.08243000	-15.78494000
164.39999041	0.00000000	-60.03937000	-15.78494000
164.59999040	0.00000000	-59.66412000	-15.78494000
164.79999039	0.00000000	-58.91978000	-15.78494000
164.99999037	0.00000000	-58.54454000	-15.78494000
165.19999036	0.00000000	-58.50147000	-15.78494000
165.39999035	0.00000000	-58.50147000	-15.78494000
165.59999034	0.00000000	-58.50147000	-15.78494000
165.79999033	0.00000000	-58.54454000	-15.74188000
165.99999032	0.00000000	-58.91978000	-15.40969000
166.19999030	0.00000000	-59.66412000	-15.04675000
166.39999029	0.00000000	-60.03937000	-15.40969000
166.59999028	0.00000000	-60.08243000	-15.74188000
166.79999027	0.00000000	-60.08243000	-15.78494000
166.99999026	0.00000000	-60.08243000	-15.78494000
167.19999024	0.00000000	-60.08243000	-15.78494000
167.39999023	0.00000000	-60.03937000	-15.78494000
167.59999022	0.00000000	-59.66412000	-15.78494000
167.79999021	0.00000000	-58.91978000	-15.78494000
167.99999020	0.00000000	-58.54454000	-15.78494000
168.19999018	0.00000000	-58.50147000	-15.78494000
168.39999017	0.00000000	-58.50147000	-15.78494000
168.59999016	0.00000000	-58.50147000	-15.78494000
168.79999015	0.00000000	-58.50147000	-15.78494000
168.99999014	0.00000000	-58.54454000	-15.74188000
169.19999013	0.00000000	-58.91978000	-15.40969000
169.39999011	0.00000000	-59.66412000	-15.04675000
169.59999010	0.00000000	-60.03937000	-15.40969000
169.79999009	0.00000000	-60.08243000	-15.69267000
169.99999008	0.00000000	-60.08243000	-15.40969000
170.19999007	0.00000000	-60.08243000	-15.04675000
170.39999005	0.00000000	-60.03937000	-15.36663000
170.59999004	0.00000000	-59.66412000	-15.36663000
170.79999003	0.00000000	-58.91978000	-15.04675000
170.99999002	0.00000000	-58.54454000	-15.40969000
171.19999001	0.00000000	-58.50147000	-15.74188000
171.39998999	0.00000000	-58.50147000	-15.78494000
171.59998998	0.00000000	-58.50147000	-15.78494000
171.79998997	0.00000000	-58.50147000	-15.78494000
171.99998996	0.00000000	-58.50147000	-15.78494000
172.19998995	0.00000000	-58.54454000	-15.78494000
172.39998994	0.00000000	-58.91978000	-15.78494000
172.59998992	0.00000000	-59.66412000	-15.78494000
172.79998991	0.00000000	-60.03937000	-15.78494000
172.99998990	0.00000000	-60.08243000	-15.78494000
173.19998989	0.00000000	-60.03937000	-15.74188000
173.39998988	0.00000000	-59.66412000	-15.40969000
173.59998986	0.00000000	-58.91978000	-15.04675000
173.79998985	0.00000000	-58.54454000	-15.40969000
173.99998984	0.00000000	-58.50147000	-15.74188000
174.19998983	0.00000000	-58.50147000	-15.78494000
174.39998982	0.00000000	-58.54454000	-15.78494000
174.59998980	0.00000000	-58.91978000	-15.78494000
174.79998979	0.00000000	-59.66412000	-15.78494000
174.99998978	0.00000000	-60.03937000	-15.78494000
175.19998977	0.00000000	-60.08243000	-15.78494000
175.39998976	0.00000000	-60.08243000	-15.78494000
175.59998975	0.00000000	-60.08243000	-15.74188000
175.79998973	0.00000000	-60.08243000	-15.40969000
175.99998972	0.00000000	-60.08243000	-15.00369000
176.19998971	0.00000000	-60.03937000	-14.99139000
176.39998970	0.00000000	-59.66412000	-14.62844000
176.59998969	0.00000000	-58.91978000	-14.67150000
176.79998967	0.00000000	-58.54454000	-15.36663000
176.99998966	0.00000000	-58.54454000	-15.74188000
177.19998965	0.00000000	-58.91978000	-15.78494000
177.39998964	0.00000000	-59.61491000	-15.78494000
177.59998963	0.00000000	-59.61491000	-15.78494000
177.79998961	0.00000000	-58.96899000	-15.78494000
177.99998960	0.00000000	-58.96899000	-15.78494000
178.19998959	0.00000000	-59.66412000	-15.78494000
178.39998958	0.00000000	-59.99015000	-15.74188000
178.59998957	0.00000000	-59.66412000	-15.36663000
178.79998956	0.00000000	-58.96899000	-14.67150000
178.99998954	0.00000000	-58.91978000	-14.62844000
179.19998953	0.00000000	-59.24582000	-14.94833000
179.39998952	0.00000000	-58.87672000	-14.58538000
179.59998951	0.00000000	-58.54454000	-14.30241000
179.79998950	0.00000000	-58.50147000	-14.62844000
179.99998948	0.00000000	-58.50147000	-15.36663000
180.19998947	0.00000000	-58.50147000	-15.74188000
180.39998946	0.00000000	-58.54454000	-15.78494000
180.59998945	0.00000000	-58.87672000	-15.78494000
180.79998944	0.00000000	-59.28888000	-15.78494000
180.99998942	0.00000000	-59.29502000	-15.78494000
181.19998941	0.00000000	-59.66412000	-15.74188000
181.39998940	0.00000000	-59.61491000	-15.36663000
181.59998939	0.00000000	-58.91978000	-14.62844000
181.79998938	0.00000000	-58.54454000	-14.25320000
181.99998937	0.00000000	-58.50147000	-14.21014000
182.19998935	0.00000000	-58.50147000	-14.21014000
182.39998934	0.00000000	-58.50147000	-14.21014000
182.59998933	0.00000000	-58.50147000	-14.25320000
182.79998932	0.00000000	-58.50147000	-14.62844000
182.99998931	0.00000000	-58.50147000	-15.36663000
183.19998929	0.00000000	-58.50147000	-15.74188000
183.39998928	0.00000000	-58.50147000	-15.78494000
183.59998927	0.00000000	-58.50147000	-15.78494000
183.79998926	0.00000000	-58.50147000	-15.78494000
183.99998925	0.00000000	-58.50147000	-15.74188000
184.19998923	0.00000000	-58.54454000	-15.40969000
184.39998922	0.00000000	-58.87672000	-15.00369000
184.59998921	0.00000000	-59.24582000	-14.99139000
184.79998920	0.00000000	-58.87672000	-14.58538000
184.99998919	0.00000000	-58.59375000	-14.25320000
185.19998918	0.00000000	-58.87672000	-14.21014000
185.39998916	0.00000000	-59.24582000	-14.21014000
185.59998915	0.00000000	-58.87672000	-14.25320000
185.79998914	0.00000000	-58.54454000	-14.62844000
185.99998913	0.00000000	-58.50147000	-15.36663000
186.19998912	0.00000000	-58.50147000	-15.74188000
186.39998910	0.00000000	-58.50147000	-15.78494000
186.59998909	0.00000000	-58.50147000	-15.78494000
186.79998908	0.00000000	-58.50147000	-15.78494000
186.99998907	0.00000000	-58.54454000	-15.74188000
187.19998906	0.00000000	-58.91978000	-15.36663000
187.39998904	0.00000000	-59.61491000	-14.62844000
187.59998903	0.00000000	-59.66412000	-14.25320000
187.79998902	0.00000000	-59.29502000	-14.21014000
187.99998901	0.00000000	-59.28888000	-14.21014000
188.19998900	0.00000000	-58.87672000	-14.21014000
188.39998899	0.00000000	-58.54454000	-14.21014000
188.59998897	0.00000000	-58.50147000	-14.25320000
188.79998896	0.00000000	-58.54454000	-14.62844000
188.99998895	0.00000000	-58.87672000	-15.36663000
189.19998894	0.00000000	-59.24582000	-15.74188000
189.39998893	0.00000000	-58.87672000	-15.78494000
189.59998891	0.00000000	-58.54454000	-15.78494000
189.79998890	0.00000000	-58.50147000	-15.78494000
189.99998889	0.00000000	-58.50147000	-15.78494000
190.19998888	0.00000000	-58.54454000	-15.74188000
190.39998887	0.00000000	-58.91978000	-15.40969000
190.59998885	0.00000000	-59.66412000	-15.04675000
190.79998884	0.00000000	-59.99015000	-15.36663000
190.99998883	0.00000000	-59.66412000	-15.36663000
191.19998882	0.00000000	-58.91978000	-15.00369000
191.39998881	0.00000000	-58.54454000	-14.99139000
191.59998880	0.00000000	-58.50147000	-14.62844000
191.79998878	0.00000000	-58.50147000	-14.67150000
191.99998877	0.00000000	-58.50147000	-15.36663000
192.19998876	0.00000000	-58.50147000	-15.74188000
192.39998875	0.00000000	-58.50147000	-15.78494000
192.59998874	0.00000000	-58.50147000	-15.78494000
192.79998872	0.00000000	-58.50147000	-15.78494000
192.99998871	0.00000000	-58.50147000	-15.78494000
193.19998870	0.00000000	-58.50147000	-15.78494000
193.39998869	0.00000000	-58.54454000	-15.78494000
193.59998868	0.00000000	-58.91978000	-15.74188000
193.79998866	0.00000000	-59.61491000	-15.36663000
193.99998865	0.00000000	-59.61491000	-14.62844000
194.19998864	0.00000000	-58.91978000	-14.25320000
194.39998863	0.00000000	-58.54454000	-14.21014000
194.59998862	0.00000000	-58.50147000	-14.21014000
194.79998861	0.00000000	-58.50147000	-14.21014000
194.99998859	0.00000000	-58.50147000	-14.25320000
195.19998858	0.00000000	-58.50147000	-14.62844000
195.39998857	0.00000000	-58.50147000	-15.36663000
195.59998856	0.00000000	-58.54454000	-15.74188000
195.79998855	0.00000000	-58.91978000	-15.78494000
195.99998853	0.00000000	-59.61491000	-15.78494000
