Time	Channel A	Channel B	Channel C
(us)	(V)	(mV)	(mV)

-4.49999956	0.00000000	-13.85334000	-9.47342500
-4.29999957	0.00000000	-13.48425000	-9.47342500
-4.09999958	0.00000000	-13.85334000	-9.43036400
-3.89999959	0.00000000	-14.13632000	-9.05511800
-3.69999960	0.00000000	-13.85334000	-8.35998900
-3.49999962	0.00000000	-13.44119000	-8.31077700
-3.29999963	0.00000000	-13.47810000	-8.67987200
-3.09999964	0.00000000	-13.44119000	-8.68602300
-2.89999965	0.00000000	-13.85334000	-9.09817800
-2.69999966	0.00000000	-14.18553000	-9.43036400
-2.49999968	0.00000000	-14.22859000	-9.47342500
-2.29999969	0.00000000	-14.22859000	-9.43036400
-2.09999970	0.00000000	-14.18553000	-9.09817800
-1.89999971	0.00000000	-13.81028000	-8.72908400
-1.69999972	0.00000000	-13.06594000	-9.05511800
-1.49999973	0.00000000	-12.73991000	-9.05511800
-1.29999975	0.00000000	-13.06594000	-8.68602300
-1.09999976	0.00000000	-13.76107000	-8.72293300
-0.89999977	0.00000000	-13.76107000	-8.68602300
-0.69999978	0.00000000	-13.06594000	-9.09817800
-0.49999979	0.00000000	-12.69070000	-9.38115100
-0.29999981	0.15871060	-12.64764000	-9.09817800
-0.09999982	0.63668800	-12.69070000	-8.72908400
0.10000017	0.95533960	-13.02288000	-9.05511800
0.30000016	0.95533960	-13.43504000	-9.00590400
0.50000015	0.79601380	-13.44119000	-8.35998900
0.70000013	0.31803640	-13.85334000	-8.35998900
0.90000012	-0.47736220	-14.18553000	-9.05511800
1.10000011	-1.43331700	-14.22859000	-9.43036400
1.30000010	-2.22994600	-14.18553000	-9.43036400
1.50000009	-2.70792300	-13.81028000	-9.05511800
1.70000008	-2.54859700	-13.06594000	-8.31077700
1.90000006	-1.43331700	-12.69070000	-7.93553100
2.10000005	0.31803640	-12.69070000	-7.93553100
2.30000004	2.38927200	-13.06594000	-8.31077700
2.50000003	4.30056600	-13.81028000	-9.05511800
2.70000002	5.25652100	-14.18553000	-9.43036400
2.90000000	4.93786900	-14.22859000	-9.47342500
3.09999999	3.18590100	-14.22859000	-9.47342500
3.29999998	0.31803640	-14.22859000	-9.47342500
3.49999997	-3.18590100	-14.22859000	-9.47342500
3.69999996	-6.21247500	-14.18553000	-9.43036400
3.89999994	-7.80511800	-13.81028000	-9.05511800
4.09999993	-7.64579200	-13.06594000	-8.31077700
4.29999992	-5.41584600	-12.69070000	-7.93553100
4.49999991	-1.43331700	-12.64764000	-7.89247000
4.69999990	3.02657500	-12.64764000	-7.89247000
4.89999989	6.84916400	-12.69070000	-7.93553100
5.09999987	9.07972400	-13.06594000	-8.31077700
5.29999986	9.23905000	-13.81028000	-9.05511800
5.49999985	6.84916400	-14.18553000	-9.43036400
5.69999984	2.70792300	-14.22859000	-9.47342500
5.89999983	-1.91129400	-14.18553000	-9.47342500
6.09999981	-6.21247500	-13.81028000	-9.43036400
6.29999980	-8.92039900	-13.06594000	-9.05511800
6.49999979	-9.39837600	-12.69070000	-8.31077700
6.69999978	-7.48646600	-12.64764000	-7.93553100
6.89999977	-3.82258900	-12.64764000	-7.89247000
7.09999975	0.47736220	-12.69070000	-7.89247000
7.29999974	4.45989200	-13.02288000	-7.93553100
7.49999973	7.16781500	-13.43504000	-8.31077700
7.69999972	7.80511800	-13.44119000	-9.05511800
7.89999971	6.37180100	-13.85334000	-9.43036400
8.09999970	3.82258900	-14.18553000	-9.47342500
8.29999968	0.47736220	-14.22859000	-9.47342500
8.49999967	-2.54859700	-14.22859000	-9.47342500
8.69999966	-4.61921700	-14.18553000	-9.47342500
8.89999965	-5.25652100	-13.81028000	-9.43036400
9.09999964	-4.45989200	-13.06594000	-9.09817800
9.29999962	-2.86724900	-12.73991000	-8.72908400
9.49999961	-0.79601380	-13.06594000	-9.09817800
9.69999960	0.95533960	-13.81028000	-9.43036400
9.89999959	2.07062000	-14.18553000	-9.47342500
10.09999958	2.54859700	-14.22859000	-9.47342500
10.29999956	2.22994600	-14.22859000	-9.47342500
10.49999955	1.59264300	-14.22859000	-9.47342500
10.69999954	0.63668800	-14.22859000	-9.47342500
10.89999953	-0.15871060	-14.22859000	-9.47342500
11.09999952	-0.79601380	-14.22859000	-9.47342500
11.29999951	-0.95533960	-14.22859000	-9.47342500
11.49999949	-0.95533960	-14.22859000	-9.47342500
11.69999948	-0.79601380	-14.22859000	-9.47342500
11.89999947	-0.47736220	-14.22859000	-9.47342500
12.09999946	-0.15871060	-14.22859000	-9.47342500
12.29999945	-0.15871060	-14.22859000	-9.47342500
12.49999943	-0.15871060	-14.22859000	-9.47342500
12.69999942	0.00000000	-14.22859000	-9.47342500
12.89999941	0.00000000	-14.22859000	-9.47342500
13.09999940	0.15871060	-14.22859000	-9.47342500
13.29999939	0.00000000	-14.22859000	-9.47342500
13.49999937	0.00000000	-14.22859000	-9.47342500
13.69999936	0.00000000	-14.18553000	-9.47342500
13.89999935	0.00000000	-13.85334000	-9.47342500
14.09999934	-0.15871060	-13.48425000	-9.43036400
14.29999933	-0.15871060	-13.85334000	-9.09817800
14.49999932	-0.15871060	-14.18553000	-8.72908400
14.69999930	0.00000000	-14.22859000	-9.09817800
14.89999929	0.00000000	-14.22859000	-9.43036400
15.09999928	0.00000000	-14.22859000	-9.43036400
15.29999927	0.00000000	-14.22859000	-9.05511800
15.49999926	0.00000000	-14.18553000	-8.35998900
15.69999924	0.00000000	-13.85334000	-8.35998900
15.89999923	0.00000000	-13.48425000	-9.05511800
16.09999922	0.00000000	-13.85334000	-9.38115100
16.29999921	0.00000000	-14.18553000	-9.05511800
16.49999920	-0.15871060	-14.18553000	-8.35998900
16.69999919	-0.15871060	-13.81028000	-8.35998900
16.89999917	-0.15871060	-13.06594000	-9.05511800
17.09999916	0.00000000	-12.69070000	-9.43036400
17.29999915	0.00000000	-12.60458000	-9.47342500
17.49999914	0.00000000	-12.22933000	-9.47342500
17.69999913	0.00000000	-11.53420000	-9.43036400
17.89999911	0.00000000	-11.57726000	-9.09817800
18.09999910	0.00000000	-12.69070000	-8.72908400
18.29999909	0.00000000	-14.22859000	-9.09817800
18.49999908	0.00000000	-15.80955000	-9.43036400
18.69999907	0.00000000	-17.34744000	-9.47342500
18.89999905	0.00000000	-18.46087000	-9.47342500
19.09999904	0.00000000	-18.46087000	-9.47342500
19.29999903	0.00000000	-17.25517000	-9.47342500
19.49999902	0.00000000	-14.92372000	-9.47342500
19.69999901	0.00000000	-11.44193000	-9.47342500
19.89999900	0.00000000	-7.94783400	-9.47342500
20.09999898	0.00000000	-4.83513700	-9.47342500
20.29999897	0.00000000	-2.60211600	-9.43036400
20.49999896	0.00000000	-2.64517700	-9.05511800
20.69999895	0.00000000	-5.43184000	-8.35998900
20.89999894	0.00000000	-10.88213000	-8.35998900
21.09999892	0.00000000	-18.59621000	-9.05511800
21.29999891	0.00000000	-26.27953000	-9.43036400
21.49999890	0.00000000	-32.04970000	-9.47342500
21.69999889	0.00000000	-34.32578000	-9.47342500
21.89999888	0.00000000	-31.95743000	-9.47342500
22.09999886	0.00000000	-25.25836000	-9.47342500
22.29999885	0.00000000	-14.41314000	-9.47342500
22.49999884	0.00000000	-1.34719500	-9.47342500
22.69999883	0.00000000	9.82406400	-9.43036400
22.89999882	0.00000000	16.75074000	-9.05511800
23.09999881	0.00000000	17.40280000	-8.31077700
23.29999879	0.00000000	10.38386000	-7.93553100
23.49999878	0.00000000	-3.15575800	-7.89247000
23.69999877	0.00000000	-20.55241000	-7.89247000
23.89999876	0.00000000	-37.91216000	-7.89247000
24.09999875	0.00000000	-50.98425000	-7.89247000
24.29999873	0.00000000	-56.33612000	-7.93553100
24.49999872	0.00000000	-52.01156000	-8.35998900
24.69999871	0.00000000	-38.47195000	-9.51648500
24.89999870	0.00000000	-18.33169000	-11.04823000
25.09999869	0.00000000	4.05388800	-12.62918000
25.29999867	0.00000000	23.68356000	-14.11786000
25.49999866	0.00000000	35.22392000	-14.85605000
25.69999865	0.00000000	35.59916000	-14.03174000
25.89999864	0.00000000	24.75394000	-11.70029000
26.09999863	0.00000000	4.66289300	-7.84940900
26.29999862	0.00000000	-20.04183000	-3.62327700
26.49999860	0.00000000	-43.63311000	-0.13533460
26.69999859	0.00000000	-60.98671000	2.14074800
26.89999858	0.00000000	-67.87647000	2.09153500
27.09999857	0.00000000	-62.10630000	-0.64591530
27.29999856	0.00000000	-45.17101000	-5.70866100
27.49999854	0.00000000	-21.62278000	-12.72146000
27.69999853	0.00000000	3.12500000	-20.39247000
27.89999852	0.00000000	23.64050000	-26.89468000
28.09999851	0.00000000	35.64837000	-29.91511000
28.29999850	0.00000000	36.80487000	-28.38337000
28.49999848	0.00000000	26.75935000	-22.53322000
28.69999847	0.00000000	7.91092400	-13.18898000
28.89999846	0.00000000	-14.88066000	-1.58095500
29.09999845	0.00000000	-36.14665000	9.94709500
29.29999844	0.00000000	-51.67938000	18.39936000
29.49999843	0.00000000	-58.29232000	21.37672000
29.69999841	0.00000000	-55.26574000	17.47047000
29.89999840	0.00000000	-43.67618000	6.64985200
30.09999839	0.00000000	-26.32259000	-8.35998900
30.29999838	0.00000000	-7.38804100	-24.20029000
30.49999837	0.00000000	8.89517700	-37.34621000
30.69999835	0.00000000	19.40822000	-45.06028000
30.89999834	0.00000000	22.57013000	-45.76156000
31.09999833	0.00000000	18.28863000	-38.37352000
31.29999832	0.00000000	7.49261800	-24.10802000
31.49999831	0.00000000	-7.52952700	-6.36072800
31.69999829	0.00000000	-22.60704000	11.06053000
31.89999828	0.00000000	-34.65797000	24.58169000
32.09999827	0.00000000	-41.63386000	31.50221000
32.29999826	0.00000000	-42.05216000	29.92126000
32.49999825	0.00000000	-36.33120000	19.93110000
32.69999824	0.00000000	-26.27953000	4.09079700
32.89999822	0.00000000	-14.32087000	-14.11786000
33.09999821	0.00000000	-3.06348400	-31.49606000
33.29999820	0.00000000	5.03198800	-44.18061000
33.49999819	0.00000000	8.56299200	-48.86811000
33.69999818	0.00000000	6.61294300	-45.06028000
33.89999816	0.00000000	0.14148620	-34.23351000
34.09999815	0.00000000	-9.11048200	-18.39321000
34.29999814	0.00000000	-18.37475000	-1.02116100
34.49999813	0.00000000	-25.71973000	14.03789000
34.69999812	0.00000000	-29.58292000	23.73892000
34.89999810	0.00000000	-28.83858000	26.07037000
35.09999809	0.00000000	-24.27411000	21.09375000
35.29999808	0.00000000	-17.34744000	9.85482200
35.49999807	0.00000000	-10.03937000	-5.15501900
35.69999806	0.00000000	-4.26919300	-20.57702000
35.89999805	0.00000000	-1.57480300	-32.52337000
36.09999803	0.00000000	-2.68823800	-38.33046000
36.29999802	0.00000000	-6.87746000	-36.84178000
36.49999801	0.00000000	-12.64764000	-28.80167000
36.69999800	0.00000000	-18.41781000	-16.85531000
36.89999799	0.00000000	-22.65010000	-3.80167300
37.09999797	0.00000000	-24.18799000	6.97588500
37.29999796	0.00000000	-22.69316000	12.37082000
37.49999795	0.00000000	-18.87918000	11.66339000
37.69999794	0.00000000	-14.22859000	5.16117100
37.89999793	0.00000000	-9.57800100	-4.73671200
38.09999791	0.00000000	-5.76402500	-14.76993000
38.29999790	0.00000000	-4.18307100	-22.44094000
38.49999789	0.00000000	-4.92125900	-25.87352000
38.69999788	0.00000000	-7.25270600	-23.60359000
38.89999787	0.00000000	-11.15896000	-16.72613000
39.09999786	0.00000000	-15.76649000	-7.51722400
39.29999784	0.00000000	-19.99877000	1.63016700
39.49999783	0.00000000	-22.69316000	7.34498000
39.69999782	0.00000000	-23.16068000	7.76943800
39.89999781	0.00000000	-21.99803000	3.16806100
40.09999780	0.00000000	-19.66658000	-5.29035400
40.29999778	0.00000000	-16.18479000	-15.23130000
40.49999777	0.00000000	-12.69070000	-23.64665000
40.69999776	0.00000000	-9.52879000	-27.87278000
40.89999775	0.00000000	-6.83439900	-26.71629000
41.09999774	0.00000000	-5.29650500	-20.62008000
41.29999772	0.00000000	-5.29650500	-11.38041000
41.49999771	0.00000000	-6.83439900	-1.75319900
41.69999770	0.00000000	-9.52879000	6.32381900
41.89999769	0.00000000	-12.64764000	10.50074000
42.09999768	0.00000000	-15.76649000	9.43036400
42.29999767	0.00000000	-18.50394000	4.04773600
42.49999765	0.00000000	-20.41708000	-4.08464600
42.69999764	0.00000000	-21.20448000	-13.69956000
42.89999763	0.00000000	-20.41708000	-22.10876000
43.09999762	0.00000000	-18.55315000	-26.71629000
43.29999761	0.00000000	-16.18479000	-26.38410000
43.49999759	0.00000000	-13.85334000	-21.46284000
43.69999758	0.00000000	-11.53420000	-14.25320000
43.89999757	0.00000000	-9.99630800	-7.24040300
44.09999756	0.00000000	-9.52879000	-1.80241100
44.29999755	0.00000000	-9.48572700	1.72244100
44.49999753	0.00000000	-9.48572700	2.46678100
44.69999752	0.00000000	-9.52879000	0.60285430
44.89999751	0.00000000	-9.90403500	-3.24803100
45.09999750	0.00000000	-10.69144000	-7.84940900
45.29999749	0.00000000	-11.48499000	-12.11860000
45.49999748	0.00000000	-12.78297000	-15.18824000
45.69999746	0.00000000	-15.06521000	-16.39395000
45.89999745	0.00000000	-18.17790000	-15.64960000
46.09999744	0.00000000	-20.83538000	-13.74262000
46.29999743	0.00000000	-22.82849000	-11.00517000
46.49999742	0.00000000	-23.48671000	-7.93553100
46.69999740	0.00000000	-22.31791000	-5.24729300
46.89999739	0.00000000	-18.79306000	-3.66633800
47.09999738	0.00000000	-13.76107000	-3.33415300
47.29999737	0.00000000	-7.90477300	-4.41067900
47.49999736	0.00000000	-2.13459600	-6.72367100
47.69999734	0.00000000	2.00541300	-8.68602300
47.89999733	0.00000000	2.70669300	-11.09744000
48.09999732	0.00000000	-1.10728300	-13.69956000
48.29999731	0.00000000	-8.04010800	-15.23130000
48.49999730	0.00000000	-16.22785000	-15.23130000
48.69999729	0.00000000	-24.69857000	-13.69956000
48.89999727	0.00000000	-31.16388000	-11.00517000
49.09999726	0.00000000	-33.12008000	-7.89247000
49.29999725	0.00000000	-30.46875000	-4.82283400
49.49999724	0.00000000	-24.23105000	-2.50369100
49.69999723	0.00000000	-15.34203000	-1.75319900
49.89999721	0.00000000	-5.71481200	-2.50369100
50.09999720	0.00000000	1.96235200	-4.87204700
50.29999719	0.00000000	5.81938900	-8.35998900
50.49999718	0.00000000	4.66289300	-12.58612000
50.69999717	0.00000000	-1.10728300	-16.35089000
50.89999715	0.00000000	-9.95324800	-17.92569000
51.09999714	0.00000000	-19.53125000	-17.18750000
51.29999713	0.00000000	-26.88238000	-14.85605000
51.49999712	0.00000000	-30.37647000	-10.95595000
51.69999711	0.00000000	-29.62598000	-6.40378900
51.89999710	0.00000000	-24.60630000	-2.54675200
52.09999708	0.00000000	-16.97219000	-0.59670270
52.29999707	0.00000000	-8.87672100	-0.55364170
52.49999706	0.00000000	-2.73745100	-2.08538400
52.69999705	0.00000000	0.00615157	-4.87204700
52.89999704	0.00000000	-1.15649600	-8.68602300
53.09999702	0.00000000	-5.76402500	-12.90600000
53.29999701	0.00000000	-12.64764000	-15.56348000
53.49999700	0.00000000	-19.53125000	-16.34473000
53.69999699	0.00000000	-24.18799000	-14.81299000
53.89999698	0.00000000	-25.71973000	-11.46653000
54.09999696	0.00000000	-23.81275000	-8.40305000
54.29999695	0.00000000	-18.83612000	-6.40378900
54.49999694	0.00000000	-12.73991000	-5.24729300
54.69999693	0.00000000	-7.29576700	-5.29035400
54.89999692	0.00000000	-3.85088600	-6.77903500
55.09999691	0.00000000	-3.11269700	-9.05511800
55.29999689	0.00000000	-5.76402500	-10.91289000
55.49999688	0.00000000	-10.73450000	-11.70029000
55.69999687	0.00000000	-16.14173000	-10.96211000
55.89999686	0.00000000	-21.11220000	-9.42421200
56.09999685	0.00000000	-23.81275000	-7.47416300
56.29999683	0.00000000	-23.44365000	-5.19808000
56.49999682	0.00000000	-20.73696000	-3.75246000
56.69999681	0.00000000	-15.80955000	-4.17076700
56.89999680	0.00000000	-10.83292000	-6.86515700
57.09999679	0.00000000	-7.66486200	-11.04823000
57.29999677	0.00000000	-5.71481200	-15.23130000
57.49999676	0.00000000	-5.76402500	-17.92569000
57.69999675	0.00000000	-8.04010800	-18.30093000
57.89999674	0.00000000	-11.48499000	-16.35089000
58.09999673	0.00000000	-15.34203000	-12.07554000
58.29999672	0.00000000	-18.37475000	-6.31151500
58.49999670	0.00000000	-19.58046000	-0.59670270
58.69999669	0.00000000	-18.87918000	3.25418300
58.89999668	0.00000000	-17.34744000	4.04773600
59.09999667	0.00000000	-15.39124000	2.09768700
59.29999666	0.00000000	-13.06594000	-2.59596400
59.49999664	0.00000000	-11.20202000	-9.51648500
59.69999663	0.00000000	-10.37155000	-16.76919000
59.89999662	0.00000000	-10.73450000	-22.15797000
60.09999661	0.00000000	-11.48499000	-24.06496000
60.29999660	0.00000000	-12.69070000	-22.15797000
60.49999658	0.00000000	-14.18553000	-16.76919000
60.69999657	0.00000000	-15.29897000	-9.42421200
60.89999656	0.00000000	-15.34203000	-1.75935000
61.09999655	0.00000000	-14.60384000	4.41067900
61.29999654	0.00000000	-13.81028000	7.06815900
61.49999653	0.00000000	-12.69070000	5.94857300
61.69999651	0.00000000	-11.95251000	0.89197830
61.89999650	0.00000000	-12.36466000	-6.77903500
62.09999649	0.00000000	-13.44119000	-15.27436000
62.29999648	0.00000000	-15.01599000	-22.52707000
62.49999647	0.00000000	-16.14173000	-26.38410000
62.69999645	0.00000000	-16.97219000	-25.63976000
62.89999644	0.00000000	-17.29823000	-21.08760000
63.09999643	0.00000000	-16.92298000	-14.11786000
63.29999642	0.00000000	-15.76649000	-6.40378900
63.49999641	0.00000000	-14.18553000	0.51673230
63.69999639	0.00000000	-12.27239000	4.78592500
63.89999638	0.00000000	-10.37155000	5.57947800
64.09999637	0.00000000	-9.66412400	3.29724400
64.29999636	0.00000000	-10.37155000	-1.71013800
64.49999635	0.00000000	-12.27239000	-7.84940900
64.69999634	0.00000000	-14.18553000	-13.69956000
64.89999632	0.00000000	-15.80955000	-18.35015000
65.09999631	0.00000000	-17.29823000	-21.03838000
65.29999630	0.00000000	-18.04257000	-21.08760000
65.49999629	0.00000000	-17.29823000	-18.76845000
65.69999628	0.00000000	-15.76649000	-14.94833000
65.89999626	0.00000000	-13.85334000	-10.31004000
66.09999625	0.00000000	-11.95251000	-6.40378900
66.29999624	0.00000000	-11.20202000	-3.24803100
66.49999623	0.00000000	-11.53420000	-0.97194880
66.69999622	0.00000000	-12.69070000	-0.51058070
66.89999620	0.00000000	-14.22859000	-1.24877000
67.09999619	0.00000000	-15.76649000	-2.46063000
67.29999618	0.00000000	-16.87992000	-4.82283400
67.49999617	0.00000000	-16.87992000	-7.89247000
67.69999616	0.00000000	-15.71727000	-11.04823000
67.89999615	0.00000000	-13.76107000	-14.16092000
68.09999613	0.00000000	-11.10974000	-16.85531000
68.29999612	0.00000000	-8.83366100	-18.39321000
68.49999611	0.00000000	-8.08316900	-18.39321000
68.69999610	0.00000000	-8.87672100	-16.85531000
68.89999609	0.00000000	-11.57726000	-14.07480000
69.09999607	0.00000000	-15.43430000	-10.16855000
69.29999606	0.00000000	-19.30364000	-5.15501900
69.49999605	0.00000000	-22.74237000	-0.59670270
69.69999604	0.00000000	-24.23105000	2.14074800
69.89999603	0.00000000	-23.06841000	2.55905500
70.09999601	0.00000000	-19.58046000	0.97810030
70.29999600	0.00000000	-14.18553000	-2.55290300
70.49999599	0.00000000	-8.41535400	-7.93553100
70.69999598	0.00000000	-3.80782500	-13.69956000
70.89999597	0.00000000	-1.48253000	-18.30093000
71.09999596	0.00000000	-2.26993100	-20.66929000
71.29999594	0.00000000	-5.71481200	-20.25714000
71.49999593	0.00000000	-11.15896000	-17.59966000
71.69999592	0.00000000	-17.34744000	-12.96137000
71.89999591	0.00000000	-23.11762000	-7.98474400
72.09999590	0.00000000	-26.97465000	-3.70939900
72.29999588	0.00000000	-27.76821000	-1.01501000
72.49999587	0.00000000	-25.81201000	-0.59670270
72.69999586	0.00000000	-21.16142000	-2.08538400
72.89999585	0.00000000	-14.64690000	-4.77977300
73.09999584	0.00000000	-8.45841400	-7.84940900
73.29999582	0.00000000	-3.75861200	-10.58686000
73.49999581	0.00000000	-1.10728300	-12.49385000
73.69999580	0.00000000	-1.48253000	-13.23819000
73.89999579	0.00000000	-4.92125900	-12.11860000
74.09999578	0.00000000	-9.95324800	-9.93479300
74.29999577	0.00000000	-15.76649000	-8.40305000
74.49999575	0.00000000	-21.11220000	-7.98474400
74.69999574	0.00000000	-24.23105000	-8.40305000
74.89999573	0.00000000	-24.64936000	-9.93479300
75.09999572	0.00000000	-22.74237000	-12.16781000
75.29999571	0.00000000	-18.92839000	-13.65650000
75.49999569	0.00000000	-14.69611000	-13.65650000
75.69999568	0.00000000	-11.15896000	-12.07554000
75.89999567	0.00000000	-8.45841400	-9.00590400
76.09999566	0.00000000	-7.29576700	-5.19808000
76.29999565	0.00000000	-8.04010800	-2.12844500
76.49999563	0.00000000	-9.90403500	-0.59670270
76.69999562	0.00000000	-12.22933000	-1.01501000
76.89999561	0.00000000	-14.13632000	-3.70939900
77.09999560	0.00000000	-15.34203000	-7.93553100
77.29999559	0.00000000	-15.71727000	-12.62918000
77.49999558	0.00000000	-15.39124000	-17.23056000
77.69999556	0.00000000	-14.64690000	-20.66314000
77.89999555	0.00000000	-14.27165000	-21.37057000
78.09999554	0.00000000	-14.27165000	-19.08834000
78.29999553	0.00000000	-14.64690000	-14.07480000
78.49999552	0.00000000	-15.39124000	-7.93553100
78.69999550	0.00000000	-15.71727000	-2.12844500
78.89999549	0.00000000	-15.39124000	2.09768700
79.09999548	0.00000000	-14.56078000	3.67249000
79.29999547	0.00000000	-13.39198000	2.51599400
79.49999546	0.00000000	-11.44193000	-0.92888770
79.69999544	0.00000000	-9.62106200	-5.98548200
79.89999543	0.00000000	-8.79060000	-11.33120000
80.09999542	0.00000000	-9.20275500	-16.01870000
80.29999541	0.00000000	-10.37155000	-18.71924000
80.49999540	0.00000000	-12.73991000	-19.55585000
80.69999539	0.00000000	-15.76649000	-18.35015000
80.89999537	0.00000000	-18.46087000	-15.32357000
81.09999536	0.00000000	-19.99877000	-11.42347000
81.29999535	0.00000000	-19.99877000	-7.56028500
81.49999534	0.00000000	-18.46087000	-4.03543200
81.69999533	0.00000000	-15.76649000	-1.71013800
81.89999531	0.00000000	-12.69070000	-0.51058070
82.09999530	0.00000000	-9.99630800	-0.55364170
82.29999529	0.00000000	-8.45841400	-2.04232300
82.49999528	0.00000000	-8.41535400	-4.40452700
82.69999527	0.00000000	-9.57800100	-7.14812900
82.89999525	0.00000000	-11.48499000	-10.62992000
83.09999524	0.00000000	-13.81028000	-13.69956000
83.29999523	0.00000000	-15.71727000	-15.69882000
83.49999522	0.00000000	-16.92298000	-16.89837000
83.69999521	0.00000000	-17.29823000	-17.23056000
83.89999520	0.00000000	-16.92298000	-16.39395000
84.09999518	0.00000000	-15.80955000	-13.65650000
84.29999517	0.00000000	-14.64690000	-9.47342500
84.49999516	0.00000000	-13.85334000	-5.24729300
84.69999515	0.00000000	-13.06594000	-2.12844500
84.89999514	0.00000000	-12.73991000	-0.51058070
85.09999512	0.00000000	-13.06594000	-0.17839570
85.29999511	0.00000000	-13.81028000	-1.39025600
85.49999510	0.00000000	-14.13632000	-4.87204700
85.69999509	0.00000000	-13.81028000	-9.47342500
85.89999508	0.00000000	-13.06594000	-14.11786000
86.09999506	0.00000000	-12.69070000	-17.97490000
86.29999505	0.00000000	-12.69070000	-19.88189000
86.49999504	0.00000000	-13.11516000	-19.50664000
86.69999503	0.00000000	-14.22859000	-16.76919000
86.89999502	0.00000000	-15.39124000	-12.16166000
87.09999501	0.00000000	-16.18479000	-6.82209600
87.29999499	0.00000000	-16.92298000	-2.54675200
87.49999498	0.00000000	-16.92298000	-0.17839570
87.69999497	0.00000000	-16.14173000	0.55979330
87.89999496	0.00000000	-14.97293000	-1.02116100
88.09999495	0.00000000	-13.06594000	-4.87204700
88.29999493	0.00000000	-11.53420000	-9.79945900
88.49999492	0.00000000	-10.78371000	-14.43775000
88.69999491	0.00000000	-10.69759000	-17.14444000
88.89999490	0.00000000	-11.52190000	-17.92569000
89.09999489	0.00000000	-12.27854000	-16.35089000
89.29999487	0.00000000	-13.89641000	-12.53691000
89.49999486	0.00000000	-15.71727000	-7.93553100
89.69999485	0.00000000	-16.92298000	-3.70939900
89.89999484	0.00000000	-17.29823000	-1.01501000
90.09999483	0.00000000	-16.92298000	-0.63976370
90.29999482	0.00000000	-15.76649000	-2.54675200
90.49999480	0.00000000	-14.27165000	-6.40378900
90.69999479	0.00000000	-13.06594000	-10.95595000
90.89999478	0.00000000	-12.31545000	-14.85605000
91.09999477	0.00000000	-11.90330000	-17.13829000
91.29999476	0.00000000	-12.31545000	-17.55044000
91.49999474	0.00000000	-13.02288000	-15.56348000
91.69999473	0.00000000	-13.81028000	-11.74336000
91.89999472	0.00000000	-14.18553000	-6.77903500
92.09999471	0.00000000	-14.22859000	-2.59596400
92.29999470	0.00000000	-14.22859000	-0.63976370
92.49999468	0.00000000	-14.22859000	-1.01501000
92.69999467	0.00000000	-14.22859000	-3.70939900
92.89999466	0.00000000	-14.27165000	-7.89247000
93.09999465	0.00000000	-14.64690000	-12.16166000
93.29999464	0.00000000	-15.43430000	-15.60654000
93.49999463	0.00000000	-16.18479000	-17.55044000
93.69999461	0.00000000	-16.92298000	-17.13829000
93.89999460	0.00000000	-16.83686000	-14.81299000
94.09999459	0.00000000	-15.34203000	-10.58686000
94.29999458	0.00000000	-13.06594000	-5.66560000
94.49999457	0.00000000	-11.15896000	-2.22071800
94.69999455	0.00000000	-9.95324800	-1.01501000
94.89999454	0.00000000	-9.57800100	-2.17765700
95.09999453	0.00000000	-9.95324800	-5.24729300
95.29999452	0.00000000	-11.15896000	-9.43036400
95.49999451	0.00000000	-13.11516000	-13.28125000
95.69999449	0.00000000	-15.80955000	-15.60654000
95.89999448	0.00000000	-18.50394000	-16.39395000
96.09999447	0.00000000	-20.41708000	-15.18824000
96.29999446	0.00000000	-21.16142000	-12.16166000
96.49999445	0.00000000	-19.99877000	-8.35998900
96.69999444	0.00000000	-17.29823000	-5.29035400
96.89999442	0.00000000	-13.81028000	-3.70939900
97.09999441	0.00000000	-9.95324800	-3.70939900
97.29999440	0.00000000	-6.87746000	-5.19808000
97.49999439	0.00000000	-5.33956700	-7.51722400
97.69999438	0.00000000	-5.71481200	-9.79945900
97.89999436	0.00000000	-8.04010800	-11.74951000
98.09999435	0.00000000	-11.48499000	-12.53691000
98.29999434	0.00000000	-15.39124000	-12.53691000
98.49999433	0.00000000	-18.87918000	-11.79257000
98.69999432	0.00000000	-21.57972000	-10.26698000
98.89999430	0.00000000	-22.69316000	-9.14124000
99.09999429	0.00000000	-21.57972000	-8.31077700
99.29999428	0.00000000	-18.92839000	-7.93553100
99.49999427	0.00000000	-15.76649000	-7.89247000
99.69999426	0.00000000	-12.27239000	-7.89247000
99.89999425	0.00000000	-8.83366100	-7.89247000
100.09999423	0.00000000	-6.87746000	-7.89247000
100.29999422	0.00000000	-6.45915300	-7.84940900
100.49999421	0.00000000	-7.25270600	-7.51722400
100.69999420	0.00000000	-9.57800100	-7.14812900
100.89999419	0.00000000	-12.64764000	-7.56028500
101.09999417	0.00000000	-15.76649000	-8.31077700
101.29999416	0.00000000	-18.46087000	-9.51648500
101.49999415	0.00000000	-19.99877000	-11.04823000
101.69999414	0.00000000	-20.04183000	-12.53691000
101.89999413	0.00000000	-18.92839000	-13.28125000
102.09999411	0.00000000	-17.34744000	-12.53691000
102.29999410	0.00000000	-15.39124000	-11.00517000
102.49999409	0.00000000	-13.06594000	-9.00590400
102.69999408	0.00000000	-11.15896000	-6.31151500
102.89999407	0.00000000	-9.95324800	-3.70939900
103.09999406	0.00000000	-9.57800100	-2.54675200
103.29999404	0.00000000	-9.95324800	-3.29109200
103.49999403	0.00000000	-11.10974000	-5.19808000
103.69999402	0.00000000	-12.69070000	-7.93553100
103.89999401	0.00000000	-14.60384000	-11.00517000
104.09999400	0.00000000	-16.50467000	-13.69956000
104.29999398	0.00000000	-17.29823000	-15.23130000
104.49999397	0.00000000	-17.39050000	-15.23130000
104.69999396	0.00000000	-17.29823000	-13.69956000
104.89999395	0.00000000	-16.50467000	-11.04823000
105.09999394	0.00000000	-14.64690000	-8.31077700
105.29999392	0.00000000	-13.11516000	-5.98548200
105.49999391	0.00000000	-12.31545000	-4.08464600
105.69999390	0.00000000	-11.90330000	-3.70939900
105.89999389	0.00000000	-12.31545000	-4.82283400
106.09999388	0.00000000	-13.02288000	-6.77903500
106.29999387	0.00000000	-13.85334000	-9.42421200
106.49999385	0.00000000	-14.60384000	-11.70029000
106.69999384	0.00000000	-15.39124000	-12.53691000
106.89999383	0.00000000	-15.71727000	-12.53691000
107.09999382	0.00000000	-15.39124000	-11.74951000
107.29999381	0.00000000	-14.60384000	-9.84867000
107.49999379	0.00000000	-13.85334000	-7.98474400
107.69999378	0.00000000	-13.06594000	-6.77903500
107.89999377	0.00000000	-12.73991000	-6.40378900
108.09999376	0.00000000	-13.06594000	-6.77903500
108.29999375	0.00000000	-13.85334000	-7.93553100
108.49999374	0.00000000	-14.60384000	-9.47342500
108.69999372	0.00000000	-15.39124000	-11.00517000
108.89999371	0.00000000	-15.76649000	-12.11860000
109.09999370	0.00000000	-15.76649000	-12.11860000
109.29999369	0.00000000	-15.34203000	-11.00517000
109.49999368	0.00000000	-14.18553000	-9.47342500
109.69999366	0.00000000	-12.69070000	-7.93553100
109.89999365	0.00000000	-11.53420000	-6.77903500
110.09999364	0.00000000	-11.10974000	-6.35457700
110.29999363	0.00000000	-11.15896000	-6.35457700
110.49999362	0.00000000	-11.90330000	-6.77903500
110.69999360	0.00000000	-13.43504000	-7.93553100
110.89999359	0.00000000	-14.60384000	-9.47342500
111.09999358	0.00000000	-15.80955000	-11.00517000
111.29999357	0.00000000	-16.87992000	-12.16166000
111.49999356	0.00000000	-16.92298000	-12.49385000
111.69999355	0.00000000	-16.18479000	-11.79257000
111.89999353	0.00000000	-15.43430000	-10.26698000
112.09999352	0.00000000	-14.60384000	-9.14124000
112.29999351	0.00000000	-13.85334000	-8.31077700
112.49999350	0.00000000	-13.06594000	-7.93553100
112.69999349	0.00000000	-12.69070000	-7.89247000
112.89999347	0.00000000	-12.69070000	-7.89247000
113.09999346	0.00000000	-13.06594000	-7.93553100
113.29999345	0.00000000	-13.81028000	-8.31077700
113.49999344	0.00000000	-14.18553000	-9.05511800
113.69999343	0.00000000	-14.27165000	-9.43036400
113.89999341	0.00000000	-14.60384000	-9.47342500
114.09999340	0.00000000	-14.97293000	-9.51648500
114.29999339	0.00000000	-14.60384000	-9.84867000
114.49999338	0.00000000	-14.27165000	-10.25467000
114.69999337	0.00000000	-14.22859000	-10.26698000
114.89999336	0.00000000	-14.18553000	-10.62992000
115.09999334	0.00000000	-13.85334000	-10.62992000
115.29999333	0.00000000	-13.44119000	-10.26698000
115.49999332	0.00000000	-13.47810000	-10.25467000
115.69999331	0.00000000	-13.44119000	-9.79945900
115.89999330	0.00000000	-13.85334000	-9.09817800
116.09999328	0.00000000	-14.22859000	-8.26771600
116.29999327	0.00000000	-14.64690000	-7.51722400
116.49999326	0.00000000	-15.39124000	-6.77903500
116.69999325	0.00000000	-15.76649000	-6.77903500
116.89999324	0.00000000	-15.76649000	-7.51722400
117.09999322	0.00000000	-15.39124000	-8.26771600
117.29999321	0.00000000	-14.60384000	-9.09817800
117.49999320	0.00000000	-13.85334000	-9.84867000
117.69999319	0.00000000	-13.02288000	-10.62992000
117.89999318	0.00000000	-12.31545000	-11.00517000
118.09999317	0.00000000	-11.90330000	-11.04823000
118.29999315	0.00000000	-12.27239000	-11.00517000
118.49999314	0.00000000	-12.69070000	-10.62992000
118.69999313	0.00000000	-13.48425000	-9.84867000
118.89999312	0.00000000	-15.01599000	-9.09817800
119.09999311	0.00000000	-16.14173000	-8.31077700
119.29999309	0.00000000	-16.97219000	-7.93553100
119.49999308	0.00000000	-17.29823000	-7.89247000
119.69999307	0.00000000	-16.92298000	-7.89247000
119.89999306	0.00000000	-15.76649000	-7.93553100
120.09999305	0.00000000	-14.22859000	-8.31077700
120.29999303	0.00000000	-12.69070000	-9.05511800
120.49999302	0.00000000	-11.53420000	-9.47342500
120.69999301	0.00000000	-11.10974000	-9.89173200
120.89999300	0.00000000	-11.10974000	-10.62992000
121.09999299	0.00000000	-11.53420000	-11.00517000
121.29999298	0.00000000	-12.69070000	-11.04823000
121.49999296	0.00000000	-14.18553000	-11.00517000
121.69999295	0.00000000	-15.39124000	-10.62992000
121.89999294	0.00000000	-16.18479000	-9.89173200
122.09999293	0.00000000	-16.92298000	-9.47342500
122.29999292	0.00000000	-16.92298000	-9.05511800
122.49999290	0.00000000	-16.18479000	-8.31077700
122.69999289	0.00000000	-15.39124000	-7.93553100
122.89999288	0.00000000	-14.22859000	-7.89247000
123.09999287	0.00000000	-13.11516000	-7.89247000
123.29999286	0.00000000	-12.69070000	-7.93553100
123.49999284	0.00000000	-12.64764000	-8.31077700
123.69999283	0.00000000	-12.69070000	-9.05511800
123.89999282	0.00000000	-13.06594000	-9.47342500
124.09999281	0.00000000	-13.81028000	-9.84867000
124.29999280	0.00000000	-14.18553000	-10.25467000
124.49999279	0.00000000	-14.27165000	-10.21776000
124.69999277	0.00000000	-14.64690000	-10.25467000
124.89999276	0.00000000	-15.39124000	-9.84867000
125.09999275	0.00000000	-15.76649000	-9.51648500
125.29999274	0.00000000	-15.80955000	-9.43036400
125.49999273	0.00000000	-15.76649000	-9.05511800
125.69999271	0.00000000	-15.39124000	-8.31077700
125.89999270	0.00000000	-14.60384000	-7.93553100
126.09999269	0.00000000	-13.85334000	-7.89247000
126.29999268	0.00000000	-13.06594000	-7.89247000
126.49999267	0.00000000	-12.69070000	-7.93553100
126.69999265	0.00000000	-12.64764000	-8.31077700
126.89999264	0.00000000	-12.69070000	-9.05511800
127.09999263	0.00000000	-13.11516000	-9.47342500
127.29999262	0.00000000	-14.22859000	-9.84867000
127.49999261	0.00000000	-15.39124000	-10.21161000
127.69999260	0.00000000	-16.18479000	-9.84867000
127.89999258	0.00000000	-16.92298000	-9.51648500
128.09999257	0.00000000	-16.87992000	-9.47342500
128.29999256	0.00000000	-15.80955000	-9.43036400
128.49999255	0.00000000	-14.64690000	-9.09817800
128.69999254	0.00000000	-13.85334000	-8.68602300
128.89999252	0.00000000	-13.02288000	-8.72293300
129.09999251	0.00000000	-12.31545000	-8.68602300
129.29999250	0.00000000	-11.95251000	-9.09817800
129.49999249	0.00000000	-12.73991000	-9.43036400
129.69999248	0.00000000	-14.18553000	-9.47342500
129.89999246	0.00000000	-15.34203000	-9.47342500
130.09999245	0.00000000	-15.76649000	-9.47342500
130.29999244	0.00000000	-15.80955000	-9.47342500
130.49999243	0.00000000	-15.76649000	-9.43036400
130.69999242	0.00000000	-15.39124000	-9.05511800
130.89999241	0.00000000	-14.60384000	-8.31077700
131.09999239	0.00000000	-13.85334000	-7.98474400
131.29999238	0.00000000	-13.06594000	-8.31077700
131.49999237	0.00000000	-12.69070000	-9.05511800
131.69999236	0.00000000	-12.69070000	-9.47342500
131.89999235	0.00000000	-13.06594000	-9.89173200
132.09999233	0.00000000	-13.85334000	-10.62992000
132.29999232	0.00000000	-14.60384000	-11.00517000
132.49999231	0.00000000	-15.39124000	-11.00517000
132.69999230	0.00000000	-15.76649000	-10.62992000
132.89999229	0.00000000	-15.76649000	-9.84867000
133.09999227	0.00000000	-15.39124000	-9.09817800
133.29999226	0.00000000	-14.64690000	-8.26771600
133.49999225	0.00000000	-14.22859000	-7.56028500
133.69999224	0.00000000	-13.85334000	-7.14812900
133.89999223	0.00000000	-13.48425000	-7.56028500
134.09999222	0.00000000	-13.85334000	-8.26771600
134.29999220	0.00000000	-14.18553000	-9.09817800
134.49999219	0.00000000	-14.22859000	-9.84867000
134.69999218	0.00000000	-14.22859000	-10.62992000
134.89999217	0.00000000	-14.22859000	-11.00517000
135.09999216	0.00000000	-14.22859000	-11.04823000
135.29999214	0.00000000	-14.18553000	-11.00517000
135.49999213	0.00000000	-13.85334000	-10.62992000
135.69999212	0.00000000	-13.48425000	-9.84867000
135.89999211	0.00000000	-13.85334000	-9.09817800
136.09999210	0.00000000	-14.22859000	-8.31077700
136.29999208	0.00000000	-14.64690000	-7.93553100
136.49999207	0.00000000	-15.39124000	-7.89247000
136.69999206	0.00000000	-15.76649000	-7.93553100
136.89999205	0.00000000	-15.76649000	-8.31077700
137.09999204	0.00000000	-15.39124000	-9.05511800
137.29999203	0.00000000	-14.64690000	-9.47342500
137.49999201	0.00000000	-14.22859000	-9.89173200
137.69999200	0.00000000	-13.81028000	-10.62992000
137.89999199	0.00000000	-13.06594000	-11.00517000
138.09999198	0.00000000	-12.73991000	-11.04823000
138.29999197	0.00000000	-13.06594000	-11.00517000
138.49999195	0.00000000	-13.81028000	-10.62992000
138.69999194	0.00000000	-14.22859000	-9.89173200
138.89999193	0.00000000	-14.64690000	-9.51648500
139.09999192	0.00000000	-15.39124000	-9.43036400
139.29999191	0.00000000	-15.71727000	-9.05511800
139.49999189	0.00000000	-15.39124000	-8.31077700
139.69999188	0.00000000	-14.64690000	-7.93553100
139.89999187	0.00000000	-14.22859000	-7.89247000
140.09999186	0.00000000	-13.81028000	-7.93553100
140.29999185	0.00000000	-13.06594000	-8.31077700
140.49999184	0.00000000	-12.73991000	-9.09817800
140.69999182	0.00000000	-13.06594000	-9.84867000
140.89999181	0.00000000	-13.81028000	-10.62992000
141.09999180	0.00000000	-14.18553000	-11.00517000
141.29999179	0.00000000	-14.27165000	-11.00517000
141.49999178	0.00000000	-14.60384000	-10.58686000
141.69999176	0.00000000	-14.97293000	-9.47342500
141.89999175	0.00000000	-14.60384000	-8.35998900
142.09999174	0.00000000	-14.27165000	-7.89247000
142.29999173	0.00000000	-14.22859000	-7.51722400
142.49999172	0.00000000	-14.22859000	-7.14812900
142.69999170	0.00000000	-14.22859000	-7.56028500
142.89999169	0.00000000	-14.22859000	-8.26771600
143.09999168	0.00000000	-14.22859000	-9.09817800
143.29999167	0.00000000	-14.22859000	-9.84867000
143.49999166	0.00000000	-14.22859000	-10.62992000
143.69999165	0.00000000	-14.27165000	-11.00517000
143.89999163	0.00000000	-14.60384000	-11.00517000
144.09999162	0.00000000	-14.97293000	-10.62992000
144.29999161	0.00000000	-14.60384000	-9.84867000
144.49999160	0.00000000	-14.22859000	-9.09817800
144.69999159	0.00000000	-13.85334000	-8.31077700
144.89999157	0.00000000	-13.44119000	-7.93553100
145.09999156	0.00000000	-13.47810000	-7.89247000
145.29999155	0.00000000	-13.44119000	-7.93553100
145.49999154	0.00000000	-13.85334000	-8.31077700
145.69999153	0.00000000	-14.18553000	-9.09817800
145.89999151	0.00000000	-14.27165000	-9.84867000
146.09999150	0.00000000	-14.60384000	-10.62992000
146.29999149	0.00000000	-14.97293000	-11.00517000
146.49999148	0.00000000	-14.60384000	-11.00517000
146.69999147	0.00000000	-14.27165000	-10.62992000
146.89999146	0.00000000	-14.22859000	-9.89173200
147.09999144	0.00000000	-14.18553000	-9.47342500
147.29999143	0.00000000	-13.85334000	-9.09817800
147.49999142	0.00000000	-13.48425000	-8.68602300
147.69999141	0.00000000	-13.85334000	-8.67987200
147.89999140	0.00000000	-14.18553000	-8.31077700
148.09999138	0.00000000	-14.27165000	-8.35998900
148.29999137	0.00000000	-14.64690000	-9.05511800
148.49999136	0.00000000	-15.34203000	-9.43036400
148.69999135	0.00000000	-15.34203000	-9.47342500
148.89999134	0.00000000	-14.64690000	-9.47342500
149.09999132	0.00000000	-14.27165000	-9.47342500
149.29999131	0.00000000	-14.22859000	-9.47342500
149.49999130	0.00000000	-14.18553000	-9.47342500
149.69999129	0.00000000	-13.81028000	-9.47342500
149.89999128	0.00000000	-13.11516000	-9.47342500
150.09999127	0.00000000	-13.11516000	-9.47342500
150.29999125	0.00000000	-13.81028000	-9.43036400
150.49999124	0.00000000	-14.18553000	-9.05511800
150.69999123	0.00000000	-14.22859000	-8.31077700
150.89999122	0.00000000	-14.22859000	-7.98474400
151.09999121	0.00000000	-14.22859000	-8.31077700
151.29999119	0.00000000	-14.22859000	-9.05511800
151.49999118	0.00000000	-14.22859000	-9.43036400
151.69999117	0.00000000	-14.22859000	-9.47342500
151.89999116	0.00000000	-14.22859000	-9.47342500
152.09999115	0.00000000	-14.22859000	-9.47342500
152.29999113	0.00000000	-14.18553000	-9.47342500
152.49999112	0.00000000	-13.85334000	-9.47342500
152.69999111	0.00000000	-13.48425000	-9.47342500
152.89999110	0.00000000	-13.81028000	-9.47342500
153.09999109	0.00000000	-13.81028000	-9.43036400
153.29999108	0.00000000	-13.48425000	-9.09817800
153.49999106	0.00000000	-13.89641000	-8.68602300
153.69999105	0.00000000	-14.60384000	-8.67987200
153.89999104	0.00000000	-15.39124000	-8.31077700
154.09999103	0.00000000	-15.76649000	-8.31077700
154.29999102	0.00000000	-15.76649000	-8.63681000
154.49999100	0.00000000	-15.39124000	-8.26771600
154.69999099	0.00000000	-14.64690000	-7.98474400
154.89999098	0.00000000	-14.27165000	-8.31077700
155.09999097	0.00000000	-14.22859000	-9.05511800
155.29999096	0.00000000	-14.18553000	-9.43036400
155.49999094	0.00000000	-13.85334000	-9.47342500
155.69999093	0.00000000	-13.44119000	-9.43036400
155.89999092	0.00000000	-13.47810000	-9.09817800
156.09999091	0.00000000	-13.44119000	-8.72908400
156.29999090	0.00000000	-13.85334000	-9.09817800
156.49999089	0.00000000	-14.22859000	-9.43036400
156.69999087	0.00000000	-14.64690000	-9.43036400
156.89999086	0.00000000	-15.39124000	-9.05511800
157.09999085	0.00000000	-15.76649000	-8.31077700
157.29999084	0.00000000	-15.80955000	-7.98474400
157.49999083	0.00000000	-15.76649000	-8.31077700
157.69999081	0.00000000	-15.39124000	-9.05511800
157.89999080	0.00000000	-14.64690000	-9.43036400
158.09999079	0.00000000	-14.27165000	-9.51648500
158.29999078	0.00000000	-14.22859000	-9.84867000
158.49999077	0.00000000	-14.22859000	-10.25467000
158.69999075	0.00000000	-14.22859000	-10.21776000
158.89999074	0.00000000	-14.22859000	-10.25467000
159.09999073	0.00000000	-14.22859000	-9.84867000
159.29999072	0.00000000	-14.22859000	-9.47342500
159.49999071	0.00000000	-14.22859000	-9.05511800
159.69999070	0.00000000	-14.22859000	-8.31077700
159.89999068	0.00000000	-14.22859000	-7.93553100
160.09999067	0.00000000	-14.22859000	-7.89247000
160.29999066	0.00000000	-14.22859000	-7.89247000
160.49999065	0.00000000	-14.22859000	-7.93553100
160.69999064	0.00000000	-14.22859000	-8.31077700
160.89999062	0.00000000	-14.22859000	-9.05511800
161.09999061	0.00000000	-14.22859000	-9.43036400
161.29999060	0.00000000	-14.22859000	-9.47342500
161.49999059	0.00000000	-14.22859000	-9.47342500
161.69999058	0.00000000	-14.22859000	-9.47342500
161.89999056	0.00000000	-14.22859000	-9.47342500
162.09999055	0.00000000	-14.22859000	-9.47342500
162.29999054	0.00000000	-14.22859000	-9.47342500
162.49999053	0.00000000	-14.22859000	-9.47342500
162.69999052	0.00000000	-14.22859000	-9.43036400
162.89999051	0.00000000	-14.22859000	-9.05511800
163.09999049	0.00000000	-14.27165000	-8.35998900
163.29999048	0.00000000	-14.60384000	-8.31077700
163.49999047	0.00000000	-15.01599000	-8.67987200
163.69999046	0.00000000	-15.02214000	-8.68602300
163.89999045	0.00000000	-15.39124000	-9.09817800
164.09999043	0.00000000	-15.34203000	-9.43036400
164.29999042	0.00000000	-14.64690000	-9.47342500
164.49999041	0.00000000	-14.27165000	-9.47342500
164.69999040	0.00000000	-14.22859000	-9.47342500
164.89999039	0.00000000	-14.18553000	-9.47342500
165.09999037	0.00000000	-13.85334000	-9.47342500
165.29999036	0.00000000	-13.48425000	-9.47342500
165.49999035	0.00000000	-13.85334000	-9.47342500
165.69999034	0.00000000	-14.18553000	-9.47342500
165.89999033	0.00000000	-14.27165000	-9.47342500
166.09999032	0.00000000	-14.60384000	-9.47342500
166.29999030	0.00000000	-15.01599000	-9.47342500
166.49999029	0.00000000	-15.02214000	-9.47342500
166.69999028	0.00000000	-15.39124000	-9.47342500
166.89999027	0.00000000	-15.34203000	-9.47342500
167.09999026	0.00000000	-14.64690000	-9.47342500
167.29999024	0.00000000	-14.27165000	-9.47342500
167.49999023	0.00000000	-14.22859000	-9.47342500
167.69999022	0.00000000	-14.22859000	-9.47342500
167.89999021	0.00000000	-14.22859000	-9.47342500
168.09999020	0.00000000	-14.22859000	-9.47342500
168.29999018	0.00000000	-14.22859000	-9.47342500
168.49999017	0.00000000	-14.22859000	-9.47342500
168.69999016	0.00000000	-14.22859000	-9.43036400
168.89999015	0.00000000	-14.22859000	-9.09817800
169.09999014	0.00000000	-14.22859000	-8.72908400
169.29999013	0.00000000	-14.22859000	-9.05511800
169.49999011	0.00000000	-14.22859000	-9.05511800
169.69999010	0.00000000	-14.22859000	-8.72908400
169.89999009	0.00000000	-14.22859000	-9.09817800
170.09999008	0.00000000	-14.22859000	-9.43036400
170.29999007	0.00000000	-14.22859000	-9.47342500
170.49999005	0.00000000	-14.22859000	-9.47342500
170.69999004	0.00000000	-14.22859000	-9.47342500
170.89999003	0.00000000	-14.22859000	-9.47342500
171.09999002	0.00000000	-14.18553000	-9.47342500
171.29999001	0.00000000	-13.85334000	-9.47342500
171.49998999	0.00000000	-13.48425000	-9.47342500
171.69998998	0.00000000	-13.85334000	-9.47342500
171.89998997	0.00000000	-14.18553000	-9.47342500
172.09998996	0.00000000	-14.22859000	-9.47342500
172.29998995	0.00000000	-14.22859000	-9.47342500
172.49998994	0.00000000	-14.22859000	-9.47342500
172.69998992	0.00000000	-14.22859000	-9.47342500
172.89998991	0.00000000	-14.22859000	-9.47342500
173.09998990	0.00000000	-14.22859000	-9.47342500
173.29998989	0.00000000	-14.22859000	-9.47342500
173.49998988	0.00000000	-14.22859000	-9.47342500
173.69998986	0.00000000	-14.22859000	-9.47342500
173.89998985	0.00000000	-14.22859000	-9.47342500
174.09998984	0.00000000	-14.22859000	-9.47342500
174.29998983	0.00000000	-14.22859000	-9.47342500
174.49998982	0.00000000	-14.22859000	-9.47342500
174.69998980	0.00000000	-14.22859000	-9.47342500
174.89998979	0.00000000	-14.22859000	-9.47342500
175.09998978	0.00000000	-14.22859000	-9.47342500
175.29998977	0.00000000	-14.22859000	-9.47342500
175.49998976	0.00000000	-14.22859000	-9.47342500
175.69998975	0.00000000	-14.22859000	-9.47342500
175.89998973	0.00000000	-14.22859000	-9.47342500
176.09998972	0.00000000	-14.22859000	-9.47342500
176.29998971	0.00000000	-14.22859000	-9.47342500
176.49998970	0.00000000	-14.22859000	-9.47342500
176.69998969	0.00000000	-14.22859000	-9.47342500
176.89998967	0.00000000	-14.22859000	-9.47342500
177.09998966	0.00000000	-14.22859000	-9.47342500
177.29998965	0.00000000	-14.22859000	-9.47342500
177.49998964	0.00000000	-14.22859000	-9.47342500
177.69998963	0.00000000	-14.22859000	-9.47342500
177.89998961	0.00000000	-14.22859000	-9.47342500
178.09998960	0.00000000	-14.22859000	-9.47342500
178.29998959	0.00000000	-14.22859000	-9.47342500
178.49998958	0.00000000	-14.22859000	-9.47342500
178.69998957	0.00000000	-14.22859000	-9.47342500
178.89998956	0.00000000	-14.22859000	-9.47342500
179.09998954	0.00000000	-14.22859000	-9.47342500
179.29998953	0.00000000	-14.22859000	-9.47342500
179.49998952	0.00000000	-14.22859000	-9.43036400
179.69998951	0.00000000	-14.22859000	-9.09817800
179.89998950	0.00000000	-14.22859000	-8.72908400
180.09998948	0.00000000	-14.22859000	-9.09817800
180.29998947	0.00000000	-14.22859000	-9.43036400
180.49998946	0.00000000	-14.22859000	-9.47342500
180.69998945	0.00000000	-14.22859000	-9.47342500
180.89998944	0.00000000	-14.22859000	-9.47342500
181.09998942	0.00000000	-14.27165000	-9.47342500
181.29998941	0.00000000	-14.60384000	-9.47342500
181.49998940	0.00000000	-14.97293000	-9.43036400
181.69998939	0.00000000	-14.60384000	-9.09817800
181.89998938	0.00000000	-14.27165000	-8.72908400
182.09998937	0.00000000	-14.22859000	-9.09817800
182.29998935	0.00000000	-14.22859000	-9.43036400
182.49998934	0.00000000	-14.22859000	-9.47342500
182.69998933	0.00000000	-14.22859000	-9.47342500
182.89998932	0.00000000	-14.22859000	-9.51648500
183.09998931	0.00000000	-14.22859000	-9.89173200
183.29998929	0.00000000	-14.22859000	-10.62992000
183.49998928	0.00000000	-14.22859000	-10.95595000
183.69998927	0.00000000	-14.22859000	-10.62992000
183.89998926	0.00000000	-14.22859000	-9.89173200
184.09998925	0.00000000	-14.22859000	-9.51648500
184.29998923	0.00000000	-14.27165000	-9.47342500
184.49998922	0.00000000	-14.60384000	-9.43036400
184.69998921	0.00000000	-15.01599000	-9.09817800
184.89998920	0.00000000	-14.93602000	-8.68602300
185.09998919	0.00000000	-14.64075000	-8.72293300
185.29998918	0.00000000	-13.85950000	-8.68602300
185.49998916	0.00000000	-13.85334000	-9.14124000
185.69998915	0.00000000	-13.81028000	-9.79945900
185.89998914	0.00000000	-13.48425000	-10.21161000
186.09998913	0.00000000	-13.85334000	-9.84867000
186.29998912	0.00000000	-14.18553000	-9.56569900
186.49998910	0.00000000	-14.22859000	-9.84867000
186.69998909	0.00000000	-14.22859000	-10.21161000
186.89998908	0.00000000	-14.22859000	-9.84867000
187.09998907	0.00000000	-14.22859000	-9.51648500
187.29998906	0.00000000	-14.27165000	-9.43036400
187.49998904	0.00000000	-14.60384000	-9.09817800
187.69998903	0.00000000	-14.97293000	-8.68602300
187.89998902	0.00000000	-14.60384000	-8.67987200
188.09998901	0.00000000	-14.27165000	-8.31077700
188.29998900	0.00000000	-14.22859000	-8.35998900
188.49998899	0.00000000	-14.22859000	-9.05511800
188.69998897	0.00000000	-14.22859000	-9.43036400
188.89998896	0.00000000	-14.22859000	-9.47342500
189.09998895	0.00000000	-14.22859000	-9.47342500
189.29998894	0.00000000	-14.22859000	-9.51648500
189.49998893	0.00000000	-14.22859000	-9.84867000
189.69998891	0.00000000	-14.22859000	-10.21161000
189.89998890	0.00000000	-14.22859000	-9.84867000
190.09998889	0.00000000	-14.22859000	-9.51648500
190.29998888	0.00000000	-14.22859000	-9.47342500
190.49998887	0.00000000	-14.22859000	-9.47342500
190.69998885	0.00000000	-14.22859000	-9.47342500
190.89998884	0.00000000	-14.22859000	-9.47342500
191.09998883	0.00000000	-14.22859000	-9.47342500
191.29998882	0.00000000	-14.22859000	-9.47342500
191.49998881	0.00000000	-14.22859000	-9.47342500
191.69998880	0.00000000	-14.22859000	-9.47342500
191.89998878	0.00000000	-14.22859000	-9.47342500
192.09998877	0.00000000	-14.22859000	-9.47342500
192.29998876	0.00000000	-14.22859000	-9.47342500
192.49998875	0.00000000	-14.22859000	-9.47342500
192.69998874	0.00000000	-14.27165000	-9.47342500
192.89998872	0.00000000	-14.60384000	-9.47342500
193.09998871	0.00000000	-15.01599000	-9.47342500
193.29998870	0.00000000	-15.02214000	-9.47342500
193.49998869	0.00000000	-15.39124000	-9.47342500
193.69998868	0.00000000	-15.34203000	-9.47342500
193.89998866	0.00000000	-14.69611000	-9.47342500
194.09998865	0.00000000	-14.64690000	-9.47342500
194.29998864	0.00000000	-14.97293000	-9.47342500
194.49998863	0.00000000	-14.60384000	-9.47342500
194.69998862	0.00000000	-14.27165000	-9.47342500
194.89998861	0.00000000	-14.22859000	-9.47342500
195.09998859	0.00000000	-14.22859000	-9.47342500
195.29998858	0.00000000	-14.22859000	-9.47342500
195.49998857	0.00000000	-14.22859000	-9.47342500
195.69998856	0.00000000	-14.22859000	-9.47342500
195.89998855	0.00000000	-14.22859000	-9.47342500
196.09998853	0.00000000	-14.27165000	-9.47342500
