Time	Channel A	Channel B	Channel C
(us)	(V)	(mV)	(mV)

-4.59999956	0.00000000	-12.64764000	-8.64296200
-4.39999957	0.00000000	-12.64764000	-8.72293300
-4.19999958	0.00000000	-12.64764000	-8.64296200
-3.99999959	0.00000000	-12.64764000	-8.67987200
-3.79999960	0.00000000	-12.64764000	-8.26771600
-3.59999962	0.00000000	-12.64764000	-7.93553100
-3.39999963	0.00000000	-12.64764000	-7.89247000
-3.19999964	0.00000000	-12.64764000	-7.89247000
-2.99999965	0.00000000	-12.64764000	-7.89247000
-2.79999966	0.00000000	-12.64764000	-7.93553100
-2.59999968	0.00000000	-12.64764000	-8.26771600
-2.39999969	0.00000000	-12.64764000	-8.63681000
-2.19999970	0.00000000	-12.64764000	-8.26771600
-1.99999971	0.00000000	-12.64764000	-7.93553100
-1.79999972	0.00000000	-12.64764000	-7.93553100
-1.59999973	0.00000000	-12.64764000	-8.26771600
-1.39999975	0.00000000	-12.64764000	-8.63681000
-1.19999976	0.00000000	-12.64764000	-8.26771600
-0.99999977	0.00000000	-12.64764000	-7.93553100
-0.79999978	0.00000000	-12.64764000	-7.89247000
-0.59999979	0.00000000	-12.64764000	-7.89247000
-0.39999981	0.15871060	-12.64764000	-7.89247000
-0.19999982	0.47736220	-12.64764000	-7.89247000
0.00000017	0.79601380	-12.64764000	-7.89247000
0.20000016	0.95533960	-12.64764000	-7.93553100
0.40000015	0.95533960	-12.64764000	-8.31077700
0.60000013	0.63668800	-12.64764000	-9.05511800
0.80000012	-0.15871060	-12.64764000	-9.38115100
1.00000011	-1.11466500	-12.64764000	-9.09817800
1.20000010	-2.07062000	-12.64764000	-8.68602300
1.40000009	-2.70792300	-12.64764000	-8.67987200
1.60000008	-2.70792300	-12.64764000	-8.26771600
1.80000006	-1.91129400	-12.64764000	-7.93553100
2.00000005	-0.31803640	-12.64764000	-7.89247000
2.20000004	1.75196900	-12.64764000	-7.89247000
2.40000003	3.66326300	-12.64764000	-7.89247000
2.60000002	5.09719500	-12.64764000	-7.93553100
2.80000000	5.25652100	-12.64764000	-8.31077700
2.99999999	3.98191400	-12.64764000	-9.05511800
3.19999998	1.27399100	-12.64764000	-9.43036400
3.39999997	-1.91129400	-12.64764000	-9.47342500
3.59999996	-5.25652100	-12.64764000	-9.43036400
3.79999994	-7.48646600	-12.64764000	-9.05511800
3.99999993	-7.96444400	-12.60458000	-8.31077700
4.19999992	-6.37180100	-12.27239000	-7.93553100
4.39999991	-3.02657500	-11.90330000	-7.89247000
4.59999990	1.27399100	-12.27239000	-7.89247000
4.79999989	5.57517200	-12.60458000	-7.93553100
4.99999987	8.60174700	-12.64764000	-8.31077700
5.19999986	9.39837600	-12.64764000	-9.05511800
5.39999985	7.96444400	-12.60458000	-9.43036400
5.59999984	4.45989200	-12.27239000	-9.47342500
5.79999983	-0.31803640	-11.90330000	-9.47342500
5.99999981	-4.93786900	-12.22933000	-9.47342500
6.19999980	-8.28309500	-12.22933000	-9.43036400
6.39999979	-9.55770200	-11.90330000	-9.05511800
6.59999978	-8.44242100	-12.27239000	-8.31077700
6.79999977	-5.25652100	-12.60458000	-7.93553100
6.99999975	-0.95533960	-12.64764000	-7.89247000
7.19999974	3.18590100	-12.64764000	-7.89247000
7.39999973	6.37180100	-12.64764000	-7.89247000
7.59999972	7.80511800	-12.64764000	-7.93553100
7.79999971	7.00848900	-12.64764000	-8.31077700
7.99999970	4.77854300	-12.64764000	-9.05511800
8.19999968	1.59264300	-12.64764000	-9.43036400
8.39999967	-1.59264300	-12.60458000	-9.47342500
8.59999966	-3.98191400	-12.27239000	-9.43036400
8.79999965	-5.09719500	-11.90330000	-9.05511800
8.99999964	-4.93786900	-12.27239000	-8.31077700
9.19999962	-3.50393700	-12.60458000	-7.93553100
9.39999961	-1.59264300	-12.64764000	-7.89247000
9.59999960	0.31803640	-12.64764000	-7.93553100
9.79999959	1.75196900	-12.64764000	-8.26771600
9.99999958	2.38927200	-12.64764000	-8.63681000
10.19999956	2.38927200	-12.64764000	-8.31077700
10.39999955	1.75196900	-12.64764000	-8.31077700
10.59999954	0.95533960	-12.64764000	-8.63681000
10.79999953	0.15871060	-12.64764000	-8.26771600
10.99999952	-0.47736220	-12.64764000	-7.93553100
11.19999951	-0.95533960	-12.64764000	-7.89247000
11.39999949	-0.95533960	-12.64764000	-7.89247000
11.59999948	-0.95533960	-12.64764000	-7.89247000
11.79999947	-0.63668800	-12.64764000	-7.93553100
11.99999946	-0.31803640	-12.64764000	-8.26771600
12.19999945	-0.15871060	-12.64764000	-8.63681000
12.39999943	-0.15871060	-12.64764000	-8.26771600
12.59999942	0.00000000	-12.64764000	-7.98474400
12.79999941	0.00000000	-12.64764000	-8.26771600
12.99999940	0.15871060	-12.64764000	-8.63681000
13.19999939	0.00000000	-12.64764000	-8.26771600
13.39999937	0.00000000	-12.64764000	-7.93553100
13.59999936	0.00000000	-12.64764000	-7.89247000
13.79999935	0.00000000	-12.64764000	-7.89247000
13.99999934	-0.15871060	-12.64764000	-7.89247000
14.19999933	-0.15871060	-12.60458000	-7.93553100
14.39999932	-0.15871060	-12.22933000	-8.26771600
14.59999930	-0.15871060	-11.53420000	-8.63681000
14.79999929	0.00000000	-11.53420000	-8.26771600
14.99999928	0.00000000	-12.22933000	-7.93553100
15.19999927	0.00000000	-12.60458000	-7.89247000
15.39999926	0.00000000	-12.64764000	-7.93553100
15.59999924	0.00000000	-12.64764000	-8.26771600
15.79999923	0.00000000	-12.64764000	-8.63681000
15.99999922	0.00000000	-12.64764000	-8.26771600
16.19999921	0.00000000	-12.64764000	-7.93553100
16.39999920	-0.15871060	-12.64764000	-7.89247000
16.59999919	-0.15871060	-12.60458000	-7.89247000
16.79999917	0.00000000	-12.22933000	-7.89247000
16.99999916	-0.15871060	-11.48499000	-7.89247000
17.19999915	0.00000000	-11.10974000	-7.89247000
17.39999914	0.00000000	-11.06668000	-7.89247000
17.59999913	0.00000000	-11.06668000	-7.89247000
17.79999911	0.00000000	-11.10974000	-7.89247000
17.99999910	0.00000000	-11.53420000	-7.93553100
18.19999909	0.00000000	-12.69070000	-8.31077700
18.39999908	0.00000000	-14.22859000	-9.00590400
18.59999907	0.00000000	-15.76649000	-9.05511800
18.79999905	0.00000000	-16.92298000	-8.68602300
18.99999904	0.00000000	-17.29823000	-8.72293300
19.19999903	0.00000000	-16.87992000	-8.64296200
19.39999902	0.00000000	-15.25591000	-8.67987200
19.59999901	0.00000000	-12.18012000	-8.26771600
19.79999900	0.00000000	-8.32308000	-7.93553100
19.99999898	0.00000000	-4.83513700	-7.89247000
20.19999897	0.00000000	-2.13459600	-7.89247000
20.39999896	0.00000000	-1.06422200	-7.89247000
20.59999895	0.00000000	-2.68823800	-7.89247000
20.79999894	0.00000000	-7.34498000	-7.89247000
20.99999892	0.00000000	-14.32087000	-7.93553100
21.19999891	0.00000000	-22.04109000	-8.31077700
21.39999890	0.00000000	-28.97392000	-9.05511800
21.59999889	0.00000000	-33.12008000	-9.43036400
21.79999888	0.00000000	-32.70177000	-9.47342500
21.99999886	0.00000000	-27.21457000	-9.47342500
22.19999885	0.00000000	-17.53199000	-9.47342500
22.39999884	0.00000000	-5.16117100	-9.47342500
22.59999883	0.00000000	6.79749000	-9.47342500
22.79999882	0.00000000	15.63730000	-9.43036400
22.99999881	0.00000000	18.98376000	-9.05511800
23.19999879	0.00000000	14.66535000	-8.31077700
23.39999878	0.00000000	3.08193900	-7.89247000
23.59999877	0.00000000	-13.20128000	-7.47416300
23.79999876	0.00000000	-30.97933000	-6.72982200
23.99999875	0.00000000	-46.33366000	-6.40378900
24.19999873	0.00000000	-54.79822000	-6.72982200
24.39999872	0.00000000	-53.96776000	-7.51722400
24.59999871	0.00000000	-43.82382000	-8.35998900
24.79999870	0.00000000	-25.25836000	-9.89173200
24.99999869	0.00000000	-2.50984200	-11.79257000
25.19999867	0.00000000	18.71309000	-12.96137000
25.39999866	0.00000000	33.73523000	-13.74262000
25.59999865	0.00000000	38.29970000	-13.65650000
25.79999864	0.00000000	30.99163000	-12.07554000
25.99999863	0.00000000	13.59498000	-8.96284400
26.19999862	0.00000000	-9.99630800	-4.73671200
26.39999860	0.00000000	-34.70103000	-0.51058070
26.59999859	0.00000000	-54.75516000	2.55905500
26.79999858	0.00000000	-65.18208000	3.67249000
26.99999857	0.00000000	-63.64419000	2.04847400
27.19999856	0.00000000	-50.52288000	-2.59596400
27.39999854	0.00000000	-28.93085000	-9.55954600
27.59999853	0.00000000	-4.18307100	-17.27977000
27.79999852	0.00000000	18.24557000	-24.24335000
27.99999851	0.00000000	33.69217000	-28.80167000
28.19999850	0.00000000	38.34277000	-29.49680000
28.39999848	0.00000000	31.45915000	-25.17839000
28.59999847	0.00000000	15.26206000	-16.30167000
28.79999846	0.00000000	-6.36687900	-4.69365100
28.99999845	0.00000000	-28.42027000	7.25270600
29.19999844	0.00000000	-46.24139000	16.86762000
29.39999843	0.00000000	-56.29306000	21.46899000
29.59999841	0.00000000	-56.37918000	19.88804000
29.79999840	0.00000000	-47.17027000	12.08169000
29.99999839	0.00000000	-31.71752000	-1.06422200
30.19999838	0.00000000	-13.11516000	-16.90453000
30.39999837	0.00000000	4.66289300	-31.91437000
30.59999835	0.00000000	17.82726000	-42.69193000
30.79999834	0.00000000	23.68356000	-46.13681000
30.99999833	0.00000000	21.45054000	-41.48622000
31.19999832	0.00000000	12.61073000	-29.49680000
31.39999831	0.00000000	-0.59670270	-12.54306000
31.59999829	0.00000000	-15.67421000	5.25344500
31.79999828	0.00000000	-29.58292000	20.34941000
31.99999827	0.00000000	-38.84719000	29.97047000
32.19999826	0.00000000	-41.63386000	31.50221000
32.39999825	0.00000000	-37.81988000	24.58169000
32.59999824	0.00000000	-28.97392000	11.01132000
32.79999822	0.00000000	-17.39050000	-6.77903500
32.99999821	0.00000000	-5.76402500	-25.27067000
33.19999820	0.00000000	3.54330700	-39.95448000
33.39999819	0.00000000	8.93823700	-47.71161000
33.59999818	0.00000000	8.93823700	-47.34252000
33.79999816	0.00000000	3.63558100	-38.84104000
33.99999815	0.00000000	-4.83513700	-24.20029000
34.19999814	0.00000000	-14.09326000	-6.82209600
34.39999813	0.00000000	-22.23179000	9.43651600
34.59999812	0.00000000	-27.21457000	21.42593000
34.79999810	0.00000000	-28.04503000	26.80856000
34.99999809	0.00000000	-24.60630000	24.16338000
35.19999808	0.00000000	-18.50394000	14.54232000
35.39999807	0.00000000	-11.53420000	0.64591530
35.59999806	0.00000000	-5.38877900	-14.76993000
35.79999805	0.00000000	-1.53174200	-27.87278000
35.99999803	0.00000000	-1.15649600	-35.63607000
36.19999802	0.00000000	-4.18307100	-36.84178000
36.39999801	0.00000000	-9.52879000	-31.45300000
36.59999800	0.00000000	-15.29897000	-21.08760000
36.79999799	0.00000000	-19.95571000	-8.35998900
36.99999797	0.00000000	-22.65010000	3.49409400
37.19999796	0.00000000	-22.60704000	11.24508000
37.39999795	0.00000000	-19.58046000	12.83218000
37.59999794	0.00000000	-14.64690000	9.01205700
37.79999793	0.00000000	-9.95324800	0.55979330
37.99999791	0.00000000	-6.04084600	-10.12549000
38.19999790	0.00000000	-3.02042300	-19.32825000
38.39999789	0.00000000	-2.64517700	-24.71703000
38.59999788	0.00000000	-4.87819900	-24.71703000
38.79999787	0.00000000	-8.37229300	-19.37131000
38.99999786	0.00000000	-12.64764000	-10.58686000
39.19999784	0.00000000	-16.87992000	-1.01501000
39.39999783	0.00000000	-19.99877000	6.18848400
39.59999782	0.00000000	-21.57972000	8.55068800
39.79999781	0.00000000	-21.57972000	5.48720400
39.99999780	0.00000000	-19.99877000	-1.43946800
40.19999778	0.00000000	-16.92298000	-11.04823000
40.39999777	0.00000000	-13.06594000	-20.57702000
40.59999776	0.00000000	-9.57800100	-26.71629000
40.79999775	0.00000000	-6.79133800	-27.87278000
40.99999774	0.00000000	-4.87819900	-23.64665000
41.19999772	0.00000000	-4.13385800	-15.18824000
41.39999771	0.00000000	-5.25344500	-4.82898600
41.59999770	0.00000000	-7.57258800	4.74286400
41.79999769	0.00000000	-10.32234000	10.50074000
41.99999768	0.00000000	-13.81028000	10.96826000
42.19999767	0.00000000	-16.87992000	6.74212600
42.39999765	0.00000000	-18.87918000	-0.97194880
42.59999764	0.00000000	-20.04183000	-10.54380000
42.79999763	0.00000000	-19.99877000	-19.00221000
42.99999762	0.00000000	-18.50394000	-24.06496000
43.19999761	0.00000000	-16.18479000	-25.27067000
43.39999759	0.00000000	-13.85334000	-22.57628000
43.59999758	0.00000000	-11.48499000	-16.81225000
43.79999757	0.00000000	-9.57800100	-9.51648500
43.99999756	0.00000000	-8.37229300	-2.59596400
44.19999755	0.00000000	-7.94783400	2.04847400
44.39999753	0.00000000	-7.90477300	3.67249000
44.59999752	0.00000000	-7.94783400	2.51599400
44.79999751	0.00000000	-8.32308000	-0.92888770
44.99999750	0.00000000	-9.11048200	-5.89320800
45.19999749	0.00000000	-9.90403500	-10.49459000
45.39999748	0.00000000	-11.15896000	-13.69956000
45.59999746	0.00000000	-13.11516000	-15.60654000
45.79999745	0.00000000	-15.85261000	-16.01870000
45.99999744	0.00000000	-18.92839000	-14.49311000
46.19999743	0.00000000	-21.62278000	-12.21087000
46.39999742	0.00000000	-23.06841000	-9.42421200
46.59999740	0.00000000	-22.31791000	-6.40378900
46.79999739	0.00000000	-19.16830000	-4.08464600
46.99999738	0.00000000	-14.50541000	-3.29109200
47.19999737	0.00000000	-8.28001900	-3.62327700
47.39999736	0.00000000	-2.17765700	-4.82283400
47.59999734	0.00000000	2.09768700	-6.77903500
47.79999733	0.00000000	3.58636800	-9.47342500
47.99999732	0.00000000	1.63016700	-12.16781000
48.19999731	0.00000000	-3.80782500	-14.07480000
48.39999730	0.00000000	-11.53420000	-14.85605000
48.59999729	0.00000000	-20.04183000	-14.03174000
48.79999727	0.00000000	-27.34990000	-11.74951000
48.99999726	0.00000000	-31.53912000	-8.26771600
49.19999725	0.00000000	-31.11466000	-4.87204700
49.39999724	0.00000000	-25.76895000	-2.46063000
49.59999723	0.00000000	-17.29823000	-1.33489200
49.79999721	0.00000000	-7.99704600	-1.34719500
49.99999720	0.00000000	0.47367120	-3.33415300
50.19999719	0.00000000	5.86860200	-6.77903500
50.39999718	0.00000000	6.61294300	-11.00517000
50.59999717	0.00000000	2.74975400	-14.81299000
50.79999715	0.00000000	-5.29650500	-16.76919000
50.99999714	0.00000000	-14.88066000	-16.81225000
51.19999713	0.00000000	-23.02534000	-15.23130000
51.39999712	0.00000000	-28.42027000	-12.11860000
51.59999711	0.00000000	-29.58292000	-7.89247000
51.79999710	0.00000000	-26.09498000	-3.66633800
51.99999708	0.00000000	-19.24828000	-0.59670270
52.19999707	0.00000000	-10.78986000	0.55979330
52.39999706	0.00000000	-3.85088600	-0.59670270
52.59999705	0.00000000	0.42445860	-3.66633800
52.79999704	0.00000000	1.12573800	-7.89247000
52.99999702	0.00000000	-2.64517700	-12.07554000
53.19999701	0.00000000	-9.11048200	-14.76993000
53.39999700	0.00000000	-15.67421000	-15.23130000
53.59999699	0.00000000	-21.11220000	-14.11786000
53.79999698	0.00000000	-24.13878000	-12.16781000
53.99999696	0.00000000	-23.76353000	-9.47342500
54.19999695	0.00000000	-19.95571000	-6.77903500
54.39999694	0.00000000	-14.18553000	-4.91510800
54.59999693	0.00000000	-8.04010800	-4.50295200
54.79999692	0.00000000	-3.11269700	-5.98548200
54.99999691	0.00000000	-1.53174200	-7.89247000
55.19999689	0.00000000	-3.38951800	-9.79945900
55.39999688	0.00000000	-7.25270600	-11.28199000
55.59999687	0.00000000	-12.64764000	-10.91289000
55.79999686	0.00000000	-17.99951000	-9.42421200
55.99999685	0.00000000	-21.48745000	-7.43110200
56.19999683	0.00000000	-22.65010000	-4.82283400
56.39999682	0.00000000	-21.06914000	-2.97121000
56.59999681	0.00000000	-16.87992000	-3.38336600
56.79999680	0.00000000	-11.57726000	-5.66560000
56.99999679	0.00000000	-7.29576700	-9.51648500
57.19999677	0.00000000	-4.92125900	-13.69956000
57.39999676	0.00000000	-4.13385800	-16.81225000
57.59999675	0.00000000	-5.33956700	-18.30093000
57.79999674	0.00000000	-8.37229300	-17.46432000
57.99999673	0.00000000	-12.22933000	-13.61343000
58.19999672	0.00000000	-15.67421000	-7.89247000
58.39999670	0.00000000	-17.99951000	-2.08538400
58.59999669	0.00000000	-18.41781000	2.51599400
58.79999668	0.00000000	-17.29823000	4.78592500
58.99999667	0.00000000	-15.39124000	3.62942900
59.19999666	0.00000000	-13.06594000	-0.59670270
59.39999664	0.00000000	-11.15896000	-6.82209600
59.59999663	0.00000000	-9.95324800	-14.11786000
59.79999662	0.00000000	-9.57800100	-20.62008000
59.99999661	0.00000000	-9.95324800	-24.06496000
60.19999660	0.00000000	-11.10974000	-23.68971000
60.39999658	0.00000000	-12.60458000	-19.42052000
60.59999657	0.00000000	-13.76107000	-12.11860000
60.79999656	0.00000000	-14.13632000	-3.70939900
60.99999655	0.00000000	-13.76107000	3.25418300
61.19999654	0.00000000	-12.64764000	7.11737200
61.39999653	0.00000000	-11.53420000	7.48031400
61.59999651	0.00000000	-11.10974000	3.58636800
61.79999650	0.00000000	-11.10974000	-3.66633800
61.99999649	0.00000000	-11.53420000	-12.11860000
62.19999648	0.00000000	-12.69070000	-19.46358000
62.39999647	0.00000000	-14.18553000	-24.10802000
62.59999645	0.00000000	-15.34203000	-25.27067000
62.79999644	0.00000000	-15.76649000	-22.57628000
62.99999643	0.00000000	-15.76649000	-16.81225000
63.19999642	0.00000000	-15.29897000	-9.47342500
63.39999641	0.00000000	-13.76107000	-2.12844500
63.59999639	0.00000000	-11.48499000	3.62942900
63.79999638	0.00000000	-9.57800100	6.32381900
63.99999637	0.00000000	-8.41535400	5.20423200
64.19999636	0.00000000	-8.41535400	1.02116100
64.39999635	0.00000000	-9.57800100	-4.77977300
64.59999634	0.00000000	-11.48499000	-10.96211000
64.79999632	0.00000000	-13.81028000	-16.39395000
64.99999631	0.00000000	-15.71727000	-19.88189000
65.19999630	0.00000000	-16.87992000	-21.04454000
65.39999629	0.00000000	-16.87992000	-19.54970000
65.59999628	0.00000000	-15.71727000	-16.07406000
65.79999626	0.00000000	-13.81028000	-11.83563000
65.99999625	0.00000000	-11.53420000	-7.19734200
66.19999624	0.00000000	-10.03937000	-3.70939900
66.39999623	0.00000000	-9.99630800	-1.66707700
66.59999622	0.00000000	-11.10974000	-0.51058070
66.79999620	0.00000000	-12.64764000	-0.51058070
66.99999619	0.00000000	-14.18553000	-1.66707700
67.19999618	0.00000000	-15.34203000	-3.61712600
67.39999617	0.00000000	-15.67421000	-6.36072800
67.59999616	0.00000000	-14.88066000	-9.47342500
67.79999615	0.00000000	-12.60458000	-12.58612000
67.99999613	0.00000000	-9.95324800	-15.32357000
68.19999612	0.00000000	-7.99704600	-17.27362000
68.39999611	0.00000000	-6.83439900	-18.39321000
68.59999610	0.00000000	-6.92052100	-17.92569000
68.79999609	0.00000000	-8.87672100	-15.23130000
68.99999607	0.00000000	-12.69070000	-11.00517000
69.19999606	0.00000000	-16.92298000	-6.35457700
69.39999605	0.00000000	-20.41708000	-2.04232300
69.59999604	0.00000000	-22.69316000	1.39640700
69.79999603	0.00000000	-22.65010000	3.29724400
69.99999601	0.00000000	-19.90650000	2.51599400
70.19999600	0.00000000	-14.92372000	-0.55364170
70.39999599	0.00000000	-8.79060000	-5.24729300
70.59999598	0.00000000	-3.75861200	-11.00517000
70.79999597	0.00000000	-0.64591530	-16.39395000
70.99999596	0.00000000	0.09842519	-19.83883000
71.19999594	0.00000000	-2.26993100	-20.62008000
71.39999593	0.00000000	-7.25270600	-18.35015000
71.59999592	0.00000000	-13.81028000	-14.16708000
71.79999591	0.00000000	-19.99877000	-9.47342500
71.99999590	0.00000000	-24.64936000	-4.87204700
72.19999588	0.00000000	-26.92544000	-1.39025600
72.39999587	0.00000000	-25.76895000	-0.22145670
72.59999586	0.00000000	-21.57972000	-0.92888770
72.79999585	0.00000000	-15.76649000	-3.24803100
72.99999584	0.00000000	-9.52879000	-6.31151500
73.19999582	0.00000000	-3.75861200	-9.38115100
73.39999581	0.00000000	0.04921259	-11.70029000
73.59999580	0.00000000	0.47367120	-12.49385000
73.79999579	0.00000000	-2.17765700	-12.11860000
73.99999578	0.00000000	-6.83439900	-10.62992000
74.19999577	0.00000000	-12.60458000	-8.77214500
74.39999575	0.00000000	-17.99951000	-8.02780400
74.59999574	0.00000000	-21.48745000	-8.35998900
74.79999573	0.00000000	-22.74237000	-9.51648500
74.99999572	0.00000000	-21.90576000	-11.04823000
75.19999571	0.00000000	-19.24828000	-12.53691000
75.39999569	0.00000000	-15.02214000	-13.23819000
75.59999568	0.00000000	-11.20202000	-12.07554000
75.79999567	0.00000000	-8.41535400	-9.42421200
75.99999566	0.00000000	-6.83439900	-6.31151500
76.19999565	0.00000000	-6.45915300	-3.19881900
76.39999563	0.00000000	-7.25270600	-0.55364170
76.59999562	0.00000000	-9.52879000	0.51673230
76.79999561	0.00000000	-12.18012000	-1.02116100
76.99999560	0.00000000	-14.09326000	-4.87204700
77.19999559	0.00000000	-14.92372000	-9.89173200
77.39999558	0.00000000	-14.56078000	-15.28051000
77.59999556	0.00000000	-13.85334000	-19.46358000
77.79999555	0.00000000	-13.06594000	-20.99532000
77.99999554	0.00000000	-12.73991000	-19.50664000
78.19999553	0.00000000	-13.06594000	-15.60654000
78.39999552	0.00000000	-13.85334000	-10.21161000
78.59999550	0.00000000	-14.56078000	-4.04158400
78.79999549	0.00000000	-14.92372000	0.93503930
78.99999548	0.00000000	-14.13632000	3.67249000
79.19999547	0.00000000	-12.64764000	3.67249000
79.39999546	0.00000000	-11.06668000	0.97810030
79.59999544	0.00000000	-9.52879000	-3.62327700
79.79999543	0.00000000	-8.37229300	-9.05511800
79.99999542	0.00000000	-8.04010800	-14.07480000
80.19999541	0.00000000	-8.83366100	-17.93184000
80.39999540	0.00000000	-11.10974000	-19.50664000
80.59999539	0.00000000	-13.81028000	-18.76845000
80.79999537	0.00000000	-16.14173000	-16.43701000
80.99999536	0.00000000	-18.08563000	-12.58612000
81.19999535	0.00000000	-18.79306000	-8.35998900
81.39999534	0.00000000	-18.04257000	-4.82283400
81.59999533	0.00000000	-15.71727000	-2.08538400
81.79999531	0.00000000	-12.69070000	-0.55364170
81.99999530	0.00000000	-9.95324800	-0.51058070
82.19999529	0.00000000	-8.04010800	-1.66707700
82.39999528	0.00000000	-7.25270600	-3.61712600
82.59999527	0.00000000	-7.99704600	-6.36072800
82.79999525	0.00000000	-9.52879000	-9.42421200
82.99999524	0.00000000	-11.48499000	-12.16781000
83.19999523	0.00000000	-13.76107000	-14.16092000
83.39999522	0.00000000	-15.29897000	-15.69882000
83.59999521	0.00000000	-15.76649000	-16.43701000
83.79999520	0.00000000	-15.71727000	-15.64960000
83.99999518	0.00000000	-14.97293000	-13.69956000
84.19999517	0.00000000	-13.44119000	-10.53765000
84.39999516	0.00000000	-12.31545000	-6.35457700
84.59999515	0.00000000	-11.53420000	-2.50369100
84.79999514	0.00000000	-11.53420000	-0.17839570
84.99999512	0.00000000	-12.22933000	0.60285430
85.19999511	0.00000000	-12.60458000	-0.55364170
85.39999510	0.00000000	-12.64764000	-3.24803100
85.59999509	0.00000000	-12.60458000	-6.77903500
85.79999508	0.00000000	-12.22933000	-11.04823000
85.99999506	0.00000000	-11.48499000	-15.27436000
86.19999505	0.00000000	-11.15896000	-18.35015000
86.39999504	0.00000000	-11.48499000	-19.46358000
86.59999503	0.00000000	-12.27239000	-17.93184000
86.79999502	0.00000000	-13.06594000	-14.07480000
86.99999501	0.00000000	-14.22859000	-9.09817800
87.19999499	0.00000000	-15.34203000	-4.08464600
87.39999498	0.00000000	-15.71727000	-0.64591530
87.59999497	0.00000000	-15.34203000	0.60285430
87.79999496	0.00000000	-14.18553000	-0.22145670
87.99999495	0.00000000	-12.64764000	-2.92199800
88.19999493	0.00000000	-11.10974000	-7.56028500
88.39999492	0.00000000	-9.95324800	-12.49385000
88.59999491	0.00000000	-9.57800100	-16.35089000
88.79999490	0.00000000	-9.95324800	-17.88263000
88.99999489	0.00000000	-11.10974000	-16.76919000
89.19999487	0.00000000	-12.64764000	-13.69956000
89.39999486	0.00000000	-14.18553000	-9.47342500
89.59999485	0.00000000	-15.34203000	-5.24729300
89.79999484	0.00000000	-15.76649000	-2.12844500
89.99999483	0.00000000	-15.76649000	-0.59670270
90.19999482	0.00000000	-15.34203000	-1.01501000
90.39999480	0.00000000	-14.18553000	-3.70939900
90.59999479	0.00000000	-12.69070000	-7.93553100
90.79999478	0.00000000	-11.48499000	-12.49385000
90.99999477	0.00000000	-10.73450000	-15.97564000
91.19999476	0.00000000	-10.32234000	-17.09523000
91.39999474	0.00000000	-10.73450000	-15.97564000
91.59999473	0.00000000	-11.44193000	-12.49385000
91.79999472	0.00000000	-12.22933000	-7.93553100
91.99999471	0.00000000	-12.60458000	-3.70939900
92.19999470	0.00000000	-12.64764000	-1.01501000
92.39999468	0.00000000	-12.64764000	-0.59670270
92.59999467	0.00000000	-12.64764000	-2.17765700
92.79999466	0.00000000	-12.69070000	-5.61638700
92.99999465	0.00000000	-13.11516000	-10.21161000
93.19999464	0.00000000	-14.22859000	-14.03174000
93.39999463	0.00000000	-15.34203000	-16.39395000
93.59999461	0.00000000	-15.71727000	-16.71998000
93.79999460	0.00000000	-15.34203000	-14.81299000
93.99999459	0.00000000	-14.18553000	-10.95595000
94.19999458	0.00000000	-12.64764000	-6.40378900
94.39999457	0.00000000	-11.06668000	-2.54675200
94.59999455	0.00000000	-9.52879000	-0.63976370
94.79999454	0.00000000	-8.37229300	-1.01501000
94.99999453	0.00000000	-8.04010800	-3.70939900
95.19999452	0.00000000	-8.83366100	-7.89247000
95.39999451	0.00000000	-11.15896000	-12.11860000
95.59999449	0.00000000	-14.22859000	-15.18824000
95.79999448	0.00000000	-17.29823000	-16.34473000
95.99999447	0.00000000	-19.62352000	-15.23130000
96.19999446	0.00000000	-20.37401000	-12.58612000
96.39999445	0.00000000	-19.62352000	-9.47342500
96.59999444	0.00000000	-17.25517000	-6.36072800
96.79999442	0.00000000	-13.81028000	-3.70939900
96.99999441	0.00000000	-9.95324800	-2.59596400
97.19999440	0.00000000	-6.83439900	-3.66633800
97.39999439	0.00000000	-4.87819900	-5.93626900
97.59999438	0.00000000	-4.13385800	-8.26771600
97.79999436	0.00000000	-5.33956700	-10.58686000
97.99999435	0.00000000	-8.41535400	-12.11860000
98.19999434	0.00000000	-12.64764000	-12.53691000
98.39999433	0.00000000	-16.87992000	-12.16166000
98.59999432	0.00000000	-19.99877000	-11.00517000
98.79999430	0.00000000	-21.53666000	-9.51648500
98.99999429	0.00000000	-21.16142000	-8.35998900
99.19999428	0.00000000	-18.87918000	-7.93553100
99.39999427	0.00000000	-15.76649000	-7.89247000
99.59999426	0.00000000	-12.27239000	-7.89247000
99.79999425	0.00000000	-8.79060000	-7.89247000
99.99999423	0.00000000	-6.45915300	-7.84940900
100.19999422	0.00000000	-5.29650500	-7.47416300
100.39999421	0.00000000	-5.67175200	-6.72982200
100.59999420	0.00000000	-7.57258800	-6.35457700
100.79999419	0.00000000	-9.90403500	-6.35457700
100.99999417	0.00000000	-12.69070000	-6.82209600
101.19999416	0.00000000	-15.71727000	-8.35383800
101.39999415	0.00000000	-18.04257000	-10.62992000
101.59999414	0.00000000	-18.83612000	-12.53691000
101.79999413	0.00000000	-18.50394000	-13.69956000
101.99999411	0.00000000	-17.29823000	-13.65650000
102.19999410	0.00000000	-15.39124000	-12.11860000
102.39999409	0.00000000	-13.06594000	-9.47342500
102.59999408	0.00000000	-11.10974000	-6.77903500
102.79999407	0.00000000	-9.52879000	-4.77977300
102.99999406	0.00000000	-8.41535400	-3.24803100
103.19999404	0.00000000	-8.41535400	-2.54675200
103.39999403	0.00000000	-9.52879000	-3.70939900
103.59999402	0.00000000	-11.06668000	-6.36072800
103.79999401	0.00000000	-12.64764000	-9.47342500
103.99999400	0.00000000	-14.22859000	-12.53691000
104.19999398	0.00000000	-15.71727000	-14.81299000
104.39999397	0.00000000	-16.50467000	-15.23130000
104.59999396	0.00000000	-16.14173000	-14.11786000
104.79999395	0.00000000	-15.39124000	-12.16781000
104.99999394	0.00000000	-14.18553000	-9.47342500
105.19999392	0.00000000	-12.69070000	-6.77903500
105.39999391	0.00000000	-11.48499000	-4.82283400
105.59999390	0.00000000	-10.73450000	-3.70939900
105.79999389	0.00000000	-10.37155000	-4.08464600
105.99999388	0.00000000	-11.10974000	-5.98548200
106.19999387	0.00000000	-12.22933000	-8.26771600
106.39999385	0.00000000	-13.02288000	-10.58686000
106.59999384	0.00000000	-13.81028000	-12.11860000
106.79999383	0.00000000	-14.18553000	-12.49385000
106.99999382	0.00000000	-14.18553000	-11.74951000
107.19999381	0.00000000	-13.76107000	-9.84867000
107.39999379	0.00000000	-12.64764000	-7.98474400
107.59999378	0.00000000	-11.53420000	-6.77903500
107.79999377	0.00000000	-11.15896000	-6.35457700
107.99999376	0.00000000	-11.48499000	-6.35457700
108.19999375	0.00000000	-12.27239000	-6.82209600
108.39999374	0.00000000	-13.06594000	-8.31077700
108.59999372	0.00000000	-14.22859000	-10.16855000
108.79999371	0.00000000	-15.29897000	-10.95595000
108.99999370	0.00000000	-15.34203000	-11.00517000
109.19999369	0.00000000	-14.60384000	-10.58686000
109.39999368	0.00000000	-13.81028000	-9.42421200
109.59999366	0.00000000	-12.64764000	-7.93553100
109.79999365	0.00000000	-11.48499000	-6.72982200
109.99999364	0.00000000	-10.73450000	-5.98548200
110.19999363	0.00000000	-10.32234000	-5.61638700
110.39999362	0.00000000	-10.73450000	-6.36072800
110.59999360	0.00000000	-11.44193000	-7.47416300
110.79999359	0.00000000	-12.31545000	-8.31077700
110.99999358	0.00000000	-13.44119000	-9.51648500
111.19999357	0.00000000	-14.97293000	-10.96211000
111.39999356	0.00000000	-15.67421000	-11.74336000
111.59999355	0.00000000	-15.34203000	-11.38041000
111.79999353	0.00000000	-14.22859000	-10.67298000
111.99999352	0.00000000	-13.06594000	-9.84867000
112.19999351	0.00000000	-12.27239000	-9.09817800
112.39999350	0.00000000	-11.48499000	-8.31077700
112.59999349	0.00000000	-11.15896000	-7.93553100
112.79999347	0.00000000	-11.48499000	-7.89247000
112.99999346	0.00000000	-12.22933000	-7.89247000
113.19999345	0.00000000	-12.64764000	-7.89247000
113.39999344	0.00000000	-13.06594000	-7.89247000
113.59999343	0.00000000	-13.81028000	-7.93553100
113.79999341	0.00000000	-14.18553000	-8.31077700
113.99999340	0.00000000	-14.18553000	-9.05511800
114.19999339	0.00000000	-13.81028000	-9.43036400
114.39999338	0.00000000	-13.06594000	-9.47342500
114.59999337	0.00000000	-12.69070000	-9.51648500
114.79999336	0.00000000	-12.64764000	-9.89173200
114.99999334	0.00000000	-12.64764000	-10.62992000
115.19999333	0.00000000	-12.64764000	-10.95595000
115.39999332	0.00000000	-12.64764000	-10.62992000
115.59999331	0.00000000	-12.64764000	-9.84867000
115.79999330	0.00000000	-12.64764000	-9.09817800
115.99999328	0.00000000	-12.69070000	-8.26771600
116.19999327	0.00000000	-13.06594000	-7.51722400
116.39999326	0.00000000	-13.81028000	-6.72982200
116.59999325	0.00000000	-14.18553000	-6.40378900
116.79999324	0.00000000	-14.22859000	-6.72982200
116.99999322	0.00000000	-14.18553000	-7.47416300
117.19999321	0.00000000	-13.81028000	-7.93553100
117.39999320	0.00000000	-13.02288000	-8.72908400
117.59999319	0.00000000	-12.27239000	-10.21161000
117.79999318	0.00000000	-11.48499000	-10.95595000
117.99999317	0.00000000	-11.10974000	-11.04823000
118.19999315	0.00000000	-11.10974000	-11.00517000
118.39999314	0.00000000	-11.48499000	-10.58686000
118.59999313	0.00000000	-12.27239000	-9.47342500
118.79999312	0.00000000	-13.06594000	-8.31077700
118.99999311	0.00000000	-14.22859000	-7.51722400
119.19999309	0.00000000	-15.34203000	-6.72982200
119.39999308	0.00000000	-15.76649000	-6.40378900
119.59999307	0.00000000	-15.76649000	-6.72982200
119.79999306	0.00000000	-15.29897000	-7.47416300
119.99999305	0.00000000	-13.81028000	-7.89247000
120.19999303	0.00000000	-11.90330000	-8.31077700
120.39999302	0.00000000	-10.73450000	-9.05511800
120.59999301	0.00000000	-9.95324800	-9.43036400
120.79999300	0.00000000	-9.95324800	-9.47342500
120.99999299	0.00000000	-10.69144000	-9.47342500
121.19999298	0.00000000	-11.44193000	-9.47342500
121.39999296	0.00000000	-12.27239000	-9.47342500
121.59999295	0.00000000	-13.06594000	-9.47342500
121.79999294	0.00000000	-14.22859000	-9.47342500
121.99999293	0.00000000	-15.34203000	-9.43036400
122.19999292	0.00000000	-15.71727000	-9.05511800
122.39999290	0.00000000	-15.39124000	-8.31077700
122.59999289	0.00000000	-14.60384000	-7.89247000
122.79999288	0.00000000	-13.81028000	-7.51722400
122.99999287	0.00000000	-12.64764000	-7.14812900
123.19999286	0.00000000	-11.53420000	-7.51722400
123.39999284	0.00000000	-11.10974000	-7.89247000
123.59999283	0.00000000	-11.06668000	-8.31077700
123.79999282	0.00000000	-11.10974000	-9.05511800
123.99999281	0.00000000	-11.48499000	-9.43036400
124.19999280	0.00000000	-12.27239000	-9.47342500
124.39999279	0.00000000	-13.02288000	-9.47342500
124.59999277	0.00000000	-13.81028000	-9.47342500
124.79999276	0.00000000	-14.18553000	-9.47342500
124.99999275	0.00000000	-14.27165000	-9.43036400
125.19999274	0.00000000	-14.60384000	-9.05511800
125.39999273	0.00000000	-14.97293000	-8.31077700
125.59999271	0.00000000	-14.56078000	-7.93553100
125.79999270	0.00000000	-13.85334000	-7.89247000
125.99999269	0.00000000	-13.02288000	-7.89247000
126.19999268	0.00000000	-12.27239000	-7.89247000
126.39999267	0.00000000	-11.48499000	-7.89247000
126.59999265	0.00000000	-11.10974000	-7.93553100
126.79999264	0.00000000	-11.10974000	-8.31077700
126.99999263	0.00000000	-11.53420000	-9.09817800
127.19999262	0.00000000	-12.64764000	-9.79945900
127.39999261	0.00000000	-13.81028000	-10.21161000
127.59999260	0.00000000	-14.60384000	-9.84867000
127.79999258	0.00000000	-15.34203000	-9.51648500
127.99999257	0.00000000	-15.34203000	-9.43036400
128.19999256	0.00000000	-14.60384000	-9.05511800
128.39999255	0.00000000	-13.85334000	-8.31077700
128.59999254	0.00000000	-13.02288000	-7.93553100
128.79999252	0.00000000	-12.27239000	-7.89247000
128.99999251	0.00000000	-11.48499000	-7.89247000
129.19999250	0.00000000	-11.15896000	-7.93553100
129.39999249	0.00000000	-11.48499000	-8.31077700
129.59999248	0.00000000	-12.27239000	-9.05511800
129.79999246	0.00000000	-13.06594000	-9.43036400
129.99999245	0.00000000	-14.22859000	-9.47342500
130.19999244	0.00000000	-15.29897000	-9.47342500
130.39999243	0.00000000	-15.34203000	-9.43036400
130.59999242	0.00000000	-14.60384000	-9.05511800
130.79999241	0.00000000	-13.85334000	-8.31077700
130.99999239	0.00000000	-13.02288000	-7.93553100
131.19999238	0.00000000	-12.27239000	-7.89247000
131.39999237	0.00000000	-11.48499000	-7.93553100
131.59999236	0.00000000	-11.15896000	-8.31077700
131.79999235	0.00000000	-11.48499000	-9.05511800
131.99999233	0.00000000	-12.27239000	-9.43036400
132.19999232	0.00000000	-13.02288000	-9.47342500
132.39999231	0.00000000	-13.81028000	-9.47342500
132.59999230	0.00000000	-14.18553000	-9.47342500
132.79999229	0.00000000	-14.22859000	-9.43036400
132.99999227	0.00000000	-14.22859000	-9.05511800
133.19999226	0.00000000	-14.18553000	-8.26771600
133.39999225	0.00000000	-13.81028000	-7.51722400
133.59999224	0.00000000	-13.06594000	-6.77903500
133.79999223	0.00000000	-12.64764000	-6.77903500
133.99999222	0.00000000	-12.31545000	-7.51722400
134.19999220	0.00000000	-12.27854000	-8.26771600
134.39999219	0.00000000	-13.01673000	-9.09817800
134.59999218	0.00000000	-12.97982000	-9.84867000
134.79999217	0.00000000	-12.69070000	-10.58686000
134.99999216	0.00000000	-12.64764000	-10.62992000
135.19999214	0.00000000	-12.64764000	-10.26698000
135.39999213	0.00000000	-12.64764000	-10.21161000
135.59999212	0.00000000	-12.64764000	-9.42421200
135.79999211	0.00000000	-12.64764000	-8.35998900
135.99999210	0.00000000	-12.69070000	-7.93553100
136.19999208	0.00000000	-13.06594000	-7.84940900
136.39999207	0.00000000	-13.81028000	-7.51722400
136.59999206	0.00000000	-14.18553000	-7.14812900
136.79999205	0.00000000	-14.22859000	-7.51722400
136.99999204	0.00000000	-14.18553000	-7.89247000
137.19999203	0.00000000	-13.81028000	-8.31077700
137.39999201	0.00000000	-13.06594000	-9.05511800
137.59999200	0.00000000	-12.64764000	-9.43036400
137.79999199	0.00000000	-12.22933000	-9.47342500
137.99999198	0.00000000	-11.53420000	-9.47342500
138.19999197	0.00000000	-11.53420000	-9.47342500
138.39999195	0.00000000	-12.22933000	-9.47342500
138.59999194	0.00000000	-12.64764000	-9.43036400
138.79999193	0.00000000	-13.06594000	-9.05511800
138.99999192	0.00000000	-13.81028000	-8.31077700
139.19999191	0.00000000	-14.18553000	-7.93553100
139.39999189	0.00000000	-14.22859000	-7.89247000
139.59999188	0.00000000	-14.18553000	-7.89247000
139.79999187	0.00000000	-13.81028000	-7.89247000
139.99999186	0.00000000	-13.06594000	-7.89247000
140.19999185	0.00000000	-12.69070000	-7.93553100
140.39999184	0.00000000	-12.64764000	-8.35998900
140.59999182	0.00000000	-12.64764000	-9.47342500
140.79999181	0.00000000	-12.64764000	-10.58686000
140.99999180	0.00000000	-12.69070000	-11.00517000
141.19999179	0.00000000	-13.06594000	-11.00517000
141.39999178	0.00000000	-13.81028000	-10.62992000
141.59999176	0.00000000	-14.18553000	-9.84867000
141.79999175	0.00000000	-14.18553000	-9.09817800
141.99999174	0.00000000	-13.81028000	-8.26771600
142.19999173	0.00000000	-13.06594000	-7.51722400
142.39999172	0.00000000	-12.69070000	-6.77903500
142.59999170	0.00000000	-12.64764000	-6.77903500
142.79999169	0.00000000	-12.64764000	-7.51722400
142.99999168	0.00000000	-12.64764000	-8.26771600
143.19999167	0.00000000	-12.69070000	-9.09817800
143.39999166	0.00000000	-13.06594000	-9.84867000
143.59999165	0.00000000	-13.76107000	-10.62992000
143.79999163	0.00000000	-13.76107000	-10.95595000
143.99999162	0.00000000	-13.06594000	-10.62992000
144.19999161	0.00000000	-12.69070000	-9.84867000
144.39999160	0.00000000	-12.64764000	-9.09817800
144.59999159	0.00000000	-12.64764000	-8.31077700
144.79999157	0.00000000	-12.64764000	-7.93553100
144.99999156	0.00000000	-12.64764000	-7.89247000
145.19999155	0.00000000	-12.64764000	-7.89247000
145.39999154	0.00000000	-12.69070000	-7.93553100
145.59999153	0.00000000	-13.06594000	-8.31077700
145.79999151	0.00000000	-13.76107000	-9.05511800
145.99999150	0.00000000	-13.81028000	-9.43036400
146.19999149	0.00000000	-13.44119000	-9.47342500
146.39999148	0.00000000	-13.43504000	-9.47342500
146.59999147	0.00000000	-13.02288000	-9.47342500
146.79999146	0.00000000	-12.69070000	-9.47342500
146.99999144	0.00000000	-12.64764000	-9.47342500
147.19999143	0.00000000	-12.64764000	-9.43036400
147.39999142	0.00000000	-12.64764000	-9.05511800
147.59999141	0.00000000	-12.64764000	-8.31077700
147.79999140	0.00000000	-12.69070000	-7.93553100
147.99999138	0.00000000	-13.06594000	-7.89247000
148.19999137	0.00000000	-13.81028000	-7.89247000
148.39999136	0.00000000	-14.13632000	-7.89247000
148.59999135	0.00000000	-13.81028000	-7.93553100
148.79999134	0.00000000	-13.06594000	-8.31077700
148.99999132	0.00000000	-12.69070000	-9.05511800
149.19999131	0.00000000	-12.64764000	-9.43036400
149.39999130	0.00000000	-12.64764000	-9.47342500
149.59999129	0.00000000	-12.64764000	-9.47342500
149.79999128	0.00000000	-12.64764000	-9.47342500
149.99999127	0.00000000	-12.64764000	-9.43036400
150.19999125	0.00000000	-12.64764000	-9.05511800
150.39999124	0.00000000	-12.64764000	-8.31077700
150.59999123	0.00000000	-12.69070000	-7.93553100
150.79999122	0.00000000	-13.06594000	-7.89247000
150.99999121	0.00000000	-13.81028000	-7.89247000
151.19999119	0.00000000	-14.13632000	-7.89247000
151.39999118	0.00000000	-13.81028000	-7.89247000
151.59999117	0.00000000	-13.06594000	-7.89247000
151.79999116	0.00000000	-12.69070000	-7.93553100
151.99999115	0.00000000	-12.64764000	-8.31077700
152.19999113	0.00000000	-12.64764000	-9.05511800
152.39999112	0.00000000	-12.64764000	-9.38115100
152.59999111	0.00000000	-12.64764000	-9.09817800
152.79999110	0.00000000	-12.64764000	-8.72908400
152.99999109	0.00000000	-12.64764000	-9.09817800
153.19999108	0.00000000	-12.64764000	-9.43036400
153.39999106	0.00000000	-12.69070000	-9.43036400
153.59999105	0.00000000	-13.06594000	-9.05511800
153.79999104	0.00000000	-13.81028000	-8.31077700
153.99999103	0.00000000	-14.18553000	-7.93553100
154.19999102	0.00000000	-14.22859000	-7.93553100
154.39999100	0.00000000	-14.18553000	-8.26771600
154.59999099	0.00000000	-13.81028000	-8.67987200
154.79999098	0.00000000	-13.06594000	-8.68602300
154.99999097	0.00000000	-12.69070000	-9.09817800
155.19999096	0.00000000	-12.64764000	-9.43036400
155.39999094	0.00000000	-12.64764000	-9.47342500
155.59999093	0.00000000	-12.64764000	-9.47342500
155.79999092	0.00000000	-12.64764000	-9.47342500
155.99999091	0.00000000	-12.64764000	-9.47342500
156.19999090	0.00000000	-12.69070000	-9.43036400
156.39999089	0.00000000	-13.06594000	-9.05511800
156.59999087	0.00000000	-13.81028000	-8.31077700
156.79999086	0.00000000	-14.18553000	-7.93553100
156.99999085	0.00000000	-14.22859000	-7.89247000
157.19999084	0.00000000	-14.22859000	-7.89247000
157.39999083	0.00000000	-14.22859000	-7.89247000
157.59999081	0.00000000	-14.22859000	-7.93553100
157.79999080	0.00000000	-14.18553000	-8.31077700
157.99999079	0.00000000	-13.81028000	-9.05511800
158.19999078	0.00000000	-13.06594000	-9.43036400
158.39999077	0.00000000	-12.69070000	-9.47342500
158.59999075	0.00000000	-12.64764000	-9.47342500
158.79999074	0.00000000	-12.64764000	-9.47342500
158.99999073	0.00000000	-12.64764000	-9.43036400
159.19999072	0.00000000	-12.64764000	-9.05511800
159.39999071	0.00000000	-12.64764000	-8.31077700
159.59999070	0.00000000	-12.69070000	-7.93553100
159.79999068	0.00000000	-13.06594000	-7.89247000
159.99999067	0.00000000	-13.81028000	-7.89247000
160.19999066	0.00000000	-14.13632000	-7.89247000
160.39999065	0.00000000	-13.85334000	-7.93553100
160.59999064	0.00000000	-13.48425000	-8.31077700
160.79999062	0.00000000	-13.81028000	-9.05511800
160.99999061	0.00000000	-13.76107000	-9.43036400
161.19999060	0.00000000	-13.06594000	-9.47342500
161.39999059	0.00000000	-12.69070000	-9.47342500
161.59999058	0.00000000	-12.64764000	-9.47342500
161.79999056	0.00000000	-12.64764000	-9.47342500
161.99999055	0.00000000	-12.64764000	-9.47342500
162.19999054	0.00000000	-12.64764000	-9.43036400
162.39999053	0.00000000	-12.64764000	-9.05511800
162.59999052	0.00000000	-12.64764000	-8.31077700
162.79999051	0.00000000	-12.69070000	-7.93553100
162.99999049	0.00000000	-13.06594000	-7.89247000
163.19999048	0.00000000	-13.81028000	-7.89247000
163.39999047	0.00000000	-14.18553000	-7.89247000
163.59999046	0.00000000	-14.22859000	-7.89247000
163.79999045	0.00000000	-14.22859000	-7.93553100
163.99999043	0.00000000	-14.22859000	-8.31077700
164.19999042	0.00000000	-14.22859000	-9.05511800
164.39999041	0.00000000	-14.18553000	-9.43036400
164.59999040	0.00000000	-13.81028000	-9.47342500
164.79999039	0.00000000	-13.06594000	-9.47342500
164.99999037	0.00000000	-12.69070000	-9.47342500
165.19999036	0.00000000	-12.64764000	-9.47342500
165.39999035	0.00000000	-12.64764000	-9.43036400
165.59999034	0.00000000	-12.64764000	-9.05511800
165.79999033	0.00000000	-12.69070000	-8.35998900
165.99999032	0.00000000	-13.06594000	-8.31077700
166.19999030	0.00000000	-13.76107000	-8.63681000
166.39999029	0.00000000	-13.81028000	-8.26771600
166.59999028	0.00000000	-13.48425000	-7.98474400
166.79999027	0.00000000	-13.81028000	-8.31077700
166.99999026	0.00000000	-13.76107000	-9.05511800
167.19999024	0.00000000	-13.06594000	-9.43036400
167.39999023	0.00000000	-12.73991000	-9.47342500
167.59999022	0.00000000	-13.02288000	-9.47342500
167.79999021	0.00000000	-13.39198000	-9.43036400
167.99999020	0.00000000	-13.02288000	-9.09817800
168.19999018	0.00000000	-12.69070000	-8.72908400
168.39999017	0.00000000	-12.64764000	-9.09817800
168.59999016	0.00000000	-12.64764000	-9.43036400
168.79999015	0.00000000	-12.64764000	-9.43036400
168.99999014	0.00000000	-12.64764000	-9.09817800
169.19999013	0.00000000	-12.69070000	-8.72908400
169.39999011	0.00000000	-13.02288000	-9.09817800
169.59999010	0.00000000	-13.43504000	-9.43036400
169.79999009	0.00000000	-13.44119000	-9.47342500
169.99999008	0.00000000	-13.81028000	-9.47342500
170.19999007	0.00000000	-13.76107000	-9.47342500
170.39999005	0.00000000	-13.11516000	-9.47342500
170.59999004	0.00000000	-13.06594000	-9.47342500
170.79999003	0.00000000	-13.39198000	-9.47342500
170.99999002	0.00000000	-13.02288000	-9.47342500
171.19999001	0.00000000	-12.69070000	-9.47342500
171.39998999	0.00000000	-12.64764000	-9.47342500
171.59998998	0.00000000	-12.64764000	-9.47342500
171.79998997	0.00000000	-12.64764000	-9.47342500
171.99998996	0.00000000	-12.64764000	-9.47342500
172.19998995	0.00000000	-12.64764000	-9.47342500
172.39998994	0.00000000	-12.69070000	-9.47342500
172.59998992	0.00000000	-13.06594000	-9.47342500
172.79998991	0.00000000	-13.76107000	-9.47342500
172.99998990	0.00000000	-13.76107000	-9.47342500
173.19998989	0.00000000	-13.06594000	-9.43036400
173.39998988	0.00000000	-12.69070000	-9.09817800
173.59998986	0.00000000	-12.64764000	-8.72908400
173.79998985	0.00000000	-12.64764000	-9.09817800
173.99998984	0.00000000	-12.64764000	-9.43036400
174.19998983	0.00000000	-12.64764000	-9.47342500
174.39998982	0.00000000	-12.64764000	-9.47342500
174.59998980	0.00000000	-12.69070000	-9.47342500
174.79998979	0.00000000	-13.02288000	-9.47342500
174.99998978	0.00000000	-13.43504000	-9.47342500
175.19998977	0.00000000	-13.44119000	-9.47342500
175.39998976	0.00000000	-13.81028000	-9.47342500
175.59998975	0.00000000	-13.76107000	-9.47342500
175.79998973	0.00000000	-13.06594000	-9.43036400
175.99998972	0.00000000	-12.69070000	-9.05511800
176.19998971	0.00000000	-12.64764000	-8.31077700
176.39998970	0.00000000	-12.64764000	-7.98474400
176.59998969	0.00000000	-12.64764000	-8.31077700
176.79998967	0.00000000	-12.64764000	-9.05511800
176.99998966	0.00000000	-12.69070000	-9.43036400
177.19998965	0.00000000	-13.06594000	-9.47342500
177.39998964	0.00000000	-13.76107000	-9.47342500
177.59998963	0.00000000	-13.81028000	-9.47342500
177.79998961	0.00000000	-13.48425000	-9.47342500
177.99998960	0.00000000	-13.85334000	-9.47342500
178.19998959	0.00000000	-14.18553000	-9.47342500
178.39998958	0.00000000	-14.18553000	-9.47342500
178.59998957	0.00000000	-13.81028000	-9.47342500
178.79998956	0.00000000	-13.06594000	-9.43036400
178.99998954	0.00000000	-12.73991000	-9.09817800
179.19998953	0.00000000	-13.02288000	-8.68602300
179.39998952	0.00000000	-13.39198000	-8.72293300
179.59998951	0.00000000	-13.02288000	-8.68602300
179.79998950	0.00000000	-12.69070000	-9.09817800
179.99998948	0.00000000	-12.64764000	-9.43036400
180.19998947	0.00000000	-12.64764000	-9.47342500
180.39998946	0.00000000	-12.64764000	-9.47342500
180.59998945	0.00000000	-12.69070000	-9.47342500
180.79998944	0.00000000	-13.02288000	-9.47342500
180.99998942	0.00000000	-13.39198000	-9.47342500
181.19998941	0.00000000	-13.06594000	-9.43036400
181.39998940	0.00000000	-13.06594000	-9.05511800
181.59998939	0.00000000	-13.39198000	-8.31077700
181.79998938	0.00000000	-13.02288000	-7.93553100
181.99998937	0.00000000	-12.69070000	-7.89247000
182.19998935	0.00000000	-12.69070000	-7.93553100
182.39998934	0.00000000	-13.02288000	-8.31077700
182.59998933	0.00000000	-13.39198000	-9.05511800
182.79998932	0.00000000	-13.02288000	-9.43036400
182.99998931	0.00000000	-12.69070000	-9.47342500
183.19998929	0.00000000	-12.64764000	-9.47342500
183.39998928	0.00000000	-12.69070000	-9.47342500
183.59998927	0.00000000	-13.06594000	-9.47342500
183.79998926	0.00000000	-13.76107000	-9.47342500
183.99998925	0.00000000	-13.81028000	-9.47342500
184.19998923	0.00000000	-13.48425000	-9.43036400
184.39998922	0.00000000	-13.85334000	-9.05511800
184.59998921	0.00000000	-14.13632000	-8.31077700
184.79998920	0.00000000	-13.81028000	-7.93553100
184.99998919	0.00000000	-13.11516000	-7.89247000
185.19998918	0.00000000	-13.06594000	-7.93553100
185.39998916	0.00000000	-13.39198000	-8.31077700
185.59998915	0.00000000	-13.02288000	-9.05511800
185.79998914	0.00000000	-12.69070000	-9.43036400
185.99998913	0.00000000	-12.64764000	-9.47342500
186.19998912	0.00000000	-12.64764000	-9.47342500
186.39998910	0.00000000	-12.64764000	-9.47342500
186.59998909	0.00000000	-12.69070000	-9.47342500
186.79998908	0.00000000	-13.06594000	-9.47342500
186.99998907	0.00000000	-13.81028000	-9.47342500
187.19998906	0.00000000	-14.18553000	-9.43036400
187.39998904	0.00000000	-14.22859000	-9.05511800
187.59998903	0.00000000	-14.22859000	-8.31077700
187.79998902	0.00000000	-14.22859000	-7.93553100
187.99998901	0.00000000	-14.18553000	-7.93553100
188.19998900	0.00000000	-13.81028000	-8.26771600
188.39998899	0.00000000	-13.06594000	-8.67987200
188.59998897	0.00000000	-12.69070000	-8.68602300
188.79998896	0.00000000	-12.64764000	-9.09817800
188.99998895	0.00000000	-12.64764000	-9.43036400
189.19998894	0.00000000	-12.69070000	-9.47342500
189.39998893	0.00000000	-13.02288000	-9.47342500
189.59998891	0.00000000	-13.43504000	-9.47342500
189.79998890	0.00000000	-13.44119000	-9.47342500
189.99998889	0.00000000	-13.85334000	-9.47342500
190.19998888	0.00000000	-14.18553000	-9.43036400
190.39998887	0.00000000	-14.18553000	-9.05511800
190.59998885	0.00000000	-13.85334000	-8.35998900
190.79998884	0.00000000	-13.48425000	-8.31077700
190.99998883	0.00000000	-13.81028000	-8.63681000
191.19998882	0.00000000	-13.76107000	-8.31077700
191.39998881	0.00000000	-13.06594000	-8.35998900
191.59998880	0.00000000	-12.69070000	-9.05511800
191.79998878	0.00000000	-12.64764000	-9.43036400
191.99998877	0.00000000	-12.64764000	-9.47342500
192.19998876	0.00000000	-12.64764000	-9.47342500
192.39998875	0.00000000	-12.64764000	-9.47342500
192.59998874	0.00000000	-12.69070000	-9.47342500
192.79998872	0.00000000	-13.06594000	-9.47342500
192.99998871	0.00000000	-13.81028000	-9.47342500
193.19998870	0.00000000	-14.18553000	-9.47342500
193.39998869	0.00000000	-14.22859000	-9.47342500
193.59998868	0.00000000	-14.22859000	-9.43036400
193.79998866	0.00000000	-14.22859000	-9.05511800
193.99998865	0.00000000	-14.18553000	-8.31077700
194.19998864	0.00000000	-13.81028000	-7.93553100
194.39998863	0.00000000	-13.06594000	-7.89247000
194.59998862	0.00000000	-12.69070000	-7.93553100
194.79998861	0.00000000	-12.64764000	-8.31077700
194.99998859	0.00000000	-12.64764000	-9.05511800
195.19998858	0.00000000	-12.64764000	-9.43036400
195.39998857	0.00000000	-12.69070000	-9.47342500
195.59998856	0.00000000	-13.06594000	-9.47342500
195.79998855	0.00000000	-13.81028000	-9.47342500
195.99998853	0.00000000	-14.18553000	-9.43036400
