Time	Channel A	Channel B	Channel C
(us)	(V)	(mV)	(mV)

-4.49999956	0.00000000	28.50024000	7.84940900
-4.29999957	0.00000000	28.50024000	7.51722400
-4.09999958	0.00000000	28.83243000	7.14812900
-3.89999959	0.00000000	29.20152000	7.51722400
-3.69999960	0.00000000	28.83243000	7.80019600
-3.49999962	0.00000000	28.50024000	7.51722400
-3.29999963	0.00000000	28.45718000	7.14812900
-3.09999964	0.00000000	28.45718000	7.47416300
-2.89999965	0.00000000	28.45718000	7.47416300
-2.69999966	0.00000000	28.45718000	7.10506800
-2.49999968	0.00000000	28.45718000	7.09891700
-2.29999969	0.00000000	28.45718000	6.72982200
-2.09999970	0.00000000	28.45718000	6.72982200
-1.89999971	0.00000000	28.50024000	7.05585600
-1.69999972	0.00000000	28.83243000	6.72982200
-1.49999973	0.00000000	29.20152000	6.77903500
-1.29999975	0.00000000	28.83243000	7.42495000
-1.09999976	0.00000000	28.50024000	7.47416300
-0.89999977	0.00000000	28.50024000	7.14812900
-0.69999978	0.00000000	28.83243000	7.51722400
-0.49999979	0.00000000	29.20152000	7.80019600
-0.29999981	0.15871060	28.83243000	7.51722400
-0.09999982	0.63668800	28.50024000	7.10506800
0.10000017	0.95533960	28.45718000	7.14197800
0.30000016	0.95533960	28.45718000	7.10506800
0.50000015	0.79601380	28.45718000	7.47416300
0.70000013	0.31803640	28.45718000	7.42495000
0.90000012	-0.47736220	28.45718000	6.77903500
1.10000011	-1.43331700	28.45718000	6.72982200
1.30000010	-2.22994600	28.50024000	7.09891700
1.50000009	-2.86724900	28.83243000	7.10506800
1.70000008	-2.54859700	29.24459000	7.51722400
1.90000006	-1.43331700	29.20767000	7.84940900
2.10000005	0.31803640	29.24459000	7.89247000
2.30000004	2.38927200	28.83243000	7.89247000
2.50000003	4.30056600	28.50024000	7.84940900
2.70000002	5.25652100	28.45718000	7.47416300
2.90000000	4.93786900	28.45718000	6.72982200
3.09999999	3.18590100	28.45718000	6.35457700
3.29999998	0.15871060	28.45718000	6.35457700
3.49999997	-3.18590100	28.45718000	6.68676100
3.69999996	-6.21247500	28.45718000	7.09891700
3.89999994	-7.80511800	28.50024000	7.10506800
4.09999993	-7.64579200	28.87549000	7.51722400
4.29999992	-5.41584600	29.61983000	7.84940900
4.49999991	-1.59264300	29.94586000	7.89247000
4.69999990	2.86724900	29.61983000	7.89247000
4.89999989	6.84916400	28.87549000	7.84940900
5.09999987	9.07972400	28.50024000	7.47416300
5.29999986	9.23905000	28.45718000	6.72982200
5.49999985	7.00848900	28.45718000	6.35457700
5.69999984	2.86724900	28.45718000	6.31151500
5.89999983	-1.91129400	28.45718000	6.31151500
6.09999981	-6.21247500	28.45718000	6.35457700
6.29999980	-8.92039900	28.45718000	6.72982200
6.49999979	-9.39837600	28.45718000	7.47416300
6.69999978	-7.48646600	28.45718000	7.84940900
6.89999977	-3.82258900	28.45718000	7.89247000
7.09999975	0.47736220	28.45718000	7.89247000
7.29999974	4.45989200	28.45718000	7.84940900
7.49999973	7.00848900	28.45718000	7.47416300
7.69999972	7.64579200	28.45718000	6.72982200
7.89999971	6.37180100	28.45718000	6.35457700
8.09999970	3.66326300	28.45718000	6.31151500
8.29999968	0.47736220	28.45718000	6.31151500
8.49999967	-2.54859700	28.45718000	6.31151500
8.69999966	-4.61921700	28.45718000	6.35457700
8.89999965	-5.25652100	28.45718000	6.72982200
9.09999964	-4.45989200	28.45718000	7.42495000
9.29999962	-2.86724900	28.45718000	7.47416300
9.49999961	-0.95533960	28.45718000	7.14812900
9.69999960	0.95533960	28.45718000	7.47416300
9.89999959	2.07062000	28.45718000	7.42495000
10.09999958	2.54859700	28.45718000	6.77903500
10.29999956	2.22994600	28.45718000	6.72982200
10.49999955	1.59264300	28.45718000	7.05585600
10.69999954	0.63668800	28.45718000	6.68676100
10.89999953	-0.15871060	28.45718000	6.35457700
11.09999952	-0.63668800	28.45718000	6.35457700
11.29999951	-0.95533960	28.45718000	6.68676100
11.49999949	-0.95533960	28.45718000	7.09891700
11.69999948	-0.79601380	28.45718000	7.06200700
11.89999947	-0.47736220	28.45718000	7.09891700
12.09999946	-0.31803640	28.45718000	6.68676100
12.29999945	-0.15871060	28.50024000	6.40378900
12.49999943	-0.15871060	28.87549000	6.72982200
12.69999942	0.00000000	29.57062000	7.42495000
12.89999941	0.00000000	29.57062000	7.42495000
13.09999940	0.00000000	28.87549000	6.72982200
13.29999939	0.00000000	28.50024000	6.35457700
13.49999937	0.00000000	28.45718000	6.31151500
13.69999936	0.00000000	28.45718000	6.35457700
13.89999935	-0.15871060	28.45718000	6.68676100
14.09999934	-0.15871060	28.45718000	7.09891700
14.29999933	-0.15871060	28.45718000	7.06200700
14.49999932	-0.15871060	28.45718000	7.14197800
14.69999930	-0.15871060	28.45718000	7.06200700
14.89999929	0.00000000	28.45718000	7.09891700
15.09999928	0.00000000	28.45718000	6.72982200
15.29999927	0.00000000	28.45718000	6.72982200
15.49999926	0.00000000	28.45718000	7.05585600
15.69999924	0.00000000	28.45718000	6.68676100
15.89999923	0.00000000	28.45718000	6.35457700
16.09999922	0.00000000	28.45718000	6.31151500
16.29999921	-0.15871060	28.45718000	6.35457700
16.49999920	-0.15871060	28.45718000	6.68676100
16.69999919	-0.15871060	28.50024000	7.09891700
16.89999917	-0.15871060	28.87549000	7.06200700
17.09999916	0.00000000	29.61983000	7.09891700
17.29999915	0.00000000	29.99508000	6.72982200
17.49999914	0.00000000	30.03814000	6.72982200
17.69999913	0.00000000	29.99508000	7.05585600
17.89999911	0.00000000	29.57062000	6.68676100
18.09999910	0.00000000	28.41412000	6.35457700
18.29999909	0.00000000	26.87623000	6.31151500
18.49999908	-0.15871060	25.29527000	6.31151500
18.69999907	0.00000000	23.80659000	6.31151500
18.89999905	0.00000000	23.01919000	6.35457700
19.09999904	0.00000000	23.43135000	6.68676100
19.29999903	0.00000000	24.64321000	7.05585600
19.49999902	0.00000000	27.38681000	6.68676100
19.69999901	0.00000000	31.24384000	6.35457700
19.89999900	0.00000000	35.16240000	6.35457700
20.09999898	0.00000000	38.93332000	6.72982200
20.29999897	0.00000000	40.79109000	7.42495000
20.49999896	0.00000000	39.25935000	7.42495000
20.69999895	0.00000000	35.39001000	6.72982200
20.89999894	-0.15871060	29.44143000	6.35457700
21.09999892	0.00000000	21.75812000	6.31151500
21.29999891	-0.15871060	14.08710000	6.31151500
21.49999890	0.00000000	9.10433000	6.31151500
21.69999889	0.00000000	7.98474400	6.31151500
21.89999888	0.00000000	11.57111000	6.31151500
22.09999886	0.00000000	20.07874000	6.31151500
22.29999885	0.00000000	31.71137000	6.31151500
22.49999884	0.00000000	44.09449000	6.31151500
22.69999883	0.00000000	54.83513000	6.31151500
22.89999882	0.00000000	60.51919000	6.35457700
23.09999881	0.00000000	58.93824000	6.72982200
23.29999879	-0.15871060	49.95694000	7.47416300
23.49999878	0.00000000	34.88558000	7.89247000
23.69999877	0.00000000	16.73843000	8.31077700
23.89999876	0.00000000	0.12918310	9.00590400
24.09999875	0.00000000	-11.41117000	9.00590400
24.29999873	0.00000000	-14.75763000	8.26771600
24.49999872	0.00000000	-7.73868000	7.47416300
24.69999871	0.00000000	8.45226300	6.26845500
24.89999870	0.00000000	30.13041000	4.73671200
25.09999869	0.00000000	52.51599000	3.19881900
25.29999867	0.00000000	70.61392000	2.08538400
25.49999866	0.00000000	79.41068000	2.08538400
25.69999865	0.00000000	76.33489000	3.29109200
25.89999864	0.00000000	62.00787000	5.66560000
26.09999863	0.00000000	39.62844000	9.51648500
26.29999862	0.00000000	14.17938000	13.69956000
26.49999860	0.00000000	-7.83095500	16.81225000
26.69999859	0.00000000	-21.41363000	18.30093000
26.89999858	0.00000000	-24.10802000	17.46432000
27.09999857	0.00000000	-15.18209000	13.56422000
27.29999856	0.00000000	3.70939900	7.38188900
27.49999854	0.00000000	28.03888000	0.04306102
27.69999853	-0.15871060	51.96235000	-6.92052100
27.89999852	0.00000000	70.14640000	-11.89715000
28.09999851	0.00000000	78.29724000	-13.74877000
28.29999850	0.00000000	75.26452000	-10.96826000
28.49999848	0.00000000	62.14320000	-3.62942900
28.69999847	0.00000000	42.08907000	6.82209600
28.89999846	0.00000000	20.03568000	18.43627000
29.09999845	0.00000000	0.68282480	28.80167000
29.29999844	0.00000000	-12.06324000	35.30389000
29.49999843	0.00000000	-15.22515000	35.63607000
29.69999841	-0.15871060	-8.75984200	29.45374000
29.89999840	0.00000000	4.73671200	17.79035000
30.09999839	0.00000000	22.18258000	2.78051200
30.29999838	0.00000000	39.95448000	-12.26624000
30.49999837	0.00000000	54.28149000	-23.46826000
30.69999835	0.00000000	62.05093000	-28.85088000
30.89999834	0.00000000	62.14320000	-26.85777000
31.09999833	0.00000000	55.21038000	-17.19365000
31.29999832	0.00000000	43.29478000	-2.14074800
31.49999831	0.00000000	29.34301000	15.23130000
31.69999829	0.00000000	16.54158000	31.07775000
31.89999828	0.00000000	6.82824800	41.90453000
32.09999827	0.00000000	2.17150600	45.76156000
32.29999826	0.00000000	3.29109200	41.48622000
32.49999825	0.00000000	9.43651600	29.91511000
32.69999824	0.00000000	19.10679000	13.69956000
32.89999822	0.00000000	29.90280000	-3.72170300
33.09999821	0.00000000	39.57923000	-18.77460000
33.29999820	0.00000000	45.77386000	-28.48179000
33.49999819	0.00000000	47.39788000	-30.80709000
33.69999818	0.00000000	44.74655000	-25.73819000
33.89999816	0.00000000	38.92716000	-13.74877000
34.09999815	0.00000000	31.20078000	2.78666300
34.29999814	0.00000000	23.10531000	19.37131000
34.49999813	-0.15871060	16.96604000	32.56643000
34.69999812	0.00000000	14.22244000	39.90526000
34.89999810	0.00000000	15.33587000	39.95448000
35.09999809	0.00000000	19.52510000	32.98474000
35.29999808	0.00000000	25.29527000	20.66929000
35.49999807	0.00000000	31.06545000	5.61638700
35.69999806	0.00000000	35.30389000	-8.23080600
35.89999805	0.00000000	36.92790000	-17.93799000
36.09999803	0.00000000	36.14050000	-21.37672000
36.29999802	0.00000000	33.43381000	-17.98105000
36.49999801	0.00000000	28.83243000	-8.74138700
36.69999800	0.00000000	24.26796000	3.53100400
36.89999799	0.00000000	21.14911000	15.84030000
37.09999797	0.00000000	19.99262000	24.66781000
37.29999796	0.00000000	21.14911000	27.82972000
37.49999795	0.00000000	24.22490000	25.17839000
37.69999794	0.00000000	28.45718000	17.88263000
37.89999793	0.00000000	32.68946000	7.89247000
38.09999791	0.00000000	35.81446000	-2.00541300
38.29999790	0.00000000	37.35236000	-8.50147600
38.49999789	0.00000000	36.92790000	-9.34424200
38.69999788	0.00000000	34.23351000	-5.16117100
38.89999787	0.00000000	29.99508000	2.50369100
39.09999786	0.00000000	25.38755000	11.70029000
39.29999784	-0.15871060	21.48130000	19.32825000
39.49999783	0.00000000	19.14985000	23.18528000
39.69999782	-0.15871060	18.36245000	22.02264000
39.89999781	0.00000000	19.52510000	16.25861000
40.09999780	0.00000000	22.22564000	7.43110200
40.29999778	0.00000000	25.76279000	-2.14074800
40.49999777	0.00000000	30.03814000	-9.38730200
40.69999776	0.00000000	34.23351000	-12.08169000
40.89999775	0.00000000	36.97712000	-9.43036400
41.09999774	0.00000000	37.77067000	-2.51599400
41.29999772	0.00000000	36.97712000	6.73597400
41.49999771	0.00000000	34.27657000	16.30167000
41.69999770	0.00000000	30.41338000	23.22835000
41.89999769	0.00000000	26.54404000	25.55364000
42.09999768	0.00000000	23.01919000	23.27141000
42.29999767	0.00000000	20.73080000	16.72613000
42.49999765	0.00000000	19.90034000	7.94168200
42.69999764	0.00000000	20.68774000	-0.51673230
42.89999763	0.00000000	22.60088000	-6.32381900
43.09999762	0.00000000	25.29527000	-8.31692900
43.29999761	0.00000000	27.98966000	-6.82824800
43.49999759	0.00000000	29.94586000	-2.55905500
43.69999758	0.00000000	31.15157000	3.57406500
43.89999757	0.00000000	31.57603000	10.07628000
44.09999756	0.00000000	31.57603000	14.72072000
44.29999755	0.00000000	31.20078000	16.71998000
44.49999753	0.00000000	30.41338000	16.35089000
44.69999752	0.00000000	29.70595000	13.69956000
44.89999751	0.00000000	29.29380000	9.89173200
45.09999750	0.00000000	29.61983000	6.36072800
45.29999749	0.00000000	29.52756000	3.24803100
45.49999748	0.00000000	28.36491000	0.97194880
45.69999746	0.00000000	26.40871000	0.55364170
45.89999745	0.00000000	23.67126000	1.66707700
46.09999744	0.00000000	20.64468000	3.61712600
46.29999743	0.00000000	18.36245000	6.31151500
46.49999742	0.00000000	18.03642000	8.96284400
46.69999740	0.00000000	19.99262000	10.53765000
46.89999739	0.00000000	24.26796000	10.95595000
47.09999738	0.00000000	30.08735000	10.58686000
47.29999737	0.00000000	36.27584000	9.38115100
47.49999736	0.00000000	41.62770000	7.47416300
47.69999734	0.00000000	44.23597000	5.15501900
47.89999733	0.00000000	42.69808000	3.19881900
48.09999732	0.00000000	37.30315000	1.66707700
48.29999731	0.00000000	29.52756000	0.97194880
48.49999730	0.00000000	20.68774000	2.12844500
48.69999729	0.00000000	13.01673000	4.77977300
48.89999727	0.00000000	9.14739100	7.84940900
49.09999726	0.00000000	9.52263600	10.58686000
49.29999725	0.00000000	14.22244000	12.53691000
49.49999724	0.00000000	22.68701000	13.69956000
49.69999723	0.00000000	32.68946000	13.65650000
49.89999721	0.00000000	41.53543000	12.03248000
50.09999720	0.00000000	46.93036000	8.58759800
50.29999719	0.00000000	47.35482000	4.04158400
50.49999718	-0.15871060	43.11638000	0.55364170
50.69999717	0.00000000	35.39001000	-1.43946800
50.89999715	0.00000000	25.76279000	-2.13459600
51.09999714	0.00000000	16.91683000	-0.60285430
51.29999713	0.00000000	11.14665000	2.82972400
51.49999712	0.00000000	9.99015700	6.68676100
51.69999711	0.00000000	13.80413000	10.58686000
51.89999710	0.00000000	21.06299000	13.65650000
52.09999708	0.00000000	29.57677000	15.18824000
52.29999707	0.00000000	37.26009000	14.76993000
52.49999706	0.00000000	42.23671000	12.11860000
52.69999705	0.00000000	42.61196000	8.26771600
52.89999704	0.00000000	38.46580000	4.40452700
53.09999702	0.00000000	31.57603000	0.97194880
53.29999701	0.00000000	24.22490000	-0.55979330
53.49999700	0.00000000	18.07948000	0.13533460
53.69999699	0.00000000	14.64075000	2.04232300
53.89999698	0.00000000	15.38509000	4.73671200
54.09999696	0.00000000	19.56816000	7.43110200
54.29999695	0.00000000	25.71358000	9.38115100
54.49999694	0.00000000	32.27116000	10.53765000
54.69999693	0.00000000	37.26009000	10.49459000
54.89999692	0.00000000	39.57923000	9.00590400
55.09999691	0.00000000	38.42273000	6.72982200
55.29999689	0.00000000	34.23351000	4.87204700
55.49999688	0.00000000	28.45718000	4.08464600
55.69999687	0.00000000	22.68701000	4.82283400
55.89999686	0.00000000	18.45472000	6.31151500
56.09999685	0.00000000	16.91683000	7.89247000
56.29999683	0.00000000	18.45472000	9.38115100
56.49999682	0.00000000	22.64394000	10.07628000
56.69999681	0.00000000	27.98966000	8.91978400
56.89999680	0.00000000	32.64640000	6.26845500
57.09999679	0.00000000	35.76525000	3.19881900
57.29999677	0.00000000	36.88484000	0.51058070
57.49999676	0.00000000	35.39001000	-0.97810030
57.69999675	0.00000000	31.95128000	-0.55979330
57.89999674	0.00000000	28.08194000	2.12844500
58.09999673	0.00000000	24.26796000	6.35457700
58.29999672	0.00000000	21.94882000	11.00517000
58.49999670	0.00000000	21.85039000	15.23130000
58.69999669	0.00000000	22.60088000	17.83957000
58.89999668	0.00000000	24.22490000	17.42126000
59.09999667	0.00000000	26.87623000	13.61343000
59.29999666	0.00000000	29.52756000	7.84940900
59.49999664	0.00000000	31.10851000	1.66707700
59.69999663	0.00000000	31.52682000	-3.72170300
59.89999662	0.00000000	31.10851000	-6.78518600
60.09999661	0.00000000	29.61983000	-6.74212600
60.29999660	0.00000000	27.71284000	-3.25418300
60.49999658	0.00000000	26.54404000	3.24803100
60.69999657	0.00000000	25.76279000	10.53765000
60.89999656	0.00000000	25.76279000	16.76919000
61.09999655	0.00000000	26.50098000	20.99532000
61.29999654	0.00000000	27.25147000	22.06570000
61.49999653	0.00000000	28.03888000	19.00221000
61.69999651	0.00000000	28.41412000	12.49385000
61.89999650	0.00000000	28.41412000	4.77977300
62.09999649	0.00000000	27.98966000	-2.55905500
62.29999648	0.00000000	26.87623000	-7.89862200
62.49999647	0.00000000	25.76279000	-9.47957600
62.69999645	0.00000000	25.33834000	-7.20349400
62.89999644	0.00000000	25.33834000	-2.18380900
63.09999643	0.00000000	25.76279000	4.82898600
63.29999642	0.00000000	26.91929000	12.49385000
63.49999641	0.00000000	28.41412000	19.00221000
63.69999639	0.00000000	29.61983000	22.10876000
63.89999638	0.00000000	30.37032000	21.37057000
64.09999637	0.00000000	30.73326000	17.55044000
64.29999636	0.00000000	29.94586000	11.38041000
64.49999635	0.00000000	28.45718000	4.82898600
64.69999634	0.00000000	26.91929000	-1.02116100
64.89999632	-0.15871060	25.76279000	-5.24729300
65.09999631	0.00000000	25.33834000	-6.78518600
65.29999630	0.00000000	25.38755000	-5.29650500
65.49999629	0.00000000	26.13189000	-1.48868100
65.69999628	0.00000000	27.62057000	3.15575800
65.89999626	0.00000000	28.36491000	7.84940900
66.09999625	0.00000000	28.45718000	12.07554000
66.29999624	0.00000000	28.41412000	14.81299000
66.49999623	0.00000000	27.94660000	15.69267000
66.69999622	0.00000000	26.45792000	15.64960000
66.89999620	0.00000000	24.60015000	14.48081000
67.09999619	0.00000000	23.84965000	11.75566000
67.29999618	0.00000000	24.22490000	8.67987200
67.49999617	0.00000000	25.76279000	5.11195900
67.69999616	0.00000000	28.08194000	1.66707700
67.89999615	0.00000000	30.37032000	-1.07037400
68.09999613	0.00000000	32.31422000	-2.60211600
68.29999612	0.00000000	33.02165000	-2.64517700
68.49999611	0.00000000	32.27116000	-1.43946800
68.69999610	0.00000000	29.90280000	0.92888770
68.89999609	0.00000000	26.45792000	4.77977300
69.09999607	0.00000000	22.60088000	9.05511800
69.29999606	0.00000000	19.52510000	12.96137000
69.49999605	0.00000000	17.98720000	16.39395000
69.69999604	0.00000000	18.41166000	17.88263000
69.89999603	0.00000000	21.14911000	16.76919000
70.09999601	0.00000000	25.76279000	13.65650000
70.29999600	0.00000000	31.15772000	9.00590400
70.49999599	0.00000000	35.76525000	3.62327700
70.69999598	0.00000000	38.46580000	-1.02116100
70.89999597	0.00000000	38.46580000	-4.13385800
71.09999596	0.00000000	35.81446000	-5.25344500
71.29999594	0.00000000	31.48376000	-3.71555100
71.49999593	0.00000000	26.08268000	0.13533460
71.69999592	0.00000000	20.31865000	5.11195900
71.89999591	0.00000000	16.45546000	10.16855000
72.09999590	0.00000000	14.87451000	13.98253000
72.29999588	0.00000000	15.71112000	15.92642000
72.49999587	0.00000000	19.56816000	15.18824000
72.69999586	0.00000000	25.29527000	12.58612000
72.89999585	0.00000000	31.10851000	9.47342500
73.09999584	0.00000000	35.76525000	6.36072800
73.29999582	0.00000000	38.46580000	3.66633800
73.49999581	0.00000000	38.46580000	2.12844500
73.69999580	0.00000000	35.81446000	2.08538400
73.89999579	0.00000000	31.57603000	3.19881900
74.09999578	0.00000000	26.91929000	4.73671200
74.29999577	0.00000000	22.64394000	6.22539300
74.49999575	0.00000000	19.56816000	7.00664300
74.69999574	0.00000000	18.41166000	6.64370100
74.89999573	0.00000000	19.52510000	5.89320800
75.09999572	0.00000000	22.17643000	4.73671200
75.29999571	0.00000000	25.29527000	3.66633800
75.49999569	0.00000000	28.41412000	3.70939900
75.69999568	0.00000000	31.06545000	5.24729300
75.89999567	0.00000000	32.27116000	7.89247000
76.09999566	0.00000000	31.90207000	10.58686000
76.29999565	0.00000000	30.78248000	12.49385000
76.49999563	0.00000000	28.87549000	13.23819000
76.69999562	0.00000000	27.34375000	12.03248000
76.89999561	0.00000000	26.54404000	9.00590400
77.09999560	0.00000000	26.13189000	5.11195900
77.29999559	0.00000000	26.50098000	1.24877000
77.49999558	0.00000000	26.83317000	-2.18380900
77.69999556	0.00000000	26.83317000	-3.67249000
77.89999555	0.00000000	26.45792000	-2.55905500
78.09999554	0.00000000	25.71358000	0.51058070
78.29999553	0.00000000	25.29527000	4.77977300
78.49999552	0.00000000	24.92003000	9.43036400
78.69999550	0.00000000	24.60015000	13.65650000
78.89999549	0.00000000	25.38755000	16.35089000
79.09999548	0.00000000	26.91929000	16.71998000
79.29999547	0.00000000	28.83243000	14.81299000
79.49999546	0.00000000	30.78248000	10.95595000
79.69999544	0.00000000	31.90207000	6.35457700
79.89999543	0.00000000	32.27116000	2.08538400
80.09999542	0.00000000	31.10851000	-1.02116100
80.29999541	0.00000000	28.83243000	-2.60211600
80.49999540	0.00000000	26.45792000	-2.55905500
80.69999539	0.00000000	23.75738000	-0.64591530
80.89999537	0.00000000	21.52436000	2.78051200
81.09999536	0.00000000	21.10605000	6.26845500
81.29999535	0.00000000	22.22564000	9.42421200
81.49999534	0.00000000	24.18184000	12.11860000
81.69999533	0.00000000	26.91929000	13.65650000
81.89999531	0.00000000	29.94586000	13.69956000
82.09999530	0.00000000	32.22810000	12.58612000
82.29999529	0.00000000	32.64640000	11.00517000
82.49999528	0.00000000	31.57603000	9.00590400
82.69999527	0.00000000	29.99508000	6.31151500
82.89999525	0.00000000	28.03888000	3.57406500
83.09999524	0.00000000	25.76279000	1.24877000
83.29999523	0.00000000	24.22490000	-0.69512790
83.49999522	0.00000000	23.80659000	-1.39640700
83.69999521	0.00000000	24.18184000	-0.69512790
83.89999520	0.00000000	25.29527000	1.29183100
84.09999518	0.00000000	26.45792000	4.04158400
84.29999517	0.00000000	27.25147000	7.89247000
84.49999516	0.00000000	28.03888000	11.70029000
84.69999515	0.00000000	28.41412000	14.07480000
84.89999514	0.00000000	28.41412000	15.23130000
85.09999512	0.00000000	28.03888000	14.76993000
85.29999511	0.00000000	27.34375000	12.07554000
85.49999510	0.00000000	27.29453000	7.84940900
85.69999509	0.00000000	27.66363000	3.24803100
85.89999508	0.00000000	27.62672000	-0.64591530
86.09999506	0.00000000	27.66363000	-2.93430100
86.29999505	0.00000000	27.20841000	-3.34030500
86.49999504	0.00000000	26.50098000	-1.39640700
86.69999503	0.00000000	25.71358000	2.08538400
86.89999502	0.00000000	25.29527000	6.72982200
87.09999501	0.00000000	24.92003000	11.65723000
87.29999499	0.00000000	24.60015000	14.76993000
87.49999498	0.00000000	25.33834000	15.56348000
87.69999497	0.00000000	26.45792000	14.39468000
87.89999496	0.00000000	27.29453000	10.91289000
88.09999495	0.00000000	28.45718000	6.35457700
88.29999493	0.00000000	29.52756000	2.04232300
88.49999492	0.00000000	29.57062000	-1.39640700
88.69999491	0.00000000	28.83243000	-3.25418300
88.89999490	0.00000000	28.03888000	-2.09768700
89.09999489	0.00000000	26.83317000	1.66707700
89.29999487	0.00000000	25.33834000	6.26845500
89.49999486	0.00000000	24.22490000	10.53765000
89.69999485	0.00000000	24.18184000	13.65650000
89.89999484	0.00000000	24.92003000	15.14518000
90.09999483	0.00000000	25.67052000	14.34547000
90.29999482	0.00000000	26.50098000	10.91289000
90.49999480	0.00000000	27.25147000	6.31151500
90.69999479	0.00000000	28.03888000	1.71013800
90.89999478	0.00000000	28.36491000	-1.72244100
91.09999477	0.00000000	28.03888000	-2.50984200
91.29999476	0.00000000	27.29453000	-1.02116100
91.49999474	0.00000000	26.91929000	2.12844500
91.69999473	0.00000000	26.87623000	6.72982200
91.89999472	0.00000000	26.91929000	11.65723000
92.09999471	0.00000000	27.29453000	14.72072000
92.29999470	0.00000000	27.98966000	15.18824000
92.49999468	0.00000000	27.98966000	13.60728000
92.69999467	0.00000000	27.20841000	10.11934000
92.89999466	0.00000000	26.08268000	5.15501900
93.09999465	0.00000000	24.55093000	0.59670270
93.29999464	0.00000000	23.80659000	-2.14074800
93.49999463	0.00000000	23.71432000	-2.50984200
93.69999461	0.00000000	23.80659000	-0.60285430
93.89999460	0.00000000	24.60015000	3.24803100
94.09999459	0.00000000	26.54404000	7.80019600
94.29999458	0.00000000	28.83243000	11.65723000
94.49999457	0.00000000	31.15157000	13.61343000
94.69999455	0.00000000	32.64640000	13.61343000
94.89999454	0.00000000	32.64640000	11.65723000
95.09999453	0.00000000	31.10851000	7.84940900
95.29999452	0.00000000	28.41412000	3.66633800
95.49999451	0.00000000	25.33834000	0.55364170
95.69999449	0.00000000	22.60088000	-0.97810030
95.89999448	0.00000000	20.64468000	-0.60285430
96.09999447	0.00000000	19.52510000	1.66707700
96.29999446	0.00000000	19.94340000	4.73671200
96.49999445	0.00000000	22.26870000	7.84940900
96.69999444	0.00000000	25.71358000	10.49459000
96.89999442	0.00000000	29.61983000	11.65723000
97.09999441	0.00000000	33.06471000	10.91289000
97.29999440	0.00000000	35.39001000	9.05511800
97.49999439	0.00000000	35.76525000	6.72982200
97.69999438	0.00000000	34.23351000	4.77977300
97.89999436	0.00000000	31.10851000	3.24803100
98.09999435	0.00000000	26.87623000	2.50369100
98.29999434	0.00000000	22.64394000	3.24803100
98.49999433	0.00000000	19.52510000	4.68750000
98.69999432	0.00000000	17.98720000	5.89320800
98.89999430	0.00000000	18.36245000	6.68676100
99.09999429	0.00000000	20.68774000	7.47416300
99.29999428	0.00000000	24.13263000	7.84940900
99.49999427	0.00000000	28.03888000	7.89247000
99.69999426	0.00000000	31.44069000	7.84940900
99.89999425	0.00000000	33.48302000	7.51722400
100.09999423	0.00000000	33.90748000	7.14812900
100.29999422	0.00000000	33.85211000	7.51722400
100.49999421	0.00000000	32.22810000	7.84940900
100.69999420	0.00000000	28.87549000	7.80019600
100.89999419	0.00000000	25.76279000	7.01279500
101.09999417	0.00000000	23.38214000	5.11195900
101.29999416	0.00000000	21.43824000	3.24803100
101.49999415	0.00000000	20.68774000	2.04232300
101.69999414	0.00000000	21.01993000	1.66707700
101.89999413	0.00000000	22.22564000	2.04232300
102.09999411	0.00000000	24.13263000	3.24803100
102.29999410	0.00000000	26.50098000	5.19808000
102.49999409	-0.15871060	28.78937000	7.89247000
102.69999408	0.00000000	30.73326000	10.53765000
102.89999407	0.00000000	31.48376000	12.07554000
103.09999406	0.00000000	31.15157000	12.07554000
103.29999404	0.00000000	29.99508000	10.53765000
103.49999403	0.00000000	28.41412000	7.84940900
103.69999402	0.00000000	26.45792000	4.77977300
103.89999401	0.00000000	24.18184000	2.08538400
104.09999400	0.00000000	22.64394000	0.51058070
104.29999398	0.00000000	22.22564000	0.13533460
104.49999397	0.00000000	22.60088000	0.92888770
104.69999396	0.00000000	23.75738000	3.24803100
104.89999395	0.00000000	25.29527000	6.26845500
105.09999394	0.00000000	26.87623000	9.00590400
105.29999392	0.00000000	28.41412000	10.91289000
105.49999391	0.00000000	29.52756000	11.70029000
105.69999390	0.00000000	29.52756000	10.91289000
105.89999389	0.00000000	28.41412000	9.00590400
106.09999388	0.00000000	26.91929000	6.31151500
106.29999387	0.00000000	25.71358000	3.66633800
106.49999385	0.00000000	24.96309000	2.12844500
106.69999384	0.00000000	24.55093000	2.08538400
106.89999383	0.00000000	24.96309000	3.19881900
107.09999382	0.00000000	25.71358000	4.73671200
107.29999381	0.00000000	26.87623000	6.31151500
107.49999379	0.00000000	27.98966000	7.84940900
107.69999378	0.00000000	28.41412000	8.96284400
107.89999377	0.00000000	28.41412000	8.96284400
108.09999376	0.00000000	27.98966000	7.84940900
108.29999375	0.00000000	26.83317000	6.31151500
108.49999374	0.00000000	25.33834000	4.77977300
108.69999372	0.00000000	24.18184000	3.62327700
108.89999371	0.00000000	23.80659000	3.24803100
109.09999370	0.00000000	24.13263000	3.62327700
109.29999369	0.00000000	24.92003000	4.77977300
109.49999368	0.00000000	25.71358000	6.31151500
109.69999366	0.00000000	26.87623000	7.84940900
109.89999365	0.00000000	27.98966000	9.00590400
110.09999364	0.00000000	28.41412000	9.38115100
110.29999363	0.00000000	28.41412000	9.00590400
110.49999362	0.00000000	27.98966000	7.84940900
110.69999360	0.00000000	26.87623000	6.31151500
110.89999359	0.00000000	25.71358000	4.77977300
111.09999358	0.00000000	24.96309000	3.62327700
111.29999357	0.00000000	24.55093000	3.19881900
111.49999356	0.00000000	24.92003000	3.19881900
111.69999355	0.00000000	25.25221000	3.62327700
111.89999353	0.00000000	25.33834000	4.73671200
112.09999352	0.00000000	25.71358000	5.89320800
112.29999351	0.00000000	26.45792000	6.68676100
112.49999350	-0.15871060	26.83317000	7.47416300
112.69999349	0.00000000	26.87623000	7.84940900
112.89999347	0.00000000	26.87623000	7.89247000
113.09999346	0.00000000	26.87623000	7.84940900
113.29999345	0.00000000	26.87623000	7.47416300
113.49999344	0.00000000	26.83317000	6.68676100
113.69999343	0.00000000	26.50098000	5.93626900
113.89999341	0.00000000	26.08883000	5.15501900
114.09999340	0.00000000	26.08268000	4.77977300
114.29999339	0.00000000	25.67052000	4.73671200
114.49999338	0.00000000	25.33834000	4.73671200
114.69999337	0.00000000	25.29527000	4.73671200
114.89999336	0.00000000	25.33834000	4.73671200
115.09999334	0.00000000	25.71358000	4.73671200
115.29999333	0.00000000	26.45792000	4.77977300
115.49999332	0.00000000	26.83317000	5.15501900
115.69999331	0.00000000	26.87623000	5.93626900
115.89999330	0.00000000	26.87623000	6.68676100
116.09999328	0.00000000	26.83317000	7.47416300
116.29999327	0.00000000	26.45792000	7.84940900
116.49999326	0.00000000	25.71358000	7.89247000
116.69999325	0.00000000	25.33834000	7.84940900
116.89999324	0.00000000	25.29527000	7.42495000
117.09999322	0.00000000	25.33834000	6.31151500
117.29999321	0.00000000	25.71358000	5.15501900
117.49999320	0.00000000	26.50098000	4.36146600
117.69999319	0.00000000	27.25147000	3.62327700
117.89999318	0.00000000	28.03888000	3.62327700
118.09999317	0.00000000	28.36491000	4.31840500
118.29999315	0.00000000	27.98966000	4.73671200
118.49999314	0.00000000	26.87623000	5.19808000
118.69999313	0.00000000	25.71358000	6.31151500
118.89999312	0.00000000	24.92003000	7.42495000
119.09999311	0.00000000	24.13263000	7.84940900
119.29999309	0.00000000	23.75738000	7.89247000
119.49999308	0.00000000	23.75738000	7.89247000
119.69999307	0.00000000	24.18184000	7.84940900
119.89999306	0.00000000	25.33834000	7.42495000
120.09999305	0.00000000	26.83317000	6.31151500
120.29999303	0.00000000	28.03888000	5.19808000
120.49999302	0.00000000	28.78937000	4.77977300
120.69999301	0.00000000	29.20152000	4.73671200
120.89999300	0.00000000	28.78937000	4.73671200
121.09999299	0.00000000	28.03888000	4.73671200
121.29999298	0.00000000	26.83317000	4.73671200
121.49999296	0.00000000	25.33834000	4.77977300
121.69999295	0.00000000	24.13263000	5.15501900
121.89999294	0.00000000	23.38214000	5.89320800
122.09999293	0.00000000	22.96998000	6.26845500
122.29999292	0.00000000	23.38214000	6.35457700
122.49999290	0.00000000	24.13263000	6.68676100
122.69999289	0.00000000	25.33834000	7.05585600
122.89999288	0.00000000	26.83317000	6.68676100
123.09999287	0.00000000	27.98966000	6.35457700
123.29999286	0.00000000	28.41412000	6.31151500
123.49999284	0.00000000	28.45718000	6.26845500
123.69999283	0.00000000	28.41412000	5.89320800
123.89999282	0.00000000	28.03888000	5.15501900
124.09999281	0.00000000	27.25147000	4.77977300
124.29999280	0.00000000	26.50098000	4.73671200
124.49999279	0.00000000	25.67052000	4.73671200
124.69999277	0.00000000	24.92003000	4.73671200
124.89999276	0.00000000	24.13263000	4.77977300
125.09999275	0.00000000	23.80659000	5.15501900
125.29999274	-0.15871060	24.13263000	5.89320800
125.49999273	0.00000000	24.92003000	6.26845500
125.69999271	0.00000000	25.67052000	6.35457700
125.89999270	0.00000000	26.50098000	6.68676100
126.09999269	0.00000000	27.25147000	7.05585600
126.29999268	0.00000000	28.03888000	6.68676100
126.49999267	0.00000000	28.41412000	6.35457700
126.69999265	0.00000000	28.41412000	6.26845500
126.89999264	0.00000000	27.98966000	5.89320800
127.09999263	0.00000000	26.83317000	5.15501900
127.29999262	0.00000000	25.33834000	4.77977300
127.49999261	0.00000000	24.18184000	4.77977300
127.69999260	0.00000000	23.75738000	5.15501900
127.89999258	0.00000000	23.75738000	5.89320800
128.09999257	0.00000000	24.13263000	6.26845500
128.29999256	0.00000000	24.92003000	6.31151500
128.49999255	0.00000000	25.71358000	6.31151500
128.69999254	0.00000000	26.87623000	6.31151500
128.89999252	0.00000000	27.98966000	6.31151500
129.09999251	0.00000000	28.36491000	6.26845500
129.29999250	0.00000000	27.98966000	5.89320800
129.49999249	0.00000000	26.87623000	5.15501900
129.69999248	0.00000000	25.71358000	4.77977300
129.89999246	0.00000000	24.92003000	4.73671200
130.09999245	0.00000000	24.13263000	4.77977300
130.29999244	0.00000000	23.80659000	5.15501900
130.49999243	0.00000000	24.13263000	5.89320800
130.69999242	0.00000000	24.92003000	6.26845500
130.89999241	0.00000000	25.67052000	6.31151500
131.09999239	0.00000000	26.45792000	6.31151500
131.29999238	0.00000000	26.83317000	6.31151500
131.49999237	0.00000000	26.87623000	6.26845500
131.69999236	0.00000000	26.83317000	5.89320800
131.89999235	0.00000000	26.45792000	5.15501900
132.09999233	0.00000000	25.71358000	4.77977300
132.29999232	0.00000000	25.33834000	4.73671200
132.49999231	0.00000000	25.29527000	4.77977300
132.69999230	0.00000000	25.29527000	5.15501900
132.89999229	0.00000000	25.29527000	5.93626900
133.09999227	0.00000000	25.29527000	6.68676100
133.29999226	-0.15871060	25.29527000	7.47416300
133.49999225	0.00000000	25.29527000	7.80019600
133.69999224	0.00000000	25.29527000	7.47416300
133.89999223	0.00000000	25.29527000	6.72982200
134.09999222	0.00000000	25.29527000	6.31151500
134.29999220	0.00000000	25.29527000	5.89320800
134.49999219	0.00000000	25.33834000	5.15501900
134.69999218	0.00000000	25.71358000	4.73671200
134.89999217	0.00000000	26.45792000	4.36146600
135.09999216	0.00000000	26.83317000	3.99237200
135.29999214	0.00000000	26.87623000	4.40452700
135.49999213	0.00000000	26.83317000	5.11195900
135.69999212	0.00000000	26.45792000	5.89320800
135.89999211	0.00000000	25.71358000	6.31151500
136.09999210	0.00000000	25.29527000	6.72982200
136.29999208	0.00000000	24.87697000	7.42495000
136.49999207	0.00000000	24.18184000	7.42495000
136.69999206	0.00000000	24.18184000	6.72982200
136.89999205	0.00000000	24.92003000	6.31151500
137.09999204	0.00000000	25.67052000	5.89320800
137.29999203	0.00000000	26.45792000	5.15501900
137.49999201	0.00000000	26.83317000	4.77977300
137.69999200	0.00000000	26.87623000	4.73671200
137.89999199	0.00000000	26.87623000	4.73671200
138.09999198	0.00000000	26.83317000	4.73671200
138.29999197	0.00000000	26.45792000	4.77977300
138.49999195	0.00000000	25.67052000	5.15501900
138.69999194	0.00000000	24.92003000	5.89320800
138.89999193	0.00000000	24.13263000	6.31151500
139.09999192	0.00000000	23.80659000	6.68676100
139.29999191	0.00000000	24.13263000	7.09891700
139.49999189	0.00000000	24.92003000	7.10506800
139.69999188	0.00000000	25.67052000	7.47416300
139.89999187	0.00000000	26.45792000	7.42495000
140.09999186	0.00000000	26.83317000	6.68676100
140.29999185	0.00000000	26.87623000	5.93626900
140.49999184	0.00000000	26.87623000	5.11195900
140.69999182	0.00000000	26.87623000	4.40452700
140.89999181	0.00000000	26.78395000	3.99237200
141.09999180	0.00000000	26.08268000	4.36146600
141.29999179	0.00000000	24.97539000	4.73671200
141.49999178	0.00000000	24.96309000	5.15501900
141.69999176	0.00000000	25.25221000	5.93626900
141.89999175	0.00000000	25.29527000	6.68676100
142.09999174	0.00000000	25.33834000	7.47416300
142.29999173	0.00000000	25.71358000	7.80019600
142.49999172	0.00000000	26.40871000	7.47416300
142.69999170	0.00000000	26.40871000	6.68676100
142.89999169	0.00000000	25.71358000	5.93626900
143.09999168	0.00000000	25.33834000	5.15501900
143.29999167	0.00000000	25.29527000	4.77977300
143.49999166	0.00000000	25.29527000	4.73671200
143.69999165	0.00000000	25.29527000	4.73671200
143.89999163	0.00000000	25.29527000	4.73671200
144.09999162	0.00000000	25.33834000	4.77977300
144.29999161	0.00000000	25.71358000	5.15501900
144.49999160	0.00000000	26.45792000	5.93626900
144.69999159	0.00000000	26.83317000	6.68676100
144.89999157	0.00000000	26.83317000	7.42495000
145.09999156	0.00000000	26.45792000	7.42495000
145.29999155	0.00000000	25.71358000	6.72982200
145.49999154	0.00000000	25.33834000	6.31151500
145.69999153	0.00000000	25.29527000	5.89320800
145.89999151	0.00000000	25.29527000	5.15501900
146.09999150	0.00000000	25.33834000	4.77977300
146.29999149	0.00000000	25.67052000	4.69365100
146.49999148	0.00000000	26.08268000	4.40452700
146.69999147	0.00000000	26.08883000	4.41067900
146.89999146	0.00000000	26.50098000	5.51796200
147.09999144	0.00000000	26.78395000	6.21924200
147.29999143	0.00000000	26.45792000	6.31151500
147.49999142	0.00000000	25.71358000	6.31151500
147.69999141	0.00000000	25.33834000	6.31151500
147.89999140	0.00000000	25.29527000	6.31151500
148.09999138	0.00000000	25.29527000	6.31151500
148.29999137	0.00000000	25.29527000	6.26845500
148.49999136	0.00000000	25.29527000	5.89320800
148.69999135	0.00000000	25.29527000	5.15501900
148.89999134	0.00000000	25.29527000	4.77977300
149.09999132	0.00000000	25.33834000	4.73671200
149.29999131	0.00000000	25.67052000	4.73671200
149.49999130	0.00000000	26.08268000	4.77977300
149.69999129	0.00000000	26.08883000	5.15501900
149.89999128	0.00000000	26.45792000	5.89320800
150.09999127	0.00000000	26.40871000	6.26845500
150.29999125	0.00000000	25.71358000	6.31151500
150.49999124	0.00000000	25.33834000	6.31151500
150.69999123	0.00000000	25.29527000	6.31151500
150.89999122	0.00000000	25.29527000	6.31151500
151.09999121	0.00000000	25.29527000	6.26845500
151.29999119	0.00000000	25.29527000	5.89320800
151.49999118	0.00000000	25.29527000	5.15501900
151.69999117	0.00000000	25.29527000	4.77977300
151.89999116	0.00000000	25.29527000	4.73671200
152.09999115	0.00000000	25.33834000	4.77977300
152.29999113	0.00000000	25.71358000	5.11195900
152.49999112	0.00000000	26.45792000	5.51796200
152.69999111	0.00000000	26.83317000	5.53026500
152.89999110	0.00000000	26.83317000	5.93626900
153.09999109	0.00000000	26.45792000	6.26845500
153.29999108	0.00000000	25.71358000	6.31151500
153.49999106	0.00000000	25.33834000	6.31151500
153.69999105	0.00000000	25.25221000	6.31151500
153.89999104	0.00000000	24.87697000	6.31151500
154.09999103	0.00000000	24.13263000	6.31151500
154.29999102	0.00000000	23.80659000	6.31151500
154.49999100	0.00000000	24.13263000	6.31151500
154.69999099	0.00000000	24.87697000	6.26845500
154.89999098	0.00000000	25.25221000	5.93626900
155.09999097	0.00000000	25.33834000	5.53026500
155.29999096	0.00000000	25.71358000	5.51796200
155.49999094	0.00000000	26.45792000	5.11195900
155.69999093	0.00000000	26.78395000	4.82898600
155.89999092	0.00000000	26.45792000	5.15501900
156.09999091	0.00000000	25.71358000	5.89320800
156.29999090	0.00000000	25.33834000	6.26845500
156.49999089	0.00000000	25.29527000	6.31151500
156.69999087	0.00000000	25.25221000	6.31151500
156.89999086	0.00000000	24.87697000	6.31151500
157.09999085	0.00000000	24.18184000	6.31151500
157.29999084	0.00000000	24.18184000	6.31151500
157.49999083	0.00000000	24.87697000	6.26845500
157.69999081	0.00000000	25.25221000	5.89320800
157.89999080	0.00000000	25.29527000	5.15501900
158.09999079	0.00000000	25.33834000	4.77977300
158.29999078	0.00000000	25.71358000	4.73671200
158.49999077	-0.15871060	26.40871000	4.73671200
158.69999075	0.00000000	26.40871000	4.73671200
158.89999074	0.00000000	25.71358000	4.77977300
159.09999073	0.00000000	25.33834000	5.15501900
159.29999072	0.00000000	25.29527000	5.89320800
159.49999071	0.00000000	25.29527000	6.26845500
159.69999070	0.00000000	25.29527000	6.31151500
159.89999068	0.00000000	25.29527000	6.31151500
160.09999067	0.00000000	25.25221000	6.26845500
160.29999066	0.00000000	24.92003000	5.93626900
160.49999065	0.00000000	24.55093000	5.53026500
160.69999064	0.00000000	24.92003000	5.51796200
160.89999062	0.00000000	25.25221000	5.11195900
161.09999061	0.00000000	25.29527000	4.77977300
161.29999060	0.00000000	25.29527000	4.73671200
161.49999059	0.00000000	25.29527000	4.73671200
161.69999058	0.00000000	25.29527000	4.77977300
161.89999056	0.00000000	25.29527000	5.15501900
162.09999055	0.00000000	25.29527000	5.89320800
162.29999054	0.00000000	25.29527000	6.26845500
162.49999053	0.00000000	25.29527000	6.31151500
162.69999052	0.00000000	25.29527000	6.26845500
162.89999051	0.00000000	25.29527000	5.93626900
163.09999049	0.00000000	25.25221000	5.57332700
163.29999048	0.00000000	24.87697000	5.93626900
163.49999047	0.00000000	24.13263000	6.21924200
163.69999046	0.00000000	23.80659000	5.89320800
163.89999045	0.00000000	24.13263000	5.19808000
164.09999043	0.00000000	24.87697000	5.15501900
164.29999042	0.00000000	25.25221000	5.47490100
164.49999041	-0.15871060	25.29527000	5.11195900
164.69999040	0.00000000	25.29527000	4.77977300
164.89999039	0.00000000	25.33834000	4.73671200
165.09999037	0.00000000	25.67052000	4.73671200
165.29999036	-0.15871060	26.03961000	4.77977300
165.49999035	0.00000000	25.67052000	5.15501900
165.69999034	0.00000000	25.33834000	5.89320800
165.89999033	0.00000000	25.29527000	6.26845500
166.09999032	0.00000000	25.25221000	6.31151500
166.29999030	0.00000000	24.87697000	6.31151500
166.49999029	0.00000000	24.18184000	6.31151500
166.69999028	0.00000000	24.18184000	6.26845500
166.89999027	0.00000000	24.87697000	5.89320800
167.09999026	0.00000000	25.25221000	5.15501900
167.29999024	0.00000000	25.29527000	4.77977300
167.49999023	0.00000000	25.29527000	4.73671200
167.69999022	0.00000000	25.29527000	4.73671200
167.89999021	0.00000000	25.33834000	4.73671200
168.09999020	0.00000000	25.67052000	4.77977300
168.29999018	0.00000000	26.03961000	5.15501900
168.49999017	0.00000000	25.67052000	5.85014700
168.69999016	0.00000000	25.33834000	5.85014700
168.89999015	0.00000000	25.29527000	5.15501900
169.09999014	0.00000000	25.29527000	4.82898600
169.29999013	0.00000000	25.29527000	5.11195900
169.49999011	0.00000000	25.29527000	5.47490100
169.69999010	0.00000000	25.29527000	5.15501900
169.89999009	0.00000000	25.29527000	5.15501900
170.09999008	0.00000000	25.29527000	5.51796200
170.29999007	0.00000000	25.29527000	5.48105300
170.49999005	0.00000000	25.29527000	5.56717500
170.69999004	0.00000000	25.29527000	5.53026500
170.89999003	0.00000000	25.29527000	5.89320800
171.09999002	0.00000000	25.29527000	5.89320800
171.29999001	0.00000000	25.29527000	5.53026500
171.49998999	0.00000000	25.29527000	5.56717500
171.69998998	0.00000000	25.29527000	5.48105300
171.89998997	0.00000000	25.29527000	5.51796200
172.09998996	0.00000000	25.29527000	5.15501900
172.29998995	0.00000000	25.29527000	5.19808000
172.49998994	0.00000000	25.29527000	5.89320800
172.69998992	0.00000000	25.29527000	6.26845500
172.89998991	0.00000000	25.29527000	6.31151500
173.09998990	0.00000000	25.29527000	6.26845500
173.29998989	0.00000000	25.29527000	5.89320800
173.49998988	0.00000000	25.29527000	5.15501900
173.69998986	0.00000000	25.29527000	4.82898600
173.89998985	0.00000000	25.29527000	5.11195900
174.09998984	0.00000000	25.29527000	5.47490100
174.29998983	0.00000000	25.29527000	5.11195900
174.49998982	0.00000000	25.29527000	4.77977300
174.69998980	0.00000000	25.29527000	4.73671200
174.89998979	0.00000000	25.29527000	4.77977300
175.09998978	0.00000000	25.29527000	5.15501900
175.29998977	0.00000000	25.29527000	5.85014700
175.49998976	0.00000000	25.29527000	5.85014700
175.69998975	0.00000000	25.29527000	5.15501900
175.89998973	0.00000000	25.29527000	4.77977300
176.09998972	0.00000000	25.29527000	4.77977300
176.29998971	0.00000000	25.29527000	5.11195900
176.49998970	0.00000000	25.29527000	5.51796200
176.69998969	0.00000000	25.29527000	5.48105300
176.89998967	0.00000000	25.29527000	5.51796200
177.09998966	0.00000000	25.29527000	5.11195900
177.29998965	0.00000000	25.29527000	4.77977300
177.49998964	0.00000000	25.29527000	4.73671200
177.69998963	0.00000000	25.29527000	4.77977300
177.89998961	0.00000000	25.29527000	5.11195900
178.09998960	0.00000000	25.29527000	5.47490100
178.29998959	0.00000000	25.29527000	5.11195900
178.49998958	0.00000000	25.29527000	4.82898600
178.69998957	0.00000000	25.29527000	5.11195900
178.89998956	0.00000000	25.29527000	5.51796200
179.09998954	0.00000000	25.29527000	5.53026500
179.29998953	0.00000000	25.29527000	5.89320800
179.49998952	0.00000000	25.25221000	5.85014700
179.69998951	0.00000000	24.92003000	5.15501900
179.89998950	0.00000000	24.55093000	4.77977300
180.09998948	0.00000000	24.92003000	4.73671200
180.29998947	0.00000000	25.25221000	4.73671200
180.49998946	0.00000000	25.29527000	4.73671200
180.69998945	0.00000000	25.25221000	4.73671200
180.89998944	0.00000000	24.87697000	4.77977300
181.09998942	0.00000000	24.13263000	5.15501900
181.29998941	0.00000000	23.80659000	5.89320800
181.49998940	0.00000000	24.13263000	6.26845500
181.69998939	0.00000000	24.87697000	6.26845500
181.89998938	0.00000000	25.25221000	5.93626900
182.09998937	0.00000000	25.29527000	5.57332700
182.29998935	0.00000000	25.29527000	5.89320800
182.49998934	0.00000000	25.29527000	5.85014700
182.69998933	0.00000000	25.29527000	5.15501900
182.89998932	0.00000000	25.29527000	4.77977300
183.09998931	0.00000000	25.29527000	4.73671200
183.29998929	0.00000000	25.29527000	4.73671200
183.49998928	0.00000000	25.29527000	4.73671200
183.69998927	0.00000000	25.29527000	4.77977300
183.89998926	0.00000000	25.29527000	5.15501900
184.09998925	0.00000000	25.29527000	5.89320800
184.29998923	0.00000000	25.29527000	6.26845500
184.49998922	0.00000000	25.29527000	6.31151500
184.69998921	0.00000000	25.29527000	6.31151500
184.89998920	0.00000000	25.29527000	6.31151500
185.09998919	0.00000000	25.29527000	6.26845500
185.29998918	0.00000000	25.29527000	5.89320800
185.49998916	0.00000000	25.29527000	5.15501900
185.69998915	0.00000000	25.29527000	4.77977300
185.89998914	0.00000000	25.29527000	4.73671200
186.09998913	0.00000000	25.29527000	4.73671200
186.29998912	0.00000000	25.29527000	4.73671200
186.49998910	0.00000000	25.25221000	4.73671200
186.69998909	0.00000000	24.92003000	4.77977300
186.89998908	0.00000000	24.50787000	5.15501900
187.09998907	0.00000000	24.50172000	5.89320800
187.29998906	0.00000000	24.08957000	6.26845500
187.49998904	0.00000000	23.80659000	6.31151500
187.69998903	0.00000000	24.13263000	6.31151500
187.89998902	0.00000000	24.87697000	6.26845500
188.09998901	0.00000000	25.25221000	5.89320800
188.29998900	0.00000000	25.29527000	5.15501900
188.49998899	0.00000000	25.29527000	4.77977300
188.69998897	0.00000000	25.29527000	4.73671200
188.89998896	-0.15871060	25.29527000	4.73671200
189.09998895	0.00000000	25.29527000	4.73671200
189.29998894	0.00000000	25.29527000	4.73671200
189.49998893	0.00000000	25.25221000	4.73671200
189.69998891	0.00000000	24.92003000	4.73671200
189.89998890	0.00000000	24.50787000	4.77977300
190.09998889	0.00000000	24.50172000	5.11195900
190.29998888	0.00000000	24.13263000	5.51796200
190.49998887	0.00000000	24.18184000	5.48105300
190.69998885	0.00000000	24.87697000	5.56717500
190.89998884	0.00000000	25.25221000	5.53026500
191.09998883	0.00000000	25.29527000	5.89320800
191.29998882	0.00000000	25.29527000	5.85014700
191.49998881	0.00000000	25.29527000	5.15501900
191.69998880	0.00000000	25.29527000	4.77977300
191.89998878	0.00000000	25.29527000	4.73671200
192.09998877	-0.15871060	25.29527000	4.73671200
192.29998876	0.00000000	25.29527000	4.73671200
192.49998875	0.00000000	25.25221000	4.73671200
192.69998874	0.00000000	24.87697000	4.73671200
192.89998872	0.00000000	24.13263000	4.77977300
193.09998871	0.00000000	23.75738000	5.11195900
193.29998870	0.00000000	23.71432000	5.47490100
193.49998869	0.00000000	23.71432000	5.15501900
193.69998868	0.00000000	23.75738000	5.19808000
193.89998866	0.00000000	24.13263000	5.89320800
194.09998865	0.00000000	24.87697000	6.26845500
194.29998864	0.00000000	25.25221000	6.31151500
194.49998863	0.00000000	25.29527000	6.26845500
194.69998862	0.00000000	25.29527000	5.89320800
194.89998861	0.00000000	25.29527000	5.15501900
195.09998859	0.00000000	25.29527000	4.77977300
195.29998858	0.00000000	25.25221000	4.73671200
195.49998857	0.00000000	24.87697000	4.73671200
195.69998856	0.00000000	24.18184000	4.69365100
195.89998855	0.00000000	24.13263000	4.36146600
196.09998853	0.00000000	24.45866000	3.99237200
