Time	Channel A	Channel B	Channel C
(us)	(V)	(mV)	(mV)

-4.49999956	0.00000000	74.31717000	35.51919000
-4.29999957	0.00000000	74.27411000	35.11319000
-4.09999958	0.00000000	73.94193000	34.78100000
-3.89999959	0.00000000	73.57283000	34.73794000
-3.69999960	0.00000000	73.94193000	34.73794000
-3.49999962	0.00000000	74.27411000	34.73794000
-3.29999963	0.00000000	74.31717000	34.73794000
-3.09999964	0.00000000	74.31717000	34.73794000
-2.89999965	0.00000000	74.31717000	34.73794000
-2.69999966	0.00000000	74.31717000	34.73794000
-2.49999968	0.00000000	74.31717000	34.73794000
-2.29999969	0.00000000	74.31717000	34.73794000
-2.09999970	0.00000000	74.31717000	34.73794000
-1.89999971	0.00000000	74.31717000	34.73794000
-1.69999972	0.00000000	74.31717000	34.73794000
-1.49999973	0.00000000	74.31717000	34.73794000
-1.29999975	0.00000000	74.31717000	34.73794000
-1.09999976	0.00000000	74.31717000	34.73794000
-0.89999977	0.00000000	74.31717000	34.73794000
-0.69999978	0.00000000	74.31717000	34.73794000
-0.49999979	0.00000000	74.31717000	34.73794000
-0.29999981	0.15871060	74.31717000	34.73794000
-0.09999982	0.63668800	74.31717000	34.73794000
0.10000017	0.95533960	74.31717000	34.73794000
0.30000016	0.95533960	74.31717000	34.73794000
0.50000015	0.79601380	74.31717000	34.73794000
0.70000013	0.31803640	74.31717000	34.73794000
0.90000012	-0.47736220	74.31717000	34.73794000
1.10000011	-1.43331700	74.31717000	34.73794000
1.30000010	-2.38927200	74.31717000	34.73794000
1.50000009	-2.86724900	74.31717000	34.73794000
1.70000008	-2.54859700	74.31717000	34.73794000
1.90000006	-1.43331700	74.31717000	34.73794000
2.10000005	0.31803640	74.31717000	34.73794000
2.30000004	2.38927200	74.31717000	34.73794000
2.50000003	4.30056600	74.31717000	34.73794000
2.70000002	5.25652100	74.31717000	34.73794000
2.90000000	4.93786900	74.31717000	34.73794000
3.09999999	3.18590100	74.31717000	34.73794000
3.29999998	0.15871060	74.31717000	34.73794000
3.49999997	-3.18590100	74.27411000	34.73794000
3.69999996	-6.21247500	73.94193000	34.78100000
3.89999994	-7.80511800	73.57283000	35.11319000
4.09999993	-7.64579200	73.98499000	35.51919000
4.29999992	-5.41584600	74.64935000	35.53149000
4.49999991	-1.59264300	75.06151000	35.93750000
4.69999990	2.86724900	74.69241000	36.22047000
4.89999989	6.84916400	74.36023000	35.89444000
5.09999987	9.07972400	74.31717000	35.15625000
5.29999986	9.23905000	74.31717000	34.78100000
5.49999985	7.00848900	74.31717000	34.73794000
5.69999984	2.86724900	74.31717000	34.73794000
5.89999983	-2.07062000	74.31717000	34.73794000
6.09999981	-6.21247500	74.31717000	34.78100000
6.29999980	-8.92039900	74.31717000	35.15625000
6.49999979	-9.39837600	74.31717000	35.89444000
6.69999978	-7.48646600	74.31717000	36.26968000
6.89999977	-3.82258900	74.31717000	36.31274000
7.09999975	0.47736220	74.31717000	36.31274000
7.29999974	4.45989200	74.31717000	36.26968000
7.49999973	7.00848900	74.31717000	35.89444000
7.69999972	7.64579200	74.31717000	35.19931000
7.89999971	6.37180100	74.31717000	35.15625000
8.09999970	3.66326300	74.31717000	35.47613000
8.29999968	0.47736220	74.31717000	35.15625000
8.49999967	-2.54859700	74.31717000	35.15625000
8.69999966	-4.61921700	74.31717000	35.51919000
8.89999965	-5.25652100	74.31717000	35.53149000
9.09999964	-4.45989200	74.31717000	35.93750000
9.29999962	-2.86724900	74.31717000	36.26968000
9.49999961	-0.95533960	74.31717000	36.31274000
9.69999960	0.95533960	74.31717000	36.31274000
9.89999959	2.07062000	74.36023000	36.31274000
10.09999958	2.54859700	74.69241000	36.31274000
10.29999956	2.22994600	75.06151000	36.31274000
10.49999955	1.43331700	74.69241000	36.26968000
10.69999954	0.63668800	74.36023000	35.89444000
10.89999953	-0.15871060	74.31717000	35.19931000
11.09999952	-0.79601380	74.31717000	35.19931000
11.29999951	-0.95533960	74.31717000	35.85138000
11.49999949	-0.95533960	74.31717000	35.85138000
11.69999948	-0.79601380	74.31717000	35.15625000
11.89999947	-0.47736220	74.31717000	34.78100000
12.09999946	-0.15871060	74.31717000	34.78100000
12.29999945	-0.15871060	74.31717000	35.11319000
12.49999943	-0.15871060	74.31717000	35.47613000
12.69999942	0.00000000	74.31717000	35.11319000
12.89999941	0.00000000	74.31717000	34.78100000
13.09999940	0.00000000	74.31717000	34.73794000
13.29999939	0.00000000	74.31717000	34.73794000
13.49999937	0.00000000	74.31717000	34.73794000
13.69999936	0.00000000	74.31717000	34.73794000
13.89999935	-0.15871060	74.31717000	34.73794000
14.09999934	-0.15871060	74.31717000	34.73794000
14.29999933	-0.15871060	74.31717000	34.73794000
14.49999932	-0.15871060	74.31717000	34.73794000
14.69999930	0.00000000	74.31717000	34.73794000
14.89999929	0.00000000	74.31717000	34.73794000
15.09999928	0.00000000	74.31717000	34.73794000
15.29999927	0.00000000	74.31717000	34.73794000
15.49999926	0.00000000	74.31717000	34.73794000
15.69999924	0.00000000	74.31717000	34.73794000
15.89999923	0.00000000	74.27411000	34.73794000
16.09999922	0.00000000	73.94193000	34.73794000
16.29999921	0.00000000	73.57283000	34.73794000
16.49999920	-0.15871060	73.94193000	34.73794000
16.69999919	-0.15871060	74.31717000	34.73794000
16.89999917	-0.15871060	74.73548000	34.73794000
17.09999916	0.00000000	75.47981000	34.73794000
17.29999915	0.00000000	75.85506000	34.73794000
17.49999914	0.00000000	75.89813000	34.73794000
17.69999913	0.00000000	75.85506000	34.73794000
17.89999911	0.00000000	75.47981000	34.73794000
18.09999910	0.00000000	74.64935000	34.73794000
18.29999909	0.00000000	73.48056000	34.73794000
18.49999908	0.00000000	71.57356000	34.73794000
18.69999907	-0.15871060	70.08488000	34.73794000
18.89999905	-0.15871060	69.61736000	34.73794000
19.09999904	0.00000000	69.66658000	34.73794000
19.29999903	0.00000000	70.54626000	34.73794000
19.49999902	0.00000000	73.28986000	34.73794000
19.69999901	0.00000000	77.47908000	34.73794000
19.89999900	0.00000000	81.71136000	34.73794000
20.09999898	0.00000000	84.83022000	34.73794000
20.29999897	0.00000000	86.31889000	34.73794000
20.49999896	0.00000000	85.48228000	34.73794000
20.69999895	0.00000000	81.57603000	34.73794000
20.89999894	0.00000000	75.34448000	34.73794000
21.09999892	0.00000000	67.61810000	34.73794000
21.29999891	0.00000000	59.94094000	34.73794000
21.49999890	0.00000000	54.95816000	34.73794000
21.69999889	0.00000000	53.83858000	34.73794000
21.89999888	0.00000000	57.42495000	34.78100000
22.09999886	0.00000000	65.98179000	35.11319000
22.29999885	0.00000000	77.94044000	35.47613000
22.49999884	0.00000000	90.69267000	35.15625000
22.69999883	0.00000000	101.11340000	35.19931000
22.89999882	0.00000000	106.84050000	35.89444000
23.09999881	0.00000000	105.91170000	36.26968000
23.29999879	-0.15871060	96.97342000	36.35580000
23.49999878	0.00000000	81.53297000	36.73105000
23.69999877	0.00000000	63.37967000	37.47539000
23.89999876	0.00000000	46.40133000	37.85064000
24.09999875	0.00000000	34.90403000	37.85064000
24.29999873	0.00000000	32.25270000	37.42618000
24.49999872	0.00000000	39.64690000	36.26968000
24.69999871	0.00000000	55.88705000	34.73794000
24.89999870	0.00000000	77.52214000	33.15699000
25.09999869	0.00000000	99.53247000	31.62524000
25.29999867	0.00000000	116.93530000	30.51181000
25.49999866	-0.15871060	125.73200000	30.55487000
25.69999865	0.00000000	123.30830000	32.12967000
25.89999864	0.00000000	109.02440000	35.24852000
26.09999863	0.00000000	86.31889000	39.43159000
26.29999862	0.00000000	61.19586000	43.33169000
26.49999860	0.00000000	39.13632000	46.03223000
26.69999859	0.00000000	24.90157000	47.55782000
26.89999858	0.00000000	22.20103000	46.63509000
27.09999857	0.00000000	31.78518000	42.77190000
27.29999856	0.00000000	50.72588000	36.22662000
27.49999854	0.00000000	74.69241000	28.88164000
27.69999853	-0.15871060	98.65279000	22.28100000
27.89999852	0.00000000	116.79990000	17.26747000
28.09999851	0.00000000	125.30760000	15.45275000
28.29999850	0.00000000	122.23790000	17.82111000
28.49999848	0.00000000	108.42150000	24.83391000
28.69999847	0.00000000	87.99212000	35.24852000
28.89999846	0.00000000	65.93873000	46.81348000
29.09999845	0.00000000	46.95497000	56.85285000
29.29999844	0.00000000	34.90403000	62.98597000
29.49999843	0.00000000	31.78518000	63.68724000
29.69999841	0.00000000	37.93061000	57.78789000
29.89999840	0.00000000	51.79626000	45.84153000
30.09999839	0.00000000	69.52509000	30.41954000
30.29999838	0.00000000	86.97095000	15.40969000
30.49999837	0.00000000	100.55980000	4.16461600
30.69999835	0.00000000	107.96010000	-0.84891720
30.89999834	0.00000000	108.00320000	1.14419300
31.09999833	0.00000000	101.11340000	10.43922000
31.29999832	0.00000000	89.53001000	25.53518000
31.49999831	0.00000000	75.94118000	42.87032000
31.69999829	0.00000000	62.77681000	59.12893000
31.89999828	0.00000000	52.72514000	70.28174000
32.09999827	-0.15871060	48.07455000	74.18184000
32.29999826	0.00000000	49.52017000	69.90649000
32.49999825	0.00000000	56.07160000	58.34153000
32.69999824	0.00000000	65.71111000	42.07677000
32.89999822	0.00000000	76.59325000	24.32333000
33.09999821	0.00000000	86.23277000	8.85826700
33.29999820	0.00000000	92.83341000	-0.76279520
33.49999819	0.00000000	94.78961000	-2.74975400
33.69999818	0.00000000	92.13213000	3.37721400
33.89999816	0.00000000	85.94365000	15.36048000
34.09999815	0.00000000	77.52214000	30.88090000
34.29999814	0.00000000	69.43282000	47.46555000
34.49999813	0.00000000	63.98253000	60.94365000
34.69999812	0.00000000	61.56496000	68.33170000
34.89999810	0.00000000	62.39542000	68.37475000
35.09999809	0.00000000	66.22169000	61.41117000
35.29999808	-0.15871060	72.36097000	49.08956000
35.49999807	0.00000000	78.46333000	34.04282000
35.69999806	0.00000000	82.73868000	20.18947000
35.89999805	0.00000000	84.31963000	10.52534000
36.09999803	0.00000000	83.20619000	7.41264700
36.29999802	0.00000000	80.13041000	11.22662000
36.49999801	0.00000000	75.85506000	20.42938000
36.69999800	0.00000000	71.29060000	32.73868000
36.89999799	0.00000000	67.80266000	44.63582000
37.09999797	0.00000000	66.67692000	53.18652000
37.29999796	0.00000000	67.80266000	56.62524000
37.49999795	0.00000000	71.29060000	54.34301000
37.69999794	0.00000000	75.85506000	46.67815000
37.89999793	0.00000000	80.13041000	36.40502000
38.09999791	0.00000000	83.24926000	26.79011000
38.29999790	0.00000000	84.78715000	20.65084000
38.49999789	0.00000000	84.36269000	19.49434000
38.69999788	0.00000000	81.66830000	23.67741000
38.89999787	0.00000000	77.47908000	31.71137000
39.09999786	0.00000000	73.20374000	40.87721000
39.29999784	-0.15871060	69.66043000	48.53592000
39.49999783	0.00000000	66.95989000	52.02386000
39.69999782	0.00000000	65.84645000	50.86122000
39.89999781	0.00000000	67.00910000	45.42323000
40.09999780	0.00000000	70.08488000	36.22662000
40.29999778	0.00000000	74.31717000	26.32259000
40.49999777	0.00000000	78.59251000	19.02682000
40.69999776	0.00000000	82.08661000	16.33243000
40.89999775	0.00000000	84.45496000	19.02682000
41.09999774	0.00000000	85.20546000	26.27953000
41.29999772	0.00000000	84.41190000	35.89444000
41.49999771	0.00000000	81.71136000	45.10334000
41.69999770	0.00000000	77.89738000	51.69783000
41.89999769	0.00000000	74.36023000	53.98006000
42.09999768	0.00000000	71.19833000	51.74089000
42.29999767	0.00000000	68.54699000	45.52165000
42.49999765	0.00000000	67.38435000	37.14321000
42.69999764	0.00000000	68.12868000	28.65403000
42.89999763	0.00000000	70.04182000	22.88386000
43.09999762	0.00000000	72.77928000	20.47244000
43.29999761	0.00000000	75.80585000	21.63509000
43.49999759	0.00000000	78.13115000	25.86122000
43.69999758	0.00000000	78.96776000	31.99434000
43.89999757	0.00000000	79.06004000	38.50270000
44.09999756	0.00000000	79.01697000	43.14714000
44.29999755	0.00000000	78.64173000	45.14640000
44.49999753	0.00000000	77.89738000	44.82037000
44.69999752	0.00000000	77.52214000	42.49508000
44.89999751	0.00000000	77.47908000	39.00713000
45.09999750	0.00000000	77.43602000	34.78100000
45.29999749	0.00000000	77.01156000	30.97318000
45.49999748	0.00000000	75.80585000	29.01698000
45.69999746	0.00000000	73.84965000	28.93085000
45.89999745	0.00000000	71.11221000	30.08735000
46.09999744	-0.15871060	68.07948000	31.99434000
46.29999743	0.00000000	65.80339000	34.36269000
46.49999742	0.00000000	65.47121000	36.64493000
46.69999740	0.00000000	67.42741000	38.58883000
46.89999739	0.00000000	71.75196000	39.33932000
47.09999738	0.00000000	77.89738000	39.00713000
47.29999737	0.00000000	84.41190000	37.80142000
47.49999736	0.00000000	89.06249000	35.89444000
47.69999734	0.00000000	91.01869000	33.57529000
47.89999733	0.00000000	90.13287000	31.62524000
48.09999732	0.00000000	85.43307000	30.08735000
48.29999731	0.00000000	77.38681000	29.34916000
48.49999730	0.00000000	68.50394000	30.13656000
48.69999729	0.00000000	60.82062000	32.08661000
48.89999727	0.00000000	56.21924000	35.15625000
49.09999726	0.00000000	56.63139000	38.58883000
49.29999725	0.00000000	61.61417000	40.92027000
49.49999724	0.00000000	70.12794000	42.11983000
49.69999723	0.00000000	80.13041000	42.07677000
49.89999721	0.00000000	88.97022000	40.50196000
50.09999720	0.00000000	94.36515000	37.38312000
50.29999719	0.00000000	94.78961000	33.20005000
50.49999718	0.00000000	90.55118000	29.39222000
50.69999717	0.00000000	82.83096000	27.43602000
50.89999715	0.00000000	73.19759000	27.39296000
51.09999714	-0.15871060	64.40083000	28.97392000
51.29999713	0.00000000	58.95669000	32.08661000
51.49999712	0.00000000	58.16314000	36.31274000
51.69999711	0.00000000	61.61417000	40.54502000
51.89999710	0.00000000	68.59006000	43.61467000
52.09999708	0.00000000	77.38681000	44.77116000
52.29999707	0.00000000	85.43307000	43.65773000
52.49999706	-0.15871060	90.04675000	40.96333000
52.69999705	0.00000000	90.13287000	37.47539000
52.89999704	0.00000000	86.27583000	33.62450000
53.09999702	0.00000000	79.75516000	30.55487000
53.29999701	-0.15871060	72.08414000	29.01698000
53.49999700	0.00000000	65.93873000	29.34916000
53.69999699	0.00000000	62.81988000	31.25000000
53.89999698	0.00000000	63.23819000	33.57529000
54.09999696	0.00000000	67.42741000	36.31274000
54.29999695	0.00000000	73.94193000	38.92101000
54.49999694	0.00000000	80.46259000	40.08366000
54.69999693	0.00000000	85.48228000	39.38238000
54.89999692	0.00000000	87.38926000	37.89370000
55.09999691	0.00000000	85.90058000	36.31274000
55.29999689	0.00000000	81.66830000	34.82406000
55.49999688	0.00000000	75.89813000	34.08588000
55.69999687	0.00000000	70.17101000	34.82406000
55.89999686	0.00000000	66.30782000	36.31274000
56.09999685	0.00000000	65.51427000	37.85064000
56.29999683	0.00000000	67.38435000	39.00713000
56.49999682	0.00000000	71.29060000	39.33932000
56.69999681	0.00000000	76.27337000	38.54576000
56.89999680	0.00000000	81.24999000	36.22662000
57.09999679	0.00000000	84.31963000	33.20005000
57.29999677	0.00000000	84.78715000	30.51181000
57.49999676	0.00000000	83.24926000	28.97392000
57.69999675	0.00000000	80.17347000	29.01698000
57.89999674	0.00000000	76.31644000	31.01624000
58.09999673	0.00000000	72.87155000	35.24852000
58.29999672	0.00000000	70.50320000	40.58809000
58.49999670	0.00000000	69.75270000	45.14640000
58.69999669	0.00000000	70.46014000	47.46555000
58.89999668	0.00000000	72.40403000	46.67815000
59.09999667	0.00000000	74.73548000	43.19020000
59.29999666	0.00000000	77.43602000	37.43233000
59.49999664	0.00000000	79.66904000	30.88090000
59.69999663	0.00000000	80.08734000	25.48597000
59.89999662	0.00000000	79.01697000	22.05339000
60.09999661	0.00000000	77.47908000	22.09646000
60.29999660	0.00000000	75.89813000	25.90428000
60.49999658	0.00000000	74.40945000	32.04355000
60.69999657	0.00000000	73.62204000	39.00713000
60.89999656	0.00000000	73.98499000	45.19562000
61.09999655	0.00000000	74.69241000	49.37254000
61.29999654	0.00000000	75.52288000	50.11687000
61.49999653	0.00000000	76.27337000	46.67815000
61.69999651	0.00000000	77.01156000	40.54502000
61.89999650	0.00000000	77.01156000	33.15699000
62.09999649	0.00000000	76.27337000	25.86122000
62.29999648	0.00000000	75.47981000	20.52165000
62.49999647	0.00000000	74.31717000	18.94070000
62.69999645	0.00000000	73.24680000	21.21678000
62.89999644	0.00000000	73.20374000	26.27953000
63.09999643	0.00000000	73.94193000	33.62450000
63.29999642	0.00000000	74.73548000	41.61540000
63.49999641	0.00000000	75.94118000	47.42249000
63.69999639	0.00000000	77.43602000	49.79700000
63.89999638	0.00000000	78.54945000	49.04650000
64.09999637	0.00000000	78.59251000	45.19562000
64.29999636	0.00000000	77.85432000	39.43159000
64.49999635	0.00000000	77.06077000	33.20005000
64.69999634	0.00000000	75.85506000	27.43602000
64.89999632	0.00000000	74.36023000	23.58514000
65.09999631	0.00000000	73.24680000	22.74852000
65.29999630	0.00000000	73.24680000	24.23720000
65.49999629	0.00000000	74.31717000	27.34990000
65.69999628	0.00000000	75.47981000	31.61909000
65.89999626	0.00000000	76.27337000	36.26968000
66.09999625	0.00000000	77.01156000	40.54502000
66.29999624	0.00000000	76.96850000	43.65773000
66.49999623	0.00000000	75.89813000	45.23868000
66.69999622	0.00000000	74.73548000	45.23868000
66.89999620	0.00000000	73.94193000	43.70079000
67.09999619	0.00000000	73.20374000	41.00639000
67.29999618	0.00000000	73.28986000	37.89370000
67.49999617	0.00000000	74.78469000	34.73794000
67.69999616	0.00000000	77.10384000	31.62524000
67.89999615	0.00000000	79.39222000	28.93085000
68.09999613	0.00000000	81.33611000	27.39296000
68.29999612	0.00000000	82.04355000	27.34990000
68.49999611	0.00000000	81.29305000	28.55561000
68.69999610	0.00000000	78.92471000	30.88090000
68.89999609	0.00000000	75.47981000	34.40575000
69.09999607	0.00000000	71.62278000	38.31200000
69.29999606	0.00000000	68.54699000	42.53814000
69.49999605	0.00000000	67.00910000	45.97687000
69.69999604	0.00000000	67.42741000	47.14566000
69.89999603	0.00000000	70.17101000	46.39517000
70.09999601	0.00000000	74.78469000	43.61467000
70.29999600	0.00000000	80.17347000	39.00713000
70.49999599	0.00000000	84.78715000	33.62450000
70.69999598	0.00000000	87.48154000	28.97392000
70.89999597	0.00000000	87.48154000	25.86122000
71.09999596	0.00000000	84.78715000	24.74778000
71.29999594	0.00000000	80.17347000	26.27953000
71.49999593	0.00000000	74.73548000	30.09350000
71.69999592	0.00000000	69.70964000	34.73794000
71.89999591	0.00000000	65.80339000	39.38238000
72.09999590	0.00000000	63.93332000	43.23941000
72.29999588	0.00000000	64.72686000	45.14640000
72.49999587	0.00000000	68.59006000	44.82037000
72.69999586	0.00000000	74.31717000	42.49508000
72.89999585	0.00000000	80.13041000	39.09941000
73.09999584	0.00000000	84.78715000	35.61762000
73.29999582	0.00000000	87.48154000	33.29232000
73.49999581	0.00000000	87.48154000	32.08661000
73.69999580	0.00000000	84.83022000	32.08661000
73.89999579	0.00000000	80.59792000	33.20005000
74.09999578	0.00000000	75.94118000	34.68873000
74.29999577	0.00000000	71.66584000	35.85138000
74.49999575	0.00000000	68.59006000	36.22047000
74.69999574	0.00000000	67.38435000	35.85138000
74.89999573	0.00000000	68.17175000	34.73794000
75.09999572	0.00000000	70.46014000	33.62450000
75.29999571	0.00000000	73.94193000	33.24926000
75.49999569	0.00000000	77.38681000	33.66756000
75.69999568	0.00000000	80.08734000	35.19931000
75.89999567	0.00000000	81.29305000	37.51845000
76.09999566	0.00000000	80.92397000	39.80069000
76.29999565	0.00000000	79.80437000	41.70152000
76.49999563	0.00000000	77.89738000	42.03371000
76.69999562	0.00000000	76.40871000	40.50196000
76.89999561	0.00000000	75.89813000	37.43233000
77.09999560	0.00000000	75.52288000	33.57529000
77.29999559	0.00000000	75.15379000	30.04429000
77.49999558	0.00000000	75.52288000	26.97465000
77.69999556	0.00000000	75.85506000	25.12303000
77.89999555	0.00000000	75.85506000	25.90428000
78.09999554	0.00000000	75.43060000	28.97392000
78.29999553	0.00000000	74.31717000	33.62450000
78.49999552	0.00000000	73.20374000	38.96407000
78.69999550	0.00000000	72.87155000	43.19635000
78.89999549	0.00000000	73.62204000	45.19562000
79.09999548	0.00000000	75.56593000	45.19562000
79.29999547	0.00000000	77.85432000	43.23941000
79.49999546	0.00000000	80.17347000	39.38238000
79.69999544	0.00000000	81.66830000	34.78100000
79.89999543	0.00000000	81.66830000	30.51181000
80.09999542	0.00000000	80.13041000	27.39296000
80.29999541	0.00000000	77.47908000	25.86122000
80.49999540	0.00000000	74.73548000	26.23647000
80.69999539	0.00000000	72.40403000	28.51255000
80.89999537	0.00000000	70.50320000	31.57603000
81.09999536	0.00000000	70.12794000	34.73794000
81.29999535	0.00000000	71.24754000	37.85064000
81.49999534	0.00000000	73.20374000	40.54502000
81.69999533	0.00000000	75.94118000	42.11983000
81.89999531	0.00000000	78.96776000	42.53814000
82.09999530	0.00000000	81.24999000	42.16904000
82.29999529	0.00000000	81.66830000	40.96333000
82.49999528	0.00000000	80.59792000	39.00713000
82.69999527	0.00000000	79.01697000	36.26968000
82.89999525	0.00000000	77.06077000	33.20005000
83.09999524	0.00000000	74.78469000	30.51181000
83.29999523	0.00000000	73.24680000	28.93085000
83.49999522	0.00000000	72.82849000	28.51255000
83.69999521	0.00000000	73.20374000	28.97392000
83.89999520	0.00000000	74.36023000	30.93012000
84.09999518	0.00000000	75.85506000	34.40575000
84.29999517	0.00000000	77.01156000	38.22588000
84.49999516	0.00000000	77.43602000	41.75073000
84.69999515	0.00000000	77.47908000	44.07603000
84.89999514	0.00000000	77.47908000	45.23868000
85.09999512	0.00000000	77.47908000	44.77116000
85.29999511	0.00000000	77.43602000	42.07677000
85.49999510	0.00000000	77.10384000	37.85064000
85.69999509	0.00000000	76.73474000	33.24926000
85.89999508	0.00000000	77.10384000	29.34916000
86.09999506	0.00000000	77.38681000	27.06693000
86.29999505	0.00000000	77.06077000	26.65477000
86.49999504	0.00000000	76.27337000	28.64173000
86.69999503	0.00000000	75.52288000	32.46186000
86.89999502	0.00000000	74.73548000	37.47539000
87.09999501	0.00000000	74.36023000	42.07677000
87.29999499	0.00000000	74.36023000	45.14640000
87.49999498	0.00000000	74.78469000	45.93381000
87.69999497	0.00000000	75.94118000	44.03297000
87.89999496	0.00000000	77.43602000	40.58809000
88.09999495	0.00000000	78.59251000	36.31274000
88.29999493	0.00000000	79.01697000	32.04355000
88.49999492	0.00000000	79.01697000	28.59867000
88.69999491	0.00000000	78.59251000	26.69783000
88.89999490	0.00000000	77.43602000	27.48524000
89.09999489	0.00000000	75.94118000	30.55487000
89.29999487	0.00000000	74.78469000	35.15625000
89.49999486	0.00000000	74.36023000	40.12672000
89.69999485	0.00000000	74.31717000	43.57160000
89.89999484	0.00000000	74.36023000	44.77116000
90.09999483	0.00000000	74.78469000	43.61467000
90.29999482	0.00000000	75.89813000	40.50196000
90.49999480	0.00000000	77.01156000	35.89444000
90.69999479	0.00000000	77.43602000	30.93012000
90.89999478	0.00000000	77.47908000	27.48524000
91.09999477	0.00000000	77.47908000	26.27953000
91.29999476	0.00000000	77.43602000	27.48524000
91.49999474	0.00000000	77.10384000	30.93012000
91.69999473	0.00000000	76.73474000	35.89444000
91.89999472	0.00000000	77.10384000	40.50196000
92.09999471	0.00000000	77.43602000	43.61467000
92.29999470	0.00000000	77.47908000	44.72810000
92.49999468	0.00000000	77.43602000	43.14714000
92.69999467	0.00000000	77.01156000	38.96407000
92.89999466	0.00000000	75.85506000	33.66756000
93.09999465	0.00000000	74.36023000	29.39222000
93.29999464	0.00000000	73.20374000	27.06693000
93.49999463	0.00000000	72.82849000	26.65477000
93.69999461	0.00000000	73.20374000	28.59867000
93.89999460	0.00000000	74.40945000	32.04355000
94.09999459	0.00000000	76.31644000	36.26968000
94.29999458	0.00000000	78.64173000	40.07751000
94.49999457	0.00000000	80.54871000	42.03371000
94.69999455	0.00000000	81.71136000	42.03371000
94.89999454	0.00000000	81.71136000	40.12672000
95.09999453	0.00000000	80.54871000	36.68799000
95.29999452	0.00000000	78.54945000	33.24926000
95.49999451	0.00000000	75.47981000	30.51181000
95.69999449	0.00000000	72.04109000	29.01698000
95.89999448	0.00000000	69.75270000	29.39222000
96.09999447	0.00000000	68.92224000	31.66830000
96.29999446	0.00000000	69.75270000	34.73794000
96.49999445	0.00000000	72.04109000	37.85064000
96.69999444	0.00000000	75.56593000	40.50196000
96.89999442	0.00000000	79.39222000	41.65846000
97.09999441	0.00000000	82.87401000	40.92027000
97.29999440	0.00000000	84.78715000	39.05635000
97.49999439	0.00000000	84.83022000	36.73105000
97.69999438	0.00000000	83.29231000	34.82406000
97.89999436	0.00000000	80.54871000	33.62450000
98.09999435	0.00000000	77.06077000	33.20005000
98.29999434	0.00000000	73.20374000	33.20005000
98.49999433	0.00000000	70.12794000	33.62450000
98.69999432	0.00000000	68.54699000	34.78100000
98.89999430	0.00000000	68.54699000	36.26968000
99.09999429	0.00000000	70.12794000	37.38312000
99.29999428	0.00000000	73.20374000	37.47539000
99.49999427	0.00000000	77.06077000	37.14936000
99.69999426	0.00000000	80.54871000	37.51845000
99.89999425	0.00000000	83.29231000	37.85064000
100.09999423	0.00000000	84.78715000	37.89370000
100.29999422	0.00000000	84.45496000	37.89370000
100.49999421	0.00000000	82.50491000	37.89370000
100.69999420	0.00000000	79.80437000	37.85064000
100.89999419	0.00000000	76.31644000	37.42618000
101.09999417	0.00000000	73.28986000	36.22662000
101.29999416	0.00000000	71.66584000	34.36269000
101.49999415	0.00000000	71.24754000	32.46186000
101.69999414	0.00000000	71.62278000	31.71137000
101.89999413	0.00000000	72.82849000	32.08661000
102.09999411	0.00000000	74.73548000	33.66756000
102.29999410	0.00000000	77.06077000	36.31274000
102.49999409	0.00000000	79.01697000	39.00713000
102.69999408	0.00000000	80.59792000	40.96333000
102.89999407	0.00000000	81.71136000	42.11983000
103.09999406	0.00000000	81.71136000	42.07677000
103.29999404	0.00000000	80.54871000	40.54502000
103.49999403	0.00000000	78.64173000	37.85064000
103.69999402	0.00000000	76.31644000	34.78100000
103.89999401	0.00000000	74.40945000	32.04355000
104.09999400	0.00000000	73.20374000	30.13656000
104.29999398	0.00000000	72.82849000	29.39222000
104.49999397	0.00000000	73.20374000	30.55487000
104.69999396	0.00000000	74.36023000	33.20005000
104.89999395	0.00000000	75.89813000	36.26968000
105.09999394	0.00000000	77.43602000	38.96407000
105.29999392	0.00000000	78.59251000	40.54502000
105.49999391	0.00000000	79.01697000	40.92027000
105.69999390	0.00000000	79.01697000	40.16978000
105.89999389	0.00000000	78.59251000	38.22588000
106.09999388	0.00000000	77.43602000	35.93750000
106.29999387	0.00000000	75.94118000	33.61835000
106.49999385	0.00000000	74.78469000	32.08661000
106.69999384	0.00000000	74.40945000	31.66830000
106.89999383	0.00000000	74.78469000	32.08661000
107.09999382	0.00000000	75.89813000	33.61835000
107.29999381	0.00000000	77.06077000	35.89444000
107.49999379	0.00000000	77.85432000	37.75836000
107.69999378	0.00000000	78.59251000	38.58883000
107.89999377	0.00000000	78.54945000	38.17667000
108.09999376	0.00000000	77.47908000	37.05708000
108.29999375	0.00000000	76.31644000	35.11319000
108.49999374	0.00000000	75.47981000	33.24926000
108.69999372	0.00000000	74.36023000	32.04355000
108.89999371	0.00000000	73.62204000	31.66830000
109.09999370	0.00000000	73.98499000	32.04355000
109.29999369	0.00000000	74.73548000	33.20005000
109.49999368	0.00000000	75.89813000	34.73794000
109.69999366	0.00000000	77.06077000	36.31274000
109.89999365	0.00000000	77.85432000	37.80142000
110.09999364	0.00000000	78.59251000	38.58883000
110.29999363	0.00000000	78.59251000	38.22588000
110.49999362	0.00000000	77.85432000	37.47539000
110.69999360	0.00000000	77.06077000	36.26968000
110.89999359	0.00000000	75.89813000	34.78100000
111.09999358	0.00000000	74.78469000	33.62450000
111.29999357	0.00000000	74.36023000	33.20005000
111.49999356	0.00000000	74.36023000	33.20005000
111.69999355	0.00000000	74.73548000	33.62450000
111.89999353	0.00000000	75.52288000	34.73794000
112.09999352	0.00000000	76.27337000	35.89444000
112.29999351	0.00000000	77.06077000	36.68799000
112.49999350	-0.15871060	77.43602000	37.47539000
112.69999349	0.00000000	77.47908000	37.85064000
112.89999347	0.00000000	77.47908000	37.89370000
113.09999346	0.00000000	77.47908000	37.85064000
113.29999345	0.00000000	77.47908000	37.47539000
113.49999344	0.00000000	77.47908000	36.73105000
113.69999343	0.00000000	77.47908000	36.35580000
113.89999341	0.00000000	77.43602000	36.26968000
114.09999340	0.00000000	77.06077000	35.89444000
114.29999339	0.00000000	76.31644000	35.15625000
114.49999338	0.00000000	75.94118000	34.78100000
114.69999337	0.00000000	75.89813000	34.73794000
114.89999336	0.00000000	75.94118000	34.73794000
115.09999334	0.00000000	76.31644000	34.73794000
115.29999333	0.00000000	77.06077000	34.78100000
115.49999332	0.00000000	77.43602000	35.15625000
115.69999331	0.00000000	77.47908000	35.93750000
115.89999330	0.00000000	77.47908000	36.68799000
116.09999328	0.00000000	77.43602000	37.51845000
116.29999327	0.00000000	77.06077000	38.22588000
116.49999326	0.00000000	76.31644000	38.63804000
116.69999325	0.00000000	75.94118000	38.22588000
116.89999324	0.00000000	75.89813000	37.51845000
117.09999322	0.00000000	75.94118000	36.68799000
117.29999321	0.00000000	76.36565000	35.93750000
117.49999320	0.00000000	77.47908000	35.11319000
117.69999319	0.00000000	78.59251000	34.40575000
117.89999318	0.00000000	79.01697000	33.99360000
118.09999317	0.00000000	79.01697000	34.40575000
118.29999315	0.00000000	78.64173000	35.11319000
118.49999314	0.00000000	77.85432000	35.93750000
118.69999313	0.00000000	77.10384000	36.68799000
118.89999312	0.00000000	76.27337000	37.47539000
119.09999311	0.00000000	75.52288000	37.85064000
119.29999309	0.00000000	74.78469000	37.89370000
119.49999308	0.00000000	74.78469000	37.85064000
119.69999307	0.00000000	75.52288000	37.47539000
119.89999306	0.00000000	76.31644000	36.73105000
120.09999305	0.00000000	77.52214000	36.35580000
120.29999303	0.00000000	79.01697000	36.26968000
120.49999302	0.00000000	80.17347000	35.89444000
120.69999301	0.00000000	80.54871000	35.15625000
120.89999300	0.00000000	80.17347000	34.78100000
121.09999299	0.00000000	79.01697000	34.73794000
121.29999298	0.00000000	77.47908000	34.73794000
121.49999296	0.00000000	75.94118000	34.73794000
121.69999295	0.00000000	74.78469000	34.73794000
121.89999294	0.00000000	74.36023000	34.78100000
122.09999293	0.00000000	74.31717000	35.15625000
122.29999292	0.00000000	74.36023000	35.89444000
122.49999290	0.00000000	74.78469000	36.26968000
122.69999289	0.00000000	75.89813000	36.31274000
122.89999288	0.00000000	77.06077000	36.31274000
123.09999287	0.00000000	77.85432000	36.31274000
123.29999286	0.00000000	78.64173000	36.26968000
123.49999284	0.00000000	79.01697000	35.89444000
123.69999283	0.00000000	79.01697000	35.15625000
123.89999282	0.00000000	78.64173000	34.78100000
124.09999281	0.00000000	77.85432000	34.69488000
124.29999280	0.00000000	77.10384000	34.31963000
124.49999279	0.00000000	76.27337000	33.62450000
124.69999277	0.00000000	75.52288000	33.62450000
124.89999276	0.00000000	74.73548000	34.36269000
125.09999275	0.00000000	74.36023000	35.11319000
125.29999274	0.00000000	74.36023000	35.89444000
125.49999273	0.00000000	74.78469000	36.26968000
125.69999271	0.00000000	75.89813000	36.31274000
125.89999270	0.00000000	77.06077000	36.31274000
126.09999269	0.00000000	77.85432000	36.31274000
126.29999268	0.00000000	78.64173000	36.31274000
126.49999267	0.00000000	79.01697000	36.26968000
126.69999265	0.00000000	79.01697000	35.89444000
126.89999264	0.00000000	78.59251000	35.15625000
127.09999263	0.00000000	77.47908000	34.78100000
127.29999262	-0.15871060	76.31644000	34.73794000
127.49999261	0.00000000	75.52288000	34.73794000
127.69999260	0.00000000	74.73548000	34.78100000
127.89999258	0.00000000	74.40945000	35.15625000
128.09999257	0.00000000	74.78469000	35.89444000
128.29999256	0.00000000	75.94118000	36.26968000
128.49999255	0.00000000	77.43602000	36.31274000
128.69999254	0.00000000	78.64173000	36.31274000
128.89999252	0.00000000	79.39222000	36.31274000
129.09999251	0.00000000	79.80437000	36.31274000
129.29999250	0.00000000	79.39222000	36.26968000
129.49999249	0.00000000	78.64173000	35.93750000
129.69999248	0.00000000	77.47908000	35.57455000
129.89999246	0.00000000	76.31644000	35.93750000
130.09999245	0.00000000	75.56593000	36.26968000
130.29999244	0.00000000	75.15379000	36.31274000
130.49999243	0.00000000	75.56593000	36.35580000
130.69999242	0.00000000	76.27337000	36.68799000
130.89999241	0.00000000	77.10384000	37.05708000
131.09999239	0.00000000	77.85432000	36.68799000
131.29999238	0.00000000	78.64173000	36.35580000
131.49999237	0.00000000	79.01697000	36.31274000
131.69999236	0.00000000	79.01697000	36.26968000
131.89999235	0.00000000	78.64173000	35.89444000
132.09999233	0.00000000	77.85432000	35.15625000
132.29999232	0.00000000	77.14690000	34.83022000
132.49999231	0.00000000	76.69167000	35.15625000
132.69999230	0.00000000	76.72858000	35.89444000
132.89999229	0.00000000	76.69167000	36.31274000
133.09999227	0.00000000	77.10384000	36.73105000
133.29999226	0.00000000	77.43602000	37.47539000
133.49999225	0.00000000	77.47908000	37.85064000
133.69999224	0.00000000	77.47908000	37.85064000
133.89999223	0.00000000	77.47908000	37.47539000
134.09999222	0.00000000	77.47908000	36.68799000
134.29999220	0.00000000	77.47908000	35.93750000
134.49999219	0.00000000	77.47908000	35.15625000
134.69999218	0.00000000	77.47908000	34.78100000
134.89999217	0.00000000	77.47908000	34.73794000
135.09999216	0.00000000	77.47908000	34.73794000
135.29999214	0.00000000	77.47908000	34.73794000
135.49999213	0.00000000	77.47908000	34.78100000
135.69999212	0.00000000	77.43602000	35.15625000
135.89999211	0.00000000	77.06077000	35.89444000
136.09999210	0.00000000	76.31644000	36.26968000
136.29999208	0.00000000	75.94118000	36.31274000
136.49999207	0.00000000	75.89813000	36.31274000
136.69999206	0.00000000	75.89813000	36.31274000
136.89999205	0.00000000	75.94118000	36.31274000
137.09999204	0.00000000	76.36565000	36.26968000
137.29999203	0.00000000	77.47908000	35.89444000
137.49999201	0.00000000	78.59251000	35.11319000
137.69999200	0.00000000	78.96776000	34.36269000
137.89999199	0.00000000	78.64173000	33.57529000
138.09999198	0.00000000	77.89738000	33.24926000
138.29999197	0.00000000	77.47908000	33.57529000
138.49999195	0.00000000	77.06077000	34.31963000
138.69999194	0.00000000	76.31644000	34.73794000
138.89999193	0.00000000	75.94118000	35.15625000
139.09999192	0.00000000	75.89813000	35.89444000
139.29999191	0.00000000	75.94118000	36.26968000
139.49999189	0.00000000	76.31644000	36.31274000
139.69999188	0.00000000	77.06077000	36.31274000
139.89999187	0.00000000	77.43602000	36.26968000
140.09999186	0.00000000	77.52214000	35.89444000
140.29999185	0.00000000	77.85432000	35.15625000
140.49999184	0.00000000	78.22342000	34.73794000
140.69999182	0.00000000	77.85432000	34.36269000
140.89999181	0.00000000	77.52214000	33.99360000
141.09999180	0.00000000	77.43602000	34.36269000
141.29999179	0.00000000	77.10384000	34.73794000
141.49999178	0.00000000	76.73474000	35.15625000
141.69999176	0.00000000	77.10384000	35.93750000
141.89999175	0.00000000	77.43602000	36.68799000
142.09999174	0.00000000	77.47908000	37.47539000
142.29999173	0.00000000	77.47908000	37.80142000
142.49999172	0.00000000	77.47908000	37.47539000
142.69999170	0.00000000	77.47908000	36.68799000
142.89999169	0.00000000	77.47908000	35.93750000
143.09999168	0.00000000	77.47908000	35.15625000
143.29999167	0.00000000	77.43602000	34.78100000
143.49999166	0.00000000	77.10384000	34.73794000
143.69999165	0.00000000	76.73474000	34.73794000
143.89999163	0.00000000	77.10384000	34.78100000
144.09999162	0.00000000	77.43602000	35.15625000
144.29999161	0.00000000	77.47908000	35.89444000
144.49999160	0.00000000	77.47908000	36.31274000
144.69999159	0.00000000	77.47908000	36.73105000
144.89999157	0.00000000	77.47908000	37.47539000
145.09999156	0.00000000	77.47908000	37.80142000
145.29999155	0.00000000	77.47908000	37.47539000
145.49999154	0.00000000	77.47908000	36.68799000
145.69999153	0.00000000	77.47908000	35.93750000
145.89999151	0.00000000	77.47908000	35.15625000
146.09999150	0.00000000	77.43602000	34.78100000
146.29999149	0.00000000	77.10384000	34.78100000
146.49999148	0.00000000	76.73474000	35.11319000
146.69999147	0.00000000	77.14690000	35.51919000
146.89999146	0.00000000	77.85432000	35.53149000
147.09999144	0.00000000	78.59251000	35.98671000
147.29999143	0.00000000	78.64173000	36.68799000
147.49999142	0.00000000	78.27264000	37.47539000
147.69999141	0.00000000	78.26648000	37.85064000
147.89999140	0.00000000	77.85432000	37.85064000
148.09999138	0.00000000	77.52214000	37.47539000
148.29999137	0.00000000	77.47908000	36.73105000
148.49999136	0.00000000	77.47908000	36.35580000
148.69999135	0.00000000	77.47908000	36.26968000
148.89999134	0.00000000	77.47908000	35.89444000
149.09999132	0.00000000	77.47908000	35.15625000
149.29999131	-0.15871060	77.47908000	34.83022000
149.49999130	0.00000000	77.52214000	35.15625000
149.69999129	0.00000000	77.89738000	35.89444000
149.89999128	0.00000000	78.59251000	36.26968000
150.09999127	0.00000000	78.59251000	36.31274000
150.29999125	0.00000000	77.89738000	36.31274000
150.49999124	0.00000000	77.52214000	36.31274000
150.69999123	0.00000000	77.47908000	36.31274000
150.89999122	0.00000000	77.43602000	36.31274000
151.09999121	0.00000000	77.10384000	36.31274000
151.29999119	0.00000000	76.73474000	36.26968000
151.49999118	0.00000000	77.10384000	35.93750000
151.69999117	0.00000000	77.43602000	35.53149000
151.89999116	0.00000000	77.47908000	35.51919000
152.09999115	0.00000000	77.47908000	35.11319000
152.29999113	0.00000000	77.47908000	34.78100000
152.49999112	0.00000000	77.47908000	34.78100000
152.69999111	0.00000000	77.47908000	35.15625000
152.89999110	0.00000000	77.47908000	35.89444000
153.09999109	0.00000000	77.47908000	36.26968000
153.29999108	0.00000000	77.47908000	36.31274000
153.49999106	0.00000000	77.43602000	36.31274000
153.69999105	0.00000000	77.06077000	36.31274000
153.89999104	0.00000000	76.31644000	36.31274000
154.09999103	0.00000000	75.94118000	36.31274000
154.29999102	0.00000000	75.94118000	36.26968000
154.49999100	0.00000000	76.31644000	35.89444000
154.69999099	0.00000000	77.06077000	35.15625000
154.89999098	0.00000000	77.43602000	34.78100000
155.09999097	0.00000000	77.52214000	34.73794000
155.29999096	0.00000000	77.89738000	34.73794000
155.49999094	0.00000000	78.59251000	34.73794000
155.69999093	0.00000000	78.59251000	34.73794000
155.89999092	0.00000000	77.89738000	34.78100000
156.09999091	0.00000000	77.52214000	35.15625000
156.29999090	0.00000000	77.43602000	35.89444000
156.49999089	0.00000000	77.06077000	36.26968000
156.69999087	0.00000000	76.31644000	36.31274000
156.89999086	0.00000000	75.94118000	36.31274000
157.09999085	0.00000000	75.89813000	36.31274000
157.29999084	0.00000000	75.94118000	36.26968000
157.49999083	0.00000000	76.31644000	35.89444000
157.69999081	0.00000000	77.06077000	35.15625000
157.89999080	0.00000000	77.43602000	34.78100000
158.09999079	0.00000000	77.47908000	34.73794000
158.29999078	0.00000000	77.47908000	34.73794000
158.49999077	0.00000000	77.47908000	34.78100000
158.69999075	0.00000000	77.47908000	35.15625000
158.89999074	0.00000000	77.47908000	35.89444000
159.09999073	0.00000000	77.47908000	36.31274000
159.29999072	0.00000000	77.47908000	36.68799000
159.49999071	0.00000000	77.47908000	37.10014000
159.69999070	0.00000000	77.47908000	37.06324000
159.89999068	0.00000000	77.47908000	37.14321000
160.09999067	0.00000000	77.47908000	37.06324000
160.29999066	0.00000000	77.47908000	37.10014000
160.49999065	0.00000000	77.47908000	36.68799000
160.69999064	0.00000000	77.47908000	36.35580000
160.89999062	0.00000000	77.47908000	36.31274000
161.09999061	0.00000000	77.47908000	36.31274000
161.29999060	0.00000000	77.47908000	36.31274000
161.49999059	0.00000000	77.52214000	36.31274000
161.69999058	0.00000000	77.89738000	36.31274000
161.89999056	0.00000000	78.64173000	36.31274000
162.09999055	0.00000000	78.96776000	36.31274000
162.29999054	0.00000000	78.64173000	36.35580000
162.49999053	0.00000000	77.89738000	36.68799000
162.69999052	0.00000000	77.52214000	37.05708000
162.89999051	0.00000000	77.47908000	36.68799000
163.09999049	0.00000000	77.47908000	36.40502000
163.29999048	0.00000000	77.47908000	36.68799000
163.49999047	0.00000000	77.47908000	37.05708000
163.69999046	0.00000000	77.47908000	36.68799000
163.89999045	0.00000000	77.47908000	36.35580000
164.09999043	0.00000000	77.52214000	36.26968000
164.29999042	0.00000000	77.89738000	35.93750000
164.49999041	0.00000000	78.64173000	35.57455000
164.69999040	0.00000000	79.01697000	35.93750000
164.89999039	0.00000000	79.06004000	36.26968000
165.09999037	0.00000000	79.06004000	36.31274000
165.29999036	0.00000000	79.01697000	36.31274000
165.49999035	0.00000000	78.64173000	36.31274000
165.69999034	0.00000000	77.89738000	36.31274000
165.89999033	0.00000000	77.52214000	36.31274000
166.09999032	0.00000000	77.47908000	36.31274000
166.29999030	0.00000000	77.47908000	36.31274000
166.49999029	0.00000000	77.47908000	36.31274000
166.69999028	0.00000000	77.47908000	36.31274000
166.89999027	0.00000000	77.47908000	36.31274000
167.09999026	0.00000000	77.47908000	36.26968000
167.29999024	0.00000000	77.47908000	35.89444000
167.49999023	0.00000000	77.47908000	35.15625000
167.69999022	0.00000000	77.47908000	34.83022000
167.89999021	0.00000000	77.47908000	35.11319000
168.09999020	0.00000000	77.47908000	35.47613000
168.29999018	0.00000000	77.47908000	35.11319000
168.49999017	0.00000000	77.47908000	34.83022000
168.69999016	0.00000000	77.47908000	35.11319000
168.89999015	0.00000000	77.47908000	35.51919000
169.09999014	0.00000000	77.47908000	35.48228000
169.29999013	0.00000000	77.47908000	35.51919000
169.49999011	0.00000000	77.47908000	35.11319000
169.69999010	0.00000000	77.47908000	34.78100000
169.89999009	0.00000000	77.47908000	34.73794000
170.09999008	0.00000000	77.47908000	34.73794000
170.29999007	0.00000000	77.47908000	34.73794000
170.49999005	0.00000000	77.47908000	34.73794000
170.69999004	0.00000000	77.47908000	34.78100000
170.89999003	0.00000000	77.47908000	35.11319000
171.09999002	0.00000000	77.47908000	35.47613000
171.29999001	0.00000000	77.47908000	35.11319000
171.49998999	0.00000000	77.47908000	34.78100000
171.69998998	0.00000000	77.47908000	34.73794000
171.89998997	0.00000000	77.47908000	34.78100000
172.09998996	0.00000000	77.47908000	35.11319000
172.29998995	0.00000000	77.47908000	35.51919000
172.49998994	0.00000000	77.47908000	35.53149000
172.69998992	0.00000000	77.47908000	35.93750000
172.89998991	0.00000000	77.47908000	36.26968000
173.09998990	0.00000000	77.47908000	36.31274000
173.29998989	0.00000000	77.47908000	36.31274000
173.49998988	0.00000000	77.47908000	36.31274000
173.69998986	0.00000000	77.47908000	36.31274000
173.89998985	0.00000000	77.47908000	36.31274000
174.09998984	0.00000000	77.47908000	36.31274000
174.29998983	0.00000000	77.47908000	36.31274000
174.49998982	0.00000000	77.47908000	36.31274000
174.69998980	0.00000000	77.47908000	36.31274000
174.89998979	0.00000000	77.47908000	36.31274000
175.09998978	0.00000000	77.47908000	36.31274000
175.29998977	0.00000000	77.47908000	36.31274000
175.49998976	0.00000000	77.47908000	36.31274000
175.69998975	0.00000000	77.47908000	36.31274000
175.89998973	0.00000000	77.47908000	36.31274000
176.09998972	0.00000000	77.47908000	36.31274000
176.29998971	0.00000000	77.47908000	36.31274000
176.49998970	0.00000000	77.47908000	36.31274000
176.69998969	0.00000000	77.47908000	36.31274000
176.89998967	0.00000000	77.47908000	36.31274000
177.09998966	0.00000000	77.47908000	36.31274000
177.29998965	0.00000000	77.47908000	36.31274000
177.49998964	0.00000000	77.47908000	36.31274000
177.69998963	0.00000000	77.47908000	36.31274000
177.89998961	0.00000000	77.47908000	36.31274000
178.09998960	0.00000000	77.47908000	36.31274000
178.29998959	0.00000000	77.47908000	36.31274000
178.49998958	0.00000000	77.47908000	36.31274000
178.69998957	0.00000000	77.47908000	36.31274000
178.89998956	0.00000000	77.52214000	36.31274000
179.09998954	0.00000000	77.89738000	36.31274000
179.29998953	0.00000000	78.59251000	36.31274000
179.49998952	0.00000000	78.59251000	36.31274000
179.69998951	0.00000000	77.89738000	36.31274000
179.89998950	0.00000000	77.52214000	36.31274000
180.09998948	0.00000000	77.47908000	36.31274000
180.29998947	0.00000000	77.47908000	36.31274000
180.49998946	0.00000000	77.47908000	36.31274000
180.69998945	0.00000000	77.47908000	36.31274000
180.89998944	0.00000000	77.47908000	36.31274000
181.09998942	0.00000000	77.47908000	36.31274000
181.29998941	0.00000000	77.47908000	36.31274000
181.49998940	0.00000000	77.47908000	36.31274000
181.69998939	0.00000000	77.47908000	36.31274000
181.89998938	0.00000000	77.47908000	36.31274000
182.09998937	0.00000000	77.47908000	36.31274000
182.29998935	0.00000000	77.47908000	36.26968000
182.49998934	0.00000000	77.47908000	35.89444000
182.69998933	0.00000000	77.47908000	35.15625000
182.89998932	0.00000000	77.47908000	34.83022000
183.09998931	0.00000000	77.47908000	35.11319000
183.29998929	0.00000000	77.47908000	35.51919000
183.49998928	0.00000000	77.47908000	35.48228000
183.69998927	0.00000000	77.47908000	35.56840000
183.89998926	0.00000000	77.47908000	35.53149000
184.09998925	0.00000000	77.47908000	35.93750000
184.29998923	0.00000000	77.47908000	36.26968000
184.49998922	0.00000000	77.47908000	36.31274000
184.69998921	0.00000000	77.47908000	36.31274000
184.89998920	0.00000000	77.47908000	36.31274000
185.09998919	0.00000000	77.47908000	36.26968000
185.29998918	0.00000000	77.47908000	35.89444000
185.49998916	0.00000000	77.47908000	35.15625000
185.69998915	0.00000000	77.47908000	34.78100000
185.89998914	0.00000000	77.47908000	34.73794000
186.09998913	0.00000000	77.47908000	34.73794000
186.29998912	0.00000000	77.47908000	34.73794000
186.49998910	0.00000000	77.47908000	34.78100000
186.69998909	0.00000000	77.47908000	35.15625000
186.89998908	0.00000000	77.47908000	35.89444000
187.09998907	0.00000000	77.47908000	36.26968000
187.29998906	0.00000000	77.47908000	36.31274000
187.49998904	0.00000000	77.47908000	36.31274000
187.69998903	0.00000000	77.47908000	36.31274000
187.89998902	0.00000000	77.47908000	36.31274000
188.09998901	0.00000000	77.47908000	36.26968000
188.29998900	0.00000000	77.47908000	35.89444000
188.49998899	0.00000000	77.47908000	35.15625000
188.69998897	0.00000000	77.47908000	34.78100000
188.89998896	0.00000000	77.47908000	34.73794000
189.09998895	0.00000000	77.47908000	34.73794000
189.29998894	0.00000000	77.47908000	34.78100000
189.49998893	0.00000000	77.47908000	35.15625000
189.69998891	0.00000000	77.47908000	35.89444000
189.89998890	0.00000000	77.47908000	36.26968000
190.09998889	0.00000000	77.47908000	36.31274000
190.29998888	0.00000000	77.47908000	36.31274000
190.49998887	0.00000000	77.47908000	36.31274000
190.69998885	0.00000000	77.47908000	36.31274000
190.89998884	0.00000000	77.47908000	36.31274000
191.09998883	0.00000000	77.47908000	36.31274000
191.29998882	0.00000000	77.52214000	36.31274000
191.49998881	0.00000000	77.89738000	36.31274000
191.69998880	0.00000000	78.59251000	36.31274000
191.89998878	0.00000000	78.64173000	36.31274000
192.09998877	0.00000000	78.31569000	36.31274000
192.29998876	0.00000000	78.64173000	36.31274000
192.49998875	0.00000000	78.59251000	36.31274000
192.69998874	0.00000000	77.89738000	36.31274000
192.89998872	0.00000000	77.52214000	36.31274000
193.09998871	0.00000000	77.47908000	36.31274000
193.29998870	0.00000000	77.47908000	36.31274000
193.49998869	0.00000000	77.52214000	36.35580000
193.69998868	0.00000000	77.89738000	36.73105000
193.89998866	0.00000000	78.59251000	37.42618000
194.09998865	0.00000000	78.64173000	37.42618000
194.29998864	0.00000000	78.31569000	36.73105000
194.49998863	0.00000000	78.64173000	36.35580000
194.69998862	0.00000000	78.59251000	36.31274000
194.89998861	0.00000000	77.89738000	36.31274000
195.09998859	0.00000000	77.52214000	36.31274000
195.29998858	0.00000000	77.47908000	36.31274000
195.49998857	0.00000000	77.47908000	36.31274000
195.69998856	0.00000000	77.47908000	36.31274000
195.89998855	0.00000000	77.47908000	36.31274000
196.09998853	0.00000000	77.47908000	36.31274000
