Time	Channel A	Channel B	Channel C
(us)	(V)	(mV)	(mV)

-4.49999956	0.00000000	0.46751960	4.73671200
-4.29999957	0.00000000	1.16264800	4.73671200
-4.09999958	0.00000000	1.48868100	4.73671200
-3.89999959	0.00000000	1.20570900	4.73671200
-3.69999960	0.00000000	0.79355310	4.73671200
-3.49999962	0.00000000	0.83046260	4.77977300
-3.29999963	0.00000000	0.79355310	5.15501900
-3.09999964	0.00000000	1.16264800	5.85014700
-2.89999965	0.00000000	1.16264800	5.85014700
-2.69999966	0.00000000	0.83661410	5.15501900
-2.49999968	0.00000000	1.20570900	4.82898600
-2.29999969	0.00000000	1.53789400	5.15501900
-2.09999970	0.00000000	1.58095500	5.85014700
-1.89999971	0.00000000	1.58095500	5.85014700
-1.69999972	0.00000000	1.53789400	5.15501900
-1.49999973	0.00000000	1.20570900	4.82898600
-1.29999975	0.00000000	0.83661410	5.15501900
-1.09999976	0.00000000	1.16264800	5.89320800
-0.89999977	0.00000000	1.16264800	6.26845500
-0.69999978	0.00000000	0.83661410	6.26845500
-0.49999979	0.00000000	1.20570900	5.93626900
-0.29999981	0.31803640	1.53789400	5.53026500
-0.09999982	0.63668800	1.58095500	5.56717500
0.10000017	0.95533960	1.58095500	5.53026500
0.30000016	0.95533960	1.53789400	5.89320800
0.50000015	0.79601380	1.20570900	5.85014700
0.70000013	0.15871060	0.83661410	5.15501900
0.90000012	-0.79601380	1.20570900	4.77977300
1.10000011	-1.75196900	1.53789400	4.77977300
1.30000010	-2.54859700	1.58095500	5.15501900
1.50000009	-2.86724900	1.58095500	5.89320800
1.70000008	-2.22994600	1.58095500	6.26845500
1.90000006	-0.95533960	1.58095500	6.31151500
2.10000005	0.95533960	1.58095500	6.31151500
2.30000004	3.18590100	1.58095500	6.26845500
2.50000003	4.77854300	1.53789400	5.89320800
2.70000002	5.25652100	1.16264800	5.15501900
2.90000000	4.45989200	0.41830710	4.77977300
3.09999999	2.22994600	0.04306102	4.73671200
3.29999998	-0.95533960	0.04306102	4.73671200
3.49999997	-4.30056600	0.41830710	4.77977300
3.69999996	-7.00848900	1.16264800	5.15501900
3.89999994	-7.96444400	1.53789400	5.89320800
4.09999993	-7.16781500	1.58095500	6.26845500
4.29999992	-4.30056600	1.58095500	6.31151500
4.49999991	0.00000000	1.58095500	6.31151500
4.69999990	4.30056600	1.58095500	6.26845500
4.89999989	7.80511800	1.53789400	5.89320800
5.09999987	9.39837600	1.20570900	5.15501900
5.29999986	8.76107300	0.83661410	4.77977300
5.49999985	5.73449800	1.16264800	4.73671200
5.69999984	1.11466500	1.16264800	4.73671200
5.89999983	-3.50393700	0.83661410	4.77977300
6.09999981	-7.32714100	1.20570900	5.15501900
6.29999980	-9.39837600	1.53789400	5.89320800
6.49999979	-8.92039900	1.58095500	6.26845500
6.69999978	-6.37180100	1.62401600	6.31151500
6.89999977	-2.38927200	1.95620100	6.31151500
7.09999975	1.91129400	2.32529500	6.31151500
7.29999974	5.57517200	1.95620100	6.26845500
7.49999973	7.48646600	1.62401600	5.89320800
7.69999972	7.48646600	1.58095500	5.15501900
7.89999971	5.57517200	1.58095500	4.77977300
8.09999970	2.70792300	1.53789400	4.73671200
8.29999968	-0.63668800	1.16264800	4.73671200
8.49999967	-3.34522600	0.46751960	4.77977300
8.69999966	-4.93786900	0.46751960	5.15501900
8.89999965	-5.09719500	1.16264800	5.89320800
9.09999964	-4.14124000	1.53789400	6.26845500
9.29999962	-2.22994600	1.58095500	6.31151500
9.49999961	-0.31803640	1.58095500	6.31151500
9.69999960	1.43331700	1.58095500	6.31151500
9.89999959	2.22994600	1.53789400	6.26845500
10.09999958	2.54859700	1.20570900	5.89320800
10.29999956	2.07062000	0.83661410	5.15501900
10.49999955	1.27399100	1.20570900	4.77977300
10.69999954	0.31803640	1.53789400	4.77977300
10.89999953	-0.47736220	1.58095500	5.15501900
11.09999952	-0.79601380	1.53789400	5.89320800
11.29999951	-0.95533960	1.20570900	6.26845500
11.49999949	-0.95533960	0.83661410	6.31151500
11.69999948	-0.63668800	1.20570900	6.31151500
11.89999947	-0.31803640	1.53789400	6.26845500
12.09999946	-0.15871060	1.58095500	5.93626900
12.29999945	-0.15871060	1.58095500	5.53026500
12.49999943	0.00000000	1.58095500	5.51796200
12.69999942	0.00000000	1.58095500	5.15501900
12.89999941	0.00000000	1.58095500	5.19808000
13.09999940	0.00000000	1.58095500	5.89320800
13.29999939	0.00000000	1.58095500	6.21924200
13.49999937	0.00000000	1.58095500	5.89320800
13.69999936	0.00000000	1.58095500	5.15501900
13.89999935	-0.15871060	1.58095500	4.82898600
14.09999934	-0.15871060	1.58095500	5.11195900
14.29999933	-0.15871060	1.58095500	5.47490100
14.49999932	-0.15871060	1.53789400	5.11195900
14.69999930	0.00000000	1.20570900	4.82898600
14.89999929	0.00000000	0.83661410	5.11195900
15.09999928	0.00000000	1.16264800	5.51796200
15.29999927	0.00000000	1.16264800	5.48105300
15.49999926	0.00000000	0.79355310	5.51796200
15.69999924	0.00000000	0.78740150	5.11195900
15.89999923	0.00000000	0.37524600	4.82898600
16.09999922	0.00000000	0.04306102	5.15501900
16.29999921	-0.15871060	0.04306102	5.85014700
16.49999920	-0.15871060	0.41830710	5.85014700
16.69999919	-0.15871060	1.20570900	5.19808000
16.89999917	0.00000000	1.95620100	5.19808000
17.09999916	0.00000000	2.74360200	5.89320800
17.29999915	0.00000000	3.11884800	6.21924200
17.49999914	0.00000000	3.11884800	5.93626900
17.69999913	0.00000000	2.74360200	5.57332700
17.89999911	0.00000000	1.95620100	5.89320800
18.09999910	0.00000000	1.16264800	5.89320800
18.29999909	0.00000000	-0.04306102	5.53026500
18.49999908	0.00000000	-1.58095500	5.56717500
18.69999907	0.00000000	-3.11884800	5.53026500
18.89999905	0.00000000	-4.18922200	5.93626900
19.09999904	-0.15871060	-3.77091500	6.26845500
19.29999903	0.00000000	-1.48868100	6.31151500
19.49999902	-0.15871060	1.62401600	6.31151500
19.69999901	0.00000000	5.16117100	6.31151500
19.89999900	0.00000000	9.01820900	6.31151500
20.09999898	0.00000000	12.05093000	6.31151500
20.29999897	0.00000000	13.12131000	6.31151500
20.49999896	0.00000000	11.16511000	6.26845500
20.69999895	0.00000000	6.09621000	5.93626900
20.89999894	0.00000000	-0.83661410	5.53026500
21.09999892	-0.15871060	-8.59990100	5.56717500
21.29999891	0.00000000	-15.12057000	5.48105300
21.49999890	0.00000000	-18.97761000	5.51796200
21.69999889	0.00000000	-18.84227000	5.11195900
21.89999888	0.00000000	-13.77338000	4.77977300
22.09999886	0.00000000	-4.05388800	4.73671200
22.29999885	0.00000000	8.28001900	4.73671200
22.49999884	0.00000000	20.65084000	4.73671200
22.69999883	0.00000000	29.82283000	4.77977300
22.89999882	0.00000000	33.26156000	5.15501900
23.09999881	0.00000000	29.26919000	5.89320800
23.29999879	0.00000000	18.04872000	6.31151500
23.49999878	0.00000000	1.40255900	6.72982200
23.69999877	0.00000000	-16.70152000	7.47416300
23.89999876	0.00000000	-32.14813000	7.80019600
24.09999875	0.00000000	-40.94488000	7.42495000
24.29999873	0.00000000	-40.47736000	6.31151500
24.49999872	0.00000000	-30.00738000	5.11195900
24.69999871	0.00000000	-11.44808000	3.90009800
24.89999870	0.00000000	10.93135000	1.99311000
25.09999869	0.00000000	32.19119000	0.51058070
25.29999867	0.00000000	47.17643000	0.09227362
25.49999866	-0.15871060	52.15305000	0.55364170
25.69999865	0.00000000	45.17716000	2.50369100
25.89999864	0.00000000	27.82357000	5.98548200
26.09999863	0.00000000	4.23228400	9.84867000
26.29999862	0.00000000	-20.47244000	13.69956000
26.49999860	0.00000000	-40.52657000	16.39395000
26.69999859	0.00000000	-50.94734000	17.09523000
26.89999858	0.00000000	-49.40945000	15.50812000
27.09999857	0.00000000	-36.28814000	10.82677000
27.29999856	0.00000000	-14.70226000	4.26919300
27.49999854	0.00000000	10.00246000	-3.11269700
27.69999853	0.00000000	32.05585000	-9.98400600
27.89999852	0.00000000	46.75812000	-14.16708000
28.09999851	0.00000000	51.03962000	-14.12401000
28.29999850	0.00000000	44.14985000	-9.47957600
28.49999848	0.00000000	28.33415000	-0.93503930
28.69999847	0.00000000	7.43725300	9.89173200
28.89999846	0.00000000	-14.19168000	21.08760000
29.09999845	0.00000000	-31.59449000	29.91511000
29.29999844	0.00000000	-40.90182000	34.14124000
29.49999843	0.00000000	-40.61269000	32.52337000
29.69999841	0.00000000	-31.36073000	24.76009000
29.89999840	0.00000000	-15.95103000	11.98942000
30.09999839	0.00000000	2.23302100	-3.06963600
30.29999838	0.00000000	18.84227000	-17.32899000
30.49999837	0.00000000	30.51796000	-27.31914000
30.69999835	0.00000000	35.26698000	-30.38878000
30.89999834	0.00000000	32.98474000	-25.73819000
31.09999833	0.00000000	24.84006000	-14.12401000
31.29999832	0.00000000	12.09400000	2.08538400
31.49999831	0.00000000	-2.18996000	19.46358000
31.69999829	0.00000000	-14.60999000	34.14739000
31.89999828	0.00000000	-23.12377000	43.01796000
32.09999827	0.00000000	-25.86122000	44.18061000
32.29999826	0.00000000	-22.47170000	37.21087000
32.49999825	0.00000000	-14.74532000	23.68971000
32.69999824	0.00000000	-4.27534400	6.31766700
32.89999822	0.00000000	6.88361200	-11.06053000
33.09999821	0.00000000	15.77264000	-24.58169000
33.29999820	0.00000000	20.47244000	-31.59449000
33.49999819	0.00000000	20.51550000	-30.80709000
33.69999818	0.00000000	16.32628000	-22.71777000
33.89999816	0.00000000	9.39345400	-8.78444900
34.09999815	0.00000000	1.62401600	7.80634800
34.29999814	-0.15871060	-5.72711600	23.64665000
34.49999813	0.00000000	-11.07283000	35.21776000
34.69999812	-0.15871060	-12.65379000	39.86220000
34.89999810	0.00000000	-10.37771000	36.84178000
35.09999809	-0.15871060	-5.39493100	27.22072000
35.29999808	0.00000000	1.11343500	13.69956000
35.49999807	0.00000000	6.88361200	-0.97810030
35.69999806	0.00000000	10.37771000	-13.66265000
35.89999805	0.00000000	11.16511000	-21.00148000
36.09999803	0.00000000	8.88902600	-21.46899000
36.29999802	0.00000000	4.69980300	-15.70497000
36.49999801	0.00000000	0.04306102	-5.33956700
36.69999800	0.00000000	-4.18922200	6.96358300
36.89999799	0.00000000	-6.88361200	17.74729000
37.09999797	0.00000000	-7.25885800	24.71703000
37.29999796	0.00000000	-5.35187000	26.24877000
37.49999795	0.00000000	-1.48868100	22.06570000
37.69999794	0.00000000	3.11884800	13.61343000
37.89999793	0.00000000	7.35113100	3.29109200
38.09999791	0.00000000	10.00246000	-5.85629900
38.29999790	0.00000000	10.09473000	-10.50074000
38.49999789	0.00000000	8.18774500	-9.76254800
38.69999788	0.00000000	5.43799200	-4.41067900
38.89999787	0.00000000	1.53789400	4.41067900
39.09999786	0.00000000	-2.69439000	13.52116000
39.29999784	-0.15871060	-6.18848400	20.06643000
39.49999783	0.00000000	-8.46456700	21.97957000
39.69999782	0.00000000	-8.46456700	18.95300000
39.89999781	0.00000000	-6.18848400	11.98942000
40.09999780	0.00000000	-2.69439000	2.78051200
40.29999778	0.00000000	1.53789400	-6.36687900
40.49999777	0.00000000	5.43799200	-12.08169000
40.69999776	0.00000000	8.18774500	-12.54921000
40.89999775	0.00000000	10.13779000	-8.31692900
41.09999774	0.00000000	10.46998000	-0.60285430
41.29999772	0.00000000	8.97514600	9.01205700
41.49999771	0.00000000	6.23154500	17.79650000
41.69999770	0.00000000	2.74360200	23.18528000
41.89999769	0.00000000	-1.16264800	23.60359000
42.09999768	0.00000000	-4.56446800	19.42052000
42.29999767	0.00000000	-6.55757800	12.11860000
42.49999765	0.00000000	-6.56373000	3.66633800
42.69999764	0.00000000	-5.43799200	-3.67249000
42.89999763	0.00000000	-3.06963600	-8.31692900
43.09999762	0.00000000	-0.04306102	-9.47957600
43.29999761	0.00000000	2.69439000	-6.82824800
43.49999759	0.00000000	4.60752900	-1.48868100
43.69999758	0.00000000	5.43799200	4.69365100
43.89999757	0.00000000	5.11811000	10.49459000
44.09999756	0.00000000	4.74286400	14.72072000
44.29999755	0.00000000	4.32455700	16.30167000
44.49999753	0.00000000	3.58021600	15.18824000
44.69999752	0.00000000	3.20497000	12.11860000
44.89999751	0.00000000	3.16190900	7.89247000
45.09999750	0.00000000	3.11884800	3.70939900
45.29999749	0.00000000	2.65132900	0.92888770
45.49999748	0.00000000	1.07037400	-0.28297240
45.69999746	0.00000000	-1.62401600	-0.64591530
45.89999745	0.00000000	-4.69980300	0.55364170
46.09999744	0.00000000	-7.39419200	3.15575800
46.29999743	0.00000000	-8.93208600	5.85014700
46.49999742	0.00000000	-8.83981200	7.84940900
46.69999740	0.00000000	-6.42224400	9.38115100
46.89999739	0.00000000	-1.02731300	10.11934000
47.09999738	0.00000000	5.85629900	9.38115100
47.29999737	0.00000000	12.05093000	7.84940900
47.49999736	0.00000000	16.28322000	5.89320800
47.69999734	0.00000000	17.39665000	3.57406500
47.89999733	0.00000000	14.65305000	1.66707700
48.09999732	0.00000000	8.46456700	0.51058070
48.29999731	0.00000000	0.00000000	0.51058070
48.49999730	0.00000000	-8.51377900	1.66707700
48.69999729	0.00000000	-15.02830000	3.61712600
48.89999727	0.00000000	-18.09178000	6.36072800
49.09999726	0.00000000	-16.14788000	9.38115100
49.29999725	0.00000000	-10.00246000	11.70029000
49.49999724	0.00000000	-1.07037400	12.45079000
49.69999723	0.00000000	8.88902600	11.70029000
49.89999721	0.00000000	16.97834000	9.33809000
50.09999720	0.00000000	20.84153000	5.89320800
50.29999719	0.00000000	20.04798000	2.04232300
50.49999718	0.00000000	14.27780000	-1.02116100
50.69999717	0.00000000	5.07504900	-2.60211600
50.89999715	0.00000000	-4.51525500	-2.55905500
51.09999714	0.00000000	-12.27854000	-0.60285430
51.29999713	0.00000000	-16.09867000	3.20497000
51.49999712	0.00000000	-15.39739000	7.43110200
51.69999711	0.00000000	-10.37771000	10.96211000
51.89999710	0.00000000	-2.65132900	13.65650000
52.09999708	0.00000000	6.09621000	14.76993000
52.29999707	0.00000000	13.06594000	13.60728000
52.49999706	0.00000000	15.77879000	10.53765000
52.69999705	0.00000000	15.06521000	6.35457700
52.89999704	0.00000000	10.37771000	2.50369100
53.09999702	0.00000000	3.16190900	0.13533460
53.29999701	0.00000000	-4.14616100	-1.02116100
53.49999700	0.00000000	-9.53494100	-0.60285430
53.69999699	0.00000000	-11.44808000	1.66707700
53.89999698	0.00000000	-9.58415200	4.68750000
54.09999696	0.00000000	-4.56446800	7.43110200
54.29999695	0.00000000	1.91314000	9.33809000
54.49999694	0.00000000	8.08932000	10.07628000
54.69999693	0.00000000	11.91560000	8.96284400
54.89999692	0.00000000	12.74606000	6.77903500
55.09999691	0.00000000	10.42077000	5.19808000
55.29999689	0.00000000	5.81323800	4.40452700
55.49999688	0.00000000	0.04306102	4.04158400
55.69999687	0.00000000	-5.30265700	4.82283400
55.89999686	0.00000000	-8.42150500	6.31151500
56.09999685	0.00000000	-8.83981200	7.84940900
56.29999683	0.00000000	-6.88361200	8.96284400
56.49999682	0.00000000	-2.65132900	8.91978400
56.69999681	0.00000000	2.69439000	7.38188900
56.89999680	0.00000000	7.30807100	4.68750000
57.09999679	0.00000000	10.00246000	1.62401600
57.29999677	0.00000000	10.04552000	-1.02116100
57.49999676	0.00000000	7.76943800	-2.13459600
57.69999675	0.00000000	4.32455700	-0.93503930
57.89999674	0.00000000	0.41830710	2.50369100
58.09999673	0.00000000	-3.02657500	7.47416300
58.29999672	0.00000000	-5.35187000	12.07554000
58.49999670	0.00000000	-5.72711600	15.18824000
58.69999669	0.00000000	-4.23228400	16.34473000
58.89999668	0.00000000	-1.53789400	15.09596000
59.09999667	0.00000000	1.53789400	11.23893000
59.29999666	0.00000000	4.23228400	5.11195900
59.49999664	0.00000000	5.77017700	-1.02116100
59.69999663	0.00000000	5.81323800	-5.67175200
59.89999662	0.00000000	4.69980300	-7.94783400
60.09999661	0.00000000	3.16190900	-6.74212600
60.29999660	0.00000000	1.62401600	-2.14074800
60.49999658	0.00000000	0.46751960	4.77977300
60.69999657	0.00000000	0.04306102	12.07554000
60.89999656	0.00000000	0.04306102	17.88263000
61.09999655	0.00000000	0.46751960	20.95226000
61.29999654	0.00000000	1.58095500	20.53395000
61.49999653	0.00000000	2.69439000	16.25861000
61.69999651	0.00000000	3.06963600	8.96284400
61.89999650	0.00000000	2.69439000	0.55364170
62.09999649	0.00000000	1.58095500	-6.36687900
62.29999648	0.00000000	0.41830710	-9.89788300
62.49999647	0.00000000	-0.37524600	-9.94094400
62.69999645	0.00000000	-1.11343500	-6.78518600
62.89999644	0.00000000	-1.07037400	-0.64591530
63.09999643	0.00000000	0.04306102	7.05585600
63.29999642	0.00000000	1.53789400	13.98868000
63.49999641	0.00000000	2.74360200	19.04527000
63.69999639	0.00000000	3.53715500	20.90920000
63.89999638	0.00000000	4.27534400	19.04527000
64.09999637	0.00000000	4.23228400	14.07480000
64.29999636	0.00000000	3.11884800	7.89247000
64.49999635	0.00000000	1.58095500	1.66707700
64.69999634	-0.15871060	0.04306102	-3.72170300
64.89999632	0.00000000	-1.07037400	-6.78518600
65.09999631	0.00000000	-1.11343500	-6.87746000
65.29999630	0.00000000	-0.37524600	-4.60137700
65.49999629	0.00000000	0.41830710	-1.07037400
65.69999628	0.00000000	1.58095500	3.57406500
65.89999626	0.00000000	2.69439000	8.54453700
66.09999625	0.00000000	3.06963600	12.07554000
66.29999624	0.00000000	2.69439000	14.07480000
66.49999623	0.00000000	1.58095500	14.85605000
66.69999622	0.00000000	0.41830710	14.07480000
66.89999620	0.00000000	-0.37524600	12.16781000
67.09999619	0.00000000	-1.11343500	9.42421200
67.29999618	0.00000000	-1.02731300	6.31151500
67.49999617	0.00000000	0.46751960	3.15575800
67.69999616	0.00000000	2.74360200	0.04306102
67.89999615	0.00000000	4.69980300	-2.60211600
68.09999613	0.00000000	6.23154500	-3.76476400
68.29999612	0.00000000	6.93282500	-3.06348400
68.49999611	0.00000000	5.72711600	-1.48868100
68.69999610	0.00000000	2.69439000	0.92888770
68.89999609	0.00000000	-1.16264800	4.82898600
69.09999607	0.00000000	-4.60752900	9.43036400
69.29999606	0.00000000	-6.93282500	13.69956000
69.49999605	0.00000000	-7.30807100	16.72613000
69.69999604	0.00000000	-5.77017700	17.50738000
69.89999603	0.00000000	-2.60826800	15.56348000
70.09999601	0.00000000	1.99926200	11.74336000
70.29999600	0.00000000	7.01894700	6.68676100
70.49999599	0.00000000	10.83907000	1.66707700
70.69999598	0.00000000	12.78912000	-2.60211600
70.89999597	0.00000000	11.95866000	-5.29650500
71.09999596	0.00000000	8.55684000	-5.62253900
71.29999594	0.00000000	3.49409400	-3.34645700
71.49999593	0.00000000	-1.91314000	1.24877000
71.69999592	0.00000000	-6.97588500	6.21924200
71.89999591	0.00000000	-10.37771000	10.53765000
72.09999590	0.00000000	-11.16511000	13.60728000
72.29999588	0.00000000	-8.88902600	14.76993000
72.49999587	0.00000000	-4.60752900	13.65650000
72.69999586	0.00000000	0.79355310	10.96211000
72.89999585	0.00000000	6.60063900	7.51722400
73.09999584	0.00000000	10.79601000	4.08464600
73.29999582	0.00000000	12.78912000	2.12844500
73.49999581	0.00000000	12.00172000	1.66707700
73.69999580	0.00000000	8.97514600	2.04232300
73.89999579	0.00000000	4.69980300	3.19881900
74.09999578	0.00000000	0.04306102	4.68750000
74.29999577	0.00000000	-4.18922200	5.85014700
74.49999575	0.00000000	-6.88361200	6.21924200
74.69999574	0.00000000	-7.30807100	5.85014700
74.89999573	0.00000000	-5.81323800	4.73671200
75.09999572	0.00000000	-3.06963600	3.62327700
75.29999571	0.00000000	0.37524600	3.24803100
75.49999569	0.00000000	3.81397600	3.66633800
75.69999568	0.00000000	5.77017700	5.24729300
75.89999567	0.00000000	6.23154500	7.89247000
76.09999566	0.00000000	5.85629900	10.53765000
76.29999565	0.00000000	4.69980300	12.07554000
76.49999563	0.00000000	3.16190900	12.07554000
76.69999562	0.00000000	1.67322800	10.49459000
76.89999561	0.00000000	0.88582670	7.38188900
77.09999560	0.00000000	1.20570900	3.15575800
77.29999559	0.00000000	1.53789400	-1.02116100
77.49999558	0.00000000	1.58095500	-3.71555100
77.69999556	0.00000000	1.53789400	-4.14000900
77.89999555	0.00000000	1.16264800	-2.55905500
78.09999554	0.00000000	0.37524600	0.92888770
78.29999553	0.00000000	-0.37524600	5.93626900
78.49999552	0.00000000	-1.11343500	10.91289000
78.69999550	0.00000000	-1.07037400	14.81299000
78.89999549	0.00000000	0.04306102	16.71998000
79.09999548	0.00000000	1.62401600	16.35089000
79.29999547	0.00000000	3.53715500	13.61343000
79.49999546	0.00000000	5.43799200	9.05511800
79.69999544	0.00000000	6.18848400	4.04158400
79.89999543	0.00000000	5.85629900	0.13533460
80.09999542	0.00000000	4.65059000	-2.60211600
80.29999541	0.00000000	2.69439000	-3.71555100
80.49999540	0.00000000	0.00000000	-2.60211600
80.69999539	0.00000000	-2.65132900	0.04306102
80.89999537	0.00000000	-4.18922200	3.15575800
81.09999536	0.00000000	-4.18922200	6.31151500
81.29999535	0.00000000	-2.65132900	9.38115100
81.49999534	0.00000000	0.04306102	11.74951000
81.69999533	0.00000000	3.06963600	12.91215000
81.89999531	0.00000000	5.43799200	13.32431000
82.09999530	0.00000000	6.60679100	12.49385000
82.29999529	0.00000000	6.97588500	10.58686000
82.49999528	0.00000000	5.77017700	7.84940900
82.69999527	0.00000000	3.16190900	4.77977300
82.89999525	0.00000000	0.51058070	2.04232300
83.09999524	0.00000000	-1.11343500	0.09227362
83.29999523	0.00000000	-1.91314000	-1.11343500
83.49999522	0.00000000	-2.27608300	-1.43946800
83.69999521	0.00000000	-1.48868100	-0.64591530
83.89999520	0.00000000	0.00000000	1.71013800
84.09999518	0.00000000	1.53789400	5.15501900
84.29999517	0.00000000	2.65132900	9.00590400
84.49999516	0.00000000	2.74360200	12.11860000
84.69999515	0.00000000	2.37450800	14.07480000
84.89999514	0.00000000	2.36835600	14.81299000
85.09999512	0.00000000	1.99926200	13.60728000
85.29999511	0.00000000	1.99926200	10.53765000
85.49999510	0.00000000	2.36835600	6.31151500
85.69999509	0.00000000	2.33144700	2.04232300
85.89999508	0.00000000	2.36835600	-1.44562000
86.09999506	0.00000000	1.95620100	-3.71555100
86.29999505	0.00000000	1.58095500	-3.67249000
86.49999504	0.00000000	1.11343500	-1.02116100
86.69999503	0.00000000	0.00000000	3.20497000
86.89999502	0.00000000	-1.11343500	7.84940900
87.09999501	0.00000000	-1.48868100	12.07554000
87.29999499	0.00000000	-1.11343500	14.76993000
87.49999498	0.00000000	0.04306102	15.14518000
87.69999497	0.00000000	1.58095500	13.23819000
87.89999496	0.00000000	3.11884800	9.38115100
88.09999495	0.00000000	4.27534400	4.77977300
88.29999493	0.00000000	4.65059000	0.51058070
88.49999492	0.00000000	4.27534400	-2.51599400
88.69999491	0.00000000	3.11884800	-3.29724400
88.89999490	0.00000000	1.62401600	-1.39640700
89.09999489	0.00000000	0.41830710	2.08538400
89.29999487	0.00000000	-0.37524600	6.72982200
89.49999486	0.00000000	-1.11343500	11.65723000
89.69999485	0.00000000	-1.07037400	14.72072000
89.89999484	0.00000000	0.00000000	15.14518000
90.09999483	0.00000000	1.11343500	13.23819000
90.29999482	0.00000000	1.58095500	9.38115100
90.49999480	0.00000000	1.99926200	4.77977300
90.69999479	0.00000000	2.74360200	0.51058070
90.89999478	0.00000000	3.06963600	-2.51599400
91.09999477	0.00000000	2.74360200	-3.25418300
91.29999476	0.00000000	1.99926200	-0.97810030
91.49999474	0.00000000	1.62401600	3.20497000
91.69999473	0.00000000	1.62401600	7.84940900
91.89999472	0.00000000	1.99926200	12.07554000
92.09999471	0.00000000	2.74360200	14.72072000
92.29999470	0.00000000	3.06963600	14.72072000
92.49999468	0.00000000	2.69439000	12.07554000
92.69999467	0.00000000	1.58095500	7.84940900
92.89999466	0.00000000	0.41830710	3.24803100
93.09999465	0.00000000	-0.37524600	-0.60285430
93.29999464	0.00000000	-1.16264800	-2.50984200
93.49999463	0.00000000	-1.48868100	-2.18380900
93.69999461	0.00000000	-1.11343500	0.17839570
93.89999460	0.00000000	0.09227362	3.99237200
94.09999459	0.00000000	1.99926200	8.58759800
94.29999458	0.00000000	4.32455700	11.98942000
94.49999457	0.00000000	6.18848400	13.23819000
94.69999455	0.00000000	7.01894700	12.45079000
94.89999454	0.00000000	6.60679100	10.11934000
95.09999453	0.00000000	5.43799200	6.31151500
95.29999452	0.00000000	3.02657500	2.50369100
95.49999451	0.00000000	-0.33218500	0.17839570
95.69999449	0.00000000	-3.43873000	-0.65206690
95.89999448	0.00000000	-4.98277500	0.17839570
96.09999447	0.00000000	-5.39493100	2.46063000
96.29999446	0.00000000	-4.18922200	5.89320800
96.49999445	0.00000000	-1.48868100	8.96284400
96.69999444	0.00000000	1.99926200	10.91289000
96.89999442	0.00000000	5.85629900	11.65723000
97.09999441	0.00000000	8.93208600	10.53765000
97.29999440	0.00000000	10.46998000	8.26771600
97.49999439	0.00000000	10.09473000	5.93626900
97.69999438	0.00000000	7.76943800	3.61712600
97.89999436	0.00000000	4.32455700	2.12844500
98.09999435	0.00000000	0.41830710	2.04232300
98.29999434	0.00000000	-3.06963600	2.78051200
98.49999433	0.00000000	-5.77017700	3.57406500
98.69999432	0.00000000	-6.93282500	4.73671200
98.89999430	0.00000000	-6.14542300	5.85014700
99.09999429	0.00000000	-3.85703700	6.26845500
99.29999428	0.00000000	-0.37524600	6.31151500
99.49999427	0.00000000	3.11884800	6.35457700
99.69999426	0.00000000	6.23154500	6.72982200
99.89999425	0.00000000	8.51377900	7.47416300
100.09999423	0.00000000	8.93208600	7.84940900
100.29999422	0.00000000	7.81250000	7.89247000
100.49999421	0.00000000	5.85629900	7.84940900
100.69999420	0.00000000	3.11884800	7.42495000
100.89999419	0.00000000	0.04306102	6.26845500
101.09999417	0.00000000	-2.65132900	4.73671200
101.29999416	0.00000000	-4.23228400	3.15575800
101.49999415	0.00000000	-4.60752900	1.66707700
101.69999414	0.00000000	-3.85703700	0.92888770
101.89999413	-0.15871060	-1.91314000	1.71013800
102.09999411	0.00000000	0.37524600	3.61712600
102.29999410	0.00000000	2.74360200	6.31151500
102.49999409	0.00000000	4.65059000	9.00590400
102.69999408	0.00000000	5.85629900	10.96211000
102.89999407	0.00000000	6.23154500	12.07554000
103.09999406	0.00000000	5.85629900	11.65723000
103.29999404	0.00000000	4.65059000	9.38115100
103.49999403	0.00000000	2.74360200	6.31151500
103.69999402	0.00000000	0.41830710	3.19881900
103.89999401	0.00000000	-1.48868100	0.51058070
104.09999400	0.00000000	-2.65132900	-1.02116100
104.29999398	0.00000000	-2.65132900	-1.02116100
104.49999397	0.00000000	-1.53789400	0.51058070
104.69999396	0.00000000	0.00000000	3.19881900
104.89999395	0.00000000	1.58095500	6.26845500
105.09999394	0.00000000	3.11884800	8.96284400
105.29999392	0.00000000	4.27534400	10.49459000
105.49999391	0.00000000	4.65059000	10.53765000
105.69999390	0.00000000	4.27534400	9.38115100
105.89999389	0.00000000	3.11884800	7.47416300
106.09999388	0.00000000	1.62401600	5.15501900
106.29999387	0.00000000	0.46751960	3.24803100
106.49999385	0.00000000	0.04306102	2.08538400
106.69999384	0.00000000	0.04306102	2.08538400
106.89999383	0.00000000	0.46751960	3.24803100
107.09999382	0.00000000	1.53789400	5.11195900
107.29999381	0.00000000	2.36835600	7.05585600
107.49999379	0.00000000	2.74975400	8.17544300
107.69999378	0.00000000	3.53100400	8.63681000
107.89999377	0.00000000	3.44488200	8.17544300
108.09999376	0.00000000	2.74360200	7.05585600
108.29999375	0.00000000	1.58095500	5.15501900
108.49999374	0.00000000	0.41830710	3.62327700
108.69999372	0.00000000	-0.33218500	2.82357300
108.89999371	0.00000000	-0.74434050	2.46063000
109.09999370	0.00000000	-0.33218500	3.24803100
109.29999369	0.00000000	0.41830710	4.73671200
109.49999368	0.00000000	1.58095500	6.31151500
109.69999366	0.00000000	2.69439000	7.84940900
109.89999365	0.00000000	3.11884800	8.96284400
110.09999364	0.00000000	3.16190900	8.96284400
110.29999363	0.00000000	3.11884800	7.89247000
110.49999362	0.00000000	2.74360200	6.68676100
110.69999360	0.00000000	1.95620100	5.51796200
110.89999359	0.00000000	1.20570900	3.99237200
111.09999358	0.00000000	0.41830710	3.24803100
111.29999357	0.00000000	0.04306102	3.15575800
111.49999356	0.00000000	0.04306102	3.19881900
111.69999355	0.00000000	0.41830710	3.62327700
111.89999353	0.00000000	1.16264800	4.73671200
112.09999352	0.00000000	1.53789400	5.89320800
112.29999351	0.00000000	1.62401600	6.68676100
112.49999350	0.00000000	1.99926200	7.42495000
112.69999349	0.00000000	2.69439000	7.42495000
112.89999347	0.00000000	2.69439000	6.72982200
113.09999346	0.00000000	1.99926200	6.35457700
113.29999345	0.00000000	1.62401600	6.31151500
113.49999344	0.00000000	1.58095500	6.26845500
113.69999343	0.00000000	1.58095500	5.89320800
113.89999341	0.00000000	1.58095500	5.15501900
114.09999340	0.00000000	1.58095500	4.77977300
114.29999339	0.00000000	1.53789400	4.73671200
114.49999338	0.00000000	1.20570900	4.73671200
114.69999337	0.00000000	0.83661410	4.73671200
114.89999336	0.00000000	1.20570900	4.73671200
115.09999334	0.00000000	1.58095500	4.73671200
115.29999333	0.00000000	1.95620100	4.77977300
115.49999332	0.00000000	2.32529500	5.19808000
115.69999331	0.00000000	1.99926200	6.31151500
115.89999330	0.00000000	1.99926200	7.42495000
116.09999328	0.00000000	2.32529500	7.89247000
116.29999327	0.00000000	1.91314000	8.26771600
116.49999326	0.00000000	1.20570900	8.58759800
116.69999325	0.00000000	0.46751960	7.84940900
116.89999324	0.00000000	0.46751960	6.72982200
117.09999322	0.00000000	1.16264800	5.89320800
117.29999321	0.00000000	1.58095500	4.73671200
117.49999320	0.00000000	1.99926200	3.62327700
117.69999319	0.00000000	2.74360200	3.19881900
117.89999318	0.00000000	3.11884800	3.15575800
118.09999317	0.00000000	3.11884800	3.24803100
118.29999315	0.00000000	2.74360200	3.99237200
118.49999314	0.00000000	1.95620100	5.51796200
118.69999313	0.00000000	1.20570900	6.64370100
118.89999312	0.00000000	0.37524600	7.47416300
119.09999311	0.00000000	-0.37524600	7.84940900
119.29999309	0.00000000	-1.11343500	7.89247000
119.49999308	0.00000000	-1.07037400	7.84940900
119.69999307	0.00000000	0.04306102	7.42495000
119.89999306	0.00000000	1.53789400	6.31151500
120.09999305	0.00000000	2.74360200	5.19808000
120.29999303	0.00000000	3.53715500	4.77977300
120.49999302	0.00000000	4.32455700	4.73671200
120.69999301	0.00000000	4.65059000	4.73671200
120.89999300	0.00000000	4.27534400	4.73671200
121.09999299	-0.15871060	3.11884800	4.73671200
121.29999298	0.00000000	1.62401600	4.73671200
121.49999296	0.00000000	0.41830710	4.73671200
121.69999295	0.00000000	-0.37524600	4.77977300
121.89999294	0.00000000	-1.11343500	5.15501900
122.09999293	0.00000000	-1.11343500	5.89320800
122.29999292	0.00000000	-0.37524600	6.26845500
122.49999290	0.00000000	0.41830710	6.31151500
122.69999289	0.00000000	1.58095500	6.31151500
122.89999288	0.00000000	2.74360200	6.31151500
123.09999287	0.00000000	3.53715500	6.31151500
123.29999286	0.00000000	4.27534400	6.31151500
123.49999284	0.00000000	4.27534400	6.26845500
123.69999283	0.00000000	3.58021600	5.89320800
123.89999282	0.00000000	3.16190900	5.15501900
124.09999281	0.00000000	2.74360200	4.77977300
124.29999280	0.00000000	1.95620100	4.73671200
124.49999279	0.00000000	1.20570900	4.73671200
124.69999277	0.00000000	0.41830710	4.77977300
124.89999276	0.00000000	0.04306102	5.15501900
125.09999275	-0.15871060	0.00000000	5.89320800
125.29999274	0.00000000	0.04306102	6.26845500
125.49999273	0.00000000	0.41830710	6.31151500
125.69999271	0.00000000	1.20570900	6.31151500
125.89999270	0.00000000	1.99926200	6.31151500
126.09999269	0.00000000	3.16190900	6.31151500
126.29999268	0.00000000	4.23228400	6.31151500
126.49999267	0.00000000	4.27534400	6.26845500
126.69999265	0.00000000	3.53715500	5.89320800
126.89999264	0.00000000	2.78666300	5.15501900
127.09999263	0.00000000	1.95620100	4.77977300
127.29999262	0.00000000	1.16264800	4.73671200
127.49999261	0.00000000	0.00000000	4.73671200
127.69999260	0.00000000	-1.07037400	4.77977300
127.89999258	0.00000000	-1.11343500	5.15501900
128.09999257	0.00000000	-0.37524600	5.89320800
128.29999256	0.00000000	0.41830710	6.26845500
128.49999255	0.00000000	1.58095500	6.31151500
128.69999254	0.00000000	2.74360200	6.31151500
128.89999252	0.00000000	3.49409400	6.31151500
129.09999251	0.00000000	3.90625000	6.26845500
129.29999250	0.00000000	3.49409400	5.89320800
129.49999249	0.00000000	2.74360200	5.15501900
129.69999248	0.00000000	1.58095500	4.77977300
129.89999246	0.00000000	0.46751960	4.73671200
130.09999245	0.00000000	0.04306102	4.77977300
130.29999244	-0.15871060	0.04306102	5.15501900
130.49999243	0.00000000	0.41830710	5.89320800
130.69999242	0.00000000	1.20570900	6.26845500
130.89999241	0.00000000	1.95620100	6.31151500
131.09999239	0.00000000	2.74360200	6.31151500
131.29999238	0.00000000	3.11884800	6.26845500
131.49999237	0.00000000	3.16190900	5.89320800
131.69999236	0.00000000	3.11884800	5.15501900
131.89999235	0.00000000	2.74360200	4.77977300
132.09999233	0.00000000	1.95620100	4.73671200
132.29999232	0.00000000	1.24877000	4.73671200
132.49999231	0.00000000	0.83661410	4.77977300
132.69999230	0.00000000	1.20570900	5.15501900
132.89999229	0.00000000	1.53789400	5.93626900
133.09999227	0.00000000	1.58095500	6.68676100
133.29999226	0.00000000	1.58095500	7.47416300
133.49999225	0.00000000	1.58095500	7.80019600
133.69999224	0.00000000	1.58095500	7.47416300
133.89999223	0.00000000	1.58095500	6.72982200
134.09999222	0.00000000	1.58095500	6.31151500
134.29999220	0.00000000	1.58095500	5.89320800
134.49999219	0.00000000	1.62401600	5.11195900
134.69999218	0.00000000	1.99926200	4.40452700
134.89999217	0.00000000	2.74360200	3.99237200
135.09999216	0.00000000	3.11884800	4.36146600
135.29999214	0.00000000	3.11884800	4.73671200
135.49999213	0.00000000	2.74360200	5.15501900
135.69999212	0.00000000	1.99926200	5.93626900
135.89999211	0.00000000	1.58095500	6.64370100
136.09999210	0.00000000	1.16264800	7.09891700
136.29999208	0.00000000	0.41830710	7.06200700
136.49999207	0.00000000	0.09227362	7.09891700
136.69999206	0.00000000	0.41830710	6.68676100
136.89999205	0.00000000	1.20570900	6.31151500
137.09999204	0.00000000	1.95620100	5.89320800
137.29999203	0.00000000	2.74360200	5.15501900
137.49999201	0.00000000	3.11884800	4.77977300
137.69999200	0.00000000	3.16190900	4.73671200
137.89999199	0.00000000	3.11884800	4.73671200
138.09999198	0.00000000	2.74360200	4.73671200
138.29999197	0.00000000	1.95620100	4.77977300
138.49999195	0.00000000	1.20570900	5.15501900
138.69999194	0.00000000	0.41830710	5.89320800
138.89999193	0.00000000	0.09227362	6.31151500
139.09999192	0.00000000	0.41830710	6.72982200
139.29999191	0.00000000	1.16264800	7.47416300
139.49999189	0.00000000	1.58095500	7.80019600
139.69999188	0.00000000	1.95620100	7.47416300
139.89999187	0.00000000	2.36835600	6.68676100
140.09999186	0.00000000	2.37450800	5.93626900
140.29999185	0.00000000	2.74360200	5.15501900
140.49999184	0.00000000	2.69439000	4.77977300
140.69999182	0.00000000	1.99926200	4.73671200
140.89999181	0.00000000	1.62401600	4.73671200
141.09999180	0.00000000	1.58095500	4.73671200
141.29999179	0.00000000	1.58095500	4.77977300
141.49999178	0.00000000	1.58095500	5.15501900
141.69999176	0.00000000	1.62401600	5.93626900
141.89999175	0.00000000	1.99926200	6.68676100
142.09999174	0.00000000	2.74360200	7.47416300
142.29999173	0.00000000	3.06963600	7.80019600
142.49999172	0.00000000	2.74360200	7.47416300
142.69999170	0.00000000	1.99926200	6.68676100
142.89999169	0.00000000	1.62401600	5.93626900
143.09999168	0.00000000	1.58095500	5.11195900
143.29999167	0.00000000	1.58095500	4.40452700
143.49999166	0.00000000	1.58095500	3.99237200
143.69999165	0.00000000	1.58095500	4.36146600
143.89999163	0.00000000	1.58095500	4.73671200
144.09999162	0.00000000	1.62401600	5.15501900
144.29999161	0.00000000	1.99926200	5.89320800
144.49999160	0.00000000	2.74360200	6.31151500
144.69999159	0.00000000	3.06963600	6.68676100
144.89999157	0.00000000	2.74360200	7.05585600
145.09999156	0.00000000	1.99926200	6.68676100
145.29999155	0.00000000	1.62401600	6.35457700
145.49999154	0.00000000	1.58095500	6.26845500
145.69999153	0.00000000	1.58095500	5.89320800
145.89999151	0.00000000	1.58095500	5.15501900
146.09999150	0.00000000	1.58095500	4.77977300
146.29999149	0.00000000	1.62401600	4.73671200
146.49999148	0.00000000	1.99926200	4.77977300
146.69999147	0.00000000	2.74360200	5.15501900
146.89999146	0.00000000	3.11884800	5.93626900
147.09999144	0.00000000	3.16190900	6.64370100
147.29999143	0.00000000	3.11884800	7.05585600
147.49999142	0.00000000	2.69439000	6.68676100
147.69999141	0.00000000	1.62401600	6.35457700
147.89999140	0.00000000	0.88582670	6.31151500
148.09999138	0.00000000	1.20570900	6.26845500
148.29999137	0.00000000	1.53789400	5.93626900
148.49999136	0.00000000	1.53789400	5.53026500
148.69999135	0.00000000	1.20570900	5.51796200
148.89999134	0.00000000	0.83661410	5.11195900
149.09999132	0.00000000	1.24877000	4.77977300
149.29999131	0.00000000	1.95620100	4.77977300
149.49999130	0.00000000	2.69439000	5.15501900
149.69999129	0.00000000	2.74360200	5.89320800
149.89999128	0.00000000	2.41756900	6.26845500
150.09999127	0.00000000	2.74360200	6.31151500
150.29999125	0.00000000	2.69439000	6.31151500
150.49999124	0.00000000	1.99926200	6.31151500
150.69999123	0.00000000	1.62401600	6.31151500
150.89999122	0.00000000	1.58095500	6.31151500
151.09999121	0.00000000	1.58095500	6.26845500
151.29999119	0.00000000	1.58095500	5.89320800
151.49999118	0.00000000	1.58095500	5.15501900
151.69999117	0.00000000	1.58095500	4.77977300
151.89999116	-0.15871060	1.58095500	4.73671200
152.09999115	0.00000000	1.62401600	4.73671200
152.29999113	0.00000000	1.99926200	4.77977300
152.49999112	0.00000000	2.74360200	5.15501900
152.69999111	0.00000000	3.06963600	5.89320800
152.89999110	0.00000000	2.74360200	6.26845500
153.09999109	0.00000000	1.99926200	6.31151500
153.29999108	0.00000000	1.62401600	6.35457700
153.49999106	0.00000000	1.58095500	6.68676100
153.69999105	0.00000000	1.53789400	7.05585600
153.89999104	0.00000000	1.20570900	6.68676100
154.09999103	0.00000000	0.83661410	6.35457700
154.29999102	0.00000000	1.20570900	6.31151500
154.49999100	0.00000000	1.53789400	6.26845500
154.69999099	0.00000000	1.58095500	5.89320800
154.89999098	0.00000000	1.62401600	5.15501900
155.09999097	0.00000000	1.99926200	4.77977300
155.29999096	0.00000000	2.74360200	4.73671200
155.49999094	0.00000000	3.11884800	4.77977300
155.69999093	0.00000000	3.16190900	5.15501900
155.89999092	0.00000000	3.11884800	5.89320800
156.09999091	0.00000000	2.74360200	6.26845500
156.29999090	0.00000000	1.95620100	6.31151500
156.49999089	0.00000000	1.24877000	6.31151500
156.69999087	0.00000000	0.79355310	6.31151500
156.89999086	0.00000000	0.78740150	6.31151500
157.09999085	0.00000000	0.41830710	6.31151500
157.29999084	0.00000000	0.46751960	6.26845500
157.49999083	0.00000000	1.16264800	5.89320800
157.69999081	0.00000000	1.58095500	5.15501900
157.89999080	0.00000000	1.99926200	4.77977300
158.09999079	0.00000000	2.74360200	4.73671200
158.29999078	0.00000000	3.11884800	4.73671200
158.49999077	0.00000000	3.16190900	4.77977300
158.69999075	0.00000000	3.11884800	5.15501900
158.89999074	0.00000000	2.74360200	5.89320800
159.09999073	0.00000000	1.99926200	6.26845500
159.29999072	0.00000000	1.62401600	6.31151500
159.49999071	0.00000000	1.58095500	6.31151500
159.69999070	0.00000000	1.58095500	6.31151500
159.89999068	0.00000000	1.58095500	6.31151500
160.09999067	0.00000000	1.58095500	6.31151500
160.29999066	0.00000000	1.58095500	6.31151500
160.49999065	0.00000000	1.58095500	6.26845500
160.69999064	0.00000000	1.58095500	5.89320800
160.89999062	0.00000000	1.58095500	5.15501900
161.09999061	0.00000000	1.58095500	4.77977300
161.29999060	0.00000000	1.62401600	4.77977300
161.49999059	0.00000000	1.99926200	5.15501900
161.69999058	0.00000000	2.74360200	5.89320800
161.89999056	0.00000000	3.11884800	6.26845500
162.09999055	0.00000000	3.11884800	6.31151500
162.29999054	0.00000000	2.74360200	6.31151500
162.49999053	0.00000000	1.99926200	6.31151500
162.69999052	0.00000000	1.62401600	6.31151500
162.89999051	0.00000000	1.58095500	6.31151500
163.09999049	0.00000000	1.58095500	6.31151500
163.29999048	0.00000000	1.58095500	6.31151500
163.49999047	0.00000000	1.58095500	6.31151500
163.69999046	0.00000000	1.58095500	6.31151500
163.89999045	0.00000000	1.58095500	6.26845500
164.09999043	0.00000000	1.58095500	5.89320800
164.29999042	0.00000000	1.62401600	5.19808000
164.49999041	0.00000000	1.99926200	5.19808000
164.69999040	0.00000000	2.74360200	5.89320800
164.89999039	0.00000000	3.11884800	6.26845500
165.09999037	0.00000000	3.11884800	6.31151500
165.29999036	0.00000000	2.74360200	6.31151500
165.49999035	0.00000000	1.99926200	6.31151500
165.69999034	0.00000000	1.62401600	6.31151500
165.89999033	0.00000000	1.58095500	6.31151500
166.09999032	0.00000000	1.58095500	6.31151500
166.29999030	0.00000000	1.58095500	6.31151500
166.49999029	0.00000000	1.58095500	6.31151500
166.69999028	0.00000000	1.58095500	6.31151500
166.89999027	0.00000000	1.58095500	6.31151500
167.09999026	0.00000000	1.58095500	6.31151500
167.29999024	0.00000000	1.58095500	6.26845500
167.49999023	0.00000000	1.62401600	5.93626900
167.69999022	0.00000000	1.99926200	5.57332700
167.89999021	0.00000000	2.74360200	5.93626900
168.09999020	0.00000000	3.06963600	6.26845500
168.29999018	0.00000000	2.74360200	6.31151500
168.49999017	0.00000000	1.99926200	6.31151500
168.69999016	0.00000000	1.62401600	6.31151500
168.89999015	0.00000000	1.58095500	6.31151500
169.09999014	0.00000000	1.58095500	6.31151500
169.29999013	0.00000000	1.58095500	6.31151500
169.49999011	0.00000000	1.58095500	6.31151500
169.69999010	0.00000000	1.58095500	6.31151500
169.89999009	0.00000000	1.58095500	6.31151500
170.09999008	0.00000000	1.58095500	6.31151500
170.29999007	0.00000000	1.58095500	6.31151500
170.49999005	0.00000000	1.58095500	6.31151500
170.69999004	0.00000000	1.62401600	6.31151500
170.89999003	0.00000000	1.95620100	6.31151500
171.09999002	0.00000000	2.32529500	6.31151500
171.29999001	0.00000000	1.99926200	6.26845500
171.49998999	0.00000000	2.04847400	5.93626900
171.69998998	0.00000000	2.69439000	5.57332700
171.89998997	0.00000000	2.69439000	5.93626900
172.09998996	0.00000000	1.99926200	6.26845500
172.29998995	0.00000000	1.62401600	6.31151500
172.49998994	0.00000000	1.58095500	6.31151500
172.69998992	0.00000000	1.58095500	6.31151500
172.89998991	0.00000000	1.58095500	6.31151500
173.09998990	0.00000000	1.58095500	6.31151500
173.29998989	0.00000000	1.58095500	6.31151500
173.49998988	0.00000000	1.58095500	6.31151500
173.69998986	0.00000000	1.58095500	6.31151500
173.89998985	0.00000000	1.58095500	6.31151500
174.09998984	0.00000000	1.58095500	6.31151500
174.29998983	0.00000000	1.58095500	6.31151500
174.49998982	0.00000000	1.58095500	6.31151500
174.69998980	0.00000000	1.58095500	6.26845500
174.89998979	0.00000000	1.58095500	5.93626900
175.09998978	0.00000000	1.58095500	5.57332700
175.29998977	0.00000000	1.58095500	5.93626900
175.49998976	0.00000000	1.58095500	6.26845500
175.69998975	0.00000000	1.58095500	6.31151500
175.89998973	0.00000000	1.58095500	6.31151500
176.09998972	0.00000000	1.58095500	6.31151500
176.29998971	0.00000000	1.58095500	6.31151500
176.49998970	0.00000000	1.58095500	6.31151500
176.69998969	0.00000000	1.58095500	6.31151500
176.89998967	0.00000000	1.58095500	6.31151500
177.09998966	0.00000000	1.58095500	6.31151500
177.29998965	0.00000000	1.58095500	6.31151500
177.49998964	0.00000000	1.58095500	6.31151500
177.69998963	0.00000000	1.58095500	6.26845500
177.89998961	0.00000000	1.58095500	5.93626900
178.09998960	0.00000000	1.58095500	5.57332700
178.29998959	0.00000000	1.58095500	5.93626900
178.49998958	0.00000000	1.58095500	6.26845500
178.69998957	0.00000000	1.58095500	6.31151500
178.89998956	0.00000000	1.58095500	6.31151500
179.09998954	0.00000000	1.62401600	6.31151500
179.29998953	0.00000000	1.95620100	6.26845500
179.49998952	0.00000000	2.32529500	5.93626900
179.69998951	0.00000000	1.95620100	5.53026500
179.89998950	0.00000000	1.62401600	5.56717500
180.09998948	0.00000000	1.58095500	5.53026500
180.29998947	0.00000000	1.58095500	5.89320800
180.49998946	0.00000000	1.53789400	5.85014700
180.69998945	0.00000000	1.24877000	5.19808000
180.89998944	0.00000000	1.21186000	5.19808000
181.09998942	0.00000000	1.95004900	5.89320800
181.29998941	0.00000000	1.91314000	6.26845500
181.49998940	0.00000000	1.62401600	6.31151500
181.69998939	0.00000000	1.58095500	6.31151500
181.89998938	0.00000000	1.62401600	6.31151500
182.09998937	0.00000000	1.95620100	6.31151500
182.29998935	0.00000000	2.36835600	6.31151500
182.49998934	0.00000000	2.37450800	6.26845500
182.69998933	0.00000000	2.74360200	5.89320800
182.89998932	0.00000000	2.69439000	5.15501900
183.09998931	0.00000000	1.99926200	4.77977300
183.29998929	0.00000000	1.62401600	4.77977300
183.49998928	0.00000000	1.58095500	5.15501900
183.69998927	0.00000000	1.58095500	5.89320800
183.89998926	0.00000000	1.58095500	6.26845500
184.09998925	0.00000000	1.58095500	6.31151500
184.29998923	0.00000000	1.58095500	6.31151500
184.49998922	0.00000000	1.58095500	6.31151500
184.69998921	0.00000000	1.58095500	6.31151500
184.89998920	0.00000000	1.58095500	6.31151500
185.09998919	0.00000000	1.58095500	6.26845500
185.29998918	0.00000000	1.62401600	5.89320800
185.49998916	0.00000000	1.99926200	5.15501900
185.69998915	0.00000000	2.69439000	4.77977300
185.89998914	0.00000000	2.69439000	4.73671200
186.09998913	0.00000000	1.99926200	4.73671200
186.29998912	0.00000000	1.62401600	4.77977300
186.49998910	0.00000000	1.58095500	5.15501900
186.69998909	0.00000000	1.58095500	5.89320800
186.89998908	0.00000000	1.58095500	6.26845500
187.09998907	0.00000000	1.58095500	6.31151500
187.29998906	0.00000000	1.58095500	6.31151500
187.49998904	0.00000000	1.58095500	6.31151500
187.69998903	0.00000000	1.58095500	6.31151500
187.89998902	0.00000000	1.58095500	6.31151500
188.09998901	0.00000000	1.62401600	6.31151500
188.29998900	0.00000000	1.99926200	6.26845500
188.49998899	0.00000000	2.69439000	5.89320800
188.69998897	0.00000000	2.69439000	5.15501900
188.89998896	0.00000000	1.99926200	4.77977300
189.09998895	0.00000000	1.62401600	4.73671200
189.29998894	0.00000000	1.58095500	4.77977300
189.49998893	0.00000000	1.58095500	5.15501900
189.69998891	0.00000000	1.58095500	5.89320800
189.89998890	0.00000000	1.58095500	6.26845500
190.09998889	0.00000000	1.58095500	6.31151500
190.29998888	0.00000000	1.58095500	6.31151500
190.49998887	0.00000000	1.58095500	6.31151500
190.69998885	0.00000000	1.58095500	6.31151500
190.89998884	0.00000000	1.62401600	6.31151500
191.09998883	0.00000000	1.99926200	6.31151500
191.29998882	0.00000000	2.74360200	6.31151500
191.49998881	0.00000000	3.06963600	6.31151500
191.69998880	0.00000000	2.74360200	6.31151500
191.89998878	0.00000000	1.99926200	6.26845500
192.09998877	0.00000000	1.62401600	5.89320800
192.29998876	0.00000000	1.58095500	5.15501900
192.49998875	0.00000000	1.58095500	4.82898600
192.69998874	0.00000000	1.58095500	5.15501900
192.89998872	0.00000000	1.58095500	5.85014700
193.09998871	0.00000000	1.58095500	5.89320800
193.29998870	0.00000000	1.58095500	5.57332700
193.49998869	0.00000000	1.58095500	5.93626900
193.69998868	0.00000000	1.58095500	6.26845500
193.89998866	0.00000000	1.62401600	6.31151500
194.09998865	0.00000000	1.99926200	6.31151500
194.29998864	0.00000000	2.69439000	6.31151500
194.49998863	0.00000000	2.74360200	6.31151500
194.69998862	0.00000000	2.37450800	6.31151500
194.89998861	0.00000000	2.36835600	6.31151500
195.09998859	0.00000000	1.95620100	6.31151500
195.29998858	0.00000000	1.62401600	6.31151500
195.49998857	0.00000000	1.58095500	6.31151500
195.69998856	0.00000000	1.58095500	6.31151500
195.89998855	-0.15871060	1.58095500	6.31151500
196.09998853	0.00000000	1.58095500	6.31151500
