Time	Channel A	Channel B	Channel C
(us)	(V)	(mV)	(mV)

-4.59999956	0.00000000	25.67052000	6.31151500
-4.39999957	0.00000000	26.03961000	6.31151500
-4.19999958	0.00000000	25.67052000	6.31151500
-3.99999959	0.00000000	25.33834000	6.31151500
-3.79999960	0.00000000	25.29527000	6.31151500
-3.59999962	0.00000000	25.29527000	6.31151500
-3.39999963	0.00000000	25.29527000	6.26845500
-3.19999964	0.00000000	25.29527000	5.93626900
-2.99999965	0.00000000	25.29527000	5.57332700
-2.79999966	0.00000000	25.29527000	5.89320800
-2.59999968	0.00000000	25.29527000	5.89320800
-2.39999969	0.00000000	25.29527000	5.53026500
-2.19999970	0.00000000	25.29527000	5.56717500
-1.99999971	0.00000000	25.29527000	5.53026500
-1.79999972	0.00000000	25.29527000	5.93626900
-1.59999973	0.00000000	25.29527000	6.26845500
-1.39999975	0.00000000	25.29527000	6.31151500
-1.19999976	0.00000000	25.29527000	6.31151500
-0.99999977	0.00000000	25.29527000	6.26845500
-0.79999978	0.00000000	25.29527000	5.93626900
-0.59999979	0.00000000	25.33834000	5.57332700
-0.39999981	0.15871060	25.67052000	5.93626900
-0.19999982	0.47736220	26.03961000	6.26845500
0.00000017	0.79601380	25.67052000	6.31151500
0.20000016	0.95533960	25.33834000	6.31151500
0.40000015	0.95533960	25.29527000	6.26845500
0.60000013	0.63668800	25.29527000	5.93626900
0.80000012	0.00000000	25.29527000	5.57332700
1.00000011	-1.11466500	25.29527000	5.93626900
1.20000010	-1.91129400	25.29527000	6.26845500
1.40000009	-2.70792300	25.29527000	6.31151500
1.60000008	-2.70792300	25.29527000	6.31151500
1.80000006	-2.07062000	25.33834000	6.31151500
2.00000005	-0.47736220	25.67052000	6.31151500
2.20000004	1.59264300	26.03961000	6.31151500
2.40000003	3.66326300	25.67052000	6.26845500
2.60000002	4.93786900	25.33834000	5.89320800
2.80000000	5.25652100	25.29527000	5.15501900
2.99999999	4.14124000	25.29527000	4.77977300
3.19999998	1.59264300	25.29527000	4.73671200
3.39999997	-1.75196900	25.29527000	4.73671200
3.59999996	-5.09719500	25.29527000	4.77977300
3.79999994	-7.32714100	25.33834000	5.15501900
3.99999993	-7.96444400	25.67052000	5.89320800
4.19999992	-6.53112700	26.03961000	6.26845500
4.39999991	-3.34522600	25.67052000	6.31151500
4.59999990	0.95533960	25.33834000	6.31151500
4.79999989	5.25652100	25.29527000	6.31151500
4.99999987	8.44242100	25.29527000	6.26845500
5.19999986	9.39837600	25.29527000	5.89320800
5.39999985	8.12377000	25.29527000	5.15501900
5.59999984	4.77854300	25.29527000	4.77977300
5.79999983	0.15871060	25.29527000	4.73671200
5.99999981	-4.61921700	25.29527000	4.77977300
6.19999980	-8.12377000	25.29527000	5.15501900
6.39999979	-9.55770200	25.29527000	5.89320800
6.59999978	-8.60174700	25.29527000	6.26845500
6.79999977	-5.57517200	25.29527000	6.31151500
6.99999975	-1.27399100	25.29527000	6.31151500
7.19999974	3.02657500	25.29527000	6.31151500
7.39999973	6.21247500	25.29527000	6.26845500
7.59999972	7.64579200	25.29527000	5.89320800
7.79999971	7.16781500	25.29527000	5.15501900
7.99999970	4.93786900	25.29527000	4.77977300
8.19999968	1.75196900	25.29527000	4.73671200
8.39999967	-1.43331700	25.29527000	4.73671200
8.59999966	-3.82258900	25.29527000	4.77977300
8.79999965	-5.09719500	25.29527000	5.15501900
8.99999964	-4.93786900	25.29527000	5.89320800
9.19999962	-3.66326300	25.29527000	6.26845500
9.39999961	-1.75196900	25.29527000	6.31151500
9.59999960	0.15871060	25.29527000	6.31151500
9.79999959	1.59264300	25.29527000	6.31151500
9.99999958	2.38927200	25.29527000	6.31151500
10.19999956	2.38927200	25.29527000	6.26845500
10.39999955	1.91129400	25.29527000	5.89320800
10.59999954	0.95533960	25.29527000	5.15501900
10.79999953	0.15871060	25.29527000	4.77977300
10.99999952	-0.47736220	25.29527000	4.77977300
11.19999951	-0.95533960	25.29527000	5.11195900
11.39999949	-0.95533960	25.29527000	5.47490100
11.59999948	-0.79601380	25.29527000	5.15501900
11.79999947	-0.63668800	25.29527000	5.15501900
11.99999946	-0.31803640	25.29527000	5.51796200
12.19999945	-0.15871060	25.29527000	5.53026500
12.39999943	-0.15871060	25.29527000	5.93626900
12.59999942	0.00000000	25.29527000	6.26845500
12.79999941	0.00000000	25.29527000	6.26845500
12.99999940	0.00000000	25.29527000	5.93626900
13.19999939	0.00000000	25.29527000	5.57332700
13.39999937	0.00000000	25.29527000	5.93626900
13.59999936	0.00000000	25.29527000	6.21924200
13.79999935	0.00000000	25.29527000	5.89320800
13.99999934	-0.15871060	25.29527000	5.15501900
14.19999933	-0.15871060	25.29527000	4.82898600
14.39999932	-0.15871060	25.29527000	5.11195900
14.59999930	-0.15871060	25.29527000	5.51796200
14.79999929	0.00000000	25.29527000	5.53026500
14.99999928	0.00000000	25.29527000	5.89320800
15.19999927	0.00000000	25.29527000	5.89320800
15.39999926	0.00000000	25.29527000	5.57332700
15.59999924	0.00000000	25.29527000	5.93626900
15.79999923	0.00000000	25.29527000	6.26845500
15.99999922	0.00000000	25.29527000	6.31151500
16.19999921	0.00000000	25.29527000	6.26845500
16.39999920	-0.15871060	25.29527000	5.93626900
16.59999919	-0.15871060	25.33834000	5.57332700
16.79999917	-0.15871060	25.71358000	5.89320800
16.99999916	-0.15871060	26.45792000	5.89320800
17.19999915	0.00000000	26.83317000	5.53026500
17.39999914	0.00000000	26.87623000	5.56717500
17.59999913	0.00000000	26.87623000	5.53026500
17.79999911	0.00000000	26.83317000	5.93626900
17.99999910	0.00000000	26.36565000	6.26845500
18.19999909	0.00000000	24.87697000	6.31151500
18.39999908	0.00000000	22.96998000	6.26845500
18.59999907	0.00000000	21.75812000	5.93626900
18.79999905	0.00000000	20.59547000	5.57332700
18.99999904	-0.15871060	19.90034000	5.93626900
19.19999903	0.00000000	20.68774000	6.21924200
19.39999902	0.00000000	22.64394000	5.93626900
19.59999901	0.00000000	25.80585000	5.57332700
19.79999900	0.00000000	30.03814000	5.93626900
19.99999898	0.00000000	34.23351000	6.21924200
20.19999897	0.00000000	36.88484000	5.93626900
20.39999896	0.00000000	36.88484000	5.57332700
20.59999895	0.00000000	34.14124000	5.93626900
20.79999894	0.00000000	29.06619000	6.26845500
20.99999892	0.00000000	22.04109000	6.31151500
21.19999891	0.00000000	14.36393000	6.31151500
21.39999890	-0.15871060	7.80634800	6.31151500
21.59999889	0.00000000	4.45374000	6.31151500
21.79999888	0.00000000	5.66560000	6.26845500
21.99999886	0.00000000	12.30930000	5.89320800
22.19999885	0.00000000	23.11147000	5.15501900
22.39999884	0.00000000	35.90059000	4.77977300
22.59999883	0.00000000	47.81619000	4.73671200
22.79999882	0.00000000	55.86245000	4.77977300
22.99999881	0.00000000	57.30807000	5.15501900
23.19999879	0.00000000	51.07652000	5.89320800
23.39999878	0.00000000	37.91216000	6.31151500
23.59999877	-0.15871060	20.50935000	6.72982200
23.79999876	0.00000000	2.73745100	7.47416300
23.99999875	0.00000000	-11.50344000	7.80019600
24.19999873	0.00000000	-18.34400000	7.42495000
24.39999872	0.00000000	-15.22515000	6.26845500
24.59999871	0.00000000	-2.43602300	4.68750000
24.79999870	0.00000000	17.29208000	2.78051200
24.99999869	0.00000000	40.08981000	0.87967510
25.19999867	0.00000000	60.51919000	0.13533460
25.39999866	0.00000000	73.59743000	0.46136810
25.59999865	0.00000000	75.87352000	1.66707700
25.79999864	-0.15871060	66.20325000	3.66633800
25.99999863	0.00000000	46.88730000	6.77903500
26.19999862	0.00000000	22.13336000	10.62992000
26.39999860	0.00000000	-2.47908400	14.07480000
26.59999859	0.00000000	-20.66314000	16.39395000
26.79999858	0.00000000	-28.02042000	16.71998000
26.99999857	0.00000000	-23.78199000	14.67766000
27.19999856	0.00000000	-8.29232200	9.60875900
27.39999854	0.00000000	14.78223000	1.95004900
27.59999853	0.00000000	39.53617000	-5.71481200
27.79999852	-0.15871060	60.42692000	-11.56496000
27.99999851	0.00000000	73.17297000	-14.58538000
28.19999850	0.00000000	74.76009000	-13.74877000
28.39999848	0.00000000	65.17593000	-8.27386800
28.59999847	0.00000000	47.44094000	1.01501000
28.79999846	0.00000000	25.76279000	12.58612000
28.99999845	0.00000000	4.87204700	23.73892000
29.19999844	0.00000000	-10.99286000	31.45300000
29.39999843	0.00000000	-18.34400000	34.14124000
29.59999841	0.00000000	-15.73573000	30.94242000
29.79999840	0.00000000	-4.61368100	21.64739000
29.99999839	-0.15871060	11.66339000	7.71407400
30.19999838	-0.15871060	29.81668000	-7.67101300
30.39999837	0.00000000	46.04453000	-21.17987000
30.59999835	0.00000000	56.19463000	-29.26919000
30.79999834	0.00000000	59.35654000	-30.43184000
30.99999833	0.00000000	55.48720000	-24.16338000
31.19999832	0.00000000	45.11565000	-11.01132000
31.39999831	0.00000000	31.61909000	6.31766700
31.59999829	0.00000000	18.03642000	23.68971000
31.79999828	0.00000000	6.77903500	37.21087000
31.99999827	0.00000000	0.17224410	44.18061000
32.19999826	-0.15871060	-1.03346500	43.01796000
32.39999825	0.00000000	3.19881900	34.14739000
32.59999824	0.00000000	11.66339000	19.46358000
32.79999822	0.00000000	22.13336000	2.04232300
32.99999821	0.00000000	32.56028000	-14.54847000
33.19999820	0.00000000	40.69882000	-26.94390000
33.39999819	0.00000000	44.56200000	-32.34498000
33.59999818	0.00000000	43.86073000	-30.05659000
33.79999816	0.00000000	38.84104000	-20.39862000
33.99999815	0.00000000	31.15772000	-5.71481200
34.19999814	0.00000000	22.68701000	10.86983000
34.39999813	0.00000000	15.71112000	25.96580000
34.59999812	0.00000000	11.79872000	36.00517000
34.79999810	0.00000000	11.01747000	39.53002000
34.99999809	0.00000000	13.71186000	35.62992000
35.19999808	0.00000000	19.06373000	25.27067000
35.39999807	0.00000000	25.20300000	11.00517000
35.59999806	0.00000000	30.64714000	-3.62942900
35.79999805	0.00000000	34.09818000	-15.24360000
35.99999803	0.00000000	34.87943000	-21.41978000
36.19999802	0.00000000	32.56028000	-21.05069000
36.39999801	0.00000000	27.98966000	-14.16708000
36.59999800	0.00000000	22.64394000	-3.02042300
36.79999799	0.00000000	18.41166000	9.25196800
36.99999797	0.00000000	16.45546000	19.69119000
37.19999796	0.00000000	16.83071000	25.46137000
37.39999795	0.00000000	19.52510000	25.87352000
37.59999794	0.00000000	23.71432000	20.48474000
37.79999793	0.00000000	27.98966000	10.96211000
37.99999791	0.00000000	31.48376000	0.63976370
38.19999790	0.00000000	33.76599000	-7.43725300
38.39999789	0.00000000	33.76599000	-10.87598000
38.59999788	0.00000000	31.48376000	-9.01205700
38.79999787	0.00000000	27.98966000	-2.51599400
38.99999786	0.00000000	23.71432000	6.31151500
39.19999784	0.00000000	19.48204000	15.09596000
39.39999783	0.00000000	16.36319000	21.17987000
39.59999782	0.00000000	14.82529000	21.97957000
39.79999781	0.00000000	15.20054000	17.79035000
39.99999780	0.00000000	17.52584000	10.07628000
40.19999778	0.00000000	21.01993000	0.51058070
40.39999777	0.00000000	25.29527000	-7.90477300
40.59999776	0.00000000	29.52756000	-12.50615000
40.79999775	0.00000000	32.64640000	-12.13091000
40.99999774	0.00000000	34.23351000	-6.78518600
41.19999772	0.00000000	34.18430000	1.66707700
41.39999771	0.00000000	32.27116000	10.91289000
41.59999770	0.00000000	28.78937000	19.00221000
41.79999769	0.00000000	24.92003000	23.56053000
41.99999768	0.00000000	21.01993000	23.22835000
42.19999767	0.00000000	17.94414000	18.25787000
42.39999765	0.00000000	16.36319000	10.58686000
42.59999764	0.00000000	16.36319000	2.08538400
42.79999763	0.00000000	17.90108000	-5.20423200
42.99999762	0.00000000	20.59547000	-9.47957600
43.19999761	0.00000000	23.67126000	-9.89788300
43.39999759	0.00000000	26.36565000	-6.82824800
43.59999758	0.00000000	27.94660000	-1.07037400
43.79999757	0.00000000	28.41412000	5.80708600
43.99999756	0.00000000	28.41412000	11.60802000
44.19999755	0.00000000	28.03888000	15.09596000
44.39999753	0.00000000	27.29453000	15.92642000
44.59999752	0.00000000	26.91929000	14.03174000
44.79999751	0.00000000	26.87623000	10.62992000
44.99999750	0.00000000	26.87623000	6.72982200
45.19999749	0.00000000	26.78395000	3.24803100
45.39999748	0.00000000	25.94734000	0.55364170
45.59999746	0.00000000	23.67126000	-0.64591530
45.79999745	0.00000000	20.97072000	-0.28297240
45.99999744	0.00000000	18.59621000	0.87967510
46.19999743	0.00000000	16.32013000	3.19881900
46.39999742	0.00000000	15.24975000	5.85014700
46.59999740	0.00000000	16.40625000	7.80019600
46.79999739	0.00000000	19.56816000	9.00590400
46.99999738	0.00000000	24.60015000	9.38115100
47.19999737	0.00000000	30.78248000	8.96284400
47.39999736	0.00000000	36.14050000	7.43110200
47.59999734	0.00000000	39.62844000	5.11195900
47.79999733	0.00000000	39.91141000	2.82972400
47.99999732	0.00000000	36.41732000	0.87967510
48.19999731	0.00000000	29.48450000	0.13533460
48.39999730	0.00000000	20.97072000	0.51058070
48.59999729	0.00000000	12.87525000	2.08538400
48.79999727	0.00000000	6.73597400	4.77977300
48.99999726	0.00000000	4.87204700	7.84940900
49.19999725	0.00000000	7.94168200	10.53765000
49.39999724	0.00000000	15.24975000	12.11860000
49.59999723	0.00000000	24.87697000	12.45079000
49.79999721	0.00000000	34.14124000	11.28199000
49.99999720	0.00000000	41.11712000	8.17544300
50.19999719	0.00000000	44.14370000	4.36146600
50.39999718	0.00000000	42.23671000	0.51058070
50.59999717	-0.15871060	35.67913000	-2.18380900
50.79999715	0.00000000	26.45792000	-2.97736200
50.99999714	-0.15871060	16.83071000	-2.22687000
51.19999713	0.00000000	9.56569900	0.13533460
51.39999712	0.00000000	6.82824800	3.62327700
51.59999711	0.00000000	9.06126900	7.84940900
51.79999710	0.00000000	14.82529000	11.65723000
51.99999708	0.00000000	22.60088000	13.61343000
52.19999707	0.00000000	31.02239000	13.65650000
52.39999706	0.00000000	37.53691000	12.07554000
52.59999705	0.00000000	39.81914000	8.96284400
52.79999704	0.00000000	37.57997000	4.77977300
52.99999702	-0.15871060	31.44069000	0.97194880
53.19999701	0.00000000	23.80659000	-1.02116100
53.39999700	0.00000000	16.83071000	-1.43946800
53.59999699	0.00000000	12.22318000	-0.64591530
53.79999698	0.00000000	11.06053000	1.66707700
53.99999696	0.00000000	13.75492000	4.68750000
54.19999695	0.00000000	19.48204000	7.38188900
54.39999694	0.00000000	26.36565000	8.91978400
54.59999693	0.00000000	32.13582000	8.96284400
54.79999692	0.00000000	35.25467000	7.84940900
54.99999691	0.00000000	35.25467000	6.31151500
55.19999689	0.00000000	32.18504000	4.77977300
55.39999688	-0.15871060	26.83317000	3.66633800
55.59999687	0.00000000	21.06299000	3.66633800
55.79999686	0.00000000	16.40625000	4.77977300
55.99999685	0.00000000	13.75492000	6.31151500
56.19999683	-0.15871060	14.13017000	7.84940900
56.39999682	0.00000000	17.56890000	8.91978400
56.59999681	0.00000000	22.50861000	8.50147600
56.79999680	0.00000000	27.57136000	6.22539300
56.99999679	0.00000000	31.39763000	3.15575800
57.19999677	0.00000000	33.34769000	0.09227362
57.39999676	0.00000000	32.60334000	-2.18380900
57.59999675	0.00000000	29.94586000	-2.50984200
57.79999674	0.00000000	26.45792000	-0.60285430
57.99999673	0.00000000	22.60088000	3.24803100
58.19999672	0.00000000	19.52510000	7.89247000
58.39999670	0.00000000	17.94414000	12.49385000
58.59999669	0.00000000	17.94414000	15.88336000
58.79999668	0.00000000	19.48204000	16.25861000
58.99999667	0.00000000	22.17643000	13.61343000
59.19999666	0.00000000	25.20300000	8.96284400
59.39999664	0.00000000	27.52830000	3.15575800
59.59999663	0.00000000	28.32185000	-2.60211600
59.79999662	0.00000000	27.98966000	-6.82824800
59.99999661	-0.15871060	26.83317000	-8.31692900
60.19999660	0.00000000	25.29527000	-6.36687900
60.39999658	0.00000000	23.75738000	-0.97810030
60.59999657	0.00000000	22.60088000	6.31766700
60.79999656	0.00000000	22.22564000	13.61343000
60.99999655	0.00000000	22.60088000	19.00221000
61.19999654	0.00000000	23.71432000	20.90920000
61.39999653	0.00000000	24.82775000	19.00221000
61.59999651	0.00000000	25.25221000	13.61343000
61.79999650	0.00000000	25.29527000	6.31766700
61.99999649	0.00000000	25.20300000	-1.07037400
62.19999648	-0.15871060	24.45866000	-7.20349400
62.39999647	0.00000000	22.96998000	-10.63607000
62.59999645	0.00000000	22.22564000	-9.89788300
62.79999644	0.00000000	22.17643000	-5.71481200
62.99999643	0.00000000	22.55167000	0.51058070
63.19999642	0.00000000	23.38214000	7.84940900
63.39999641	0.00000000	24.50787000	14.76993000
63.59999639	0.00000000	26.08268000	19.37131000
63.79999638	0.00000000	27.15920000	20.57702000
63.99999637	0.00000000	27.57136000	18.25787000
64.19999636	0.00000000	26.78395000	13.28125000
64.39999635	0.00000000	25.33834000	6.68676100
64.59999634	0.00000000	24.13263000	0.17839570
64.79999632	0.00000000	23.33907000	-4.87819900
64.99999631	0.00000000	22.55167000	-7.20349400
65.19999630	0.00000000	22.22564000	-6.87746000
65.39999629	0.00000000	22.60088000	-4.18307100
65.59999628	0.00000000	23.71432000	0.04306102
65.79999626	0.00000000	24.87697000	4.69365100
65.99999625	0.00000000	25.62746000	8.96284400
66.19999624	0.00000000	25.99040000	12.11860000
66.39999623	0.00000000	25.20300000	14.07480000
66.59999622	0.00000000	23.75738000	14.85605000
66.79999620	0.00000000	22.55167000	14.03174000
66.99999619	-0.15871060	21.80118000	11.74951000
67.19999618	0.00000000	21.43824000	8.26771600
67.39999617	0.00000000	22.26870000	4.77977300
67.59999616	0.00000000	24.13263000	1.62401600
67.79999615	0.00000000	26.45792000	-1.11343500
67.99999613	0.00000000	28.36491000	-3.06348400
68.19999612	0.00000000	29.52756000	-4.22613100
68.39999611	0.00000000	29.48450000	-4.14000900
68.59999610	0.00000000	27.90354000	-2.18380900
68.79999609	0.00000000	24.82775000	1.62401600
68.99999607	0.00000000	20.97072000	5.89320800
69.19999606	0.00000000	17.52584000	9.84867000
69.39999605	0.00000000	15.20054000	13.69956000
69.59999604	0.00000000	14.87451000	16.35089000
69.79999603	0.00000000	16.83071000	16.71998000
69.99999601	0.00000000	21.06299000	14.76993000
70.19999600	0.00000000	26.40871000	10.53765000
70.39999599	0.00000000	31.10851000	5.15501900
70.59999598	0.00000000	34.60876000	0.09227362
70.79999597	0.00000000	36.46653000	-4.14000900
70.99999596	0.00000000	35.25467000	-6.40994000
71.19999594	0.00000000	31.06545000	-5.67175200
71.39999593	0.00000000	25.29527000	-2.60211600
71.59999592	0.00000000	19.48204000	1.99311000
71.79999591	0.00000000	14.82529000	7.00664300
71.99999590	0.00000000	12.13091000	10.86983000
72.19999588	0.00000000	12.13091000	13.23819000
72.39999587	0.00000000	14.82529000	13.61343000
72.59999586	0.00000000	19.48204000	12.11860000
72.79999585	0.00000000	25.25221000	9.38115100
72.99999584	0.00000000	30.64714000	5.93626900
73.19999582	0.00000000	34.14124000	2.50369100
73.39999581	0.00000000	35.34695000	0.59670270
73.59999580	0.00000000	34.14124000	0.51058070
73.79999579	0.00000000	30.69020000	1.62401600
73.99999578	0.00000000	25.71358000	3.15575800
74.19999577	0.00000000	21.06299000	4.68750000
74.39999575	0.00000000	17.56890000	5.80093500
74.59999574	0.00000000	15.62500000	5.80093500
74.79999573	0.00000000	15.98794000	4.73671200
74.99999572	0.00000000	17.85802000	3.57406500
75.19999571	0.00000000	20.59547000	2.82357300
75.39999569	0.00000000	23.67126000	2.50369100
75.59999568	0.00000000	26.40871000	3.66633800
75.79999567	0.00000000	28.32185000	5.93626900
75.99999566	0.00000000	29.10925000	8.26771600
76.19999565	0.00000000	28.36491000	10.58686000
76.39999563	0.00000000	26.87623000	12.03248000
76.59999562	0.00000000	25.33834000	11.65723000
76.79999561	0.00000000	24.18184000	9.29502900
76.99999560	0.00000000	23.75738000	5.47490100
77.19999559	0.00000000	23.71432000	0.83661410
77.39999558	0.00000000	23.71432000	-2.97736200
77.59999556	0.00000000	23.71432000	-5.29650500
77.79999555	0.00000000	23.67126000	-5.24729300
77.99999554	0.00000000	23.29601000	-2.60211600
78.19999553	0.00000000	22.50861000	1.66707700
78.39999552	0.00000000	21.80118000	6.68676100
78.59999550	0.00000000	21.38902000	11.70029000
78.79999549	0.00000000	21.85039000	15.14518000
78.99999548	0.00000000	22.96998000	16.30167000
79.19999547	0.00000000	24.92003000	14.76993000
79.39999546	0.00000000	26.83317000	10.95595000
79.59999544	0.00000000	28.36491000	6.35457700
79.79999543	0.00000000	29.10925000	2.08538400
79.99999542	0.00000000	28.32185000	-1.07037400
80.19999541	0.00000000	26.40871000	-3.02042300
80.39999540	0.00000000	23.71432000	-3.76476400
80.59999539	0.00000000	21.01993000	-2.60211600
80.79999537	0.00000000	19.06373000	0.04306102
80.99999536	0.00000000	17.94414000	3.15575800
81.19999535	0.00000000	18.31939000	6.26845500
81.39999534	0.00000000	20.22022000	9.00590400
81.59999533	0.00000000	22.55167000	10.96211000
81.79999531	0.00000000	25.29527000	12.11860000
81.99999530	0.00000000	27.94660000	12.11860000
82.19999529	0.00000000	29.48450000	10.96211000
82.39999528	0.00000000	29.48450000	9.00590400
82.59999527	0.00000000	27.98966000	6.26845500
82.79999525	0.00000000	25.67052000	3.19881900
82.99999524	0.00000000	23.38214000	0.46751960
83.19999523	0.00000000	21.43824000	-1.48868100
83.39999522	0.00000000	20.64468000	-2.64517700
83.59999521	0.00000000	20.59547000	-2.60211600
83.79999520	0.00000000	21.01993000	-1.07037400
83.99999518	0.00000000	22.13336000	1.66707700
84.19999517	0.00000000	23.29601000	5.15501900
84.39999516	0.00000000	24.08957000	9.00590400
84.59999515	0.00000000	24.87697000	12.07554000
84.79999514	0.00000000	25.25221000	13.65650000
84.99999512	0.00000000	25.29527000	13.65650000
85.19999511	0.00000000	25.29527000	12.03248000
85.39999510	0.00000000	25.29527000	8.58759800
85.59999509	0.00000000	25.29527000	3.94931100
85.79999508	0.00000000	25.29527000	-0.28297240
85.99999506	0.00000000	25.25221000	-3.76476400
86.19999505	0.00000000	24.87697000	-5.25344500
86.39999504	0.00000000	24.08957000	-4.13385800
86.59999503	0.00000000	23.33907000	-1.07037400
86.79999502	0.00000000	22.50861000	3.20497000
86.99999501	0.00000000	21.80118000	7.84940900
87.19999499	0.00000000	21.38902000	12.03248000
87.39999498	0.00000000	21.80118000	14.35162000
87.59999497	0.00000000	22.55167000	13.98253000
87.79999496	0.00000000	23.75738000	11.65723000
87.99999495	0.00000000	25.25221000	7.43110200
88.19999493	0.00000000	26.40871000	2.46063000
88.39999492	0.00000000	26.78395000	-1.39640700
88.59999491	0.00000000	26.40871000	-3.71555100
88.79999490	0.00000000	25.25221000	-3.71555100
88.99999489	0.00000000	23.75738000	-1.39640700
89.19999487	0.00000000	22.55167000	2.46063000
89.39999486	0.00000000	21.80118000	7.43110200
89.59999485	0.00000000	21.38902000	11.61417000
89.79999484	0.00000000	21.80118000	13.61343000
89.99999483	0.00000000	22.50861000	13.61343000
90.19999482	0.00000000	23.33907000	11.61417000
90.39999480	0.00000000	24.08957000	7.38188900
90.59999479	0.00000000	24.87697000	2.08538400
90.79999478	0.00000000	25.25221000	-2.14074800
90.99999477	0.00000000	25.25221000	-4.09079700
91.19999476	0.00000000	24.87697000	-3.71555100
91.39999474	0.00000000	24.13263000	-1.02116100
91.59999473	0.00000000	23.75738000	3.20497000
91.79999472	-0.15871060	23.75738000	7.80019600
91.99999471	0.00000000	24.13263000	11.65723000
92.19999470	0.00000000	24.82775000	13.56422000
92.39999468	0.00000000	24.82775000	13.18898000
92.59999467	0.00000000	24.08957000	10.49459000
92.79999466	0.00000000	23.33907000	6.26845500
92.99999465	0.00000000	22.50861000	1.66707700
93.19999464	0.00000000	21.75812000	-2.14074800
93.39999463	0.00000000	20.97072000	-3.67249000
93.59999461	0.00000000	20.64468000	-2.55905500
93.79999460	0.00000000	21.06299000	0.51058070
93.99999459	0.00000000	22.60088000	4.73671200
94.19999458	0.00000000	24.92003000	8.96284400
94.39999457	0.00000000	27.20841000	12.03248000
94.59999455	0.00000000	29.15231000	13.14591000
94.79999454	0.00000000	29.85974000	11.65723000
94.99999453	0.00000000	29.10925000	8.22465500
95.19999452	0.00000000	26.78395000	4.40452700
95.39999451	0.00000000	23.71432000	0.88582670
95.59999449	0.00000000	20.59547000	-1.39640700
95.79999448	0.00000000	17.85802000	-2.18380900
95.99999447	0.00000000	15.98794000	-0.97810030
96.19999446	0.00000000	15.62500000	1.99311000
96.39999445	0.00000000	17.56890000	5.47490100
96.59999444	0.00000000	20.97072000	8.17544300
96.79999442	0.00000000	24.87697000	10.11934000
96.99999441	0.00000000	28.36491000	10.45152000
97.19999440	0.00000000	31.06545000	9.00590400
97.39999439	0.00000000	32.22810000	6.72982200
97.59999438	0.00000000	31.44069000	4.77977300
97.79999436	0.00000000	29.10925000	3.19881900
97.99999435	0.00000000	25.25221000	2.04232300
98.19999434	0.00000000	21.01993000	1.66707700
98.39999433	0.00000000	17.52584000	2.04232300
98.59999432	0.00000000	15.20054000	3.15575800
98.79999430	0.00000000	14.82529000	4.31840500
98.99999429	0.00000000	16.32013000	5.11195900
99.19999428	0.00000000	19.06373000	5.89320800
99.39999427	0.00000000	22.55167000	6.26845500
99.59999426	0.00000000	26.40871000	6.31151500
99.79999425	0.00000000	29.48450000	6.31151500
99.99999423	0.00000000	31.06545000	6.35457700
100.19999422	0.00000000	31.10851000	6.72982200
100.39999421	0.00000000	29.94586000	7.42495000
100.59999420	0.00000000	27.94660000	7.38188900
100.79999419	0.00000000	24.87697000	6.26845500
100.99999417	0.00000000	21.43824000	4.73671200
101.19999416	0.00000000	19.10679000	3.15575800
101.39999415	0.00000000	17.85802000	1.62401600
101.59999414	0.00000000	17.48277000	0.51058070
101.79999413	0.00000000	17.90108000	0.51058070
101.99999411	0.00000000	19.48204000	1.66707700
102.19999410	0.00000000	22.13336000	3.61712600
102.39999409	0.00000000	24.82775000	6.31151500
102.59999408	0.00000000	26.78395000	8.96284400
102.79999407	0.00000000	27.98966000	10.53765000
102.99999406	0.00000000	28.36491000	10.91289000
103.19999404	0.00000000	27.94660000	10.11934000
103.39999403	0.00000000	26.40871000	7.80019600
103.59999402	0.00000000	24.13263000	4.73671200
103.79999401	0.00000000	22.17643000	1.66707700
103.99999400	0.00000000	20.59547000	-0.64591530
104.19999398	0.00000000	19.48204000	-1.43946800
104.39999397	0.00000000	19.48204000	-1.06422200
104.59999396	0.00000000	20.59547000	0.51058070
104.79999395	0.00000000	22.13336000	3.19881900
104.99999394	0.00000000	23.67126000	6.26845500
105.19999392	0.00000000	24.87697000	8.91978400
105.39999391	0.00000000	25.62746000	10.07628000
105.59999390	0.00000000	26.03961000	9.38115100
105.79999389	0.00000000	25.62746000	7.84940900
105.99999388	0.00000000	24.87697000	5.89320800
106.19999387	0.00000000	23.67126000	3.57406500
106.39999385	0.00000000	22.17643000	1.71013800
106.59999384	0.00000000	21.06299000	0.87967510
106.79999383	0.00000000	21.06299000	1.29183100
106.99999382	0.00000000	22.17643000	2.41141700
107.19999381	0.00000000	23.67126000	4.36146600
107.39999379	0.00000000	24.87697000	6.22539300
107.59999378	0.00000000	25.62746000	7.42495000
107.79999377	0.00000000	25.99040000	7.80019600
107.99999376	0.00000000	25.20300000	7.42495000
108.19999375	0.00000000	23.75738000	6.26845500
108.39999374	0.00000000	22.60088000	4.73671200
108.59999372	0.00000000	22.13336000	3.19881900
108.79999371	0.00000000	21.71506000	2.04232300
108.99999370	0.00000000	21.01993000	1.71013800
109.19999369	0.00000000	21.06299000	2.46063000
109.39999368	0.00000000	22.17643000	4.36146600
109.59999366	0.00000000	23.67126000	6.22539300
109.79999365	0.00000000	24.82775000	7.42495000
109.99999364	0.00000000	25.25221000	7.84940900
110.19999363	0.00000000	25.25221000	7.84940900
110.39999362	0.00000000	24.87697000	7.42495000
110.59999360	0.00000000	24.08957000	6.26845500
110.79999359	0.00000000	23.33907000	4.73671200
110.99999358	0.00000000	22.55167000	3.19881900
111.19999357	0.00000000	22.17643000	2.04232300
111.39999356	0.00000000	22.13336000	1.66707700
111.59999355	0.00000000	22.13336000	2.04232300
111.79999353	0.00000000	22.17643000	3.15575800
111.99999352	0.00000000	22.55167000	4.31840500
112.19999351	0.00000000	23.29601000	5.11195900
112.39999350	0.00000000	23.67126000	5.89320800
112.59999349	0.00000000	23.71432000	6.26845500
112.79999347	0.00000000	23.71432000	6.31151500
112.99999346	0.00000000	23.71432000	6.26845500
113.19999345	0.00000000	23.71432000	5.89320800
113.39999344	0.00000000	23.67126000	5.15501900
113.59999343	0.00000000	23.29601000	4.77977300
113.79999341	0.00000000	22.60088000	4.69365100
113.99999340	0.00000000	22.55167000	4.31840500
114.19999339	0.00000000	22.87770000	3.57406500
114.39999338	0.00000000	22.55167000	3.19881900
114.59999337	0.00000000	22.55167000	3.15575800
114.79999336	0.00000000	22.92076000	3.15575800
114.99999334	0.00000000	22.92692000	3.15575800
115.19999333	0.00000000	23.33907000	3.19881900
115.39999332	0.00000000	23.67126000	3.57406500
115.59999331	0.00000000	23.71432000	4.36146600
115.79999330	0.00000000	23.71432000	5.11195900
115.99999328	0.00000000	23.67126000	5.89320800
116.19999327	0.00000000	23.29601000	6.26845500
116.39999326	0.00000000	22.55167000	6.31151500
116.59999325	0.00000000	22.17643000	6.26845500
116.79999324	0.00000000	22.13336000	5.89320800
116.99999322	0.00000000	22.17643000	5.11195900
117.19999321	0.00000000	22.55167000	4.36146600
117.39999320	0.00000000	23.33907000	3.53100400
117.59999319	0.00000000	24.08957000	2.78051200
117.79999318	0.00000000	24.87697000	2.04232300
117.99999317	0.00000000	25.20300000	2.04232300
118.19999315	0.00000000	24.87697000	2.78051200
118.39999314	0.00000000	24.08957000	3.57406500
118.59999313	0.00000000	23.29601000	4.73671200
118.79999312	0.00000000	22.13336000	5.85014700
118.99999311	0.00000000	21.01993000	6.26845500
119.19999309	0.00000000	20.59547000	6.31151500
119.39999308	0.00000000	20.59547000	6.31151500
119.59999307	0.00000000	21.01993000	6.26845500
119.79999306	0.00000000	22.17643000	5.89320800
119.99999305	0.00000000	23.67126000	5.15501900
120.19999303	0.00000000	24.87697000	4.77977300
120.39999302	0.00000000	25.67052000	4.73671200
120.59999301	0.00000000	26.40871000	4.73671200
120.79999300	0.00000000	26.40871000	4.73671200
120.99999299	0.00000000	25.67052000	4.73671200
121.19999298	0.00000000	24.87697000	4.73671200
121.39999296	0.00000000	23.67126000	4.73671200
121.59999295	0.00000000	22.17643000	4.73671200
121.79999294	0.00000000	21.01993000	4.73671200
121.99999293	0.00000000	20.59547000	4.73671200
122.19999292	0.00000000	20.59547000	4.73671200
122.39999290	0.00000000	20.97072000	4.73671200
122.59999289	0.00000000	21.75812000	4.77977300
122.79999288	0.00000000	22.50861000	5.11195900
122.99999287	-0.15871060	23.33907000	5.51796200
123.19999286	0.00000000	24.08957000	5.48105300
123.39999284	0.00000000	24.87697000	5.51796200
123.59999283	0.00000000	25.25221000	5.06274600
123.79999282	0.00000000	25.25221000	4.36146600
123.99999281	0.00000000	24.87697000	3.57406500
124.19999280	0.00000000	24.08957000	3.19881900
124.39999279	0.00000000	23.29601000	3.15575800
124.59999277	0.00000000	22.13336000	3.15575800
124.79999276	0.00000000	21.01993000	3.19881900
124.99999275	0.00000000	20.59547000	3.57406500
125.19999274	0.00000000	20.59547000	4.36146600
125.39999273	0.00000000	20.97072000	5.11195900
125.59999271	0.00000000	21.75812000	5.89320800
125.79999270	0.00000000	22.55167000	6.26845500
125.99999269	0.00000000	23.71432000	6.26845500
126.19999268	0.00000000	24.82775000	5.89320800
126.39999267	0.00000000	25.25221000	5.15501900
126.59999265	0.00000000	25.25221000	4.77977300
126.79999264	0.00000000	24.87697000	4.69365100
126.99999263	0.00000000	24.08957000	4.31840500
127.19999262	0.00000000	23.29601000	3.57406500
127.39999261	0.00000000	22.13336000	3.24803100
127.59999260	0.00000000	21.01993000	3.57406500
127.79999258	0.00000000	20.64468000	4.31840500
127.99999257	0.00000000	20.97072000	4.69365100
128.19999256	0.00000000	21.75812000	4.73671200
128.39999255	0.00000000	22.55167000	4.77977300
128.59999254	0.00000000	23.71432000	5.11195900
128.79999252	0.00000000	24.82775000	5.47490100
128.99999251	0.00000000	25.25221000	5.11195900
129.19999250	0.00000000	25.25221000	4.77977300
129.39999249	0.00000000	24.82775000	4.69365100
129.59999248	0.00000000	23.67126000	4.31840500
129.79999246	0.00000000	22.17643000	3.62327700
129.99999245	0.00000000	21.01993000	3.62327700
130.19999244	0.00000000	20.59547000	4.31840500
130.39999243	0.00000000	20.59547000	4.69365100
130.59999242	0.00000000	21.01993000	4.77977300
130.79999241	0.00000000	22.13336000	5.11195900
130.99999239	0.00000000	23.24680000	5.47490100
131.19999238	0.00000000	23.67126000	5.11195900
131.39999237	0.00000000	23.71432000	4.77977300
131.59999236	0.00000000	23.71432000	4.69365100
131.79999235	0.00000000	23.67126000	4.31840500
131.99999233	0.00000000	23.29601000	3.57406500
132.19999232	0.00000000	22.55167000	3.19881900
132.39999231	0.00000000	22.17643000	3.19881900
132.59999230	0.00000000	22.13336000	3.57406500
132.79999229	0.00000000	22.13336000	4.31840500
132.99999227	0.00000000	22.13336000	4.73671200
133.19999226	0.00000000	22.13336000	5.15501900
133.39999225	0.00000000	22.17643000	5.89320800
133.59999224	0.00000000	22.50861000	6.21924200
133.79999223	0.00000000	22.87770000	5.89320800
133.99999222	0.00000000	22.50861000	5.15501900
134.19999220	0.00000000	22.22564000	4.73671200
134.39999219	0.00000000	22.55167000	4.31840500
134.59999218	0.00000000	23.29601000	3.57406500
134.79999217	0.00000000	23.67126000	3.19881900
134.99999216	0.00000000	23.71432000	3.15575800
135.19999214	0.00000000	23.71432000	3.19881900
135.39999213	0.00000000	23.67126000	3.57406500
135.59999212	0.00000000	23.29601000	4.31840500
135.79999211	0.00000000	22.55167000	4.73671200
135.99999210	0.00000000	22.17643000	5.15501900
136.19999208	0.00000000	22.09030000	5.89320800
136.39999207	0.00000000	21.75812000	6.21924200
136.59999206	0.00000000	21.38902000	5.89320800
136.79999205	0.00000000	21.80118000	5.15501900
136.99999204	0.00000000	22.50861000	4.73671200
137.19999203	0.00000000	23.29601000	4.31840500
137.39999201	0.00000000	23.71432000	3.57406500
137.59999200	0.00000000	24.08957000	3.19881900
137.79999199	0.00000000	24.45866000	3.15575800
137.99999198	0.00000000	24.08957000	3.15575800
138.19999197	0.00000000	23.71432000	3.15575800
138.39999195	0.00000000	23.29601000	3.19881900
138.59999194	0.00000000	22.50861000	3.57406500
138.79999193	0.00000000	21.80118000	4.36146600
138.99999192	0.00000000	21.38902000	5.11195900
139.19999191	0.00000000	21.75812000	5.89320800
139.39999189	0.00000000	22.13336000	6.26845500
139.59999188	0.00000000	22.55167000	6.26845500
139.79999187	0.00000000	23.29601000	5.89320800
139.99999186	0.00000000	23.67126000	5.15501900
140.19999185	0.00000000	23.71432000	4.73671200
140.39999184	0.00000000	23.67126000	4.31840500
140.59999182	0.00000000	23.29601000	3.57406500
140.79999181	0.00000000	22.55167000	3.19881900
140.99999180	0.00000000	22.17643000	3.15575800
141.19999179	0.00000000	22.13336000	3.19881900
141.39999178	0.00000000	22.13336000	3.57406500
141.59999176	0.00000000	22.17643000	4.36146600
141.79999175	0.00000000	22.55167000	5.11195900
141.99999174	0.00000000	23.29601000	5.89320800
142.19999173	0.00000000	23.67126000	6.26845500
142.39999172	0.00000000	23.71432000	6.26845500
142.59999170	0.00000000	23.67126000	5.89320800
142.79999169	0.00000000	23.29601000	5.11195900
142.99999168	0.00000000	22.55167000	4.36146600
143.19999167	0.00000000	22.17643000	3.57406500
143.39999166	0.00000000	22.13336000	3.19881900
143.59999165	0.00000000	22.13336000	3.15575800
143.79999163	0.00000000	22.13336000	3.19881900
143.99999162	0.00000000	22.17643000	3.57406500
144.19999161	0.00000000	22.55167000	4.36146600
144.39999160	0.00000000	23.29601000	5.11195900
144.59999159	0.00000000	23.67126000	5.89320800
144.79999157	0.00000000	23.71432000	6.26845500
144.99999156	0.00000000	23.67126000	6.26845500
145.19999155	0.00000000	23.29601000	5.89320800
145.39999154	0.00000000	22.55167000	5.15501900
145.59999153	0.00000000	22.17643000	4.73671200
145.79999151	0.00000000	22.13336000	4.31840500
145.99999150	0.00000000	22.13336000	3.57406500
146.19999149	0.00000000	22.13336000	3.19881900
146.39999148	0.00000000	22.17643000	3.15575800
146.59999147	0.00000000	22.55167000	3.19881900
146.79999146	0.00000000	23.29601000	3.57406500
146.99999144	0.00000000	23.67126000	4.31840500
147.19999143	0.00000000	23.67126000	4.73671200
147.39999142	0.00000000	23.29601000	5.11195900
147.59999141	0.00000000	22.55167000	5.47490100
147.79999140	0.00000000	22.17643000	5.11195900
147.99999138	0.00000000	22.13336000	4.77977300
148.19999137	0.00000000	22.13336000	4.73671200
148.39999136	0.00000000	22.13336000	4.69365100
148.59999135	0.00000000	22.13336000	4.31840500
148.79999134	0.00000000	22.13336000	3.57406500
148.99999132	0.00000000	22.13336000	3.19881900
149.19999131	0.00000000	22.17643000	3.19881900
149.39999130	0.00000000	22.55167000	3.57406500
149.59999129	0.00000000	23.29601000	4.31840500
149.79999128	0.00000000	23.67126000	4.69365100
149.99999127	0.00000000	23.67126000	4.73671200
150.19999125	0.00000000	23.29601000	4.73671200
150.39999124	0.00000000	22.55167000	4.73671200
150.59999123	0.00000000	22.17643000	4.73671200
150.79999122	0.00000000	22.13336000	4.73671200
150.99999121	0.00000000	22.13336000	4.73671200
151.19999119	0.00000000	22.13336000	4.73671200
151.39999118	0.00000000	22.13336000	4.69365100
151.59999117	0.00000000	22.13336000	4.31840500
151.79999116	0.00000000	22.13336000	3.62327700
151.99999115	0.00000000	22.17643000	3.62327700
152.19999113	0.00000000	22.55167000	4.31840500
152.39999112	0.00000000	23.29601000	4.69365100
152.59999111	0.00000000	23.67126000	4.73671200
152.79999110	0.00000000	23.71432000	4.73671200
152.99999109	0.00000000	23.67126000	4.73671200
153.19999108	0.00000000	23.29601000	4.73671200
153.39999106	0.00000000	22.55167000	4.73671200
153.59999105	0.00000000	22.13336000	4.73671200
153.79999104	0.00000000	21.71506000	4.73671200
153.99999103	0.00000000	21.01993000	4.73671200
154.19999102	0.00000000	21.01993000	4.73671200
154.39999100	0.00000000	21.71506000	4.73671200
154.59999099	0.00000000	22.09030000	4.73671200
154.79999098	0.00000000	22.17643000	4.73671200
154.99999097	0.00000000	22.50861000	4.69365100
155.19999096	0.00000000	22.92076000	4.31840500
155.39999094	0.00000000	22.92692000	3.62327700
155.59999093	0.00000000	23.33907000	3.62327700
155.79999092	0.00000000	23.62205000	4.31840500
155.99999091	0.00000000	23.29601000	4.69365100
156.19999090	0.00000000	22.55167000	4.73671200
156.39999089	0.00000000	22.17643000	4.73671200
156.59999087	0.00000000	22.09030000	4.73671200
156.79999086	0.00000000	21.71506000	4.73671200
156.99999085	0.00000000	21.01993000	4.73671200
157.19999084	0.00000000	21.01993000	4.73671200
157.39999083	0.00000000	21.71506000	4.73671200
157.59999081	0.00000000	22.09030000	4.69365100
157.79999080	0.00000000	22.17643000	4.31840500
157.99999079	0.00000000	22.55167000	3.57406500
158.19999078	0.00000000	23.29601000	3.19881900
158.39999077	0.00000000	23.67126000	3.15575800
158.59999075	0.00000000	23.67126000	3.19881900
158.79999074	0.00000000	23.29601000	3.57406500
158.99999073	0.00000000	22.55167000	4.31840500
159.19999072	0.00000000	22.17643000	4.69365100
159.39999071	0.00000000	22.13336000	4.73671200
159.59999070	0.00000000	22.13336000	4.73671200
159.79999068	-0.15871060	22.13336000	4.73671200
159.99999067	0.00000000	22.13336000	4.73671200
160.19999066	0.00000000	22.13336000	4.73671200
160.39999065	0.00000000	22.13336000	4.73671200
160.59999064	0.00000000	22.13336000	4.69365100
160.79999062	0.00000000	22.13336000	4.31840500
160.99999061	0.00000000	22.13336000	3.57406500
161.19999060	0.00000000	22.13336000	3.24803100
161.39999059	0.00000000	22.17643000	3.57406500
161.59999058	0.00000000	22.55167000	4.31840500
161.79999056	0.00000000	23.29601000	4.69365100
161.99999055	0.00000000	23.67126000	4.73671200
162.19999054	0.00000000	23.67126000	4.73671200
162.39999053	0.00000000	23.29601000	4.73671200
162.59999052	-0.15871060	22.55167000	4.73671200
162.79999051	0.00000000	22.17643000	4.73671200
162.99999049	0.00000000	22.09030000	4.73671200
163.19999048	0.00000000	21.75812000	4.73671200
163.39999047	0.00000000	21.38902000	4.73671200
163.59999046	0.00000000	21.75812000	4.69365100
163.79999045	0.00000000	22.09030000	4.36146600
163.99999043	0.00000000	22.13336000	3.99237200
164.19999042	-0.15871060	22.17643000	4.31840500
164.39999041	0.00000000	22.55167000	4.31840500
164.59999040	0.00000000	23.29601000	3.99237200
164.79999039	0.00000000	23.67126000	4.36146600
164.99999037	0.00000000	23.67126000	4.69365100
165.19999036	0.00000000	23.29601000	4.73671200
165.39999035	0.00000000	22.55167000	4.73671200
165.59999034	0.00000000	22.17643000	4.73671200
165.79999033	0.00000000	22.09030000	4.73671200
165.99999032	0.00000000	21.75812000	4.73671200
166.19999030	0.00000000	21.38902000	4.73671200
166.39999029	0.00000000	21.75812000	4.73671200
166.59999028	0.00000000	22.09030000	4.73671200
166.79999027	0.00000000	22.13336000	4.73671200
166.99999026	0.00000000	22.13336000	4.73671200
167.19999024	0.00000000	22.13336000	4.73671200
167.39999023	0.00000000	22.13336000	4.73671200
167.59999022	0.00000000	22.13336000	4.73671200
167.79999021	0.00000000	22.13336000	4.73671200
167.99999020	0.00000000	22.13336000	4.73671200
168.19999018	0.00000000	22.13336000	4.73671200
168.39999017	0.00000000	22.13336000	4.73671200
168.59999016	0.00000000	22.13336000	4.73671200
168.79999015	0.00000000	22.13336000	4.73671200
168.99999014	0.00000000	22.13336000	4.73671200
169.19999013	0.00000000	22.13336000	4.73671200
169.39999011	0.00000000	22.13336000	4.73671200
169.59999010	0.00000000	22.13336000	4.73671200
169.79999009	0.00000000	22.13336000	4.73671200
169.99999008	0.00000000	22.13336000	4.73671200
170.19999007	0.00000000	22.13336000	4.73671200
170.39999005	0.00000000	22.13336000	4.73671200
170.59999004	0.00000000	22.13336000	4.73671200
170.79999003	0.00000000	22.13336000	4.73671200
170.99999002	0.00000000	22.13336000	4.69365100
171.19999001	0.00000000	22.13336000	4.36146600
171.39998999	0.00000000	22.13336000	3.94931100
171.59998998	0.00000000	22.13336000	3.98622000
171.79998997	0.00000000	22.13336000	3.94931100
171.99998996	0.00000000	22.13336000	4.36146600
172.19998995	0.00000000	22.13336000	4.69365100
172.39998994	0.00000000	22.13336000	4.73671200
172.59998992	0.00000000	22.13336000	4.73671200
172.79998991	0.00000000	22.13336000	4.73671200
172.99998990	0.00000000	22.13336000	4.73671200
173.19998989	0.00000000	22.13336000	4.73671200
173.39998988	0.00000000	22.13336000	4.73671200
173.59998986	0.00000000	22.13336000	4.73671200
173.79998985	0.00000000	22.13336000	4.73671200
173.99998984	0.00000000	22.17643000	4.73671200
174.19998983	0.00000000	22.50861000	4.73671200
174.39998982	0.00000000	22.87770000	4.73671200
174.59998980	0.00000000	22.50861000	4.73671200
174.79998979	0.00000000	22.17643000	4.73671200
174.99998978	0.00000000	22.13336000	4.73671200
175.19998977	0.00000000	22.13336000	4.73671200
175.39998976	0.00000000	22.13336000	4.73671200
175.59998975	0.00000000	22.13336000	4.73671200
175.79998973	0.00000000	22.13336000	4.73671200
175.99998972	0.00000000	22.13336000	4.73671200
176.19998971	0.00000000	22.13336000	4.73671200
176.39998970	0.00000000	22.13336000	4.73671200
176.59998969	0.00000000	22.13336000	4.73671200
176.79998967	0.00000000	22.13336000	4.73671200
176.99998966	0.00000000	22.13336000	4.69365100
177.19998965	0.00000000	22.13336000	4.36146600
177.39998964	0.00000000	22.13336000	3.99237200
177.59998963	0.00000000	22.13336000	4.36146600
177.79998961	0.00000000	22.13336000	4.69365100
177.99998960	0.00000000	22.13336000	4.73671200
178.19998959	0.00000000	22.13336000	4.73671200
178.39998958	0.00000000	22.13336000	4.73671200
178.59998957	0.00000000	22.13336000	4.73671200
178.79998956	0.00000000	22.13336000	4.73671200
178.99998954	0.00000000	22.13336000	4.73671200
179.19998953	0.00000000	22.13336000	4.69365100
179.39998952	0.00000000	22.13336000	4.36146600
179.59998951	0.00000000	22.13336000	3.94931100
179.79998950	0.00000000	22.13336000	3.98622000
179.99998948	0.00000000	22.13336000	3.90625000
180.19998947	0.00000000	22.13336000	3.94315900
180.39998946	0.00000000	22.13336000	3.53100400
180.59998945	0.00000000	22.13336000	3.24803100
180.79998944	0.00000000	22.13336000	3.57406500
180.99998942	0.00000000	22.13336000	4.31840500
181.19998941	0.00000000	22.13336000	4.69365100
181.39998940	0.00000000	22.13336000	4.73671200
181.59998939	0.00000000	22.13336000	4.73671200
181.79998938	0.00000000	22.13336000	4.73671200
181.99998937	0.00000000	22.13336000	4.73671200
182.19998935	0.00000000	22.13336000	4.69365100
182.39998934	0.00000000	22.13336000	4.31840500
182.59998933	0.00000000	22.13336000	3.57406500
182.79998932	0.00000000	22.13336000	3.19881900
182.99998931	0.00000000	22.13336000	3.15575800
183.19998929	0.00000000	22.13336000	3.15575800
183.39998928	0.00000000	22.13336000	3.19881900
183.59998927	0.00000000	22.13336000	3.57406500
183.79998926	0.00000000	22.13336000	4.31840500
183.99998925	0.00000000	22.13336000	4.69365100
184.19998923	0.00000000	22.13336000	4.73671200
184.39998922	0.00000000	22.13336000	4.73671200
184.59998921	0.00000000	22.13336000	4.73671200
184.79998920	0.00000000	22.13336000	4.73671200
184.99998919	0.00000000	22.13336000	4.69365100
185.19998918	0.00000000	22.13336000	4.31840500
185.39998916	0.00000000	22.17643000	3.57406500
185.59998915	0.00000000	22.50861000	3.19881900
185.79998914	0.00000000	22.87770000	3.15575800
185.99998913	0.00000000	22.50861000	3.15575800
186.19998912	0.00000000	22.17643000	3.15575800
186.39998910	0.00000000	22.13336000	3.15575800
186.59998909	0.00000000	22.13336000	3.19881900
186.79998908	0.00000000	22.13336000	3.57406500
186.99998907	0.00000000	22.13336000	4.31840500
187.19998906	0.00000000	22.13336000	4.69365100
187.39998904	0.00000000	22.13336000	4.73671200
187.59998903	0.00000000	22.13336000	4.73671200
187.79998902	0.00000000	22.13336000	4.73671200
187.99998901	0.00000000	22.13336000	4.73671200
188.19998900	0.00000000	22.13336000	4.69365100
188.39998899	0.00000000	22.13336000	4.31840500
188.59998897	0.00000000	22.13336000	3.57406500
188.79998896	0.00000000	22.13336000	3.19881900
188.99998895	0.00000000	22.13336000	3.15575800
189.19998894	0.00000000	22.13336000	3.15575800
189.39998893	0.00000000	22.13336000	3.15575800
189.59998891	0.00000000	22.09030000	3.19881900
189.79998890	0.00000000	21.71506000	3.57406500
189.99998889	0.00000000	20.97072000	4.31840500
190.19998888	0.00000000	20.64468000	4.69365100
190.39998887	0.00000000	20.97072000	4.69365100
190.59998885	0.00000000	21.71506000	4.36146600
190.79998884	0.00000000	22.09030000	3.99237200
190.99998883	0.00000000	22.13336000	4.36146600
191.19998882	0.00000000	22.13336000	4.64443900
191.39998881	0.00000000	22.13336000	4.31840500
191.59998880	0.00000000	22.13336000	3.57406500
191.79998878	0.00000000	22.13336000	3.19881900
191.99998877	0.00000000	22.13336000	3.15575800
192.19998876	0.00000000	22.13336000	3.15575800
192.39998875	-0.15871060	22.09030000	3.15575800
192.59998874	0.00000000	21.75812000	3.19881900
192.79998872	0.00000000	21.34596000	3.53100400
192.99998871	0.00000000	21.38287000	3.94315900
193.19998870	0.00000000	21.30290000	3.94931100
193.39998869	0.00000000	21.38287000	4.36146600
193.59998868	0.00000000	21.34596000	4.69365100
193.79998866	0.00000000	21.75812000	4.73671200
193.99998865	0.00000000	22.09030000	4.73671200
194.19998864	0.00000000	22.13336000	4.73671200
194.39998863	0.00000000	22.13336000	4.73671200
194.59998862	0.00000000	22.13336000	4.73671200
194.79998861	0.00000000	22.13336000	4.73671200
194.99998859	0.00000000	22.13336000	4.73671200
195.19998858	0.00000000	22.13336000	4.73671200
195.39998857	0.00000000	22.13336000	4.73671200
195.59998856	0.00000000	22.13336000	4.73671200
195.79998855	0.00000000	22.13336000	4.73671200
195.99998853	0.00000000	22.09030000	4.73671200
