Time	Channel A	Channel B	Channel C
(us)	(V)	(mV)	(mV)

-4.49999956	0.00000000	7.90477300	6.31151500
-4.29999957	0.00000000	7.90477300	6.31151500
-4.09999958	0.00000000	7.90477300	6.31151500
-3.89999959	0.00000000	7.90477300	6.31151500
-3.69999960	0.00000000	7.90477300	6.31151500
-3.49999962	0.00000000	7.90477300	6.31151500
-3.29999963	0.00000000	7.90477300	6.31151500
-3.09999964	0.00000000	7.90477300	6.31151500
-2.89999965	0.00000000	7.90477300	6.31151500
-2.69999966	0.00000000	7.90477300	6.31151500
-2.49999968	0.00000000	7.90477300	6.31151500
-2.29999969	0.00000000	7.90477300	6.31151500
-2.09999970	0.00000000	7.90477300	6.31151500
-1.89999971	0.00000000	7.90477300	6.31151500
-1.69999972	0.00000000	7.90477300	6.35457700
-1.49999973	0.00000000	7.90477300	6.68676100
-1.29999975	0.00000000	7.90477300	7.05585600
-1.09999976	0.00000000	7.90477300	6.68676100
-0.89999977	0.00000000	7.94783400	6.35457700
-0.69999978	0.00000000	8.28001900	6.31151500
-0.49999979	0.00000000	8.64911400	6.31151500
-0.29999981	0.15871060	8.28001900	6.31151500
-0.09999982	0.63668800	7.94783400	6.31151500
0.10000017	0.95533960	7.90477300	6.31151500
0.30000016	0.95533960	7.90477300	6.31151500
0.50000015	0.95533960	7.90477300	6.31151500
0.70000013	0.47736220	7.90477300	6.31151500
0.90000012	-0.47736220	7.90477300	6.31151500
1.10000011	-1.27399100	7.90477300	6.31151500
1.30000010	-2.22994600	7.90477300	6.31151500
1.50000009	-2.70792300	7.90477300	6.31151500
1.70000008	-2.54859700	7.90477300	6.31151500
1.90000006	-1.43331700	7.94783400	6.31151500
2.10000005	0.31803640	8.28001900	6.35457700
2.30000004	2.38927200	8.64911400	6.68676100
2.50000003	4.30056600	8.28001900	7.05585600
2.70000002	5.25652100	7.94783400	6.68676100
2.90000000	4.93786900	7.90477300	6.35457700
3.09999999	3.18590100	7.90477300	6.31151500
3.29999998	0.31803640	7.90477300	6.31151500
3.49999997	-3.02657500	7.90477300	6.31151500
3.69999996	-6.05315000	7.90477300	6.31151500
3.89999994	-7.80511800	7.94783400	6.35457700
4.09999993	-7.64579200	8.32308000	6.72982200
4.29999992	-5.41584600	9.01820900	7.47416300
4.49999991	-1.59264300	9.06742000	7.84940900
4.69999990	2.70792300	8.69832600	7.84940900
4.89999989	6.69045300	8.69217500	7.47416300
5.09999987	9.07972400	8.28001900	6.72982200
5.29999986	9.23905000	7.94783400	6.35457700
5.49999985	7.00848900	7.90477300	6.31151500
5.69999984	3.02657500	7.90477300	6.31151500
5.89999983	-1.75196900	7.90477300	6.31151500
6.09999981	-6.21247500	7.90477300	6.31151500
6.29999980	-8.92039900	7.90477300	6.35457700
6.49999979	-9.39837600	7.90477300	6.72982200
6.69999978	-7.64579200	7.90477300	7.47416300
6.89999977	-3.98191400	7.90477300	7.84940900
7.09999975	0.47736220	7.90477300	7.84940900
7.29999974	4.45989200	7.90477300	7.47416300
7.49999973	7.00848900	7.90477300	6.72982200
7.69999972	7.80511800	7.90477300	6.35457700
7.89999971	6.53112700	7.90477300	6.31151500
8.09999970	3.82258900	7.90477300	6.31151500
8.29999968	0.47736220	7.90477300	6.31151500
8.49999967	-2.54859700	7.90477300	6.31151500
8.69999966	-4.45989200	7.90477300	6.31151500
8.89999965	-5.25652100	7.90477300	6.31151500
9.09999964	-4.45989200	7.90477300	6.31151500
9.29999962	-2.86724900	7.90477300	6.31151500
9.49999961	-0.95533960	7.90477300	6.31151500
9.69999960	0.79601380	7.90477300	6.35457700
9.89999959	2.07062000	7.90477300	6.68676100
10.09999958	2.54859700	7.90477300	7.05585600
10.29999956	2.22994600	7.90477300	6.72982200
10.49999955	1.59264300	7.90477300	6.72982200
10.69999954	0.63668800	7.94783400	7.05585600
10.89999953	-0.15871060	8.28001900	6.68676100
11.09999952	-0.63668800	8.64911400	6.35457700
11.29999951	-0.95533960	8.28001900	6.31151500
11.49999949	-0.95533960	7.94783400	6.31151500
11.69999948	-0.79601380	7.90477300	6.31151500
11.89999947	-0.47736220	7.90477300	6.31151500
12.09999946	-0.15871060	7.90477300	6.31151500
12.29999945	-0.15871060	7.90477300	6.31151500
12.49999943	-0.15871060	7.90477300	6.35457700
12.69999942	0.00000000	7.90477300	6.68676100
12.89999941	0.00000000	7.90477300	7.05585600
13.09999940	0.15871060	7.90477300	6.68676100
13.29999939	0.00000000	7.90477300	6.35457700
13.49999937	0.00000000	7.90477300	6.31151500
13.69999936	0.00000000	7.90477300	6.31151500
13.89999935	0.00000000	7.90477300	6.31151500
14.09999934	-0.15871060	7.90477300	6.31151500
14.29999933	-0.15871060	7.90477300	6.31151500
14.49999932	-0.15871060	7.90477300	6.31151500
14.69999930	0.00000000	7.94783400	6.31151500
14.89999929	0.00000000	8.28001900	6.31151500
15.09999928	0.00000000	8.64911400	6.31151500
15.29999927	0.00000000	8.28001900	6.31151500
15.49999926	0.00000000	7.94783400	6.31151500
15.69999924	0.00000000	7.90477300	6.31151500
15.89999923	0.00000000	7.90477300	6.31151500
16.09999922	0.00000000	7.90477300	6.31151500
16.29999921	0.00000000	7.94783400	6.31151500
16.49999920	-0.15871060	8.32308000	6.31151500
16.69999919	-0.15871060	9.06742000	6.31151500
16.89999917	-0.15871060	9.44266700	6.31151500
17.09999916	0.00000000	9.52879000	6.31151500
17.29999915	0.00000000	9.90403500	6.31151500
17.49999914	0.00000000	10.59916000	6.31151500
17.69999913	0.00000000	10.59916000	6.31151500
17.89999911	0.00000000	9.86097400	6.35457700
18.09999910	0.00000000	9.06742000	6.68676100
18.29999909	0.00000000	7.86171200	7.05585600
18.49999908	0.00000000	6.32381900	6.68676100
18.69999907	0.00000000	4.78592500	6.35457700
18.89999905	0.00000000	3.67249000	6.31151500
19.09999904	0.00000000	3.67249000	6.31151500
19.29999903	0.00000000	4.87819900	6.31151500
19.49999902	0.00000000	7.20964500	6.31151500
19.69999901	0.00000000	10.73450000	6.31151500
19.89999900	0.00000000	14.56078000	6.31151500
20.09999898	0.00000000	18.04257000	6.35457700
20.29999897	0.00000000	19.90650000	6.68676100
20.49999896	0.00000000	19.48819000	7.05585600
20.69999895	0.00000000	16.32628000	6.68676100
20.89999894	0.00000000	10.46998000	6.35457700
21.09999892	0.00000000	2.74360200	6.31151500
21.29999891	0.00000000	-5.30265700	6.31151500
21.49999890	0.00000000	-11.02977000	6.31151500
21.69999889	0.00000000	-12.56767000	6.31151500
21.89999888	0.00000000	-9.40575800	6.31151500
22.09999886	0.00000000	-1.63016700	6.31151500
22.29999885	0.00000000	9.62106200	6.31151500
22.49999884	0.00000000	21.99803000	6.31151500
22.69999883	0.00000000	33.16929000	6.31151500
22.89999882	0.00000000	40.00984000	6.35457700
23.09999881	0.00000000	39.91757000	6.72982200
23.29999879	0.00000000	32.14813000	7.47416300
23.49999878	0.00000000	17.82111000	7.89247000
23.69999877	0.00000000	0.04306102	8.31077700
23.89999876	0.00000000	-17.31053000	9.00590400
24.09999875	0.00000000	-29.96432000	9.00590400
24.29999873	0.00000000	-34.15354000	8.26771600
24.49999872	0.00000000	-28.34030000	7.47416300
24.69999871	0.00000000	-13.63804000	6.26845500
24.89999870	0.00000000	6.87746000	4.73671200
25.09999869	0.00000000	28.88779000	3.15575800
25.29999867	0.00000000	47.40403000	1.71013800
25.49999866	0.00000000	57.78174000	1.34719500
25.69999865	0.00000000	57.31422000	2.91584600
25.89999864	0.00000000	45.31250000	5.57332700
26.09999863	0.00000000	24.09572000	9.14124000
26.29999862	0.00000000	-0.98425190	12.96137000
26.49999860	0.00000000	-24.19414000	16.43701000
26.69999859	0.00000000	-40.34203000	18.30093000
26.89999858	0.00000000	-45.36786000	17.92569000
27.09999857	0.00000000	-37.69070000	15.09596000
27.29999856	0.00000000	-19.96186000	9.65797200
27.49999854	0.00000000	3.62942900	1.95004900
27.69999853	0.00000000	27.95891000	-5.67175200
27.89999852	0.00000000	47.31176000	-11.14665000
28.09999851	0.00000000	57.73868000	-13.38583000
28.29999850	0.00000000	56.98818000	-11.75566000
28.49999848	0.00000000	45.07874000	-5.11811000
28.69999847	0.00000000	25.81201000	5.24729300
28.89999846	0.00000000	3.75861200	16.85531000
29.09999845	0.00000000	-16.33243000	27.31299000
29.29999844	0.00000000	-29.92126000	34.56570000
29.49999843	0.00000000	-34.66412000	36.41732000
29.69999841	0.00000000	-30.43184000	31.36073000
29.89999840	0.00000000	-18.42397000	20.57702000
30.09999839	0.00000000	-1.07037400	6.22539300
30.29999838	0.00000000	17.44587000	-8.83366100
30.49999837	0.00000000	32.56643000	-21.55512000
30.69999835	0.00000000	41.54773000	-28.80782000
30.89999834	0.00000000	43.12869000	-28.38951000
31.09999833	0.00000000	37.40157000	-19.93110000
31.29999832	0.00000000	26.18725000	-5.62253900
31.49999831	0.00000000	12.27239000	11.42347000
31.69999829	0.00000000	-1.67938000	28.38337000
31.89999828	0.00000000	-12.47539000	41.06791000
32.09999827	0.00000000	-17.95645000	46.13681000
32.29999826	0.00000000	-17.31053000	43.11023000
32.49999825	0.00000000	-11.86639000	32.98474000
32.69999824	0.00000000	-2.92814900	17.51353000
32.89999822	0.00000000	8.64911400	-0.60285430
33.09999821	0.00000000	19.39591000	-16.81841000
33.29999820	0.00000000	26.79626000	-27.69439000
33.49999819	0.00000000	29.53371000	-31.55143000
33.69999818	0.00000000	27.25763000	-27.27608000
33.89999816	0.00000000	21.11220000	-15.74803000
34.09999815	0.00000000	12.64764000	0.04306102
34.29999814	0.00000000	4.18307100	16.35089000
34.49999813	0.00000000	-2.05462600	30.29035000
34.69999812	0.00000000	-5.16732200	39.53002000
34.89999810	0.00000000	-4.79207600	41.44316000
35.09999809	0.00000000	-0.93503930	35.67913000
35.29999808	0.00000000	5.16117100	23.73892000
35.49999807	0.00000000	11.67569000	8.35998900
35.69999806	0.00000000	16.32628000	-6.27460600
35.89999805	0.00000000	18.32554000	-16.77534000
36.09999803	0.00000000	17.90723000	-21.41978000
36.29999802	0.00000000	14.83760000	-19.51279000
36.49999801	0.00000000	9.86097400	-11.42962000
36.69999800	0.00000000	4.87819900	0.46751960
36.89999799	0.00000000	1.02116100	13.14591000
37.09999797	0.00000000	-0.51673230	23.13607000
37.29999796	0.00000000	0.59670270	27.82972000
37.49999795	0.00000000	3.71555100	26.71629000
37.69999794	0.00000000	8.32308000	20.57702000
37.89999793	0.00000000	13.29970000	10.96211000
38.09999791	0.00000000	16.79380000	0.63976370
38.29999790	0.00000000	18.37475000	-7.39419200
38.49999789	0.00000000	17.95029000	-10.41462000
38.69999788	0.00000000	15.25591000	-7.43725300
38.89999787	0.00000000	11.02362000	0.17839570
39.09999786	0.00000000	6.41609200	9.38115100
39.29999784	0.00000000	2.50984200	17.83957000
39.49999783	0.00000000	0.17839570	23.13607000
39.69999782	0.00000000	-0.60900590	23.18528000
39.89999781	0.00000000	0.55364170	18.21481000
40.09999780	0.00000000	3.25418300	10.11934000
40.29999778	0.00000000	6.74212600	0.51058070
40.49999777	0.00000000	10.64838000	-7.85556000
40.69999776	0.00000000	14.13632000	-12.03863000
40.89999775	0.00000000	16.87992000	-10.54995000
41.09999774	0.00000000	18.37475000	-4.04773600
41.29999772	0.00000000	17.99951000	5.15501900
41.49999771	0.00000000	15.67421000	14.81299000
41.69999770	0.00000000	12.22933000	22.48400000
41.89999769	0.00000000	8.32308000	26.34104000
42.09999768	0.00000000	4.83513700	25.17839000
42.29999767	0.00000000	2.09153500	19.46358000
42.49999765	0.00000000	0.55364170	11.00517000
42.69999764	0.00000000	0.55364170	2.17765700
42.89999763	0.00000000	2.09153500	-4.78592500
43.09999762	0.00000000	4.83513700	-8.27386800
43.29999761	0.00000000	8.23695900	-7.94783400
43.49999759	0.00000000	11.30044000	-4.09694900
43.69999758	0.00000000	12.51230000	2.04232300
43.89999757	0.00000000	12.64764000	8.96284400
44.09999756	0.00000000	12.60458000	14.72687000
44.29999755	0.00000000	12.22933000	17.83957000
44.49999753	0.00000000	11.48499000	17.92569000
44.69999752	0.00000000	11.10974000	15.60654000
44.89999751	0.00000000	11.06668000	11.79257000
45.09999750	0.00000000	11.02362000	7.14812900
45.29999749	0.00000000	10.59916000	3.33415300
45.49999748	0.00000000	9.39345400	0.97194880
45.69999746	0.00000000	7.43725300	0.55364170
45.89999745	0.00000000	4.74286400	1.66707700
46.09999744	0.00000000	2.04847400	3.61712600
46.29999743	0.00000000	0.13533460	6.31151500
46.49999742	0.00000000	-0.60900590	9.00590400
46.69999740	0.00000000	0.64591530	10.96211000
46.89999739	0.00000000	4.13385800	12.11860000
47.09999738	0.00000000	9.57800100	12.11860000
47.29999737	0.00000000	15.71727000	10.96211000
47.49999736	0.00000000	21.11220000	9.00590400
47.69999734	0.00000000	24.13878000	6.31151500
47.89999733	0.00000000	23.72047000	3.66633800
48.09999732	0.00000000	19.44513000	2.04232300
48.29999731	0.00000000	12.13706000	1.29183100
48.49999730	0.00000000	3.62942900	1.34719500
48.69999729	0.00000000	-4.09694900	3.29109200
48.89999727	0.00000000	-9.44881800	6.31151500
49.09999726	0.00000000	-10.56225000	9.42421200
49.29999725	0.00000000	-6.74827700	12.11860000
49.49999724	0.00000000	0.59670270	13.65650000
49.69999723	0.00000000	9.90403500	13.65650000
49.89999721	0.00000000	19.48819000	12.11860000
50.09999720	0.00000000	26.37180000	9.38115100
50.29999719	0.00000000	28.37721000	5.89320800
50.49999718	0.00000000	25.67667000	2.08538400
50.69999717	0.00000000	19.11294000	-0.60285430
50.89999715	0.00000000	9.86097400	-1.39640700
51.09999714	0.00000000	0.64591530	-0.60285430
51.29999713	0.00000000	-6.28690900	2.12844500
51.49999712	0.00000000	-8.98129900	6.31151500
51.69999711	0.00000000	-6.70521600	10.58686000
51.89999710	0.00000000	-0.55979330	14.03174000
52.09999708	0.00000000	7.90477300	15.97564000
52.29999707	0.00000000	16.32628000	15.56348000
52.49999706	0.00000000	22.09646000	13.32431000
52.69999705	0.00000000	23.67741000	9.79945900
52.89999704	0.00000000	21.02608000	5.98548200
53.09999702	0.00000000	15.25591000	2.50369100
53.29999701	0.00000000	7.94783400	0.59670270
53.49999700	0.00000000	1.06422200	0.55364170
53.69999699	0.00000000	-3.16806100	2.08538400
53.89999698	0.00000000	-3.58636800	4.73671200
54.09999696	0.00000000	-0.55979330	7.43110200
54.29999695	0.00000000	4.83513700	9.38115100
54.49999694	0.00000000	10.97441000	10.53765000
54.69999693	0.00000000	16.36934000	10.53765000
54.89999692	0.00000000	19.44513000	9.38115100
55.09999691	0.00000000	19.44513000	7.51722400
55.29999689	0.00000000	16.36934000	5.61638700
55.49999688	0.00000000	11.02362000	4.87204700
55.69999687	0.00000000	5.29650500	5.24729300
55.89999686	0.00000000	1.02116100	6.77903500
56.09999685	0.00000000	-0.93503930	9.00590400
56.29999683	0.00000000	-0.55979330	10.53765000
56.49999682	0.00000000	2.17765700	10.91289000
56.69999681	0.00000000	6.74212600	10.11934000
56.89999680	0.00000000	11.71875000	7.80019600
57.09999679	0.00000000	15.25591000	4.73671200
57.29999677	0.00000000	17.16289000	1.66707700
57.49999676	0.00000000	17.15674000	-0.60285430
57.69999675	0.00000000	14.51156000	-0.93503930
57.89999674	0.00000000	11.10974000	1.02116100
58.09999673	0.00000000	7.94783400	5.24729300
58.29999672	0.00000000	5.25344500	10.58686000
58.49999670	0.00000000	3.71555100	15.23130000
58.69999669	0.00000000	3.67249000	18.30093000
58.89999668	0.00000000	4.83513700	19.00221000
59.09999667	0.00000000	6.74212600	16.25861000
59.29999666	0.00000000	9.06742000	10.53765000
59.49999664	0.00000000	10.97441000	3.62327700
59.69999663	0.00000000	12.13706000	-2.51599400
59.89999662	0.00000000	12.13706000	-6.40994000
60.09999661	0.00000000	11.06668000	-7.16043300
60.29999660	0.00000000	9.90403500	-4.78592500
60.49999658	0.00000000	9.11048200	1.02116100
60.69999657	0.00000000	8.32308000	9.00590400
60.89999656	0.00000000	7.99704600	16.30167000
61.09999655	0.00000000	8.32308000	20.99532000
61.29999654	0.00000000	9.06742000	22.52707000
61.49999653	0.00000000	9.44266700	20.57702000
61.69999651	0.00000000	9.48572700	15.14518000
61.89999650	0.00000000	9.44266700	7.47416300
62.09999649	0.00000000	9.01820900	-0.60285430
62.29999648	0.00000000	7.90477300	-6.74212600
62.49999647	0.00000000	6.79133800	-9.47957600
62.69999645	0.00000000	6.36687900	-8.31692900
62.89999644	0.00000000	6.36687900	-3.72170300
63.09999643	0.00000000	6.79133800	3.19881900
63.29999642	0.00000000	7.94783400	10.58686000
63.49999641	0.00000000	9.44266700	17.14444000
63.69999639	0.00000000	10.64838000	21.73966000
63.89999638	0.00000000	11.39887000	22.48400000
64.09999637	0.00000000	11.76181000	19.50664000
64.29999636	0.00000000	11.02362000	14.07480000
64.49999635	0.00000000	9.86097400	7.51722400
64.69999634	0.00000000	8.69217500	0.97194880
64.89999632	0.00000000	7.16043300	-3.67249000
65.09999631	0.00000000	6.41609200	-5.67175200
65.29999630	0.00000000	6.36687900	-5.29650500
65.49999629	0.00000000	6.79133800	-2.60211600
65.69999628	0.00000000	7.94783400	1.66707700
65.89999626	0.00000000	9.44266700	6.68676100
66.09999625	0.00000000	10.55610000	11.65723000
66.29999624	0.00000000	10.59916000	14.81299000
66.49999623	0.00000000	9.81791200	16.06791000
66.69999622	0.00000000	8.69217500	16.48007000
66.89999620	0.00000000	7.16043300	15.64960000
67.09999619	0.00000000	6.41609200	13.74262000
67.29999618	0.00000000	6.36687900	10.96211000
67.49999617	0.00000000	6.83439900	7.51722400
67.69999616	0.00000000	8.41535400	3.99237200
67.89999615	0.00000000	11.06668000	1.24877000
68.09999613	0.00000000	13.67495000	-1.07037400
68.29999612	0.00000000	14.83760000	-2.18380900
68.49999611	0.00000000	14.09326000	-1.43946800
68.69999610	0.00000000	12.13706000	0.51058070
68.89999609	0.00000000	9.01820900	3.66633800
69.09999607	0.00000000	5.21038300	7.89247000
69.29999606	0.00000000	2.09153500	12.16166000
69.49999605	0.00000000	0.17839570	15.64960000
69.69999604	0.00000000	-0.14148620	17.97490000
69.89999603	0.00000000	2.17765700	18.30093000
70.09999601	0.00000000	6.36687900	16.35089000
70.29999600	0.00000000	11.06668000	12.11860000
70.49999599	0.00000000	15.71727000	6.72982200
70.69999598	0.00000000	19.53125000	1.71013800
70.89999597	0.00000000	21.02608000	-2.18380900
71.09999596	0.00000000	19.48819000	-4.09079700
71.29999594	0.00000000	15.29897000	-3.71555100
71.49999593	0.00000000	9.86097400	-1.02116100
71.69999592	0.00000000	4.41067900	3.24803100
71.89999591	0.00000000	-0.60900590	8.22465500
72.09999590	0.00000000	-3.63558100	12.81373000
72.29999588	0.00000000	-3.67864200	15.14518000
72.49999587	0.00000000	-0.98425190	15.23130000
72.69999586	0.00000000	3.67249000	13.69956000
72.89999585	0.00000000	9.48572700	11.00517000
73.09999584	0.00000000	15.25591000	7.93553100
73.29999582	0.00000000	19.48819000	5.24729300
73.49999581	0.00000000	21.02608000	3.66633800
73.69999580	0.00000000	19.53125000	3.24803100
73.89999579	0.00000000	15.67421000	3.62327700
74.09999578	0.00000000	10.69144000	4.77977300
74.29999577	0.00000000	5.62869100	6.26845500
74.49999575	0.00000000	1.80856300	7.38188900
74.69999574	0.00000000	-0.18454720	7.38188900
74.89999573	0.00000000	0.17839570	6.26845500
75.09999572	0.00000000	2.09153500	4.77977300
75.29999571	0.00000000	5.21038300	3.66633800
75.49999569	0.00000000	9.01820900	3.70939900
75.69999568	0.00000000	12.09400000	5.24729300
75.89999567	0.00000000	13.71801000	7.93553100
76.09999566	0.00000000	14.09326000	10.96211000
76.29999565	0.00000000	13.34276000	13.32431000
76.49999563	0.00000000	11.44193000	14.45005000
76.69999562	0.00000000	9.57800100	14.39468000
76.89999561	0.00000000	8.37229300	12.03248000
77.09999560	0.00000000	7.94783400	7.84940900
77.29999559	0.00000000	7.90477300	3.20497000
77.49999558	0.00000000	7.94783400	-1.02116100
77.69999556	0.00000000	8.28001900	-3.67249000
77.89999555	0.00000000	8.64911400	-3.67249000
78.09999554	0.00000000	8.23695900	-0.97810030
78.29999553	0.00000000	7.52952700	3.62327700
78.49999552	0.00000000	6.74212600	9.05511800
78.69999550	0.00000000	6.41609200	14.03174000
78.89999549	0.00000000	6.79133800	17.50738000
79.09999548	0.00000000	7.94783400	18.30093000
79.29999547	0.00000000	9.52879000	16.81225000
79.49999546	0.00000000	11.44193000	13.65650000
79.69999544	0.00000000	13.34276000	9.00590400
79.89999543	0.00000000	14.09326000	3.66633800
80.09999542	0.00000000	13.67495000	-0.55979330
80.29999541	0.00000000	11.76181000	-2.55905500
80.49999540	0.00000000	8.74138700	-2.60211600
80.69999539	0.00000000	6.36687900	-1.02116100
80.89999537	0.00000000	4.41067900	2.04232300
81.09999536	0.00000000	2.92814900	5.89320800
81.29999535	0.00000000	3.34030500	9.38115100
81.49999534	0.00000000	5.21038300	12.16781000
81.69999533	0.00000000	7.94783400	14.07480000
81.89999531	0.00000000	10.97441000	14.85605000
82.09999530	0.00000000	13.29970000	14.11786000
82.29999529	0.00000000	14.09326000	12.58612000
82.49999528	0.00000000	13.76107000	10.62992000
82.69999527	0.00000000	12.55536000	8.21850300
82.89999525	0.00000000	10.64838000	5.51796200
83.09999524	0.00000000	8.37229300	2.41141700
83.29999523	0.00000000	6.79133800	0.17839570
83.49999522	0.00000000	5.99163300	-0.65206690
83.69999521	0.00000000	5.62869100	0.09227362
83.89999520	0.00000000	6.41609200	1.66707700
84.09999518	0.00000000	7.86171200	4.03543200
84.29999517	0.00000000	9.01820900	7.51722400
84.49999516	0.00000000	9.44266700	10.96211000
84.69999515	0.00000000	9.48572700	13.74262000
84.89999514	0.00000000	9.48572700	15.60654000
85.09999512	0.00000000	9.48572700	15.97564000
85.29999511	0.00000000	9.48572700	14.03174000
85.49999510	0.00000000	9.48572700	10.58686000
85.69999509	0.00000000	9.52879000	6.31151500
85.89999508	0.00000000	9.86097400	2.08538400
86.09999506	0.00000000	10.23007000	-1.02116100
86.29999505	0.00000000	9.81791200	-2.50984200
86.49999504	0.00000000	9.11048200	-1.72244100
86.69999503	0.00000000	8.28001900	1.71013800
86.89999502	0.00000000	7.52952700	6.31151500
87.09999501	0.00000000	6.74212600	10.95595000
87.29999499	0.00000000	6.41609200	14.81299000
87.49999498	0.00000000	6.74212600	16.71998000
87.69999497	0.00000000	7.57258800	16.35089000
87.89999496	0.00000000	8.69832600	13.65650000
88.09999495	0.00000000	10.27313000	9.43036400
88.29999493	0.00000000	11.39887000	4.77977300
88.49999492	0.00000000	12.18012000	0.55364170
88.69999491	0.00000000	12.13706000	-2.09153500
88.89999490	0.00000000	11.02362000	-2.09153500
89.09999489	0.00000000	9.48572700	0.55364170
89.29999487	0.00000000	7.90477300	4.77977300
89.49999486	0.00000000	6.41609200	9.43036400
89.69999485	0.00000000	5.62869100	13.65650000
89.89999484	0.00000000	5.99163300	16.30167000
90.09999483	0.00000000	6.74212600	16.30167000
90.29999482	0.00000000	7.90477300	13.65650000
90.49999480	0.00000000	9.06742000	9.43036400
90.69999479	0.00000000	9.81791200	4.82898600
90.89999478	0.00000000	10.23007000	0.92888770
91.09999477	0.00000000	9.86097400	-1.35334600
91.29999476	0.00000000	9.52879000	-1.71628900
91.49999474	0.00000000	9.48572700	0.64591530
91.69999473	0.00000000	9.48572700	5.19808000
91.89999472	0.00000000	9.48572700	10.53765000
92.09999471	0.00000000	9.48572700	14.76993000
92.29999470	0.00000000	9.48572700	16.71998000
92.49999468	0.00000000	9.48572700	16.35089000
92.69999467	0.00000000	9.44266700	13.61343000
92.89999466	0.00000000	9.06742000	9.05511800
93.09999465	0.00000000	8.28001900	4.04158400
93.29999464	0.00000000	7.48646600	0.22760820
93.49999463	0.00000000	6.36687900	-1.71628900
93.69999461	0.00000000	5.67175200	-0.93503930
93.89999460	0.00000000	6.41609200	2.08538400
94.09999459	0.00000000	7.94783400	6.31151500
94.29999458	0.00000000	9.90403500	10.53765000
94.49999457	0.00000000	12.22933000	13.60728000
94.69999455	0.00000000	14.09326000	14.76993000
94.89999454	0.00000000	14.88066000	13.60728000
95.09999453	0.00000000	14.09326000	10.58686000
95.29999452	0.00000000	12.18012000	6.72982200
95.49999451	0.00000000	9.44266700	3.29109200
95.69999449	0.00000000	6.36687900	0.97194880
95.89999448	0.00000000	3.67249000	0.59670270
96.09999447	0.00000000	2.13459600	2.08538400
96.29999446	0.00000000	2.13459600	4.77977300
96.49999445	0.00000000	3.71555100	7.84940900
96.69999444	0.00000000	6.79133800	10.53765000
96.89999442	0.00000000	10.64838000	12.07554000
97.09999441	0.00000000	14.13632000	12.11860000
97.29999440	0.00000000	16.83686000	10.96211000
97.49999439	0.00000000	17.99951000	9.05511800
97.69999438	0.00000000	17.21210000	6.72982200
97.89999436	0.00000000	14.88066000	4.82283400
98.09999435	0.00000000	11.02362000	3.66633800
98.29999434	0.00000000	6.79133800	3.66633800
98.49999433	0.00000000	3.29724400	4.73671200
98.69999432	0.00000000	0.97194880	5.89320800
98.89999430	0.00000000	0.59670270	6.68676100
99.09999429	0.00000000	2.09153500	7.47416300
99.29999428	0.00000000	4.78592500	7.84940900
99.49999427	0.00000000	7.94783400	7.89247000
99.69999426	0.00000000	11.44193000	7.89247000
99.89999425	0.00000000	14.88066000	7.93553100
100.09999423	0.00000000	16.79380000	8.31077700
100.29999422	0.00000000	16.83686000	9.05511800
100.49999421	0.00000000	15.29897000	9.43036400
100.69999420	0.00000000	12.60458000	9.43036400
100.89999419	0.00000000	9.52879000	9.00590400
101.09999417	0.00000000	6.79133800	7.80019600
101.29999416	0.00000000	4.83513700	5.93626900
101.49999415	0.00000000	3.62942900	3.99237200
101.69999414	0.00000000	3.25418300	2.87278500
101.89999413	0.00000000	3.67249000	2.46063000
102.09999411	0.00000000	5.25344500	3.29109200
102.29999410	0.00000000	7.90477300	5.19808000
102.49999409	0.00000000	10.59916000	7.89247000
102.69999408	0.00000000	12.55536000	10.58686000
102.89999407	0.00000000	13.76107000	12.49385000
103.09999406	0.00000000	14.13632000	13.28125000
103.29999404	0.00000000	13.71801000	12.45079000
103.49999403	0.00000000	12.18012000	10.21161000
103.69999402	0.00000000	9.90403500	7.10506800
103.89999401	0.00000000	7.94783400	4.40452700
104.09999400	0.00000000	6.36687900	2.04232300
104.29999398	0.00000000	5.25344500	0.59670270
104.49999397	0.00000000	5.25344500	0.97194880
104.69999396	0.00000000	6.36687900	3.24803100
104.89999395	0.00000000	7.86171200	6.26845500
105.09999394	0.00000000	9.11048200	9.00590400
105.29999392	0.00000000	10.23622000	10.96211000
105.49999391	0.00000000	11.38656000	12.11860000
105.69999390	0.00000000	11.39887000	12.07554000
105.89999389	0.00000000	11.06668000	10.58686000
106.09999388	0.00000000	10.59916000	8.26771600
106.29999387	0.00000000	9.48572700	5.98548200
106.49999385	0.00000000	8.37229300	4.03543200
106.69999384	0.00000000	7.94783400	3.29109200
106.89999383	0.00000000	7.90477300	3.62327700
107.09999382	0.00000000	7.94783400	4.77977300
107.29999381	0.00000000	8.37229300	6.31151500
107.49999379	0.00000000	9.48572700	7.89247000
107.69999378	0.00000000	10.55610000	9.38115100
107.89999377	0.00000000	10.59916000	10.11934000
108.09999376	0.00000000	9.86097400	9.38115100
108.29999375	0.00000000	9.11048200	7.93553100
108.49999374	0.00000000	8.28001900	6.72982200
108.69999372	0.00000000	7.52952700	5.89320800
108.89999371	0.00000000	6.79133800	4.77977300
109.09999370	0.00000000	6.83439900	4.08464600
109.29999369	0.00000000	7.90477300	4.82283400
109.49999368	0.00000000	9.06742000	6.36072800
109.69999366	0.00000000	9.86097400	8.26771600
109.89999365	0.00000000	10.64838000	10.11934000
110.09999364	0.00000000	11.02362000	10.53765000
110.29999363	0.00000000	11.02362000	9.84867000
110.49999362	0.00000000	10.64838000	9.05511800
110.69999360	0.00000000	9.86097400	7.84940900
110.89999359	0.00000000	9.11048200	6.36072800
111.09999358	0.00000000	8.32308000	5.19808000
111.29999357	0.00000000	7.94783400	4.77977300
111.49999356	0.00000000	7.90477300	4.73671200
111.69999355	0.00000000	7.94783400	4.77977300
111.89999353	0.00000000	8.32308000	5.19808000
112.09999352	0.00000000	9.06742000	6.31151500
112.29999351	0.00000000	9.48572700	7.47416300
112.49999350	0.00000000	9.86097400	8.26771600
112.69999349	0.00000000	10.23007000	9.00590400
112.89999347	0.00000000	9.86097400	9.00590400
113.09999346	0.00000000	9.52879000	8.31077700
113.29999345	0.00000000	9.48572700	7.93553100
113.49999344	0.00000000	9.48572700	7.84940900
113.69999343	0.00000000	9.44266700	7.47416300
113.89999341	0.00000000	9.11048200	6.72982200
114.09999340	0.00000000	8.74138700	6.35457700
114.29999339	0.00000000	9.11048200	6.31151500
114.49999338	0.00000000	9.44266700	6.26845500
114.69999337	0.00000000	9.48572700	5.93626900
114.89999336	0.00000000	9.48572700	5.57332700
115.09999334	0.00000000	9.48572700	5.93626900
115.29999333	0.00000000	9.48572700	6.26845500
115.49999332	0.00000000	9.48572700	6.35457700
115.69999331	0.00000000	9.48572700	6.72982200
115.89999330	0.00000000	9.48572700	7.51722400
116.09999328	0.00000000	9.44266700	8.26771600
116.29999327	0.00000000	9.06742000	9.05511800
116.49999326	0.00000000	8.32308000	9.38115100
116.69999325	0.00000000	7.94783400	9.05511800
116.89999324	0.00000000	7.94783400	8.31077700
117.09999322	0.00000000	8.32308000	7.89247000
117.29999321	0.00000000	9.06742000	7.42495000
117.49999320	0.00000000	9.48572700	6.31151500
117.69999319	0.00000000	9.90403500	5.19808000
117.89999318	0.00000000	10.64838000	4.77977300
118.09999317	0.00000000	11.02362000	4.77977300
118.29999315	0.00000000	11.02362000	5.15501900
118.49999314	0.00000000	10.59916000	5.93626900
118.69999313	0.00000000	9.48572700	6.72982200
118.89999312	0.00000000	8.32308000	7.89247000
119.09999311	0.00000000	7.52952700	9.00590400
119.29999309	0.00000000	6.79133800	9.43036400
119.49999308	0.00000000	6.79133800	9.43036400
119.69999307	0.00000000	7.52952700	9.05511800
119.89999306	0.00000000	8.32308000	8.31077700
120.09999305	0.00000000	9.48572700	7.89247000
120.29999303	0.00000000	10.64838000	7.47416300
120.49999302	0.00000000	11.44193000	6.72982200
120.69999301	0.00000000	12.18012000	6.35457700
120.89999300	0.00000000	12.18012000	6.31151500
121.09999299	0.00000000	11.39887000	6.31151500
121.29999298	0.00000000	10.27313000	6.31151500
121.49999296	0.00000000	8.74138700	6.31151500
121.69999295	0.00000000	7.94783400	6.35457700
121.89999294	0.00000000	7.48646600	6.72982200
122.09999293	0.00000000	6.79133800	7.47416300
122.29999292	0.00000000	6.79133800	7.84940900
122.49999290	0.00000000	7.52952700	7.89247000
122.69999289	0.00000000	8.32308000	7.89247000
122.89999288	0.00000000	9.48572700	7.89247000
123.09999287	0.00000000	10.59916000	7.89247000
123.29999286	0.00000000	11.06668000	7.89247000
123.49999284	0.00000000	11.44193000	7.84940900
123.69999283	0.00000000	11.81102000	7.47416300
123.89999282	0.00000000	11.39887000	6.72982200
124.09999281	0.00000000	10.69144000	6.35457700
124.29999280	0.00000000	9.86097400	6.31151500
124.49999279	0.00000000	9.11048200	6.31151500
124.69999277	0.00000000	8.28001900	6.31151500
124.89999276	0.00000000	7.52952700	6.35457700
125.09999275	0.00000000	6.74212600	6.72982200
125.29999274	0.00000000	6.41609200	7.47416300
125.49999273	0.00000000	6.79133800	7.84940900
125.69999271	0.00000000	7.90477300	7.89247000
125.89999270	0.00000000	9.06742000	7.89247000
126.09999269	0.00000000	9.90403500	7.89247000
126.29999268	0.00000000	11.02362000	7.89247000
126.49999267	0.00000000	11.76181000	7.89247000
126.69999265	0.00000000	11.44193000	7.84940900
126.89999264	0.00000000	11.06668000	7.47416300
127.09999263	0.00000000	10.59916000	6.72982200
127.29999262	0.00000000	9.48572700	6.35457700
127.49999261	0.00000000	8.32308000	6.31151500
127.69999260	0.00000000	7.52952700	6.31151500
127.89999258	0.00000000	6.79133800	6.35457700
128.09999257	0.00000000	6.83439900	6.72982200
128.29999256	0.00000000	7.90477300	7.47416300
128.49999255	0.00000000	9.06742000	7.84940900
128.69999254	0.00000000	9.86097400	7.89247000
128.89999252	0.00000000	10.64838000	7.89247000
129.09999251	0.00000000	11.02362000	7.89247000
129.29999250	0.00000000	11.06668000	7.89247000
129.49999249	0.00000000	11.02362000	7.84940900
129.69999248	0.00000000	10.59916000	7.47416300
129.89999246	0.00000000	9.48572700	6.72982200
130.09999245	0.00000000	8.37229300	6.40378900
130.29999244	0.00000000	7.94783400	6.72982200
130.49999243	0.00000000	7.94783400	7.47416300
130.69999242	0.00000000	8.32308000	7.84940900
130.89999241	0.00000000	9.11048200	7.89247000
131.09999239	0.00000000	9.86097400	7.89247000
131.29999238	0.00000000	10.64838000	7.89247000
131.49999237	0.00000000	11.02362000	7.84940900
131.69999236	0.00000000	11.02362000	7.47416300
131.89999235	0.00000000	10.64838000	6.72982200
132.09999233	0.00000000	9.90403500	6.35457700
132.29999232	0.00000000	9.48572700	6.31151500
132.49999231	0.00000000	9.11048200	6.31151500
132.69999230	0.00000000	8.74138700	6.35457700
132.89999229	0.00000000	9.11048200	6.72982200
133.09999227	0.00000000	9.44266700	7.51722400
133.29999226	0.00000000	9.48572700	8.22465500
133.49999225	0.00000000	9.48572700	8.67987200
133.69999224	0.00000000	9.48572700	8.64296200
133.89999223	0.00000000	9.48572700	8.67987200
134.09999222	0.00000000	9.48572700	8.22465500
134.29999220	0.00000000	9.48572700	7.51722400
134.49999219	0.00000000	9.48572700	6.68676100
134.69999218	0.00000000	9.48572700	5.93626900
134.89999217	0.00000000	9.48572700	5.15501900
135.09999216	0.00000000	9.52879000	4.82898600
135.29999214	0.00000000	9.86097400	5.15501900
135.49999213	0.00000000	10.23007000	5.93626900
135.69999212	0.00000000	9.86097400	6.68676100
135.89999211	0.00000000	9.52879000	7.47416300
136.09999210	0.00000000	9.44266700	7.89247000
136.29999208	0.00000000	9.06742000	8.26771600
136.49999207	0.00000000	8.32308000	8.63681000
136.69999206	0.00000000	7.94783400	8.26771600
136.89999205	0.00000000	7.94783400	7.93553100
137.09999204	0.00000000	8.32308000	7.84940900
137.29999203	0.00000000	9.11048200	7.47416300
137.49999201	0.00000000	9.86097400	6.72982200
137.69999200	0.00000000	10.64838000	6.35457700
137.89999199	0.00000000	11.02362000	6.31151500
138.09999198	0.00000000	11.02362000	6.31151500
138.29999197	0.00000000	10.64838000	6.31151500
138.49999195	0.00000000	9.86097400	6.31151500
138.69999194	0.00000000	9.11048200	6.35457700
138.89999193	0.00000000	8.32308000	6.72982200
139.09999192	0.00000000	7.94783400	7.47416300
139.29999191	0.00000000	7.94783400	7.89247000
139.49999189	0.00000000	8.32308000	8.31077700
139.69999188	0.00000000	9.06742000	9.00590400
139.89999187	0.00000000	9.48572700	9.00590400
140.09999186	0.00000000	9.90403500	8.26771600
140.29999185	0.00000000	10.59916000	7.51722400
140.49999184	0.00000000	10.59916000	6.72982200
140.69999182	0.00000000	9.90403500	6.31151500
140.89999181	0.00000000	9.48572700	5.89320800
141.09999180	0.00000000	9.06742000	5.19808000
141.29999179	0.00000000	8.32308000	5.19808000
141.49999178	0.00000000	7.99704600	5.93626900
141.69999176	0.00000000	8.32308000	6.72982200
141.89999175	0.00000000	9.06742000	7.89247000
142.09999174	0.00000000	9.44266700	9.00590400
142.29999173	0.00000000	9.48572700	9.38115100
142.49999172	0.00000000	9.48572700	9.05511800
142.69999170	0.00000000	9.48572700	8.31077700
142.89999169	0.00000000	9.48572700	7.89247000
143.09999168	0.00000000	9.48572700	7.47416300
143.29999167	0.00000000	9.48572700	6.68676100
143.49999166	0.00000000	9.48572700	5.98548200
143.69999165	0.00000000	9.48572700	5.57332700
143.89999163	0.00000000	9.48572700	5.93626900
144.09999162	0.00000000	9.48572700	6.31151500
144.29999161	0.00000000	9.48572700	6.72982200
144.49999160	0.00000000	9.48572700	7.47416300
144.69999159	0.00000000	9.52879000	7.89247000
144.89999157	0.00000000	9.86097400	8.31077700
145.09999156	0.00000000	10.23007000	9.00590400
145.29999155	0.00000000	9.86097400	9.00590400
145.49999154	0.00000000	9.52879000	8.26771600
145.69999153	0.00000000	9.48572700	7.51722400
145.89999151	0.00000000	9.48572700	6.72982200
146.09999150	0.00000000	9.48572700	6.35457700
146.29999149	0.00000000	9.48572700	6.31151500
146.49999148	0.00000000	9.48572700	6.31151500
146.69999147	0.00000000	9.52879000	6.31151500
146.89999146	0.00000000	9.86097400	6.35457700
147.09999144	0.00000000	10.23007000	6.72982200
147.29999143	0.00000000	9.86097400	7.47416300
147.49999142	0.00000000	9.52879000	7.84940900
147.69999141	0.00000000	9.48572700	7.89247000
147.89999140	0.00000000	9.44266700	7.89247000
148.09999138	0.00000000	9.11048200	7.89247000
148.29999137	0.00000000	8.74138700	7.89247000
148.49999136	0.00000000	9.11048200	7.84940900
148.69999135	0.00000000	9.44266700	7.47416300
148.89999134	0.00000000	9.48572700	6.72982200
149.09999132	0.00000000	9.48572700	6.35457700
149.29999131	0.00000000	9.48572700	6.31151500
149.49999130	0.00000000	9.48572700	6.31151500
149.69999129	0.00000000	9.52879000	6.35457700
149.89999128	0.00000000	9.86097400	6.72982200
150.09999127	0.00000000	10.23007000	7.47416300
150.29999125	0.00000000	9.86097400	7.84940900
150.49999124	0.00000000	9.52879000	7.89247000
150.69999123	0.00000000	9.48572700	7.89247000
150.89999122	0.00000000	9.48572700	7.89247000
151.09999121	0.00000000	9.48572700	7.89247000
151.29999119	0.00000000	9.48572700	7.89247000
151.49999118	0.00000000	9.48572700	7.84940900
151.69999117	0.00000000	9.48572700	7.47416300
151.89999116	0.00000000	9.48572700	6.72982200
152.09999115	0.00000000	9.48572700	6.40378900
152.29999113	0.00000000	9.52879000	6.72982200
152.49999112	0.00000000	9.90403500	7.47416300
152.69999111	0.00000000	10.59916000	7.84940900
152.89999110	0.00000000	10.59916000	7.89247000
153.09999109	0.00000000	9.90403500	7.89247000
153.29999108	0.00000000	9.57800100	7.89247000
153.49999106	0.00000000	9.81791200	7.89247000
153.69999105	0.00000000	9.80561000	7.89247000
153.89999104	0.00000000	8.69832600	7.89247000
154.09999103	0.00000000	7.99704600	7.89247000
154.29999102	0.00000000	7.94783400	7.89247000
154.49999100	0.00000000	8.32308000	7.89247000
154.69999099	0.00000000	9.06742000	7.89247000
154.89999098	0.00000000	9.44266700	7.84940900
155.09999097	0.00000000	9.52879000	7.47416300
155.29999096	0.00000000	9.90403500	6.72982200
155.49999094	0.00000000	10.64838000	6.35457700
155.69999093	0.00000000	11.02362000	6.31151500
155.89999092	0.00000000	11.02362000	6.35457700
156.09999091	0.00000000	10.64838000	6.72982200
156.29999090	0.00000000	9.90403500	7.47416300
156.49999089	0.00000000	9.48572700	7.84940900
156.69999087	0.00000000	9.11048200	7.89247000
156.89999086	0.00000000	8.74138700	7.89247000
157.09999085	0.00000000	9.06742000	7.89247000
157.29999084	0.00000000	9.06742000	7.89247000
157.49999083	0.00000000	8.74138700	7.89247000
157.69999081	0.00000000	9.11048200	7.84940900
157.89999080	0.00000000	9.44266700	7.47416300
158.09999079	0.00000000	9.48572700	6.72982200
158.29999078	0.00000000	9.48572700	6.35457700
158.49999077	0.00000000	9.52879000	6.31151500
158.69999075	0.00000000	9.86097400	6.31151500
158.89999074	0.00000000	10.23007000	6.35457700
159.09999073	0.00000000	9.86097400	6.72982200
159.29999072	0.00000000	9.52879000	7.47416300
159.49999071	0.00000000	9.48572700	7.84940900
159.69999070	0.00000000	9.48572700	7.93553100
159.89999068	0.00000000	9.48572700	8.26771600
160.09999067	0.00000000	9.48572700	8.63681000
160.29999066	0.00000000	9.48572700	8.26771600
160.49999065	0.00000000	9.48572700	7.89247000
160.69999064	0.00000000	9.48572700	7.47416300
160.89999062	0.00000000	9.48572700	6.72982200
161.09999061	0.00000000	9.48572700	6.35457700
161.29999060	0.00000000	9.48572700	6.31151500
161.49999059	0.00000000	9.48572700	6.31151500
161.69999058	0.00000000	9.48572700	6.35457700
161.89999056	0.00000000	9.48572700	6.72982200
162.09999055	0.00000000	9.48572700	7.47416300
162.29999054	0.00000000	9.48572700	7.84940900
162.49999053	0.00000000	9.48572700	7.89247000
162.69999052	0.00000000	9.48572700	7.89247000
162.89999051	0.00000000	9.48572700	7.89247000
163.09999049	0.00000000	9.48572700	7.89247000
163.29999048	0.00000000	9.48572700	7.89247000
163.49999047	0.00000000	9.48572700	7.89247000
163.69999046	0.00000000	9.48572700	7.89247000
163.89999045	0.00000000	9.48572700	7.84940900
164.09999043	0.00000000	9.48572700	7.47416300
164.29999042	0.00000000	9.48572700	6.72982200
164.49999041	0.00000000	9.48572700	6.40378900
164.69999040	0.00000000	9.52879000	6.68676100
164.89999039	0.00000000	9.90403500	7.09891700
165.09999037	0.00000000	10.64838000	7.10506800
165.29999036	0.00000000	11.02362000	7.51722400
165.49999035	0.00000000	11.02362000	7.84940900
165.69999034	0.00000000	10.64838000	7.89247000
165.89999033	0.00000000	9.90403500	7.89247000
166.09999032	0.00000000	9.52879000	7.89247000
166.29999030	0.00000000	9.48572700	7.89247000
166.49999029	0.00000000	9.48572700	7.89247000
166.69999028	0.00000000	9.48572700	7.89247000
166.89999027	0.00000000	9.48572700	7.84940900
167.09999026	0.00000000	9.48572700	7.51722400
167.29999024	0.00000000	9.48572700	7.14812900
167.49999023	0.00000000	9.48572700	7.47416300
167.69999022	0.00000000	9.48572700	7.47416300
167.89999021	0.00000000	9.48572700	7.14812900
168.09999020	0.00000000	9.48572700	7.51722400
168.29999018	0.00000000	9.48572700	7.84940900
168.49999017	0.00000000	9.48572700	7.89247000
168.69999016	0.00000000	9.48572700	7.89247000
168.89999015	0.00000000	9.48572700	7.89247000
169.09999014	0.00000000	9.48572700	7.89247000
169.29999013	0.00000000	9.48572700	7.89247000
169.49999011	0.00000000	9.48572700	7.89247000
169.69999010	0.00000000	9.48572700	7.89247000
169.89999009	0.00000000	9.48572700	7.89247000
170.09999008	0.00000000	9.48572700	7.89247000
170.29999007	0.00000000	9.48572700	7.89247000
170.49999005	0.00000000	9.48572700	7.89247000
170.69999004	0.00000000	9.48572700	7.89247000
170.89999003	0.00000000	9.48572700	7.89247000
171.09999002	0.00000000	9.52879000	7.84940900
171.29999001	0.00000000	9.90403500	7.51722400
171.49998999	0.00000000	10.59916000	7.14812900
171.69998998	0.00000000	10.59916000	7.51722400
171.89998997	0.00000000	9.90403500	7.84940900
172.09998996	0.00000000	9.52879000	7.89247000
172.29998995	0.00000000	9.48572700	7.89247000
172.49998994	0.00000000	9.48572700	7.89247000
172.69998992	0.00000000	9.48572700	7.89247000
172.89998991	0.00000000	9.48572700	7.89247000
173.09998990	0.00000000	9.48572700	7.89247000
173.29998989	0.00000000	9.48572700	7.84940900
173.49998988	0.00000000	9.48572700	7.51722400
173.69998986	0.00000000	9.48572700	7.14812900
173.89998985	0.00000000	9.48572700	7.51722400
174.09998984	0.00000000	9.48572700	7.84940900
174.29998983	0.00000000	9.48572700	7.89247000
174.49998982	0.00000000	9.48572700	7.84940900
174.69998980	0.00000000	9.48572700	7.51722400
174.89998979	0.00000000	9.48572700	7.14812900
175.09998978	0.00000000	9.48572700	7.51722400
175.29998977	0.00000000	9.48572700	7.84940900
175.49998976	0.00000000	9.48572700	7.89247000
175.69998975	0.00000000	9.48572700	7.89247000
175.89998973	0.00000000	9.48572700	7.89247000
176.09998972	0.00000000	9.48572700	7.89247000
176.29998971	0.00000000	9.48572700	7.84940900
176.49998970	0.00000000	9.52879000	7.51722400
176.69998969	0.00000000	9.86097400	7.14812900
176.89998967	0.00000000	10.23007000	7.51722400
177.09998966	0.00000000	9.86097400	7.80019600
177.29998965	0.00000000	9.52879000	7.51722400
177.49998964	0.00000000	9.48572700	7.14812900
177.69998963	0.00000000	9.48572700	7.51722400
177.89998961	0.00000000	9.48572700	7.84940900
178.09998960	0.00000000	9.48572700	7.89247000
178.29998959	0.00000000	9.48572700	7.89247000
178.49998958	0.00000000	9.48572700	7.89247000
178.69998957	0.00000000	9.48572700	7.89247000
178.89998956	0.00000000	9.48572700	7.89247000
179.09998954	0.00000000	9.48572700	7.89247000
179.29998953	0.00000000	9.48572700	7.89247000
179.49998952	0.00000000	9.52879000	7.89247000
179.69998951	0.00000000	9.86097400	7.89247000
179.89998950	0.00000000	10.23007000	7.89247000
180.09998948	0.00000000	9.86097400	7.89247000
180.29998947	0.00000000	9.52879000	7.84940900
180.49998946	0.00000000	9.48572700	7.51722400
180.69998945	0.00000000	9.48572700	7.14812900
180.89998944	0.00000000	9.48572700	7.51722400
181.09998942	0.00000000	9.48572700	7.84940900
181.29998941	0.00000000	9.48572700	7.89247000
181.49998940	0.00000000	9.48572700	7.89247000
181.69998939	0.00000000	9.48572700	7.89247000
181.89998938	0.00000000	9.48572700	7.89247000
182.09998937	0.00000000	9.48572700	7.89247000
182.29998935	0.00000000	9.48572700	7.89247000
182.49998934	0.00000000	9.48572700	7.84940900
182.69998933	0.00000000	9.48572700	7.47416300
182.89998932	0.00000000	9.48572700	6.72982200
183.09998931	0.00000000	9.48572700	6.35457700
183.29998929	0.00000000	9.48572700	6.31151500
183.49998928	0.00000000	9.48572700	6.35457700
183.69998927	0.00000000	9.48572700	6.72982200
183.89998926	0.00000000	9.48572700	7.47416300
184.09998925	0.00000000	9.48572700	7.84940900
184.29998923	0.00000000	9.48572700	7.89247000
184.49998922	0.00000000	9.48572700	7.89247000
184.69998921	0.00000000	9.48572700	7.89247000
184.89998920	0.00000000	9.48572700	7.89247000
185.09998919	0.00000000	9.48572700	7.89247000
185.29998918	0.00000000	9.48572700	7.89247000
185.49998916	0.00000000	9.48572700	7.84940900
185.69998915	0.00000000	9.52879000	7.47416300
185.89998914	0.00000000	9.86097400	6.72982200
186.09998913	0.00000000	10.23007000	6.35457700
186.29998912	0.00000000	9.86097400	6.31151500
186.49998910	0.00000000	9.52879000	6.31151500
186.69998909	0.00000000	9.48572700	6.35457700
186.89998908	0.00000000	9.48572700	6.72982200
187.09998907	0.00000000	9.48572700	7.47416300
187.29998906	0.00000000	9.48572700	7.84940900
187.49998904	0.00000000	9.48572700	7.89247000
187.69998903	0.00000000	9.48572700	7.89247000
187.89998902	0.00000000	9.48572700	7.89247000
188.09998901	0.00000000	9.48572700	7.89247000
188.29998900	0.00000000	9.52879000	7.89247000
188.49998899	0.00000000	9.90403500	7.89247000
188.69998897	0.00000000	10.64838000	7.84940900
188.89998896	0.00000000	10.97441000	7.51722400
189.09998895	0.00000000	10.64838000	7.14812900
189.29998894	0.00000000	9.90403500	7.51722400
189.49998893	0.00000000	9.52879000	7.84940900
189.69998891	0.00000000	9.48572700	7.89247000
189.89998890	0.00000000	9.48572700	7.89247000
190.09998889	0.00000000	9.48572700	7.89247000
190.29998888	0.00000000	9.48572700	7.89247000
190.49998887	0.00000000	9.48572700	7.89247000
190.69998885	0.00000000	9.48572700	7.89247000
190.89998884	0.00000000	9.48572700	7.89247000
191.09998883	0.00000000	9.48572700	7.89247000
191.29998882	0.00000000	9.52879000	7.89247000
191.49998881	0.00000000	9.86097400	7.89247000
191.69998880	0.00000000	10.23007000	7.84940900
191.89998878	0.00000000	9.90403500	7.47416300
192.09998877	0.00000000	9.90403500	6.77903500
192.29998876	0.00000000	10.23007000	6.72982200
192.49998875	0.00000000	9.86097400	7.05585600
192.69998874	0.00000000	9.52879000	6.68676100
192.89998872	0.00000000	9.48572700	6.35457700
193.09998871	0.00000000	9.48572700	6.35457700
193.29998870	0.00000000	9.48572700	6.72982200
193.49998869	0.00000000	9.48572700	7.47416300
193.69998868	0.00000000	9.48572700	7.84940900
193.89998866	0.00000000	9.48572700	7.89247000
194.09998865	0.00000000	9.52879000	7.89247000
194.29998864	0.00000000	9.90403500	7.89247000
194.49998863	0.00000000	10.64838000	7.89247000
194.69998862	0.00000000	10.97441000	7.89247000
194.89998861	0.00000000	10.64838000	7.89247000
195.09998859	0.00000000	9.90403500	7.89247000
195.29998858	0.00000000	9.52879000	7.89247000
195.49998857	0.00000000	9.48572700	7.84940900
195.69998856	0.00000000	9.48572700	7.47416300
195.89998855	0.00000000	9.48572700	6.72982200
196.09998853	0.00000000	9.48572700	6.40378900
