Time	Channel A	Channel B	Channel C
(us)	(V)	(mV)	(mV)

-4.49999956	0.00000000	9.48572700	7.14812900
-4.29999957	0.00000000	9.48572700	7.51722400
-4.09999958	0.00000000	9.48572700	7.80019600
-3.89999959	0.00000000	9.48572700	7.51722400
-3.69999960	0.00000000	9.48572700	7.14812900
-3.49999962	0.00000000	9.48572700	7.47416300
-3.29999963	0.00000000	9.48572700	7.42495000
-3.09999964	0.00000000	9.48572700	6.72982200
-2.89999965	0.00000000	9.48572700	6.35457700
-2.69999966	0.00000000	9.48572700	6.35457700
-2.49999968	0.00000000	9.48572700	6.72982200
-2.29999969	0.00000000	9.48572700	7.47416300
-2.09999970	0.00000000	9.48572700	7.84940900
-1.89999971	0.00000000	9.48572700	7.89247000
-1.69999972	0.00000000	9.48572700	7.89247000
-1.49999973	0.00000000	9.48572700	7.89247000
-1.29999975	0.00000000	9.48572700	7.84940900
-1.09999976	0.00000000	9.48572700	7.51722400
-0.89999977	0.00000000	9.48572700	7.14812900
-0.69999978	0.00000000	9.48572700	7.51722400
-0.49999979	0.00000000	9.48572700	7.84940900
-0.29999981	0.15871060	9.48572700	7.89247000
-0.09999982	0.63668800	9.48572700	7.84940900
0.10000017	0.95533960	9.48572700	7.51722400
0.30000016	0.95533960	9.48572700	7.10506800
0.50000015	0.95533960	9.48572700	7.09891700
0.70000013	0.31803640	9.48572700	6.68676100
0.90000012	-0.47736220	9.48572700	6.40378900
1.10000011	-1.43331700	9.48572700	6.72982200
1.30000010	-2.22994600	9.44266700	7.47416300
1.50000009	-2.70792300	9.11048200	7.84940900
1.70000008	-2.54859700	8.74138700	7.89247000
1.90000006	-1.43331700	9.11048200	7.89247000
2.10000005	0.31803640	9.44266700	7.89247000
2.30000004	2.38927200	9.48572700	7.84940900
2.50000003	4.30056600	9.48572700	7.47416300
2.70000002	5.25652100	9.48572700	6.72982200
2.90000000	4.93786900	9.48572700	6.35457700
3.09999999	3.18590100	9.48572700	6.31151500
3.29999998	0.31803640	9.48572700	6.31151500
3.49999997	-3.02657500	9.48572700	6.35457700
3.69999996	-6.21247500	9.48572700	6.72982200
3.89999994	-7.80511800	9.48572700	7.47416300
4.09999993	-7.64579200	9.48572700	7.84940900
4.29999992	-5.41584600	9.48572700	7.89247000
4.49999991	-1.59264300	9.48572700	7.89247000
4.69999990	2.86724900	9.48572700	7.89247000
4.89999989	6.84916400	9.44266700	7.89247000
5.09999987	9.07972400	9.11048200	7.84940900
5.29999986	9.23905000	8.74138700	7.47416300
5.49999985	7.00848900	9.11048200	6.72982200
5.69999984	2.86724900	9.39345400	6.35457700
5.89999983	-1.91129400	9.11048200	6.31151500
6.09999981	-6.21247500	8.74138700	6.35457700
6.29999980	-8.92039900	9.11048200	6.72982200
6.49999979	-9.39837600	9.44266700	7.47416300
6.69999978	-7.48646600	9.48572700	7.84940900
6.89999977	-3.82258900	9.48572700	7.89247000
7.09999975	0.47736220	9.52879000	7.89247000
7.29999974	4.45989200	9.86097400	7.89247000
7.49999973	7.00848900	10.23007000	7.84940900
7.69999972	7.80511800	9.86097400	7.47416300
7.89999971	6.37180100	9.52879000	6.72982200
8.09999970	3.66326300	9.48572700	6.35457700
8.29999968	0.47736220	9.48572700	6.31151500
8.49999967	-2.54859700	9.48572700	6.35457700
8.69999966	-4.61921700	9.48572700	6.72982200
8.89999965	-5.25652100	9.48572700	7.47416300
9.09999964	-4.45989200	9.48572700	7.84940900
9.29999962	-2.86724900	9.48572700	7.89247000
9.49999961	-0.95533960	9.48572700	7.89247000
9.69999960	0.95533960	9.48572700	7.89247000
9.89999959	2.07062000	9.48572700	7.89247000
10.09999958	2.54859700	9.48572700	7.89247000
10.29999956	2.22994600	9.48572700	7.84940900
10.49999955	1.59264300	9.48572700	7.51722400
10.69999954	0.63668800	9.48572700	7.14812900
10.89999953	-0.15871060	9.48572700	7.47416300
11.09999952	-0.63668800	9.48572700	7.47416300
11.29999951	-0.95533960	9.48572700	7.14812900
11.49999949	-0.95533960	9.48572700	7.47416300
11.69999948	-0.79601380	9.48572700	7.47416300
11.89999947	-0.47736220	9.48572700	7.10506800
12.09999946	-0.15871060	9.48572700	7.14197800
12.29999945	-0.15871060	9.48572700	7.10506800
12.49999943	-0.15871060	9.48572700	7.51722400
12.69999942	0.00000000	9.48572700	7.84940900
12.89999941	0.00000000	9.44266700	7.89247000
13.09999940	0.00000000	9.11048200	7.89247000
13.29999939	0.00000000	8.74138700	7.89247000
13.49999937	0.00000000	9.11048200	7.84940900
13.69999936	0.00000000	9.44266700	7.51722400
13.89999935	0.00000000	9.48572700	7.10506800
14.09999934	-0.15871060	9.48572700	7.14197800
14.29999933	-0.15871060	9.48572700	7.10506800
14.49999932	-0.15871060	9.48572700	7.51722400
14.69999930	-0.15871060	9.48572700	7.84940900
14.89999929	0.00000000	9.44266700	7.89247000
15.09999928	0.00000000	9.11048200	7.89247000
15.29999927	0.00000000	8.74138700	7.89247000
15.49999926	0.00000000	9.11048200	7.89247000
15.69999924	0.00000000	9.44266700	7.89247000
15.89999923	0.00000000	9.48572700	7.89247000
16.09999922	0.00000000	9.48572700	7.89247000
16.29999921	0.00000000	9.48572700	7.89247000
16.49999920	0.00000000	9.48572700	7.89247000
16.69999919	-0.15871060	9.52879000	7.89247000
16.89999917	0.00000000	9.90403500	7.89247000
17.09999916	0.00000000	10.64838000	7.89247000
17.29999915	0.00000000	11.02362000	7.89247000
17.49999914	0.00000000	11.06668000	7.89247000
17.69999913	0.00000000	11.02362000	7.89247000
17.89999911	0.00000000	10.59916000	7.89247000
18.09999910	0.00000000	9.44266700	7.84940900
18.29999909	0.00000000	7.90477300	7.51722400
18.49999908	0.00000000	6.32381900	7.14812900
18.69999907	0.00000000	4.83513700	7.51722400
18.89999905	0.00000000	4.04773600	7.80019600
19.09999904	0.00000000	4.45989200	7.51722400
19.29999903	0.00000000	5.62869100	7.14812900
19.49999902	0.00000000	8.04010800	7.51722400
19.69999901	0.00000000	11.48499000	7.84940900
19.89999900	0.00000000	15.39124000	7.84940900
20.09999898	0.00000000	18.79306000	7.51722400
20.29999897	0.00000000	20.69390000	7.14812900
20.49999896	0.00000000	19.86343000	7.51722400
20.69999895	0.00000000	16.36934000	7.84940900
20.89999894	0.00000000	10.51304000	7.89247000
21.09999892	0.00000000	3.16190900	7.84940900
21.29999891	0.00000000	-4.14616100	7.51722400
21.49999890	0.00000000	-9.53494100	7.10506800
21.69999889	0.00000000	-11.35581000	7.09891700
21.89999888	0.00000000	-8.60605200	6.68676100
22.09999886	0.00000000	-0.79970470	6.35457700
22.29999885	0.00000000	10.41462000	6.31151500
22.49999884	0.00000000	23.16068000	6.31151500
22.69999883	0.00000000	34.28272000	6.35457700
22.89999882	0.00000000	40.42815000	6.72982200
23.09999881	0.00000000	40.00984000	7.47416300
23.29999879	0.00000000	32.52337000	7.89247000
23.49999878	0.00000000	18.55930000	8.31077700
23.69999877	0.00000000	0.46751960	9.05511800
23.89999876	0.00000000	-16.84301000	9.43036400
24.09999875	0.00000000	-28.85088000	9.43036400
24.29999873	0.00000000	-33.04010000	9.00590400
24.49999872	0.00000000	-27.87278000	7.84940900
24.69999871	0.00000000	-13.17052000	6.31151500
24.89999870	0.00000000	8.04010800	4.73671200
25.09999869	0.00000000	30.41954000	3.19881900
25.29999867	0.00000000	48.93578000	2.08538400
25.49999866	0.00000000	58.94439000	2.12844500
25.69999865	0.00000000	57.73868000	3.66633800
25.89999864	0.00000000	45.35556000	6.36072800
26.09999863	0.00000000	24.09572000	9.51648500
26.29999862	0.00000000	-0.93503930	13.00443000
26.49999860	0.00000000	-23.77584000	16.43701000
26.69999859	0.00000000	-39.18553000	18.30093000
26.89999858	0.00000000	-43.82997000	17.92569000
27.09999857	0.00000000	-36.10975000	15.14518000
27.29999856	0.00000000	-18.38090000	10.03322000
27.49999854	0.00000000	5.21038300	2.69439000
27.69999853	0.00000000	29.53986000	-5.29650500
27.89999852	0.00000000	48.84966000	-11.06053000
28.09999851	-0.15871060	58.94439000	-13.01058000
28.29999850	0.00000000	57.82480000	-11.01132000
28.49999848	0.00000000	46.24139000	-4.74286400
28.69999847	0.00000000	26.97465000	5.33341500
28.89999846	0.00000000	4.55831700	17.23056000
29.09999845	0.00000000	-15.54503000	28.05118000
29.29999844	0.00000000	-29.49680000	34.93479000
29.49999843	0.00000000	-34.15354000	36.46653000
29.69999841	0.00000000	-28.85088000	31.36073000
29.89999840	0.00000000	-15.77264000	20.57702000
30.09999839	0.00000000	1.62401600	6.22539300
30.29999838	0.00000000	19.44513000	-8.83366100
30.49999837	0.00000000	34.19045000	-21.51206000
30.69999835	0.00000000	43.12869000	-28.43258000
30.89999834	0.00000000	44.70964000	-27.65133000
31.09999833	0.00000000	38.93332000	-19.51279000
31.29999832	0.00000000	27.39296000	-5.16117100
31.49999831	0.00000000	13.11516000	12.54306000
31.69999829	0.00000000	-0.47367120	29.53986000
31.89999828	0.00000000	-10.98671000	41.90453000
32.09999827	0.00000000	-16.79995000	47.33637000
32.29999826	0.00000000	-16.79995000	44.55585000
32.49999825	0.00000000	-11.07283000	33.76599000
32.69999824	0.00000000	-1.40255900	17.18750000
32.89999822	0.00000000	9.76870100	-0.93503930
33.09999821	0.00000000	20.23253000	-16.86762000
33.29999820	0.00000000	27.21457000	-27.69439000
33.49999819	0.00000000	29.95817000	-31.55143000
33.69999818	0.00000000	28.00197000	-27.27608000
33.89999816	0.00000000	21.53666000	-15.74803000
34.09999815	0.00000000	13.06594000	0.09227362
34.29999814	0.00000000	4.92125900	16.72613000
34.49999813	0.00000000	-1.63016700	31.02854000
34.69999812	0.00000000	-4.70595500	39.90526000
34.89999810	0.00000000	-3.63558100	41.48622000
35.09999809	0.00000000	0.55364170	35.67913000
35.29999808	0.00000000	6.36687900	23.78199000
35.49999807	0.00000000	12.51230000	8.73523500
35.69999806	0.00000000	17.53199000	-5.53641700
35.89999805	0.00000000	19.82037000	-16.35704000
36.09999803	0.00000000	19.11294000	-21.00148000
36.29999802	0.00000000	15.63115000	-18.73154000
36.49999801	0.00000000	10.64838000	-10.68528000
36.69999800	0.00000000	5.29650500	1.24877000
36.89999799	0.00000000	1.43946800	13.52116000
37.09999797	0.00000000	0.22760820	23.18528000
37.29999796	0.00000000	1.02116100	27.82972000
37.49999795	0.00000000	4.13385800	26.66708000
37.69999794	0.00000000	9.06742000	20.20177000
37.89999793	0.00000000	13.67495000	10.22392000
38.09999791	0.00000000	16.87992000	0.31373030
38.29999790	0.00000000	18.74385000	-7.01894700
38.49999789	0.00000000	18.69463000	-9.30118100
38.69999788	0.00000000	15.67421000	-6.27460600
38.89999787	0.00000000	11.48499000	1.01501000
39.09999786	0.00000000	7.52952700	10.54380000
39.29999784	0.00000000	3.62942900	18.95300000
39.49999783	0.00000000	0.59670270	23.60359000
39.69999782	0.00000000	-0.55979330	23.60359000
39.89999781	0.00000000	0.59670270	18.95300000
40.09999780	0.00000000	3.62942900	10.49459000
40.29999778	0.00000000	7.52952700	0.55364170
40.49999777	0.00000000	11.39887000	-7.85556000
40.69999776	0.00000000	14.97293000	-12.03863000
40.89999775	0.00000000	17.63041000	-10.54995000
41.09999774	0.00000000	19.20522000	-4.04773600
41.29999772	0.00000000	18.74385000	5.15501900
41.49999771	0.00000000	16.50467000	14.81299000
41.69999770	0.00000000	12.97982000	22.48400000
41.89999769	0.00000000	9.11048200	26.34104000
42.09999768	0.00000000	5.25344500	25.17839000
42.29999767	0.00000000	2.55290300	19.46358000
42.49999765	0.00000000	1.71628900	11.00517000
42.69999764	0.00000000	2.09153500	2.17765700
42.89999763	0.00000000	3.67249000	-4.78592500
43.09999762	0.00000000	6.32381900	-8.27386800
43.29999761	0.00000000	9.01820900	-7.94783400
43.49999759	0.00000000	11.02362000	-4.09694900
43.69999758	0.00000000	12.60458000	2.04232300
43.89999757	0.00000000	13.71801000	8.96284400
44.09999756	0.00000000	13.76107000	14.72687000
44.29999755	0.00000000	13.06594000	17.88263000
44.49999753	0.00000000	12.64764000	18.30093000
44.69999752	0.00000000	12.22933000	16.39395000
44.89999751	0.00000000	11.48499000	12.53691000
45.09999750	0.00000000	11.10974000	7.98474400
45.29999749	0.00000000	10.97441000	4.08464600
45.49999748	0.00000000	10.18086000	1.75319900
45.69999746	0.00000000	8.23695900	0.92888770
45.89999745	0.00000000	5.90551100	1.71013800
46.09999744	0.00000000	3.16190900	3.61712600
46.29999743	0.00000000	0.59670270	6.31151500
46.49999742	0.00000000	-0.14148620	9.00590400
46.69999740	0.00000000	1.75935000	10.96211000
46.89999739	0.00000000	5.29650500	12.11860000
47.09999738	0.00000000	10.41462000	12.11860000
47.29999737	0.00000000	16.87992000	11.00517000
47.49999736	0.00000000	22.23179000	9.42421200
47.69999734	0.00000000	24.60630000	7.43110200
47.89999733	0.00000000	24.18799000	4.77977300
48.09999732	0.00000000	20.60162000	2.50369100
48.29999731	0.00000000	13.67495000	1.71013800
48.49999730	0.00000000	5.21038300	2.08538400
48.69999729	0.00000000	-2.51599400	3.66633800
48.89999727	0.00000000	-7.86786400	6.36072800
49.09999726	0.00000000	-9.03051100	9.47342500
49.29999725	0.00000000	-5.54256900	12.49385000
49.49999724	0.00000000	1.43946800	14.43775000
49.69999723	0.00000000	11.06668000	14.40084000
49.89999721	0.00000000	20.65084000	12.90600000
50.09999720	0.00000000	27.21457000	9.75639700
50.29999719	0.00000000	29.53371000	5.93626900
50.49999718	0.00000000	26.83932000	2.08538400
50.69999717	0.00000000	19.90650000	-0.60285430
50.89999715	0.00000000	10.69144000	-1.39640700
51.09999714	0.00000000	1.43946800	-0.60285430
51.29999713	0.00000000	-5.12426100	2.12844500
51.49999712	0.00000000	-7.82480200	6.31151500
51.69999711	0.00000000	-5.86860200	10.58686000
51.89999710	0.00000000	0.59670270	14.07480000
52.09999708	0.00000000	9.01820900	16.35089000
52.29999707	0.00000000	16.79380000	16.30167000
52.49999706	0.00000000	22.55782000	13.69956000
52.69999705	0.00000000	24.84006000	9.89173200
52.89999704	0.00000000	22.51476000	6.36072800
53.09999702	0.00000000	16.46161000	3.24803100
53.29999701	0.00000000	8.79060000	0.97194880
53.49999700	0.00000000	2.22687000	0.59670270
53.69999699	0.00000000	-2.00541300	2.08538400
53.89999698	0.00000000	-2.79281500	4.77977300
54.09999696	0.00000000	0.27066930	7.84940900
54.29999695	0.00000000	5.62869100	10.49459000
54.49999694	0.00000000	12.18012000	11.65723000
54.69999693	0.00000000	17.90723000	10.96211000
54.89999692	0.00000000	21.02608000	9.47342500
55.09999691	0.00000000	21.02608000	7.89247000
55.29999689	0.00000000	17.95029000	6.36072800
55.49999688	0.00000000	12.60458000	5.24729300
55.69999687	0.00000000	6.83439900	5.29035400
55.89999686	0.00000000	2.22687000	6.77903500
56.09999685	0.00000000	-0.09842519	9.05511800
56.29999683	0.00000000	0.64591530	10.91289000
56.49999682	0.00000000	3.67249000	11.70029000
56.69999681	0.00000000	7.94783400	10.86983000
56.89999680	0.00000000	12.55536000	8.58759800
57.09999679	0.00000000	16.41855000	5.11195900
57.29999677	0.00000000	18.32554000	1.71013800
57.49999676	0.00000000	17.95029000	-0.55979330
57.69999675	0.00000000	15.29897000	-0.55979330
57.89999674	0.00000000	11.48499000	1.75935000
58.09999673	0.00000000	7.99704600	5.66560000
58.29999672	0.00000000	5.29650500	11.04823000
58.49999670	0.00000000	4.09079700	16.35089000
58.69999669	0.00000000	4.45989200	19.42052000
58.89999668	0.00000000	5.62869100	19.42052000
59.09999667	0.00000000	7.94783400	16.35089000
59.29999666	0.00000000	10.59916000	10.96211000
59.49999664	0.00000000	12.51230000	4.73671200
59.69999663	0.00000000	13.34276000	-1.39640700
59.89999662	0.00000000	12.97982000	-5.94857300
60.09999661	0.00000000	12.22933000	-6.74212600
60.29999660	0.00000000	11.02362000	-4.04773600
60.49999658	0.00000000	9.52879000	1.39025600
60.69999657	0.00000000	8.37229300	9.09817800
60.89999656	0.00000000	7.99704600	16.67692000
61.09999655	0.00000000	8.32308000	21.73966000
61.29999654	0.00000000	9.11048200	22.90231000
61.49999653	0.00000000	9.86097400	20.62008000
61.69999651	0.00000000	10.59916000	15.14518000
61.89999650	0.00000000	10.59916000	7.47416300
62.09999649	0.00000000	9.86097400	-0.60285430
62.29999648	0.00000000	9.11048200	-6.74212600
62.49999647	0.00000000	8.32308000	-9.47957600
62.69999645	0.00000000	7.94783400	-8.31692900
62.89999644	0.00000000	7.94783400	-3.67249000
63.09999643	0.00000000	8.37229300	3.62327700
63.29999642	0.00000000	9.48572700	11.70029000
63.49999641	0.00000000	10.64838000	18.25787000
63.69999639	0.00000000	11.44193000	22.15797000
63.89999638	0.00000000	12.22933000	22.53322000
64.09999637	0.00000000	12.55536000	19.50664000
64.29999636	0.00000000	12.18012000	14.07480000
64.49999635	0.00000000	11.02362000	7.51722400
64.69999634	0.00000000	9.48572700	0.97194880
64.89999632	0.00000000	7.94783400	-3.62942900
65.09999631	0.00000000	6.83439900	-5.29650500
65.29999630	0.00000000	6.83439900	-4.55831700
65.49999629	0.00000000	7.94783400	-2.18380900
65.69999628	0.00000000	9.44266700	2.08538400
65.89999626	0.00000000	10.64838000	7.42495000
66.09999625	0.00000000	11.39887000	12.07554000
66.29999624	0.00000000	11.76181000	15.23130000
66.49999623	0.00000000	10.97441000	16.81225000
66.69999622	0.00000000	9.48572700	16.85531000
66.89999620	0.00000000	7.94783400	15.69882000
67.09999619	0.00000000	6.83439900	13.74262000
67.29999618	0.00000000	6.83439900	11.00517000
67.49999617	0.00000000	7.99704600	7.89247000
67.69999616	0.00000000	9.90403500	4.73671200
67.89999615	0.00000000	12.22933000	1.66707700
68.09999613	0.00000000	14.13632000	-0.64591530
68.29999612	0.00000000	15.29897000	-1.43946800
68.49999611	0.00000000	15.25591000	-1.06422200
68.69999610	0.00000000	13.67495000	0.55364170
68.89999609	0.00000000	10.55610000	3.66633800
69.09999607	0.00000000	6.36687900	7.93553100
69.29999606	0.00000000	2.55290300	12.53691000
69.49999605	0.00000000	0.59670270	16.39395000
69.69999604	0.00000000	0.59670270	18.35015000
69.89999603	0.00000000	2.55290300	18.35015000
70.09999601	0.00000000	6.45915300	16.35089000
70.29999600	0.00000000	11.48499000	12.11860000
70.49999599	0.00000000	16.87992000	6.72982200
70.69999598	0.00000000	21.02608000	1.71013800
70.89999597	0.00000000	22.23179000	-2.14074800
71.09999596	0.00000000	20.32480000	-3.71555100
71.29999594	0.00000000	16.46161000	-2.93430100
71.49999593	0.00000000	10.97441000	-0.22760820
71.69999592	0.00000000	4.83513700	4.41067900
71.89999591	0.00000000	-0.51673230	9.33809000
72.09999590	0.00000000	-3.21112200	13.23819000
72.29999588	0.00000000	-2.51599400	15.18824000
72.49999587	0.00000000	0.55364170	15.27436000
72.69999586	0.00000000	5.25344500	14.07480000
72.89999585	0.00000000	11.02362000	11.74951000
73.09999584	0.00000000	16.41855000	8.31077700
73.29999582	0.00000000	19.90650000	5.29035400
73.49999581	0.00000000	21.11220000	3.66633800
73.69999580	0.00000000	19.90650000	3.29109200
73.89999579	0.00000000	16.46161000	4.03543200
74.09999578	0.00000000	11.44193000	5.89320800
74.29999577	0.00000000	6.45915300	7.38188900
74.49999575	0.00000000	2.55290300	7.80019600
74.69999574	0.00000000	0.64591530	7.42495000
74.89999573	0.00000000	0.97194880	6.31151500
75.09999572	0.00000000	3.25418300	5.19808000
75.29999571	0.00000000	6.32381900	4.77977300
75.49999569	0.00000000	9.48572700	4.82898600
75.69999568	0.00000000	12.55536000	5.66560000
75.89999567	0.00000000	14.83760000	7.98474400
76.09999566	0.00000000	15.25591000	11.00517000
76.29999565	0.00000000	14.13632000	13.65650000
76.49999563	0.00000000	12.27239000	14.81299000
76.69999562	0.00000000	10.37155000	14.03174000
76.89999561	0.00000000	9.52879000	11.70029000
77.09999560	0.00000000	9.11048200	7.80019600
77.29999559	0.00000000	8.74138700	3.24803100
77.49999558	0.00000000	9.11048200	-0.64591530
77.69999556	0.00000000	9.44266700	-2.93430100
77.89999555	0.00000000	9.44266700	-3.29724400
78.09999554	0.00000000	9.06742000	-0.93503930
78.29999553	0.00000000	8.28001900	3.62327700
78.49999552	0.00000000	7.57258800	9.05511800
78.69999550	0.00000000	7.16043300	14.07480000
78.89999549	0.00000000	7.57258800	17.88263000
79.09999548	0.00000000	8.37229300	19.04527000
79.29999547	0.00000000	9.95324800	17.18750000
79.49999546	0.00000000	12.22933000	13.74262000
79.69999544	0.00000000	14.09326000	9.43036400
79.89999543	0.00000000	14.88066000	4.77977300
80.09999542	0.00000000	14.13632000	0.55364170
80.29999541	0.00000000	12.55536000	-2.14074800
80.49999540	0.00000000	10.23007000	-2.55905500
80.69999539	0.00000000	7.16043300	-1.02116100
80.89999537	0.00000000	4.92125900	2.04232300
81.09999536	0.00000000	4.09079700	5.93626900
81.29999535	0.00000000	4.87819900	9.79945900
81.49999534	0.00000000	6.79133800	13.28125000
81.69999533	0.00000000	9.48572700	15.23130000
81.89999531	0.00000000	12.18012000	15.69267000
82.09999530	0.00000000	14.13632000	15.27436000
82.29999529	0.00000000	15.29897000	13.69956000
82.49999528	0.00000000	15.25591000	11.00517000
82.69999527	0.00000000	13.76107000	7.93553100
82.89999525	0.00000000	11.44193000	5.15501900
83.09999524	0.00000000	9.15354300	2.82972400
83.29999523	0.00000000	7.20964500	0.87967510
83.49999522	0.00000000	6.45915300	0.13533460
83.69999521	0.00000000	6.74212600	0.51058070
83.89999520	0.00000000	7.52952700	2.08538400
84.09999518	0.00000000	8.32308000	4.77977300
84.29999517	0.00000000	9.48572700	7.89247000
84.49999516	0.00000000	10.59916000	11.04823000
84.69999515	0.00000000	11.02362000	14.11786000
84.89999514	0.00000000	11.02362000	16.35089000
85.09999512	0.00000000	10.64838000	16.35089000
85.29999511	0.00000000	9.95324800	14.07480000
85.49999510	0.00000000	9.95324800	10.58686000
85.69999509	0.00000000	10.64838000	6.31151500
85.89999508	0.00000000	11.02362000	2.08538400
86.09999506	0.00000000	11.02362000	-0.97810030
86.29999505	0.00000000	10.64838000	-2.13459600
86.49999504	0.00000000	9.86097400	-0.97810030
86.69999503	0.00000000	9.11048200	2.08538400
86.89999502	0.00000000	8.28001900	6.35457700
87.09999501	0.00000000	7.57258800	10.95595000
87.29999499	0.00000000	7.16043300	14.81299000
87.49999498	0.00000000	7.57258800	16.71998000
87.69999497	0.00000000	8.32308000	16.39395000
87.89999496	0.00000000	9.52879000	14.03174000
88.09999495	0.00000000	11.02362000	10.16855000
88.29999493	0.00000000	12.18012000	5.19808000
88.49999492	0.00000000	12.60458000	0.97194880
88.69999491	0.00000000	12.60458000	-1.35334600
88.89999490	0.00000000	12.18012000	-1.71628900
89.09999489	0.00000000	11.02362000	0.59670270
89.29999487	0.00000000	9.52879000	4.77977300
89.49999486	0.00000000	8.37229300	9.43036400
89.69999485	0.00000000	7.94783400	13.65650000
89.89999484	0.00000000	7.94783400	16.30167000
90.09999483	0.00000000	8.37229300	16.30167000
90.29999482	0.00000000	9.48572700	13.65650000
90.49999480	0.00000000	10.59916000	9.43036400
90.69999479	0.00000000	11.02362000	4.77977300
90.89999478	0.00000000	11.06668000	0.55364170
91.09999477	0.00000000	11.06668000	-2.09153500
91.29999476	0.00000000	11.02362000	-2.09153500
91.49999474	0.00000000	10.64838000	0.59670270
91.69999473	0.00000000	9.90403500	5.19808000
91.89999472	0.00000000	9.57800100	10.53765000
92.09999471	0.00000000	9.90403500	14.76993000
92.29999470	0.00000000	10.64838000	16.67692000
92.49999468	0.00000000	10.97441000	15.97564000
92.69999467	0.00000000	10.64838000	12.86909000
92.89999466	0.00000000	9.86097400	8.67987200
93.09999465	0.00000000	9.06742000	4.04158400
93.29999464	0.00000000	7.90477300	0.59670270
93.49999463	0.00000000	6.83439900	-0.97810030
93.69999461	0.00000000	6.79133800	-0.55979330
93.89999460	0.00000000	7.57258800	2.12844500
94.09999459	0.00000000	8.74138700	6.35457700
94.29999458	0.00000000	10.73450000	10.91289000
94.49999457	0.00000000	12.97982000	14.34547000
94.69999455	0.00000000	14.92372000	15.14518000
94.89999454	0.00000000	15.63115000	13.65650000
95.09999453	0.00000000	14.92372000	10.58686000
95.29999452	0.00000000	12.93061000	6.72982200
95.49999451	0.00000000	10.27313000	3.29109200
95.69999449	0.00000000	7.11737200	0.97194880
95.89999448	0.00000000	4.45989200	0.59670270
96.09999447	0.00000000	2.50984200	2.08538400
96.29999446	0.00000000	2.22687000	4.77977300
96.49999445	0.00000000	4.09079700	7.84940900
96.69999444	0.00000000	7.57258800	10.53765000
96.89999442	0.00000000	11.39887000	12.07554000
97.09999441	0.00000000	14.92372000	12.11860000
97.29999440	0.00000000	17.25517000	10.96211000
97.49999439	0.00000000	18.41781000	9.05511800
97.69999438	0.00000000	17.99951000	6.77903500
97.89999436	0.00000000	15.67421000	5.19808000
98.09999435	0.00000000	12.18012000	4.40452700
98.29999434	0.00000000	7.94783400	4.04158400
98.49999433	0.00000000	4.13385800	4.77977300
98.69999432	0.00000000	2.13459600	5.89320800
98.89999430	0.00000000	1.71628900	6.68676100
99.09999429	0.00000000	2.50984200	7.47416300
99.29999428	0.00000000	4.87819900	7.89247000
99.49999427	0.00000000	8.37229300	8.31077700
99.69999426	0.00000000	12.55536000	9.05511800
99.89999425	0.00000000	16.04331000	9.43036400
100.09999423	0.00000000	17.63041000	9.47342500
100.29999422	0.00000000	18.04257000	9.47342500
100.49999421	0.00000000	16.83686000	9.47342500
100.69999420	0.00000000	14.18553000	9.43036400
100.89999419	0.00000000	11.06668000	9.00590400
101.09999417	0.00000000	7.94783400	7.84940900
101.29999416	0.00000000	5.25344500	6.31151500
101.49999415	0.00000000	3.71555100	4.77977300
101.69999414	0.00000000	3.67249000	3.62327700
101.89999413	0.00000000	4.83513700	3.24803100
102.09999411	0.00000000	6.74212600	3.66633800
102.29999410	0.00000000	9.11048200	5.24729300
102.49999409	0.00000000	11.39887000	7.93553100
102.69999408	0.00000000	13.39198000	10.96211000
102.89999407	0.00000000	14.51156000	13.28125000
103.09999406	0.00000000	14.92372000	14.03174000
103.29999404	0.00000000	14.13632000	13.28125000
103.49999403	0.00000000	12.64764000	10.96211000
103.69999402	0.00000000	11.02362000	7.89247000
103.89999401	0.00000000	9.11048200	4.77977300
104.09999400	0.00000000	7.16043300	2.08538400
104.29999398	0.00000000	6.04084600	0.59670270
104.49999397	0.00000000	5.62869100	0.97194880
104.69999396	0.00000000	6.41609200	3.24803100
104.89999395	0.00000000	7.90477300	6.31151500
105.09999394	0.00000000	9.48572700	9.38115100
105.29999392	0.00000000	11.02362000	11.70029000
105.49999391	0.00000000	12.18012000	12.49385000
105.69999390	0.00000000	12.55536000	12.11860000
105.89999389	0.00000000	12.18012000	10.58686000
106.09999388	0.00000000	11.06668000	8.31077700
106.29999387	0.00000000	9.90403500	6.36072800
106.49999385	0.00000000	9.11048200	4.77977300
106.69999384	0.00000000	8.37229300	3.66633800
106.89999383	0.00000000	8.37229300	3.66633800
107.09999382	0.00000000	9.11048200	4.82283400
107.29999381	0.00000000	9.86097400	6.68676100
107.49999379	0.00000000	10.69144000	8.63681000
107.69999378	0.00000000	11.39887000	9.75639700
107.89999377	0.00000000	11.81102000	10.21161000
108.09999376	0.00000000	11.39887000	9.75639700
108.29999375	0.00000000	10.64838000	8.63681000
108.49999374	0.00000000	9.48572700	6.72982200
108.69999372	0.00000000	8.37229300	5.24729300
108.89999371	0.00000000	7.94783400	4.77977300
109.09999370	0.00000000	7.94783400	4.77977300
109.29999369	0.00000000	8.37229300	5.24729300
109.49999368	0.00000000	9.52879000	6.72982200
109.69999366	0.00000000	11.02362000	8.63681000
109.89999365	0.00000000	12.18012000	9.79945900
110.09999364	0.00000000	12.60458000	10.58686000
110.29999363	0.00000000	12.60458000	10.53765000
110.49999362	0.00000000	12.18012000	9.42421200
110.69999360	0.00000000	11.06668000	7.89247000
110.89999359	0.00000000	9.90403500	6.36072800
111.09999358	0.00000000	9.06742000	5.19808000
111.29999357	0.00000000	7.94783400	4.77977300
111.49999356	0.00000000	7.25270600	4.73671200
111.69999355	0.00000000	7.94783400	4.77977300
111.89999353	0.00000000	9.06742000	5.19808000
112.09999352	0.00000000	9.86097400	6.36072800
112.29999351	0.00000000	10.64838000	7.84940900
112.49999350	0.00000000	11.02362000	9.00590400
112.69999349	0.00000000	11.06668000	9.43036400
112.89999347	0.00000000	11.06668000	9.43036400
113.09999346	0.00000000	11.02362000	9.05511800
113.29999345	0.00000000	10.64838000	8.31077700
113.49999344	0.00000000	9.90403500	7.93553100
113.69999343	0.00000000	9.52879000	7.84940900
113.89999341	0.00000000	9.48572700	7.47416300
114.09999340	0.00000000	9.48572700	6.72982200
114.29999339	0.00000000	9.48572700	6.35457700
114.49999338	0.00000000	9.48572700	6.31151500
114.69999337	0.00000000	9.48572700	6.31151500
114.89999336	0.00000000	9.48572700	6.31151500
115.09999334	0.00000000	9.52879000	6.31151500
115.29999333	0.00000000	9.90403500	6.35457700
115.49999332	0.00000000	10.64838000	6.72982200
115.69999331	0.00000000	11.02362000	7.51722400
115.89999330	0.00000000	11.02362000	8.26771600
116.09999328	0.00000000	10.64838000	9.05511800
116.29999327	0.00000000	9.90403500	9.43036400
116.49999326	0.00000000	9.52879000	9.47342500
116.69999325	0.00000000	9.48572700	9.43036400
116.89999324	0.00000000	9.48572700	9.05511800
117.09999322	0.00000000	9.48572700	8.26771600
117.29999321	0.00000000	9.52879000	7.51722400
117.49999320	0.00000000	9.90403500	6.68676100
117.69999319	0.00000000	10.69144000	5.93626900
117.89999318	0.00000000	11.44193000	5.19808000
118.09999317	0.00000000	12.18012000	5.19808000
118.29999315	0.00000000	12.18012000	5.89320800
118.49999314	0.00000000	11.44193000	6.31151500
118.69999313	0.00000000	10.64838000	6.77903500
118.89999312	0.00000000	9.48572700	7.89247000
119.09999311	0.00000000	8.37229300	9.00590400
119.29999309	0.00000000	7.94783400	9.43036400
119.49999308	0.00000000	7.94783400	9.47342500
119.69999307	0.00000000	8.32308000	9.43036400
119.89999306	0.00000000	9.11048200	9.05511800
120.09999305	0.00000000	9.90403500	8.26771600
120.29999303	0.00000000	11.10974000	7.51722400
120.49999302	0.00000000	12.55536000	6.72982200
120.69999301	0.00000000	13.34276000	6.35457700
120.89999300	0.00000000	12.97982000	6.31151500
121.09999299	0.00000000	12.22933000	6.31151500
121.29999298	0.00000000	11.02362000	6.31151500
121.49999296	0.00000000	9.52879000	6.35457700
121.69999295	0.00000000	8.32308000	6.72982200
121.89999294	0.00000000	7.57258800	7.47416300
122.09999293	0.00000000	7.16043300	7.84940900
122.29999292	0.00000000	7.57258800	7.93553100
122.49999290	0.00000000	8.32308000	8.31077700
122.69999289	0.00000000	9.48572700	9.00590400
122.89999288	0.00000000	10.59916000	9.05511800
123.09999287	0.00000000	11.06668000	8.68602300
123.29999286	0.00000000	11.48499000	8.67987200
123.49999284	0.00000000	12.22933000	8.26771600
123.69999283	0.00000000	12.55536000	7.89247000
123.89999282	0.00000000	12.22933000	7.47416300
124.09999281	0.00000000	11.44193000	6.72982200
124.29999280	0.00000000	10.69144000	6.35457700
124.49999279	0.00000000	9.86097400	6.31151500
124.69999277	0.00000000	9.11048200	6.35457700
124.89999276	0.00000000	8.32308000	6.72982200
125.09999275	0.00000000	7.94783400	7.47416300
125.29999274	0.00000000	7.94783400	7.84940900
125.49999273	0.00000000	8.32308000	7.93553100
125.69999271	0.00000000	9.11048200	8.26771600
125.89999270	0.00000000	9.90403500	8.63681000
126.09999269	0.00000000	11.06668000	8.26771600
126.29999268	0.00000000	12.18012000	7.93553100
126.49999267	0.00000000	12.60458000	7.89247000
126.69999265	0.00000000	12.60458000	7.84940900
126.89999264	0.00000000	12.22933000	7.47416300
127.09999263	0.00000000	11.44193000	6.72982200
127.29999262	0.00000000	10.64838000	6.35457700
127.49999261	0.00000000	9.48572700	6.31151500
127.69999260	0.00000000	8.37229300	6.35457700
127.89999258	0.00000000	7.94783400	6.72982200
128.09999257	0.00000000	7.94783400	7.47416300
128.29999256	0.00000000	8.37229300	7.84940900
128.49999255	0.00000000	9.48572700	7.89247000
128.69999254	0.00000000	10.64838000	7.89247000
128.89999252	0.00000000	11.44193000	7.89247000
129.09999251	0.00000000	12.18012000	7.89247000
129.29999250	0.00000000	12.18012000	7.89247000
129.49999249	0.00000000	11.44193000	7.84940900
129.69999248	0.00000000	10.64838000	7.47416300
129.89999246	0.00000000	9.48572700	6.72982200
130.09999245	0.00000000	8.37229300	6.40378900
130.29999244	0.00000000	7.94783400	6.72982200
130.49999243	0.00000000	7.94783400	7.47416300
130.69999242	0.00000000	8.37229300	7.84940900
130.89999241	0.00000000	9.48572700	7.89247000
131.09999239	0.00000000	10.59916000	7.89247000
131.29999238	0.00000000	11.06668000	7.89247000
131.49999237	0.00000000	11.44193000	7.84940900
131.69999236	0.00000000	11.81102000	7.47416300
131.89999235	0.00000000	11.39887000	6.72982200
132.09999233	0.00000000	10.69144000	6.35457700
132.29999232	0.00000000	9.90403500	6.31151500
132.49999231	0.00000000	9.52879000	6.31151500
132.69999230	0.00000000	9.48572700	6.35457700
132.89999229	0.00000000	9.48572700	6.72982200
133.09999227	0.00000000	9.48572700	7.47416300
133.29999226	0.00000000	9.48572700	7.89247000
133.49999225	0.00000000	9.48572700	8.31077700
133.69999224	0.00000000	9.48572700	9.05511800
133.89999223	0.00000000	9.48572700	9.38115100
134.09999222	0.00000000	9.48572700	9.00590400
134.29999220	0.00000000	9.52879000	7.89247000
134.49999219	0.00000000	9.86097400	6.77903500
134.69999218	0.00000000	10.27313000	6.35457700
134.89999217	0.00000000	10.27928000	6.31151500
135.09999216	0.00000000	10.69144000	6.31151500
135.29999214	0.00000000	11.02362000	6.31151500
135.49999213	0.00000000	11.06668000	6.35457700
135.69999212	0.00000000	11.02362000	6.72982200
135.89999211	0.00000000	10.64838000	7.51722400
136.09999210	0.00000000	9.86097400	8.22465500
136.29999208	0.00000000	9.11048200	8.67987200
136.49999207	0.00000000	8.37229300	8.64296200
136.69999206	0.00000000	8.37229300	8.67987200
136.89999205	0.00000000	9.11048200	8.26771600
137.09999204	0.00000000	9.86097400	7.93553100
137.29999203	0.00000000	10.69144000	7.84940900
137.49999201	0.00000000	11.39887000	7.47416300
137.69999200	0.00000000	11.85408000	6.72982200
137.89999199	0.00000000	11.81717000	6.35457700
138.09999198	0.00000000	11.85408000	6.31151500
138.29999197	0.00000000	11.39887000	6.31151500
138.49999195	0.00000000	10.69144000	6.35457700
138.69999194	0.00000000	9.90403500	6.72982200
138.89999193	0.00000000	9.52879000	7.47416300
139.09999192	0.00000000	9.48572700	7.89247000
139.29999191	0.00000000	9.48572700	8.31077700
139.49999189	0.00000000	9.52879000	9.05511800
139.69999188	0.00000000	9.90403500	9.43036400
139.89999187	0.00000000	10.64838000	9.43036400
140.09999186	0.00000000	11.02362000	9.05511800
140.29999185	0.00000000	11.06668000	8.26771600
140.49999184	0.00000000	11.06668000	7.51722400
140.69999182	0.00000000	11.02362000	6.72982200
140.89999181	0.00000000	10.64838000	6.35457700
141.09999180	0.00000000	9.90403500	6.31151500
141.29999179	0.00000000	9.52879000	6.35457700
141.49999178	0.00000000	9.48572700	6.72982200
141.69999176	0.00000000	9.52879000	7.51722400
141.89999175	0.00000000	9.90403500	8.26771600
142.09999174	0.00000000	10.64838000	9.09817800
142.29999173	0.00000000	11.02362000	9.79945900
142.49999172	0.00000000	11.06668000	10.16855000
142.69999170	0.00000000	11.06668000	9.42421200
142.89999169	0.00000000	11.06668000	8.35998900
143.09999168	0.00000000	10.97441000	7.84940900
143.29999167	0.00000000	10.27313000	7.09891700
143.49999166	0.00000000	9.20890700	5.99163300
143.69999165	0.00000000	9.52879000	5.98548200
143.89999163	0.00000000	10.23007000	6.26845500
144.09999162	0.00000000	10.27928000	6.35457700
144.29999161	0.00000000	10.69144000	6.72982200
144.49999160	0.00000000	11.02362000	7.51722400
144.69999159	0.00000000	11.06668000	8.26771600
144.89999157	0.00000000	11.06668000	9.05511800
145.09999156	0.00000000	11.06668000	9.38115100
145.29999155	0.00000000	11.02362000	9.05511800
145.49999154	0.00000000	10.64838000	8.31077700
145.69999153	0.00000000	9.90403500	7.89247000
145.89999151	0.00000000	9.52879000	7.47416300
146.09999150	0.00000000	9.52879000	6.72982200
146.29999149	0.00000000	9.90403500	6.35457700
146.49999148	0.00000000	10.64838000	6.35457700
146.69999147	0.00000000	11.02362000	6.68676100
146.89999146	0.00000000	11.06668000	7.09891700
147.09999144	0.00000000	11.06668000	7.10506800
147.29999143	0.00000000	11.06668000	7.51722400
147.49999142	0.00000000	11.06668000	7.89247000
147.69999141	0.00000000	11.02362000	8.26771600
147.89999140	0.00000000	10.64838000	8.63681000
148.09999138	0.00000000	9.90403500	8.26771600
148.29999137	0.00000000	9.52879000	7.93553100
148.49999136	0.00000000	9.48572700	7.84940900
148.69999135	0.00000000	9.48572700	7.47416300
148.89999134	0.00000000	9.48572700	6.72982200
149.09999132	0.00000000	9.52879000	6.35457700
149.29999131	0.00000000	9.90403500	6.31151500
149.49999130	0.00000000	10.64838000	6.35457700
149.69999129	0.00000000	11.02362000	6.72982200
149.89999128	0.00000000	11.06668000	7.47416300
150.09999127	0.00000000	11.06668000	7.89247000
150.29999125	0.00000000	11.06668000	8.26771600
150.49999124	0.00000000	11.02362000	8.63681000
150.69999123	0.00000000	10.64838000	8.26771600
150.89999122	0.00000000	9.90403500	7.93553100
151.09999121	0.00000000	9.52879000	7.89247000
151.29999119	0.00000000	9.48572700	7.89247000
151.49999118	0.00000000	9.48572700	7.84940900
151.69999117	0.00000000	9.52879000	7.51722400
151.89999116	0.00000000	9.90403500	7.14812900
152.09999115	0.00000000	10.64838000	7.47416300
152.29999113	0.00000000	11.02362000	7.47416300
152.49999112	0.00000000	11.06668000	7.14812900
152.69999111	0.00000000	11.06668000	7.51722400
152.89999110	0.00000000	11.06668000	7.84940900
153.09999109	0.00000000	11.02362000	7.89247000
153.29999108	0.00000000	10.69144000	7.89247000
153.49999106	0.00000000	10.27928000	7.89247000
153.69999105	0.00000000	10.27313000	7.89247000
153.89999104	0.00000000	9.86097400	7.89247000
154.09999103	0.00000000	9.52879000	7.89247000
154.29999102	0.00000000	9.48572700	7.89247000
154.49999100	0.00000000	9.48572700	7.89247000
154.69999099	0.00000000	9.52879000	7.89247000
154.89999098	0.00000000	9.90403500	7.89247000
155.09999097	0.00000000	10.64838000	7.89247000
155.29999096	0.00000000	11.02362000	7.84940900
155.49999094	0.00000000	11.06668000	7.47416300
155.69999093	0.00000000	11.06668000	6.77903500
155.89999092	0.00000000	11.06668000	6.77903500
156.09999091	0.00000000	11.02362000	7.47416300
156.29999090	0.00000000	10.64838000	7.89247000
156.49999089	0.00000000	9.90403500	8.26771600
156.69999087	0.00000000	9.52879000	8.67987200
156.89999086	0.00000000	9.48572700	8.68602300
157.09999085	0.00000000	9.48572700	9.05511800
157.29999084	0.00000000	9.48572700	9.00590400
157.49999083	0.00000000	9.48572700	8.26771600
157.69999081	0.00000000	9.52879000	7.56028500
157.89999080	0.00000000	9.90403500	7.10506800
158.09999079	0.00000000	10.64838000	7.09891700
158.29999078	0.00000000	11.02362000	6.68676100
158.49999077	0.00000000	11.06668000	6.40378900
158.69999075	0.00000000	11.06668000	6.72982200
158.89999074	0.00000000	11.06668000	7.47416300
159.09999073	0.00000000	11.06668000	7.84940900
159.29999072	0.00000000	11.02362000	7.89247000
159.49999071	0.00000000	10.64838000	7.89247000
159.69999070	0.00000000	9.90403500	7.89247000
159.89999068	0.00000000	9.52879000	7.89247000
160.09999067	0.00000000	9.48572700	7.89247000
160.29999066	0.00000000	9.52879000	7.89247000
160.49999065	0.00000000	9.90403500	7.89247000
160.69999064	0.00000000	10.59916000	7.89247000
160.89999062	0.00000000	10.59916000	7.84940900
161.09999061	0.00000000	9.95324800	7.51722400
161.29999060	0.00000000	9.95324800	7.10506800
161.49999059	0.00000000	10.64838000	7.14197800
161.69999058	0.00000000	11.02362000	7.10506800
161.89999056	0.00000000	11.06668000	7.51722400
162.09999055	0.00000000	11.06668000	7.84940900
162.29999054	0.00000000	11.06668000	7.89247000
162.49999053	0.00000000	11.06668000	7.89247000
162.69999052	0.00000000	11.02362000	7.89247000
162.89999051	0.00000000	10.64838000	7.89247000
163.09999049	0.00000000	9.90403500	7.89247000
163.29999048	0.00000000	9.52879000	7.89247000
163.49999047	0.00000000	9.48572700	7.89247000
163.69999046	0.00000000	9.48572700	7.89247000
163.89999045	0.00000000	9.48572700	7.89247000
164.09999043	0.00000000	9.52879000	7.89247000
164.29999042	0.00000000	9.90403500	7.89247000
164.49999041	0.00000000	10.64838000	7.89247000
164.69999040	0.00000000	11.02362000	7.89247000
164.89999039	0.00000000	11.06668000	7.89247000
165.09999037	0.00000000	11.06668000	7.89247000
165.29999036	0.00000000	11.06668000	7.89247000
165.49999035	0.00000000	11.06668000	7.89247000
165.69999034	0.00000000	11.02362000	7.89247000
165.89999033	0.00000000	10.64838000	7.89247000
166.09999032	0.00000000	9.90403500	7.89247000
166.29999030	0.00000000	9.52879000	7.89247000
166.49999029	0.00000000	9.48572700	7.89247000
166.69999028	0.00000000	9.52879000	7.89247000
166.89999027	0.00000000	9.86097400	7.89247000
167.09999026	0.00000000	10.27313000	7.89247000
167.29999024	0.00000000	10.27928000	7.89247000
167.49999023	0.00000000	10.69144000	7.89247000
167.69999022	0.00000000	11.02362000	7.89247000
167.89999021	0.00000000	11.06668000	7.89247000
168.09999020	0.00000000	11.06668000	7.89247000
168.29999018	0.00000000	11.06668000	7.89247000
168.49999017	0.00000000	11.06668000	7.89247000
168.69999016	0.00000000	11.06668000	7.89247000
168.89999015	0.00000000	11.06668000	7.89247000
169.09999014	0.00000000	11.02362000	7.89247000
169.29999013	0.00000000	10.64838000	7.89247000
169.49999011	0.00000000	9.90403500	7.89247000
169.69999010	0.00000000	9.57800100	7.89247000
169.89999009	0.00000000	9.90403500	7.89247000
170.09999008	0.00000000	10.59916000	7.89247000
170.29999007	0.00000000	10.64838000	7.89247000
170.49999005	0.00000000	10.32234000	7.89247000
170.69999004	0.00000000	10.69144000	7.89247000
170.89999003	0.00000000	11.02362000	7.89247000
171.09999002	0.00000000	11.06668000	7.89247000
171.29999001	0.00000000	11.06668000	7.89247000
171.49998999	0.00000000	11.06668000	7.89247000
171.69998998	0.00000000	11.06668000	7.89247000
171.89998997	0.00000000	11.02362000	7.89247000
172.09998996	0.00000000	10.64838000	7.84940900
172.29998995	0.00000000	9.90403500	7.51722400
172.49998994	0.00000000	9.52879000	7.14812900
172.69998992	0.00000000	9.48572700	7.51722400
172.89998991	0.00000000	9.52879000	7.84940900
173.09998990	0.00000000	9.90403500	7.89247000
173.29998989	0.00000000	10.64838000	7.89247000
173.49998988	0.00000000	11.02362000	7.89247000
173.69998986	0.00000000	11.06668000	7.89247000
173.89998985	0.00000000	11.06668000	7.89247000
174.09998984	0.00000000	11.06668000	7.89247000
174.29998983	0.00000000	11.06668000	7.89247000
174.49998982	0.00000000	11.06668000	7.89247000
174.69998980	0.00000000	11.06668000	7.89247000
174.89998979	0.00000000	11.06668000	7.89247000
175.09998978	0.00000000	11.06668000	7.89247000
175.29998977	0.00000000	11.02362000	7.89247000
175.49998976	0.00000000	10.69144000	7.89247000
175.69998975	0.00000000	10.32234000	7.89247000
175.89998973	0.00000000	10.69144000	7.89247000
176.09998972	0.00000000	11.02362000	7.89247000
176.29998971	0.00000000	11.06668000	7.89247000
176.49998970	0.00000000	11.02362000	7.89247000
176.69998969	0.00000000	10.69144000	7.89247000
176.89998967	0.00000000	10.27928000	7.89247000
177.09998966	0.00000000	10.31619000	7.89247000
177.29998965	0.00000000	10.27928000	7.89247000
177.49998964	0.00000000	10.69144000	7.89247000
177.69998963	0.00000000	11.02362000	7.89247000
177.89998961	0.00000000	11.06668000	7.89247000
178.09998960	0.00000000	11.06668000	7.89247000
178.29998959	0.00000000	11.02362000	7.89247000
178.49998958	0.00000000	10.69144000	7.89247000
178.69998957	0.00000000	10.32234000	7.89247000
178.89998956	0.00000000	10.69144000	7.89247000
179.09998954	0.00000000	11.02362000	7.89247000
179.29998953	0.00000000	11.06668000	7.89247000
179.49998952	0.00000000	11.06668000	7.89247000
179.69998951	0.00000000	11.06668000	7.89247000
179.89998950	0.00000000	11.06668000	7.89247000
180.09998948	0.00000000	11.06668000	7.84940900
180.29998947	0.00000000	11.06668000	7.51722400
180.49998946	0.00000000	11.06668000	7.14812900
180.69998945	0.00000000	11.06668000	7.51722400
180.89998944	0.00000000	11.02362000	7.84940900
181.09998942	0.00000000	10.64838000	7.89247000
181.29998941	0.00000000	9.95324800	7.89247000
181.49998940	0.00000000	9.95324800	7.89247000
181.69998939	0.00000000	10.64838000	7.89247000
181.89998938	0.00000000	11.02362000	7.89247000
182.09998937	0.00000000	11.06668000	7.89247000
182.29998935	0.00000000	11.06668000	7.89247000
182.49998934	0.00000000	11.06668000	7.89247000
182.69998933	0.00000000	11.06668000	7.89247000
182.89998932	0.00000000	11.06668000	7.84940900
183.09998931	0.00000000	11.06668000	7.47416300
183.29998929	0.00000000	11.06668000	6.77903500
183.49998928	0.00000000	11.06668000	6.77903500
183.69998927	0.00000000	11.06668000	7.47416300
183.89998926	0.00000000	11.02362000	7.84940900
184.09998925	0.00000000	10.64838000	7.89247000
184.29998923	0.00000000	9.90403500	7.89247000
184.49998922	0.00000000	9.57800100	7.89247000
184.69998921	0.00000000	9.90403500	7.89247000
184.89998920	0.00000000	10.64838000	7.89247000
185.09998919	0.00000000	11.02362000	7.89247000
185.29998918	0.00000000	11.06668000	7.89247000
185.49998916	0.00000000	11.06668000	7.89247000
185.69998915	0.00000000	11.06668000	7.84940900
185.89998914	0.00000000	11.06668000	7.47416300
186.09998913	0.00000000	11.06668000	6.72982200
186.29998912	0.00000000	11.06668000	6.35457700
186.49998910	0.00000000	11.06668000	6.35457700
186.69998909	0.00000000	11.02362000	6.72982200
186.89998908	0.00000000	10.69144000	7.47416300
187.09998907	0.00000000	10.27928000	7.84940900
187.29998906	0.00000000	10.31619000	7.89247000
187.49998904	0.00000000	10.27928000	7.89247000
187.69998903	0.00000000	10.64838000	7.89247000
187.89998902	0.00000000	10.64838000	7.89247000
188.09998901	0.00000000	10.32234000	7.89247000
188.29998900	0.00000000	10.69144000	7.84940900
188.49998899	0.00000000	11.02362000	7.51722400
188.69998897	0.00000000	11.06668000	7.10506800
188.89998896	0.00000000	11.06668000	7.09891700
189.09998895	0.00000000	11.06668000	6.68676100
189.29998894	0.00000000	11.06668000	6.40378900
189.49998893	0.00000000	11.06668000	6.68676100
189.69998891	0.00000000	11.06668000	7.09891700
189.89998890	0.00000000	11.02362000	7.10506800
190.09998889	0.00000000	10.64838000	7.51722400
190.29998888	0.00000000	9.95324800	7.84940900
190.49998887	0.00000000	9.90403500	7.89247000
190.69998885	0.00000000	10.27313000	7.89247000
190.89998884	0.00000000	10.27928000	7.89247000
191.09998883	0.00000000	10.69144000	7.89247000
191.29998882	0.00000000	11.02362000	7.89247000
191.49998881	0.00000000	11.06668000	7.89247000
191.69998880	0.00000000	11.06668000	7.89247000
191.89998878	0.00000000	11.06668000	7.89247000
192.09998877	0.00000000	11.06668000	7.89247000
192.29998876	0.00000000	11.06668000	7.84940900
192.49998875	0.00000000	11.06668000	7.47416300
192.69998874	0.00000000	11.06668000	6.77903500
192.89998872	0.00000000	11.02362000	6.77903500
193.09998871	0.00000000	10.64838000	7.47416300
193.29998870	0.00000000	9.95324800	7.84940900
193.49998869	0.00000000	9.95324800	7.89247000
193.69998868	0.00000000	10.64838000	7.89247000
193.89998866	0.00000000	11.02362000	7.89247000
194.09998865	0.00000000	11.06668000	7.89247000
194.29998864	0.00000000	11.06668000	7.89247000
194.49998863	0.00000000	11.06668000	7.89247000
194.69998862	0.00000000	11.06668000	7.89247000
194.89998861	0.00000000	11.06668000	7.89247000
195.09998859	0.00000000	11.06668000	7.89247000
195.29998858	0.00000000	11.02362000	7.89247000
195.49998857	0.00000000	10.69144000	7.89247000
195.69998856	0.00000000	10.32234000	7.89247000
195.89998855	0.00000000	10.64838000	7.89247000
196.09998853	0.00000000	10.59916000	7.89247000
