Time	Channel A	Channel B	Channel C
(us)	(V)	(mV)	(mV)

-4.59999956	0.00000000	0.04306102	3.15575800
-4.39999957	0.00000000	0.00000000	3.15575800
-4.19999958	0.00000000	0.00000000	3.15575800
-3.99999959	0.00000000	0.00000000	3.15575800
-3.79999960	0.00000000	0.00000000	3.15575800
-3.59999962	0.00000000	0.04306102	3.15575800
-3.39999963	0.00000000	0.37524600	3.15575800
-3.19999964	0.00000000	0.74434050	3.15575800
-2.99999965	0.00000000	0.37524600	3.15575800
-2.79999966	0.00000000	0.04306102	3.15575800
-2.59999968	0.00000000	0.00000000	3.15575800
-2.39999969	0.00000000	0.00000000	3.15575800
-2.19999970	0.00000000	0.00000000	3.15575800
-1.99999971	0.00000000	0.04306102	3.15575800
-1.79999972	0.00000000	0.41830710	3.15575800
-1.59999973	0.00000000	1.11343500	3.15575800
-1.39999975	0.00000000	1.11343500	3.15575800
-1.19999976	0.00000000	0.46751960	3.15575800
-0.99999977	0.00000000	0.41830710	3.15575800
-0.79999978	0.00000000	0.74434050	3.15575800
-0.59999979	0.00000000	0.37524600	3.15575800
-0.39999981	0.15871060	0.04306102	3.15575800
-0.19999982	0.47736220	0.00000000	3.15575800
0.00000017	0.79601380	0.00000000	3.15575800
0.20000016	0.95533960	0.00000000	3.15575800
0.40000015	0.95533960	0.00000000	3.15575800
0.60000013	0.47736220	0.00000000	3.15575800
0.80000012	-0.15871060	0.00000000	3.15575800
1.00000011	-1.11466500	0.00000000	3.15575800
1.20000010	-2.07062000	0.00000000	3.19881900
1.40000009	-2.70792300	0.04306102	3.57406500
1.60000008	-2.70792300	0.41830710	4.31840500
1.80000006	-1.91129400	1.11343500	4.64443900
2.00000005	-0.31803640	1.11343500	4.31840500
2.20000004	1.75196900	0.41830710	3.57406500
2.40000003	3.82258900	0.04306102	3.19881900
2.60000002	5.09719500	0.00000000	3.15575800
2.80000000	5.25652100	0.00000000	3.15575800
2.99999999	3.98191400	0.00000000	3.15575800
3.19999998	1.27399100	0.04306102	3.15575800
3.39999997	-2.07062000	0.37524600	3.15575800
3.59999996	-5.25652100	0.78740150	3.15575800
3.79999994	-7.48646600	0.79355310	3.19881900
3.99999993	-7.96444400	1.20570900	3.57406500
4.19999992	-6.21247500	1.53789400	4.31840500
4.39999991	-2.86724900	1.58095500	4.69365100
4.59999990	1.43331700	1.53789400	4.69365100
4.79999989	5.73449800	1.16264800	4.31840500
4.99999987	8.60174700	0.41830710	3.57406500
5.19999986	9.39837600	0.04306102	3.15575800
5.39999985	7.96444400	0.04306102	2.78051200
5.59999984	4.30056600	0.41830710	2.41141700
5.79999983	-0.31803640	1.16264800	2.78051200
5.99999981	-4.93786900	1.48868100	3.11269700
6.19999980	-8.28309500	1.16264800	3.19881900
6.39999979	-9.55770200	0.41830710	3.53100400
6.59999978	-8.28309500	0.04306102	3.94315900
6.79999977	-5.09719500	0.04306102	3.94931100
6.99999975	-0.95533960	0.41830710	4.31840500
7.19999974	3.18590100	1.16264800	4.26919300
7.39999973	6.37180100	1.48868100	3.57406500
7.59999972	7.64579200	1.16264800	3.19881900
7.79999971	7.00848900	0.41830710	3.15575800
7.99999970	4.77854300	0.04306102	3.15575800
8.19999968	1.59264300	0.00000000	3.15575800
8.39999967	-1.59264300	0.00000000	3.15575800
8.59999966	-4.14124000	0.04306102	3.15575800
8.79999965	-5.09719500	0.37524600	3.15575800
8.99999964	-4.93786900	0.78740150	3.15575800
9.19999962	-3.50393700	0.79355310	3.15575800
9.39999961	-1.59264300	1.20570900	3.15575800
9.59999960	0.31803640	1.48868100	3.15575800
9.79999959	1.91129400	1.16264800	3.15575800
9.99999958	2.54859700	0.41830710	3.15575800
10.19999956	2.38927200	0.04306102	3.15575800
10.39999955	1.75196900	0.00000000	3.15575800
10.59999954	0.95533960	0.04306102	3.15575800
10.79999953	0.00000000	0.41830710	3.15575800
10.99999952	-0.47736220	1.16264800	3.15575800
11.19999951	-0.95533960	1.53789400	3.15575800
11.39999949	-0.95533960	1.58095500	3.15575800
11.59999948	-0.79601380	1.53789400	3.15575800
11.79999947	-0.63668800	1.20570900	3.15575800
11.99999946	-0.31803640	0.79355310	3.15575800
12.19999945	-0.15871060	0.78740150	3.15575800
12.39999943	-0.15871060	0.37524600	3.15575800
12.59999942	0.00000000	0.04306102	3.15575800
12.79999941	0.00000000	0.00000000	3.15575800
12.99999940	0.00000000	0.00000000	3.15575800
13.19999939	0.00000000	0.04306102	3.15575800
13.39999937	0.00000000	0.37524600	3.15575800
13.59999936	0.00000000	0.74434050	3.15575800
13.79999935	0.00000000	0.37524600	3.15575800
13.99999934	-0.15871060	0.04306102	3.15575800
14.19999933	-0.15871060	0.04306102	3.15575800
14.39999932	-0.15871060	0.37524600	3.15575800
14.59999930	-0.15871060	0.74434050	3.15575800
14.79999929	0.00000000	0.41830710	3.15575800
14.99999928	0.00000000	0.41830710	3.15575800
15.19999927	0.00000000	0.74434050	3.15575800
15.39999926	0.00000000	0.37524600	3.15575800
15.59999924	0.00000000	0.04306102	3.15575800
15.79999923	0.00000000	0.00000000	3.15575800
15.99999922	0.00000000	0.00000000	3.15575800
16.19999921	0.00000000	0.04306102	3.15575800
16.39999920	-0.15871060	0.41830710	3.15575800
16.59999919	-0.15871060	1.16264800	3.15575800
16.79999917	-0.15871060	1.53789400	3.15575800
16.99999916	0.00000000	1.58095500	3.15575800
17.19999915	0.00000000	1.62401600	3.15575800
17.39999914	0.00000000	1.99926200	3.15575800
17.59999913	0.00000000	2.69439000	3.15575800
17.79999911	0.00000000	2.65132900	3.15575800
17.99999910	0.00000000	1.53789400	3.15575800
18.19999909	0.00000000	0.00000000	3.15575800
18.39999908	0.00000000	-1.58095500	3.15575800
18.59999907	0.00000000	-3.11884800	3.15575800
18.79999905	0.00000000	-4.27534400	3.15575800
18.99999904	0.00000000	-4.60752900	3.15575800
19.19999903	0.00000000	-3.81397600	3.15575800
19.39999902	0.00000000	-1.44562000	3.15575800
19.59999901	0.00000000	1.99926200	3.15575800
19.79999900	0.00000000	5.94857300	3.15575800
19.99999898	0.00000000	9.72563900	3.15575800
20.19999897	0.00000000	12.41388000	3.15575800
20.39999896	0.00000000	12.37697000	3.15575800
20.59999895	0.00000000	10.00246000	3.15575800
20.79999894	0.00000000	4.88435000	3.15575800
20.99999892	0.00000000	-2.78666300	3.15575800
21.19999891	0.00000000	-10.51304000	3.15575800
21.39999890	0.00000000	-16.70152000	3.15575800
21.59999889	0.00000000	-20.09719000	3.15575800
21.79999888	0.00000000	-18.84227000	3.15575800
21.99999886	0.00000000	-12.61073000	3.15575800
22.19999885	0.00000000	-2.14074800	3.15575800
22.39999884	0.00000000	10.59916000	3.15575800
22.59999883	0.00000000	22.51476000	3.11269700
22.79999882	0.00000000	30.61023000	2.82357300
22.99999881	0.00000000	32.43110000	2.83587600
23.19999879	0.00000000	26.98080000	3.94315900
23.39999878	0.00000000	14.52387000	4.64443900
23.59999877	0.00000000	-2.46678100	4.73671200
23.79999876	0.00000000	-20.60777000	4.73671200
23.99999875	0.00000000	-35.17470000	4.73671200
24.19999873	0.00000000	-42.10753000	4.69365100
24.39999872	0.00000000	-39.36393000	4.26919300
24.59999871	0.00000000	-27.31299000	3.11269700
24.79999870	0.00000000	-7.95398600	1.57480300
24.99999869	0.00000000	14.79454000	0.04306102
25.19999867	0.00000000	35.21776000	-1.11343500
25.39999866	0.00000000	48.33907000	-1.48253000
25.59999865	0.00000000	50.99040000	-1.02116100
25.79999864	0.00000000	42.05831000	0.92888770
25.99999863	0.00000000	23.16683000	4.40452700
26.19999862	0.00000000	-1.16264800	8.26771600
26.39999860	0.00000000	-25.12303000	12.11860000
26.59999859	0.00000000	-43.63927000	14.76993000
26.79999858	0.00000000	-52.10999000	15.09596000
26.99999857	0.00000000	-48.29601000	12.77067000
27.19999856	0.00000000	-33.63681000	7.71407400
27.39999854	0.00000000	-11.58341000	1.11343500
27.59999853	0.00000000	13.12131000	-6.26845500
27.79999852	0.00000000	34.75639000	-13.10285000
27.99999851	0.00000000	48.29601000	-16.91068000
28.19999850	0.00000000	51.03962000	-16.08022000
28.39999848	0.00000000	42.56889000	-10.68528000
28.59999847	0.00000000	25.21530000	-1.35334600
28.79999846	0.00000000	3.20497000	9.84867000
28.99999845	0.00000000	-18.42397000	21.08760000
29.19999844	0.00000000	-34.70718000	29.87205000
29.39999843	0.00000000	-42.48277000	33.67987000
29.59999841	0.00000000	-40.61269000	30.89321000
29.79999840	0.00000000	-29.86589000	21.64739000
29.99999839	0.00000000	-13.67495000	7.71407400
30.19999838	0.00000000	4.18922200	-7.71407400
30.39999837	-0.15871060	20.42938000	-21.64739000
30.59999835	0.00000000	31.68061000	-30.80709000
30.79999834	0.00000000	35.59301000	-32.75098000
30.99999833	0.00000000	32.19119000	-26.53174000
31.19999832	0.00000000	22.51476000	-13.79798000
31.39999831	0.00000000	9.01820900	3.20497000
31.59999829	0.00000000	-5.30265700	20.57702000
31.79999828	0.00000000	-17.31053000	34.47342000
31.99999827	0.00000000	-24.70472000	42.23056000
32.19999826	0.00000000	-26.28568000	41.81841000
32.39999825	0.00000000	-22.05339000	33.72293000
32.59999824	0.00000000	-13.20743000	19.37131000
32.79999822	0.00000000	-1.99926200	1.62401600
32.99999821	0.00000000	8.79675100	-15.74803000
33.19999820	0.00000000	16.97834000	-28.85088000
33.39999819	0.00000000	20.84153000	-34.70718000
33.59999818	0.00000000	20.14025000	-32.43110000
33.79999816	0.00000000	15.12057000	-23.13607000
33.99999815	0.00000000	7.43725300	-8.45841400
34.19999814	0.00000000	-1.07037400	8.50147600
34.39999813	0.00000000	-8.37844500	23.60359000
34.59999812	0.00000000	-12.65379000	34.05511000
34.79999810	0.00000000	-13.07210000	37.91216000
34.99999809	0.00000000	-10.04552000	34.05511000
35.19999808	0.00000000	-4.65059000	23.68971000
35.39999807	0.00000000	1.48868100	9.43036400
35.59999806	0.00000000	6.93282500	-5.25344500
35.79999805	0.00000000	10.37771000	-17.23671000
35.99999803	0.00000000	11.11590000	-24.16338000
36.19999802	0.00000000	8.46456700	-24.16338000
36.39999801	0.00000000	3.53715500	-17.32899000
36.59999800	0.00000000	-1.48868100	-6.18233200
36.79999799	0.00000000	-5.72711600	6.13312000
36.99999797	0.00000000	-8.04626000	16.95374000
37.19999796	0.00000000	-7.67716500	23.46826000
37.39999795	0.00000000	-5.35187000	24.24951000
37.59999794	0.00000000	-1.11343500	18.90994000
37.79999793	0.00000000	3.85703700	9.38730200
37.99999791	0.00000000	7.72637700	-0.97810030
38.19999790	0.00000000	10.09473000	-9.43036400
38.39999789	0.00000000	10.42077000	-13.61343000
38.59999788	0.00000000	8.55684000	-12.12475000
38.79999787	0.00000000	5.02583600	-5.62253900
38.99999786	0.00000000	0.78740150	3.53100400
39.19999784	0.00000000	-3.85703700	12.77067000
39.39999783	0.00000000	-7.30807100	19.24212000
39.59999782	0.00000000	-8.88902600	21.13681000
39.79999781	0.00000000	-8.51377900	17.28592000
39.99999780	0.00000000	-6.18848400	8.96284400
40.19999778	0.00000000	-2.74360200	-0.69512790
40.39999777	0.00000000	1.20570900	-9.15969400
40.59999776	0.00000000	5.07504900	-14.86836000
40.79999775	0.00000000	8.55684000	-15.19439000
40.99999774	0.00000000	10.46998000	-9.89788300
41.19999772	0.00000000	10.51304000	-1.06422200
41.39999771	0.00000000	8.93208600	8.91978400
41.59999770	0.00000000	5.81323800	17.37820000
41.79999769	0.00000000	1.62401600	22.06570000
41.99999768	0.00000000	-2.27608300	22.44094000
42.19999767	0.00000000	-5.02583600	18.57775000
42.39999765	0.00000000	-6.97588500	10.86983000
42.59999764	0.00000000	-7.30807100	1.75319900
42.79999763	0.00000000	-5.81323800	-5.99163300
42.99999762	0.00000000	-3.16190900	-10.31619000
43.19999761	0.00000000	-0.41830710	-11.52190000
43.39999759	0.00000000	1.91314000	-9.52263600
43.59999758	0.00000000	3.85703700	-4.18307100
43.79999757	0.00000000	4.65059000	2.69439000
43.99999756	0.00000000	4.74286400	8.87672100
44.19999755	0.00000000	4.69980300	13.10285000
44.39999753	0.00000000	4.32455700	14.30241000
44.59999752	0.00000000	3.58021600	12.45079000
44.79999751	0.00000000	3.20497000	9.05511800
44.99999750	0.00000000	3.16190900	5.15501900
45.19999749	0.00000000	3.11884800	1.66707700
45.39999748	0.00000000	2.65132900	-1.07037400
45.59999746	0.00000000	1.07037400	-2.60211600
45.79999745	0.00000000	-1.62401600	-2.60211600
45.99999744	0.00000000	-4.69980300	-1.07037400
46.19999743	0.00000000	-7.39419200	1.58095500
46.39999742	0.00000000	-8.88902600	4.26919300
46.59999740	0.00000000	-8.42150500	6.26845500
46.79999739	0.00000000	-5.35187000	7.80019600
46.99999738	0.00000000	-0.28297240	8.54453700
47.19999737	0.00000000	5.53641700	7.80019600
47.39999736	0.00000000	11.67569000	6.26845500
47.59999734	0.00000000	15.81570000	4.26919300
47.79999733	0.00000000	16.23400000	1.62401600
47.99999732	0.00000000	13.16437000	-0.64591530
48.19999731	0.00000000	7.30807100	-1.48253000
48.39999730	0.00000000	-0.46751960	-1.48253000
48.59999729	0.00000000	-8.93208600	-0.64591530
48.79999727	0.00000000	-15.81570000	1.66707700
48.99999726	0.00000000	-18.84227000	4.73671200
49.19999725	0.00000000	-16.93528000	7.80019600
49.39999724	0.00000000	-10.37771000	10.11934000
49.59999723	0.00000000	-1.11343500	10.86983000
49.79999721	0.00000000	8.88902600	10.07628000
49.99999720	0.00000000	16.93528000	7.38188900
50.19999719	0.00000000	20.42323000	3.57406500
50.39999718	0.00000000	18.93455000	0.04306102
50.59999717	0.00000000	13.16437000	-3.02042300
50.79999715	0.00000000	4.65059000	-4.92125900
50.99999714	0.00000000	-4.56446800	-4.50910400
51.19999713	0.00000000	-12.27854000	-2.22687000
51.39999712	0.00000000	-16.09867000	1.62401600
51.59999711	0.00000000	-15.35433000	5.85014700
51.79999710	0.00000000	-10.00246000	9.33809000
51.99999708	0.00000000	-1.95620100	11.70029000
52.19999707	0.00000000	6.14542300	12.40773000
52.39999706	0.00000000	12.69685000	11.23893000
52.59999705	0.00000000	15.72958000	7.80019600
52.79999704	0.00000000	14.23474000	3.62327700
52.99999702	0.00000000	8.88902600	0.09227362
53.19999701	0.00000000	1.62401600	-2.60211600
53.39999700	0.00000000	-5.30265700	-3.71555100
53.59999699	0.00000000	-9.95939900	-2.60211600
53.79999698	0.00000000	-11.49114000	0.04306102
53.99999696	0.00000000	-9.58415200	3.11269700
54.19999695	0.00000000	-4.60752900	5.80093500
54.39999694	0.00000000	1.53789400	7.38188900
54.59999693	0.00000000	7.30807100	7.75713500
54.79999692	0.00000000	11.16511000	7.01279500
54.99999691	0.00000000	11.91560000	5.06274600
55.19999689	0.00000000	9.67027500	2.87278500
55.39999688	0.00000000	5.02583600	1.34719500
55.59999687	0.00000000	-0.33218500	1.71013800
55.79999686	0.00000000	-5.35187000	3.15575800
55.99999685	0.00000000	-8.42150500	4.73671200
56.19999683	0.00000000	-8.83981200	6.26845500
56.39999682	0.00000000	-6.88361200	7.38188900
56.59999681	0.00000000	-2.65132900	7.33882900
56.79999680	0.00000000	2.65132900	5.75787400
56.99999679	0.00000000	6.88361200	2.69439000
57.19999677	0.00000000	8.88902600	-1.07037400
57.39999676	0.00000000	8.93208600	-3.71555100
57.59999675	0.00000000	7.35113100	-4.14000900
57.79999674	0.00000000	4.27534400	-2.60211600
57.99999673	0.00000000	0.46751960	0.55364170
58.19999672	0.00000000	-2.60826800	5.19808000
58.39999670	0.00000000	-4.23228400	10.53765000
58.59999669	0.00000000	-4.60752900	14.72072000
58.79999668	0.00000000	-3.81397600	16.20940000
58.99999667	0.00000000	-1.53789400	14.30241000
59.19999666	0.00000000	1.11343500	9.29502900
59.39999664	0.00000000	3.06963600	2.78051200
59.59999663	0.00000000	4.23228400	-3.80782500
59.79999662	0.00000000	4.27534400	-8.74138700
59.99999661	0.00000000	3.53715500	-10.68528000
60.19999660	0.00000000	2.74360200	-8.74138700
60.39999658	0.00000000	1.58095500	-3.76476400
60.59999657	0.00000000	0.46751960	3.19881900
60.79999656	0.00000000	0.04306102	10.53765000
60.99999655	0.00000000	0.04306102	16.67692000
61.19999654	0.00000000	0.41830710	20.06643000
61.39999653	0.00000000	1.20570900	18.95300000
61.59999651	0.00000000	1.91314000	13.98868000
61.79999650	0.00000000	2.32529500	7.01279500
61.99999649	0.00000000	1.91314000	-1.11343500
62.19999648	0.00000000	1.16264800	-8.36614100
62.39999647	0.00000000	0.00000000	-12.59227000
62.59999645	0.00000000	-1.11343500	-12.63533000
62.79999644	0.00000000	-1.48868100	-8.78444900
62.99999643	0.00000000	-1.11343500	-2.27608300
63.19999642	0.00000000	0.04306102	5.47490100
63.39999641	0.00000000	1.58095500	12.40773000
63.59999639	0.00000000	3.11884800	17.46432000
63.79999638	0.00000000	4.23228400	19.32825000
63.99999637	0.00000000	4.27534400	17.46432000
64.19999636	0.00000000	3.53715500	12.45079000
64.39999635	0.00000000	2.74360200	5.94242000
64.59999634	0.00000000	1.53789400	-0.64591530
64.79999632	0.00000000	0.04306102	-5.67175200
64.99999631	0.00000000	-1.11343500	-8.45226300
65.19999630	0.00000000	-1.48868100	-8.82750900
65.39999629	0.00000000	-1.11343500	-6.92052100
65.59999628	0.00000000	0.04306102	-3.06963600
65.79999626	0.00000000	1.53789400	1.57480300
65.99999625	0.00000000	2.69439000	6.21924200
66.19999624	0.00000000	3.06963600	10.11934000
66.39999623	0.00000000	2.69439000	12.45079000
66.59999622	0.00000000	1.53789400	13.28125000
66.79999620	0.00000000	0.04306102	12.49385000
66.99999619	0.00000000	-1.11343500	10.58686000
67.19999618	0.00000000	-1.48868100	7.84940900
67.39999617	0.00000000	-1.07037400	4.73671200
67.59999616	0.00000000	0.46751960	1.58095500
67.79999615	0.00000000	2.78666300	-1.53174200
67.99999613	0.00000000	5.07504900	-4.22613100
68.19999612	0.00000000	6.97588500	-5.75787400
68.39999611	0.00000000	7.30807100	-5.75787400
68.59999610	0.00000000	5.77017700	-4.18307100
68.79999609	0.00000000	2.69439000	-1.07037400
68.99999607	0.00000000	-1.16264800	3.15575800
69.19999606	0.00000000	-4.65059000	7.47416300
69.39999605	0.00000000	-7.35113100	11.33120000
69.59999604	0.00000000	-8.42150500	14.39468000
69.79999603	0.00000000	-6.88361200	15.14518000
69.99999601	0.00000000	-3.02657500	13.60728000
70.19999600	0.00000000	1.95620100	10.07628000
70.39999599	0.00000000	7.01894700	4.69365100
70.59999598	0.00000000	10.88829000	-1.02116100
70.79999597	0.00000000	13.16437000	-5.29650500
70.99999596	0.00000000	12.74606000	-7.29576700
71.19999594	0.00000000	9.25812000	-7.29576700
71.39999593	0.00000000	3.90625000	-5.33956700
71.59999592	0.00000000	-2.27608300	-1.43946800
71.79999591	0.00000000	-7.30807100	3.53100400
71.99999590	0.00000000	-10.46998000	8.50147600
72.19999588	0.00000000	-11.58341000	11.61417000
72.39999587	0.00000000	-10.00246000	12.45079000
72.59999586	0.00000000	-5.77017700	11.65723000
72.79999585	0.00000000	0.00000000	8.96284400
72.99999584	0.00000000	5.81323800	5.19808000
73.19999582	0.00000000	10.46998000	2.12844500
73.39999581	0.00000000	13.12131000	0.51058070
73.59999580	0.00000000	12.74606000	0.09227362
73.79999579	0.00000000	9.35039300	0.46136810
73.99999578	0.00000000	4.74286400	1.62401600
74.19999577	0.00000000	0.04306102	3.11269700
74.39999575	0.00000000	-4.18922200	4.26919300
74.59999574	0.00000000	-6.88361200	4.60137700
74.79999573	0.00000000	-7.30807100	3.85088600
74.99999572	0.00000000	-5.77017700	1.99311000
75.19999571	0.00000000	-2.69439000	0.55364170
75.39999569	0.00000000	1.11343500	0.51058070
75.59999568	0.00000000	4.23228400	1.66707700
75.79999567	0.00000000	6.18848400	3.61712600
75.99999566	0.00000000	6.97588500	6.31151500
76.19999565	0.00000000	6.18848400	8.96284400
76.39999563	0.00000000	4.32455700	10.49459000
76.59999562	0.00000000	2.04847400	10.45152000
76.79999561	0.00000000	0.51058070	8.50147600
76.99999560	0.00000000	0.04306102	4.64443900
77.19999559	0.00000000	0.04306102	0.04306102
77.39999558	0.00000000	0.41830710	-4.18307100
77.59999556	0.00000000	1.16264800	-6.87746000
77.79999555	0.00000000	1.48868100	-7.24655500
77.99999554	0.00000000	1.16264800	-5.29650500
78.19999553	0.00000000	0.37524600	-1.06422200
78.39999552	0.00000000	-0.37524600	4.31840500
78.59999550	0.00000000	-1.11343500	9.33809000
78.79999549	0.00000000	-1.07037400	13.23819000
78.99999548	0.00000000	0.09227362	15.09596000
79.19999547	0.00000000	1.95620100	14.34547000
79.39999546	0.00000000	3.90625000	10.91289000
79.59999544	0.00000000	5.07504900	6.31151500
79.79999543	0.00000000	5.85629900	1.62401600
79.99999542	0.00000000	5.81323800	-2.60211600
80.19999541	0.00000000	4.65059000	-5.29650500
80.39999540	0.00000000	2.69439000	-5.75787400
80.59999539	0.00000000	0.00000000	-4.60137700
80.79999537	0.00000000	-2.65132900	-2.27608300
80.99999536	0.00000000	-4.18922200	1.20570900
81.19999535	0.00000000	-4.18922200	4.68750000
81.39999534	0.00000000	-2.65132900	7.80019600
81.59999533	0.00000000	0.00000000	10.11934000
81.79999531	0.00000000	2.69439000	10.95595000
81.99999530	0.00000000	4.69980300	10.95595000
82.19999529	0.00000000	6.23154500	10.11934000
82.39999528	0.00000000	6.93282500	7.84940900
82.59999527	0.00000000	5.81323800	5.15501900
82.79999525	0.00000000	3.53715500	2.73745100
82.99999524	0.00000000	1.24877000	0.00000000
83.19999523	0.00000000	-0.74434050	-2.64517700
83.39999522	0.00000000	-1.86392700	-4.18307100
83.59999521	0.00000000	-2.27608300	-4.18307100
83.79999520	0.00000000	-1.48868100	-2.64517700
83.99999518	0.00000000	-0.04306102	0.04306102
84.19999517	0.00000000	1.16264800	3.19881900
84.39999516	0.00000000	1.95620100	6.68676100
84.59999515	0.00000000	2.74360200	10.16855000
84.79999514	0.00000000	3.06963600	12.45079000
84.99999512	0.00000000	2.74360200	13.18898000
85.19999511	0.00000000	1.99926200	11.65723000
85.39999510	0.00000000	1.62401600	8.22465500
85.59999509	0.00000000	1.62401600	4.31840500
85.79999508	0.00000000	1.99926200	0.04306102
85.99999506	0.00000000	2.69439000	-3.76476400
86.19999505	0.00000000	2.69439000	-5.67175200
86.39999504	0.00000000	1.95620100	-5.33956700
86.59999503	0.00000000	1.16264800	-3.02042300
86.79999502	0.00000000	0.00000000	0.46751960
86.99999501	0.00000000	-1.16264800	4.77977300
87.19999499	0.00000000	-1.86392700	9.29502900
87.39999498	0.00000000	-1.85777500	12.39542000
87.59999497	0.00000000	-0.33218500	12.77682000
87.79999496	0.00000000	1.53789400	11.28199000
87.99999495	0.00000000	3.11884800	7.75713500
88.19999493	0.00000000	4.27534400	3.20497000
88.39999492	0.00000000	4.65059000	-1.07037400
88.59999491	0.00000000	4.27534400	-4.13385800
88.79999490	0.00000000	3.16190900	-5.25344500
88.99999489	0.00000000	1.99926200	-3.71555100
89.19999487	0.00000000	1.16264800	0.09227362
89.39999486	0.00000000	0.00000000	4.69365100
89.59999485	0.00000000	-1.11343500	8.96284400
89.79999484	0.00000000	-1.48868100	12.03248000
89.99999483	0.00000000	-1.11343500	13.14591000
90.19999482	0.00000000	0.00000000	11.61417000
90.39999480	0.00000000	1.16264800	7.80019600
90.59999479	0.00000000	1.95620100	3.15575800
90.79999478	0.00000000	2.69439000	-1.43946800
90.99999477	0.00000000	2.69439000	-4.87204700
91.19999476	0.00000000	1.99926200	-5.62253900
91.39999474	0.00000000	1.62401600	-3.71555100
91.59999473	0.00000000	1.58095500	0.51058070
91.79999472	0.00000000	1.58095500	5.85014700
91.99999471	0.00000000	1.62401600	10.45152000
92.19999470	0.00000000	1.95620100	13.18898000
92.39999468	0.00000000	2.32529500	13.56422000
92.59999467	0.00000000	1.95620100	11.61417000
92.79999466	0.00000000	1.58095500	7.38188900
92.99999465	0.00000000	1.11343500	2.04232300
93.19999464	0.00000000	0.00000000	-2.55905500
93.39999463	0.00000000	-1.11343500	-5.24729300
93.59999461	0.00000000	-1.48868100	-5.29650500
93.79999460	0.00000000	-1.11343500	-2.97736200
93.99999459	0.00000000	0.09227362	0.83661410
94.19999458	0.00000000	1.99926200	5.47490100
94.39999457	0.00000000	4.32455700	9.24581600
94.59999455	0.00000000	6.23154500	11.23893000
94.79999454	0.00000000	7.39419200	10.82677000
94.99999453	0.00000000	7.35113100	8.54453700
95.19999452	0.00000000	5.81323800	4.69365100
95.39999451	0.00000000	3.11884800	0.51058070
95.59999449	0.00000000	0.00000000	-2.55905500
95.79999448	0.00000000	-3.06963600	-3.71555100
95.99999447	0.00000000	-5.35187000	-2.60211600
96.19999446	0.00000000	-5.77017700	0.04306102
96.39999445	0.00000000	-4.60752900	3.15575800
96.59999444	0.00000000	-2.23302100	6.22539300
96.79999442	0.00000000	1.62401600	8.50147600
96.99999441	0.00000000	5.81323800	8.91978400
97.19999440	0.00000000	8.93208600	7.84940900
97.39999439	0.00000000	10.46998000	6.26845500
97.59999438	0.00000000	10.09473000	4.31840500
97.79999436	0.00000000	7.76943800	2.04232300
97.99999435	0.00000000	4.27534400	0.51058070
98.19999434	0.00000000	0.04306102	0.09227362
98.39999433	0.00000000	-3.81397600	0.46136810
98.59999432	0.00000000	-6.14542300	1.62401600
98.79999430	0.00000000	-6.97588500	3.11269700
98.99999429	0.00000000	-6.14542300	4.26919300
99.19999428	0.00000000	-3.85703700	4.69365100
99.39999427	0.00000000	-0.33218500	4.73671200
99.59999426	0.00000000	3.49409400	4.77977300
99.79999425	0.00000000	6.97588500	5.15501900
99.99999423	0.00000000	8.93208600	5.89320800
100.19999422	0.00000000	9.35039300	6.26845500
100.39999421	0.00000000	8.55684000	6.31151500
100.59999420	0.00000000	6.23154500	6.26845500
100.79999419	0.00000000	3.16190900	5.85014700
100.99999417	0.00000000	0.04306102	4.68750000
101.19999416	0.00000000	-2.65132900	3.15575800
101.39999415	0.00000000	-4.23228400	1.57480300
101.59999414	0.00000000	-4.65059000	0.09227362
101.79999413	0.00000000	-4.23228400	-0.65206690
101.99999411	0.00000000	-2.65132900	0.13533460
102.19999410	0.00000000	0.00000000	1.99311000
102.39999409	0.00000000	2.69439000	4.36146600
102.59999408	0.00000000	4.65059000	6.68676100
102.79999407	0.00000000	5.85629900	9.00590400
102.99999406	0.00000000	6.23154500	10.45152000
103.19999404	0.00000000	5.85629900	10.11934000
103.39999403	0.00000000	4.65059000	8.17544300
103.59999402	0.00000000	2.74360200	5.47490100
103.79999401	0.00000000	0.46751960	1.99311000
103.99999400	0.00000000	-1.11343500	-1.02116100
104.19999398	0.00000000	-1.91314000	-2.60211600
104.39999397	0.00000000	-2.32529500	-2.60211600
104.59999396	0.00000000	-1.86392700	-1.07037400
104.79999395	0.00000000	-0.78740150	1.62401600
104.99999394	0.00000000	0.78740150	4.68750000
105.19999392	0.00000000	1.95620100	7.38188900
105.39999391	0.00000000	3.16190900	8.91978400
105.59999390	0.00000000	4.23228400	8.91978400
105.79999389	0.00000000	4.23228400	7.43110200
105.99999388	0.00000000	3.11884800	5.15501900
106.19999387	0.00000000	1.62401600	3.19881900
106.39999385	0.00000000	0.46751960	1.62401600
106.59999384	0.00000000	0.00000000	0.51058070
106.79999383	0.00000000	-0.33218500	0.46136810
106.99999382	0.00000000	-0.31988190	1.24877000
107.19999381	0.00000000	0.83046260	2.41141700
107.39999379	0.00000000	1.91314000	4.31840500
107.59999378	0.00000000	2.74360200	5.80093500
107.79999377	0.00000000	3.11884800	6.26845500
107.99999376	0.00000000	3.11884800	6.21924200
108.19999375	0.00000000	2.69439000	5.47490100
108.39999374	0.00000000	1.58095500	3.94931100
108.59999372	0.00000000	0.41830710	2.78051200
108.79999371	0.00000000	-0.33218500	1.62401600
108.99999370	0.00000000	-0.74434050	0.92888770
109.19999369	0.00000000	-0.33218500	1.66707700
109.39999368	0.00000000	0.37524600	3.15575800
109.59999366	0.00000000	1.20570900	4.68750000
109.79999365	0.00000000	1.99926200	5.89320800
109.99999364	0.00000000	3.11884800	6.64370100
110.19999363	0.00000000	3.85703700	7.05585600
110.39999362	0.00000000	3.49409400	6.64370100
110.59999360	0.00000000	2.74360200	5.85014700
110.79999359	0.00000000	1.58095500	4.31840500
110.99999358	0.00000000	0.46751960	2.46063000
111.19999357	0.00000000	0.04306102	1.61786400
111.39999356	0.00000000	0.00000000	1.19955700
111.59999355	0.00000000	0.04306102	0.87967510
111.79999353	0.00000000	0.41830710	1.62401600
111.99999352	0.00000000	1.20570900	2.73745100
112.19999351	0.00000000	1.95620100	3.53100400
112.39999350	0.00000000	2.74360200	4.36146600
112.59999349	0.00000000	3.06963600	5.06274600
112.79999347	0.00000000	2.74360200	5.47490100
112.99999346	0.00000000	1.99926200	5.11195900
113.19999345	0.00000000	1.62401600	4.77977300
113.39999344	0.00000000	1.58095500	4.69365100
113.59999343	0.00000000	1.58095500	4.31840500
113.79999341	0.00000000	1.58095500	3.57406500
113.99999340	0.00000000	1.58095500	3.19881900
114.19999339	0.00000000	1.58095500	3.15575800
114.39999338	0.00000000	1.58095500	3.11269700
114.59999337	0.00000000	1.58095500	2.73745100
114.79999336	0.00000000	1.58095500	1.99311000
114.99999334	0.00000000	1.62401600	1.66707700
115.19999333	0.00000000	1.95620100	1.99311000
115.39999332	0.00000000	2.32529500	2.73745100
115.59999331	0.00000000	1.95620100	3.15575800
115.79999330	0.00000000	1.62401600	3.57406500
115.99999328	0.00000000	1.58095500	4.36146600
116.19999327	0.00000000	1.58095500	5.11195900
116.39999326	0.00000000	1.58095500	5.85014700
116.59999325	0.00000000	1.58095500	5.85014700
116.79999324	0.00000000	1.58095500	5.15501900
116.99999322	0.00000000	1.58095500	4.73671200
117.19999321	0.00000000	1.62401600	4.26919300
117.39999320	0.00000000	1.99926200	3.15575800
117.59999319	0.00000000	2.74360200	2.04232300
117.79999318	0.00000000	3.11884800	1.61786400
117.99999317	0.00000000	3.16190900	1.57480300
118.19999315	0.00000000	3.11884800	1.61786400
118.39999314	0.00000000	2.74360200	2.04232300
118.59999313	0.00000000	1.95620100	3.15575800
118.79999312	0.00000000	1.16264800	4.31840500
118.99999311	0.00000000	0.00000000	5.11195900
119.19999309	0.00000000	-1.11343500	5.89320800
119.39999308	0.00000000	-1.48868100	6.21924200
119.59999307	0.00000000	-1.11343500	5.89320800
119.79999306	0.00000000	0.04306102	5.11195900
119.99999305	0.00000000	1.53789400	4.36146600
120.19999303	0.00000000	2.74360200	3.57406500
120.39999302	0.00000000	3.53715500	3.19881900
120.59999301	0.00000000	4.32455700	3.15575800
120.79999300	0.00000000	4.65059000	3.15575800
120.99999299	0.00000000	4.27534400	3.15575800
121.19999298	0.00000000	3.11884800	3.15575800
121.39999296	0.00000000	1.62401600	3.15575800
121.59999295	0.00000000	0.41830710	3.15575800
121.79999294	0.00000000	-0.37524600	3.19881900
121.99999293	0.00000000	-1.11343500	3.57406500
122.19999292	0.00000000	-1.11343500	4.31840500
122.39999290	0.00000000	-0.37524600	4.69365100
122.59999289	0.00000000	0.41830710	4.73671200
122.79999288	0.00000000	1.58095500	4.73671200
122.99999287	0.00000000	2.69439000	4.73671200
123.19999286	0.00000000	3.16190900	4.73671200
123.39999284	0.00000000	3.53715500	4.69365100
123.59999283	0.00000000	3.90625000	4.31840500
123.79999282	0.00000000	3.53715500	3.57406500
123.99999281	0.00000000	3.16190900	3.19881900
124.19999280	0.00000000	2.74360200	3.15575800
124.39999279	0.00000000	1.95620100	3.15575800
124.59999277	0.00000000	1.20570900	3.15575800
124.79999276	0.00000000	0.41830710	3.15575800
124.99999275	0.00000000	0.04306102	3.19881900
125.19999274	0.00000000	0.00000000	3.57406500
125.39999273	0.00000000	0.04306102	4.31840500
125.59999271	0.00000000	0.41830710	4.69365100
125.79999270	0.00000000	1.20570900	4.73671200
125.99999269	0.00000000	1.95620100	4.73671200
126.19999268	0.00000000	2.78666300	4.73671200
126.39999267	0.00000000	3.53715500	4.69365100
126.59999265	0.00000000	4.27534400	4.31840500
126.79999264	0.00000000	4.23228400	3.57406500
126.99999263	0.00000000	3.11884800	3.19881900
127.19999262	0.00000000	1.62401600	3.15575800
127.39999261	0.00000000	0.46751960	3.15575800
127.59999260	0.00000000	0.04306102	3.15575800
127.79999258	0.00000000	0.00000000	3.15575800
127.99999257	0.00000000	0.00000000	3.19881900
128.19999256	0.00000000	0.04306102	3.57406500
128.39999255	0.00000000	0.46751960	4.31840500
128.59999254	0.00000000	1.58095500	4.69365100
128.79999252	0.00000000	2.69439000	4.73671200
128.99999251	0.00000000	3.11884800	4.69365100
129.19999250	0.00000000	3.16190900	4.31840500
129.39999249	0.00000000	3.11884800	3.57406500
129.59999248	0.00000000	2.69439000	3.19881900
129.79999246	0.00000000	1.58095500	3.15575800
129.99999245	0.00000000	0.46751960	3.15575800
130.19999244	0.00000000	0.04306102	3.19881900
130.39999243	0.00000000	0.00000000	3.57406500
130.59999242	0.00000000	0.04306102	4.31840500
130.79999241	0.00000000	0.46751960	4.69365100
130.99999239	0.00000000	1.58095500	4.73671200
131.19999238	0.00000000	2.69439000	4.73671200
131.39999237	0.00000000	3.11884800	4.69365100
131.59999236	0.00000000	3.16190900	4.31840500
131.79999235	0.00000000	3.11884800	3.57406500
131.99999233	0.00000000	2.74360200	3.19881900
132.19999232	0.00000000	1.99926200	3.15575800
132.39999231	0.00000000	1.58095500	3.15575800
132.59999230	0.00000000	1.16264800	3.19881900
132.79999229	0.00000000	0.46751960	3.57406500
132.99999227	0.00000000	0.46751960	4.31840500
133.19999226	0.00000000	1.16264800	4.69365100
133.39999225	0.00000000	1.53789400	4.77977300
133.59999224	0.00000000	1.58095500	5.11195900
133.79999223	0.00000000	1.58095500	5.47490100
133.99999222	0.00000000	1.58095500	5.11195900
134.19999220	0.00000000	1.58095500	4.73671200
134.39999219	0.00000000	1.58095500	4.26919300
134.59999218	0.00000000	1.62401600	3.15575800
134.79999217	0.00000000	1.99926200	2.04232300
134.99999216	0.00000000	2.74360200	1.66707700
135.19999214	0.00000000	3.11884800	1.99311000
135.39999213	0.00000000	3.16190900	2.78051200
135.59999212	0.00000000	3.11884800	3.53100400
135.79999211	0.00000000	2.74360200	4.31840500
135.99999210	0.00000000	1.95620100	4.69365100
136.19999208	0.00000000	1.20570900	4.73671200
136.39999207	0.00000000	0.41830710	4.73671200
136.59999206	0.00000000	0.04306102	4.73671200
136.79999205	0.00000000	0.04306102	4.69365100
136.99999204	0.00000000	0.46751960	4.31840500
137.19999203	0.00000000	1.58095500	3.57406500
137.39999201	0.00000000	2.69439000	3.19881900
137.59999200	0.00000000	3.11884800	3.11269700
137.79999199	0.00000000	3.16190900	2.78051200
137.99999198	0.00000000	3.11884800	2.36835600
138.19999197	0.00000000	2.74360200	2.40526600
138.39999195	0.00000000	1.99926200	2.36835600
138.59999194	0.00000000	1.58095500	2.82357300
138.79999193	0.00000000	1.16264800	3.53100400
138.99999192	0.00000000	0.41830710	4.31840500
139.19999191	0.00000000	0.09227362	4.73671200
139.39999189	0.00000000	0.41830710	5.11195900
139.59999188	0.00000000	1.20570900	5.47490100
139.79999187	0.00000000	1.95620100	5.11195900
139.99999186	0.00000000	2.74360200	4.73671200
140.19999185	0.00000000	3.11884800	4.31840500
140.39999184	0.00000000	3.11884800	3.57406500
140.59999182	0.00000000	2.74360200	3.15575800
140.79999181	0.00000000	1.99926200	2.73745100
140.99999180	0.00000000	1.62401600	1.99311000
141.19999179	0.00000000	1.58095500	1.66707700
141.39999178	0.00000000	1.58095500	2.04232300
141.59999176	0.00000000	1.58095500	3.15575800
141.79999175	0.00000000	1.58095500	4.31840500
141.99999174	0.00000000	1.62401600	5.11195900
142.19999173	0.00000000	1.99926200	5.89320800
142.39999172	0.00000000	2.74360200	6.21924200
142.59999170	0.00000000	3.06963600	5.89320800
142.79999169	0.00000000	2.74360200	5.11195900
142.99999168	0.00000000	1.99926200	4.36146600
143.19999167	0.00000000	1.62401600	3.57406500
143.39999166	0.00000000	1.58095500	3.15575800
143.59999165	0.00000000	1.58095500	2.73745100
143.79999163	0.00000000	1.58095500	2.04232300
143.99999162	0.00000000	1.58095500	2.04232300
144.19999161	0.00000000	1.62401600	2.78051200
144.39999160	0.00000000	1.99926200	3.53100400
144.59999159	0.00000000	2.74360200	4.31840500
144.79999157	0.00000000	3.11884800	4.69365100
144.99999156	0.00000000	3.11884800	4.73671200
145.19999155	0.00000000	2.74360200	4.73671200
145.39999154	0.00000000	1.99926200	4.69365100
145.59999153	0.00000000	1.62401600	4.31840500
145.79999151	0.00000000	1.58095500	3.57406500
145.99999150	0.00000000	1.58095500	3.19881900
146.19999149	0.00000000	1.58095500	3.15575800
146.39999148	0.00000000	1.58095500	3.15575800
146.59999147	0.00000000	1.62401600	3.15575800
146.79999146	0.00000000	1.99926200	3.19881900
146.99999144	0.00000000	2.74360200	3.57406500
147.19999143	0.00000000	3.11884800	4.31840500
147.39999142	0.00000000	3.11884800	4.69365100
147.59999141	0.00000000	2.74360200	4.73671200
147.79999140	0.00000000	1.99926200	4.73671200
147.99999138	0.00000000	1.62401600	4.73671200
148.19999137	0.00000000	1.58095500	4.69365100
148.39999136	0.00000000	1.58095500	4.31840500
148.59999135	0.00000000	1.58095500	3.57406500
148.79999134	0.00000000	1.58095500	3.19881900
148.99999132	0.00000000	1.58095500	3.15575800
149.19999131	0.00000000	1.62401600	3.15575800
149.39999130	0.00000000	1.99926200	3.15575800
149.59999129	0.00000000	2.74360200	3.15575800
149.79999128	0.00000000	3.11884800	3.19881900
149.99999127	0.00000000	3.16190900	3.57406500
150.19999125	0.00000000	3.11884800	4.31840500
150.39999124	0.00000000	2.74360200	4.69365100
150.59999123	0.00000000	1.99926200	4.73671200
150.79999122	0.00000000	1.62401600	4.73671200
150.99999121	0.00000000	1.58095500	4.73671200
151.19999119	0.00000000	1.58095500	4.69365100
151.39999118	0.00000000	1.58095500	4.36146600
151.59999117	0.00000000	1.53789400	3.94931100
151.79999116	0.00000000	1.20570900	3.90009800
151.99999115	0.00000000	0.88582670	3.15575800
152.19999113	0.00000000	1.62401600	2.46063000
152.39999112	0.00000000	2.69439000	2.78051200
152.59999111	0.00000000	3.11884800	3.15575800
152.79999110	0.00000000	3.16190900	3.57406500
152.99999109	0.00000000	3.16190900	4.31840500
153.19999108	0.00000000	3.11884800	4.69365100
153.39999106	0.00000000	2.74360200	4.73671200
153.59999105	0.00000000	1.99926200	4.73671200
153.79999104	0.00000000	1.62401600	4.73671200
153.99999103	0.00000000	1.58095500	4.73671200
154.19999102	0.00000000	1.58095500	4.73671200
154.39999100	0.00000000	1.58095500	4.69365100
154.59999099	0.00000000	1.58095500	4.31840500
154.79999098	0.00000000	1.58095500	3.57406500
154.99999097	0.00000000	1.62401600	3.19881900
155.19999096	0.00000000	1.99926200	3.15575800
155.39999094	0.00000000	2.74360200	3.15575800
155.59999093	0.00000000	3.11884800	3.15575800
155.79999092	0.00000000	3.16190900	3.15575800
155.99999091	0.00000000	3.11884800	3.19881900
156.19999090	0.00000000	2.74360200	3.57406500
156.39999089	0.00000000	1.99926200	4.31840500
156.59999087	0.00000000	1.62401600	4.69365100
156.79999086	0.00000000	1.53789400	4.73671200
156.99999085	0.00000000	1.20570900	4.73671200
157.19999084	0.00000000	0.83661410	4.73671200
157.39999083	0.00000000	1.20570900	4.73671200
157.59999081	0.00000000	1.53789400	4.69365100
157.79999080	0.00000000	1.62401600	4.31840500
157.99999079	0.00000000	1.99926200	3.57406500
158.19999078	0.00000000	2.74360200	3.19881900
158.39999077	0.00000000	3.11884800	3.15575800
158.59999075	0.00000000	3.16190900	3.15575800
158.79999074	0.00000000	3.16190900	3.19881900
158.99999073	0.00000000	3.11884800	3.57406500
159.19999072	0.00000000	2.74360200	4.31840500
159.39999071	0.00000000	1.99926200	4.69365100
159.59999070	0.00000000	1.62401600	4.73671200
159.79999068	0.00000000	1.58095500	4.73671200
159.99999067	0.00000000	1.58095500	4.73671200
160.19999066	0.00000000	1.58095500	4.73671200
160.39999065	0.00000000	1.58095500	4.69365100
160.59999064	0.00000000	1.58095500	4.31840500
160.79999062	0.00000000	1.58095500	3.57406500
160.99999061	0.00000000	1.58095500	3.19881900
161.19999060	0.00000000	1.58095500	3.15575800
161.39999059	0.00000000	1.62401600	3.15575800
161.59999058	0.00000000	1.95620100	3.15575800
161.79999056	0.00000000	2.36835600	3.19881900
161.99999055	0.00000000	2.37450800	3.57406500
162.19999054	0.00000000	2.78666300	4.31840500
162.39999053	0.00000000	3.06963600	4.69365100
162.59999052	0.00000000	2.74360200	4.73671200
162.79999051	0.00000000	1.99926200	4.73671200
162.99999049	0.00000000	1.62401600	4.73671200
163.19999048	0.00000000	1.58095500	4.69365100
163.39999047	0.00000000	1.58095500	4.36146600
163.59999046	0.00000000	1.58095500	3.94931100
163.79999045	0.00000000	1.58095500	3.94315900
163.99999043	0.00000000	1.58095500	3.53100400
164.19999042	0.00000000	1.58095500	3.19881900
164.39999041	0.00000000	1.62401600	3.15575800
164.59999040	0.00000000	1.99926200	3.15575800
164.79999039	0.00000000	2.74360200	3.15575800
164.99999037	0.00000000	3.11884800	3.15575800
165.19999036	0.00000000	3.16190900	3.19881900
165.39999035	0.00000000	3.11884800	3.57406500
165.59999034	0.00000000	2.74360200	4.31840500
165.79999033	0.00000000	1.99926200	4.69365100
165.99999032	0.00000000	1.62401600	4.73671200
166.19999030	0.00000000	1.58095500	4.73671200
166.39999029	0.00000000	1.58095500	4.73671200
166.59999028	0.00000000	1.58095500	4.73671200
166.79999027	0.00000000	1.62401600	4.69365100
166.99999026	0.00000000	1.95620100	4.31840500
167.19999024	0.00000000	2.32529500	3.57406500
167.39999023	0.00000000	1.99926200	3.19881900
167.59999022	0.00000000	1.99926200	3.15575800
167.79999021	0.00000000	2.36835600	3.15575800
167.99999020	0.00000000	2.37450800	3.15575800
168.19999018	0.00000000	2.78666300	3.19881900
168.39999017	0.00000000	3.06963600	3.53100400
168.59999016	0.00000000	2.74360200	3.94315900
168.79999015	0.00000000	2.04847400	3.94931100
168.99999014	0.00000000	1.99926200	4.36146600
169.19999013	0.00000000	2.32529500	4.69365100
169.39999011	0.00000000	1.95620100	4.69365100
169.59999010	0.00000000	1.62401600	4.36146600
169.79999009	0.00000000	1.58095500	3.94931100
169.99999008	0.00000000	1.58095500	3.98622000
170.19999007	0.00000000	1.58095500	3.90625000
170.39999005	0.00000000	1.58095500	3.98622000
170.59999004	0.00000000	1.62401600	3.94931100
170.79999003	0.00000000	1.95620100	4.31840500
170.99999002	0.00000000	2.36835600	4.26919300
171.19999001	0.00000000	2.37450800	3.62327700
171.39998999	0.00000000	2.78666300	3.62327700
171.59998998	0.00000000	3.11884800	4.31840500
171.79998997	0.00000000	3.16190900	4.69365100
171.99998996	0.00000000	3.11884800	4.73671200
172.19998995	0.00000000	2.74360200	4.73671200
172.39998994	0.00000000	1.99926200	4.73671200
172.59998992	0.00000000	1.62401600	4.73671200
172.79998991	0.00000000	1.58095500	4.69365100
172.99998990	0.00000000	1.58095500	4.31840500
173.19998989	0.00000000	1.58095500	3.62327700
173.39998988	0.00000000	1.58095500	3.57406500
173.59998986	0.00000000	1.58095500	3.90009800
173.79998985	0.00000000	1.58095500	3.53100400
173.99998984	0.00000000	1.58095500	3.19881900
174.19998983	0.00000000	1.58095500	3.15575800
174.39998982	0.00000000	1.62401600	3.19881900
174.59998980	0.00000000	1.95620100	3.53100400
174.79998979	0.00000000	2.32529500	3.90009800
174.99998978	0.00000000	1.99926200	3.53100400
175.19998977	0.00000000	2.04847400	3.19881900
175.39998976	0.00000000	2.69439000	3.19881900
175.59998975	0.00000000	2.69439000	3.57406500
175.79998973	0.00000000	2.04847400	4.31840500
175.99998972	0.00000000	1.99926200	4.64443900
176.19998971	0.00000000	2.32529500	4.36146600
176.39998970	0.00000000	1.95620100	3.99237200
176.59998969	0.00000000	1.62401600	4.31840500
176.79998967	0.00000000	1.58095500	4.26919300
176.99998966	0.00000000	1.58095500	3.62327700
177.19998965	0.00000000	1.58095500	3.62327700
177.39998964	0.00000000	1.58095500	4.26919300
177.59998963	0.00000000	1.58095500	4.26919300
177.79998961	0.00000000	1.58095500	3.57406500
177.99998960	0.00000000	1.58095500	3.19881900
178.19998959	0.00000000	1.58095500	3.15575800
178.39998958	0.00000000	1.58095500	3.19881900
178.59998957	0.00000000	1.58095500	3.57406500
178.79998956	0.00000000	1.58095500	4.31840500
178.99998954	0.00000000	1.58095500	4.69365100
179.19998953	0.00000000	1.58095500	4.73671200
179.39998952	0.00000000	1.62401600	4.73671200
179.59998951	0.00000000	1.99926200	4.73671200
179.79998950	0.00000000	2.74360200	4.73671200
179.99998948	0.00000000	3.11884800	4.69365100
180.19998947	0.00000000	3.11884800	4.31840500
180.39998946	0.00000000	2.78666300	3.62327700
180.59998945	0.00000000	2.37450800	3.57406500
180.79998944	0.00000000	2.36835600	3.94315900
180.99998942	0.00000000	1.95620100	3.94931100
181.19998941	0.00000000	1.62401600	4.36146600
181.39998940	0.00000000	1.58095500	4.69365100
181.59998939	0.00000000	1.58095500	4.73671200
181.79998938	0.00000000	1.58095500	4.73671200
181.99998937	0.00000000	1.58095500	4.73671200
182.19998935	0.00000000	1.62401600	4.73671200
182.39998934	0.00000000	1.99926200	4.69365100
182.59998933	0.00000000	2.74360200	4.31840500
182.79998932	0.00000000	3.06963600	3.57406500
182.99998931	0.00000000	2.74360200	3.19881900
183.19998929	0.00000000	1.99926200	3.15575800
183.39998928	0.00000000	1.62401600	3.15575800
183.59998927	0.00000000	1.58095500	3.19881900
183.79998926	0.00000000	1.58095500	3.57406500
183.99998925	0.00000000	1.62401600	4.31840500
184.19998923	0.00000000	1.95620100	4.69365100
184.39998922	0.00000000	2.32529500	4.73671200
184.59998921	0.00000000	1.95620100	4.73671200
184.79998920	0.00000000	1.62401600	4.73671200
184.99998919	0.00000000	1.62401600	4.73671200
185.19998918	0.00000000	1.99926200	4.73671200
185.39998916	0.00000000	2.74360200	4.69365100
185.59998915	0.00000000	3.06963600	4.31840500
185.79998914	0.00000000	2.78666300	3.57406500
185.99998913	0.00000000	2.41756900	3.19881900
186.19998912	0.00000000	2.78666300	3.15575800
186.39998910	0.00000000	3.11884800	3.15575800
186.59998909	0.00000000	3.11884800	3.19881900
186.79998908	0.00000000	2.74360200	3.57406500
186.99998907	0.00000000	1.99926200	4.31840500
187.19998906	0.00000000	1.62401600	4.69365100
187.39998904	0.00000000	1.58095500	4.73671200
187.59998903	0.00000000	1.58095500	4.73671200
187.79998902	0.00000000	1.58095500	4.73671200
187.99998901	0.00000000	1.62401600	4.69365100
188.19998900	0.00000000	1.99926200	4.36146600
188.39998899	0.00000000	2.74360200	3.99237200
188.59998897	0.00000000	3.11884800	4.31840500
188.79998896	0.00000000	3.16190900	4.26919300
188.99998895	0.00000000	3.16190900	3.57406500
189.19998894	0.00000000	3.16190900	3.19881900
189.39998893	0.00000000	3.11884800	3.15575800
189.59998891	0.00000000	2.74360200	3.15575800
189.79998890	0.00000000	1.99926200	3.19881900
189.99998889	0.00000000	1.62401600	3.57406500
190.19998888	0.00000000	1.58095500	4.31840500
190.39998887	0.00000000	1.58095500	4.69365100
190.59998885	0.00000000	1.58095500	4.73671200
190.79998884	0.00000000	1.58095500	4.73671200
190.99998883	0.00000000	1.58095500	4.73671200
191.19998882	0.00000000	1.58095500	4.73671200
191.39998881	0.00000000	1.62401600	4.69365100
191.59998880	0.00000000	1.99926200	4.31840500
191.79998878	0.00000000	2.74360200	3.57406500
191.99998877	0.00000000	3.06963600	3.19881900
192.19998876	0.00000000	2.74360200	3.15575800
192.39998875	0.00000000	1.99926200	3.15575800
192.59998874	0.00000000	1.62401600	3.19881900
192.79998872	0.00000000	1.58095500	3.57406500
192.99998871	0.00000000	1.58095500	4.31840500
193.19998870	0.00000000	1.58095500	4.69365100
193.39998869	0.00000000	1.58095500	4.73671200
193.59998868	0.00000000	1.58095500	4.73671200
193.79998866	0.00000000	1.58095500	4.73671200
193.99998865	0.00000000	1.62401600	4.73671200
194.19998864	0.00000000	1.99926200	4.73671200
194.39998863	0.00000000	2.74360200	4.73671200
194.59998862	0.00000000	3.11884800	4.73671200
194.79998861	0.00000000	3.16190900	4.73671200
194.99998859	0.00000000	3.16190900	4.73671200
195.19998858	0.00000000	3.11884800	4.73671200
195.39998857	0.00000000	2.74360200	4.69365100
195.59998856	0.00000000	1.99926200	4.31840500
195.79998855	0.00000000	1.62401600	3.62327700
195.99998853	0.00000000	1.58095500	3.62327700
