Time	Channel A	Channel B	Channel C
(us)	(V)	(mV)	(mV)

-4.49999956	0.00000000	11.06668000	7.89247000
-4.29999957	0.00000000	11.06668000	7.89247000
-4.09999958	0.00000000	11.06668000	7.93553100
-3.89999959	0.00000000	11.06668000	8.26771600
-3.69999960	0.00000000	11.06668000	8.63681000
-3.49999962	0.00000000	11.06668000	8.26771600
-3.29999963	0.00000000	11.06668000	7.93553100
-3.09999964	0.00000000	11.06668000	7.89247000
-2.89999965	0.00000000	11.06668000	7.89247000
-2.69999966	0.00000000	11.06668000	7.89247000
-2.49999968	0.00000000	11.06668000	7.89247000
-2.29999969	0.00000000	11.06668000	7.89247000
-2.09999970	0.00000000	11.06668000	7.89247000
-1.89999971	0.00000000	11.06668000	7.89247000
-1.69999972	0.00000000	11.06668000	7.89247000
-1.49999973	0.00000000	11.06668000	7.89247000
-1.29999975	0.00000000	11.06668000	7.89247000
-1.09999976	0.00000000	11.06668000	7.89247000
-0.89999977	0.00000000	11.06668000	7.89247000
-0.69999978	0.00000000	11.06668000	7.89247000
-0.49999979	0.00000000	11.06668000	7.89247000
-0.29999981	0.31803640	11.06668000	7.89247000
-0.09999982	0.63668800	11.06668000	7.89247000
0.10000017	0.95533960	11.06668000	7.89247000
0.30000016	0.95533960	11.10974000	7.89247000
0.50000015	0.79601380	11.44193000	7.89247000
0.70000013	0.15871060	11.81102000	7.89247000
0.90000012	-0.63668800	11.48499000	7.89247000
1.10000011	-1.59264300	11.48499000	7.89247000
1.30000010	-2.38927200	11.81102000	7.89247000
1.50000009	-2.70792300	11.44193000	7.89247000
1.70000008	-2.38927200	11.15896000	7.93553100
1.90000006	-1.11466500	11.48499000	8.26771600
2.10000005	0.95533960	12.18012000	8.63681000
2.30000004	3.02657500	12.18012000	8.26771600
2.50000003	4.61921700	11.48499000	7.93553100
2.70000002	5.41584600	11.10974000	7.89247000
2.90000000	4.61921700	11.06668000	7.84940900
3.09999999	2.54859700	11.06668000	7.51722400
3.29999998	-0.63668800	11.06668000	7.14812900
3.49999997	-3.98191400	11.06668000	7.51722400
3.69999996	-6.69045300	11.06668000	7.84940900
3.89999994	-7.96444400	11.10974000	7.93553100
4.09999993	-7.16781500	11.44193000	8.31077700
4.29999992	-4.45989200	11.81102000	9.05511800
4.49999991	-0.47736220	11.44193000	9.38115100
4.69999990	3.98191400	11.15896000	9.05511800
4.89999989	7.64579200	11.44193000	8.31077700
5.09999987	9.39837600	11.81102000	7.93553100
5.29999986	8.92039900	11.44193000	7.84940900
5.49999985	6.05315000	11.10974000	7.47416300
5.69999984	1.75196900	11.06668000	6.77903500
5.89999983	-3.02657500	11.06668000	6.77903500
6.09999981	-7.16781500	11.06668000	7.47416300
6.29999980	-9.23905000	11.06668000	7.84940900
6.49999979	-9.07972400	11.10974000	7.93553100
6.69999978	-6.84916400	11.44193000	8.31077700
6.89999977	-2.70792300	11.81102000	9.00590400
7.09999975	1.59264300	11.44193000	9.00590400
7.29999974	5.25652100	11.10974000	8.31077700
7.49999973	7.48646600	11.10974000	7.93553100
7.69999972	7.64579200	11.44193000	7.89247000
7.89999971	5.89382400	11.81102000	7.89247000
8.09999970	3.02657500	11.44193000	7.89247000
8.29999968	-0.31803640	11.10974000	7.89247000
8.49999967	-3.18590100	11.06668000	7.89247000
8.69999966	-4.77854300	11.06668000	7.89247000
8.89999965	-5.09719500	11.06668000	7.89247000
9.09999964	-4.14124000	11.06668000	7.89247000
9.29999962	-2.38927200	11.06668000	7.89247000
9.49999961	-0.47736220	11.06668000	7.89247000
9.69999960	1.27399100	11.06668000	7.89247000
9.89999959	2.22994600	11.06668000	7.89247000
10.09999958	2.54859700	11.06668000	7.89247000
10.29999956	2.07062000	11.06668000	7.89247000
10.49999955	1.27399100	11.06668000	7.89247000
10.69999954	0.47736220	11.06668000	7.89247000
10.89999953	-0.31803640	11.06668000	7.89247000
11.09999952	-0.79601380	11.06668000	7.89247000
11.29999951	-0.95533960	11.06668000	7.89247000
11.49999949	-0.95533960	11.06668000	7.89247000
11.69999948	-0.63668800	11.06668000	7.89247000
11.89999947	-0.31803640	11.06668000	7.89247000
12.09999946	-0.15871060	11.06668000	7.89247000
12.29999945	-0.15871060	11.06668000	7.89247000
12.49999943	0.00000000	11.06668000	7.89247000
12.69999942	0.00000000	11.06668000	7.89247000
12.89999941	0.00000000	11.06668000	7.89247000
13.09999940	0.00000000	11.06668000	7.89247000
13.29999939	0.00000000	11.10974000	7.89247000
13.49999937	0.00000000	11.44193000	7.89247000
13.69999936	0.00000000	11.81102000	7.89247000
13.89999935	-0.15871060	11.44193000	7.89247000
14.09999934	-0.15871060	11.10974000	7.89247000
14.29999933	-0.15871060	11.06668000	7.89247000
14.49999932	-0.15871060	11.06668000	7.89247000
14.69999930	0.00000000	11.06668000	7.89247000
14.89999929	0.00000000	11.06668000	7.89247000
15.09999928	0.00000000	11.06668000	7.89247000
15.29999927	0.00000000	11.06668000	7.89247000
15.49999926	0.00000000	11.06668000	7.89247000
15.69999924	0.00000000	11.06668000	7.89247000
15.89999923	0.00000000	11.06668000	7.89247000
16.09999922	0.00000000	11.06668000	7.89247000
16.29999921	-0.15871060	11.10974000	7.89247000
16.49999920	0.00000000	11.48499000	7.89247000
16.69999919	-0.15871060	12.22933000	7.89247000
16.89999917	0.00000000	12.60458000	7.89247000
17.09999916	0.00000000	12.69070000	7.93553100
17.29999915	0.00000000	13.02288000	8.26771600
17.49999914	0.00000000	13.39198000	8.63681000
17.69999913	0.00000000	13.02288000	8.26771600
17.89999911	0.00000000	12.60458000	7.93553100
18.09999910	0.00000000	11.76181000	7.89247000
18.29999909	0.00000000	9.86097400	7.89247000
18.49999908	0.00000000	7.99704600	7.89247000
18.69999907	0.00000000	6.79133800	7.89247000
18.89999905	0.00000000	6.41609200	7.89247000
19.09999904	0.00000000	6.79133800	7.89247000
19.29999903	0.00000000	8.04010800	7.89247000
19.49999902	0.00000000	10.41462000	7.89247000
19.69999901	0.00000000	14.27165000	7.89247000
19.89999900	0.00000000	18.46087000	7.89247000
20.09999898	0.00000000	21.53666000	7.89247000
20.29999897	0.00000000	22.69316000	7.89247000
20.49999896	0.00000000	21.44439000	7.89247000
20.69999895	0.00000000	17.53199000	7.89247000
20.89999894	0.00000000	10.93135000	7.89247000
21.09999892	0.00000000	3.25418300	7.89247000
21.29999891	0.00000000	-3.72170300	7.89247000
21.49999890	0.00000000	-8.28617100	7.89247000
21.69999889	0.00000000	-8.98129900	7.89247000
21.89999888	0.00000000	-4.66289300	7.89247000
22.09999886	0.00000000	4.26919300	7.89247000
22.29999885	0.00000000	16.27707000	7.89247000
22.49999884	0.00000000	28.97392000	7.89247000
22.69999883	0.00000000	38.98253000	7.89247000
22.89999882	0.00000000	43.54699000	7.89247000
23.09999881	0.00000000	41.16634000	7.93553100
23.29999879	0.00000000	31.40379000	8.31077700
23.49999878	0.00000000	15.95103000	9.05511800
23.69999877	0.00000000	-2.18996000	9.43036400
23.89999876	0.00000000	-18.38090000	9.47342500
24.09999875	0.00000000	-28.75861000	9.43036400
24.29999873	0.00000000	-30.61639000	9.00590400
24.49999872	0.00000000	-22.43479000	7.84940900
24.69999871	0.00000000	-5.81938900	6.31151500
24.89999870	0.00000000	15.80955000	4.73671200
25.09999869	0.00000000	37.44463000	3.19881900
25.29999867	0.00000000	54.01082000	2.12844500
25.49999866	0.00000000	61.68799000	2.50369100
25.69999865	0.00000000	57.78174000	4.44758800
25.89999864	0.00000000	43.07948000	7.19734200
26.09999863	0.00000000	20.69390000	11.09129000
26.29999862	0.00000000	-4.42298200	15.27436000
26.49999860	0.00000000	-26.01501000	18.35015000
26.69999859	0.00000000	-39.50541000	19.50664000
26.89999858	0.00000000	-41.04330000	18.30093000
27.09999857	0.00000000	-30.29650000	14.72687000
27.29999856	0.00000000	-10.61147000	8.54453700
27.49999854	0.00000000	13.76722000	0.83661410
27.69999853	0.00000000	37.26624000	-6.09005900
27.89999852	0.00000000	54.33686000	-11.10359000
28.09999851	0.00000000	61.36195000	-12.54921000
28.29999850	0.00000000	57.87401000	-9.38730200
28.49999848	0.00000000	44.32824000	-1.63016700
28.69999847	0.00000000	23.53592000	9.56569900
28.89999846	0.00000000	1.15649600	21.50590000
29.09999845	0.00000000	-17.82726000	31.53912000
29.29999844	0.00000000	-29.45374000	37.26009000
29.49999843	0.00000000	-31.50221000	36.84178000
29.69999841	0.00000000	-24.56939000	29.87205000
29.89999840	0.00000000	-10.65453000	17.83957000
30.09999839	0.00000000	7.48646600	2.78051200
30.29999838	0.00000000	25.25836000	-12.26624000
30.49999837	0.00000000	38.84719000	-23.41904000
30.69999835	0.00000000	45.86614000	-28.43258000
30.89999834	0.00000000	45.17101000	-25.69513000
31.09999833	0.00000000	37.86294000	-15.66191000
31.29999832	0.00000000	25.86122000	-0.55979330
31.49999831	0.00000000	11.53420000	16.86147000
31.69999829	0.00000000	-1.96235200	33.02780000
31.89999828	0.00000000	-11.68184000	44.22367000
32.09999827	0.00000000	-15.59424000	47.66855000
32.29999826	0.00000000	-13.72416000	42.69193000
32.49999825	0.00000000	-6.74827700	30.33341000
32.69999824	0.00000000	3.62942900	13.69956000
32.89999822	0.00000000	14.83760000	-4.09079700
33.09999821	0.00000000	24.13878000	-19.51279000
33.29999820	0.00000000	30.00123000	-28.76476000
33.49999819	0.00000000	31.53912000	-30.01353000
33.69999818	0.00000000	28.46333000	-23.46826000
33.89999816	0.00000000	21.57972000	-11.06053000
34.09999815	0.00000000	13.11516000	5.15501900
34.29999814	0.00000000	5.33956700	21.73966000
34.49999813	0.00000000	-0.42445860	34.51648000
34.69999812	0.00000000	-2.74975400	41.48622000
34.89999810	0.00000000	-0.89197830	41.11097000
35.09999809	0.00000000	3.67249000	33.40305000
35.29999808	0.00000000	9.52879000	20.71235000
35.49999807	0.00000000	15.67421000	5.66560000
35.69999806	0.00000000	20.60162000	-7.85556000
35.89999805	0.00000000	22.18258000	-17.15059000
36.09999803	0.00000000	20.32480000	-20.58317000
36.29999802	0.00000000	16.50467000	-16.77534000
36.49999801	0.00000000	11.48499000	-7.20349400
36.69999800	0.00000000	6.92052100	5.11195900
36.89999799	0.00000000	4.13385800	17.42126000
37.09999797	0.00000000	3.38951800	26.24877000
37.29999796	0.00000000	4.55831700	29.40452000
37.49999795	0.00000000	8.04010800	26.71629000
37.69999794	0.00000000	12.60458000	19.08834000
37.89999793	0.00000000	16.87992000	8.73523500
38.09999791	0.00000000	19.95571000	-0.84276570
38.29999790	0.00000000	21.11220000	-7.38804100
38.49999789	0.00000000	19.95571000	-8.87672100
38.69999788	0.00000000	16.87992000	-4.69365100
38.89999787	0.00000000	12.64764000	3.66633800
39.09999786	0.00000000	8.37229300	13.23819000
39.29999784	0.00000000	4.87819900	20.90305000
39.49999783	0.00000000	2.55290300	24.76009000
39.69999782	0.00000000	2.17765700	23.55438000
39.89999781	0.00000000	3.67249000	17.46432000
40.09999780	0.00000000	6.41609200	8.26771600
40.29999778	0.00000000	9.95324800	-0.93503930
40.49999777	0.00000000	14.18553000	-7.85556000
40.69999776	0.00000000	18.04257000	-10.50689000
40.89999775	0.00000000	20.37401000	-7.85556000
41.09999774	0.00000000	21.16142000	-0.93503930
41.29999772	0.00000000	19.99877000	8.31077700
41.49999771	0.00000000	17.29823000	17.88263000
41.69999770	0.00000000	13.81028000	24.80315000
41.89999769	0.00000000	9.90403500	27.13459000
42.09999768	0.00000000	6.45915300	24.89542000
42.29999767	0.00000000	4.09079700	18.67618000
42.49999765	0.00000000	3.34030500	10.25467000
42.69999764	0.00000000	4.09079700	1.43946800
42.89999763	0.00000000	6.41609200	-4.69365100
43.09999762	0.00000000	9.44266700	-6.73597400
43.29999761	0.00000000	12.18012000	-5.24729300
43.49999759	0.00000000	14.13632000	-1.02116100
43.69999758	0.00000000	15.34203000	4.77977300
43.89999757	0.00000000	15.71727000	10.91289000
44.09999756	0.00000000	15.39124000	15.92642000
44.29999755	0.00000000	14.64690000	18.25787000
44.49999753	0.00000000	14.27165000	17.97490000
44.69999752	0.00000000	14.22859000	15.64960000
44.89999751	0.00000000	14.18553000	12.16166000
45.09999750	0.00000000	13.81028000	7.93553100
45.29999749	0.00000000	12.97982000	4.12770700
45.49999748	0.00000000	11.76181000	2.12844500
45.69999746	0.00000000	9.39345400	1.71013800
45.89999745	0.00000000	6.36687900	2.50369100
46.09999744	0.00000000	3.67249000	4.77977300
46.29999743	0.00000000	2.13459600	7.47416300
46.49999742	0.00000000	2.17765700	9.79945900
46.69999740	0.00000000	4.18307100	11.74951000
46.89999739	0.00000000	8.45841400	12.49385000
47.09999738	0.00000000	14.27165000	12.16166000
47.29999737	0.00000000	20.41708000	10.96211000
47.49999736	0.00000000	25.39370000	9.05511800
47.69999734	0.00000000	27.30069000	6.72982200
47.89999733	0.00000000	25.76895000	4.77977300
48.09999732	0.00000000	21.06914000	3.24803100
48.29999731	0.00000000	13.67495000	2.50369100
48.49999730	0.00000000	4.87819900	3.29109200
48.69999729	0.00000000	-2.79281500	5.19808000
48.89999727	0.00000000	-6.66215500	7.93553100
49.09999726	0.00000000	-6.32997000	11.00517000
49.29999725	0.00000000	-2.00541300	13.69956000
49.49999724	0.00000000	5.71481200	15.18824000
49.69999723	0.00000000	15.34203000	14.81299000
49.89999721	0.00000000	24.18799000	12.53691000
50.09999720	0.00000000	29.95817000	9.42421200
50.29999719	0.00000000	31.11466000	5.93626900
50.49999718	0.00000000	27.25763000	2.46063000
50.69999717	0.00000000	19.58046000	0.17839570
50.89999715	0.00000000	9.95324800	-0.60285430
51.09999714	0.00000000	1.10728300	0.59670270
51.29999713	0.00000000	-4.66289300	3.66633800
51.49999712	0.00000000	-5.81938900	7.89247000
51.69999711	0.00000000	-2.00541300	12.11860000
51.89999710	0.00000000	5.25344500	15.23130000
52.09999708	0.00000000	13.71801000	16.76919000
52.29999707	0.00000000	21.02608000	16.35089000
52.49999706	0.00000000	25.30143000	13.69956000
52.69999705	0.00000000	25.71973000	9.84867000
52.89999704	0.00000000	22.60704000	5.98548200
53.09999702	0.00000000	16.46161000	2.50369100
53.29999701	0.00000000	8.83366100	0.63976370
53.49999700	0.00000000	2.68823800	0.97194880
53.69999699	0.00000000	-0.42445860	3.24803100
53.89999698	0.00000000	-0.04921259	6.26845500
54.09999696	0.00000000	3.75861200	9.00590400
54.29999695	0.00000000	9.52879000	10.96211000
54.49999694	0.00000000	15.67421000	12.07554000
54.69999693	0.00000000	20.65084000	11.70029000
54.89999692	0.00000000	22.60704000	9.84867000
55.09999691	0.00000000	21.48745000	7.93553100
55.29999689	0.00000000	17.99951000	6.40378900
55.49999688	0.00000000	12.60458000	5.66560000
55.69999687	0.00000000	6.87746000	6.40378900
55.89999686	0.00000000	2.64517700	7.93553100
56.09999685	0.00000000	1.10728300	9.84867000
56.29999683	0.00000000	2.60211600	11.70029000
56.49999682	0.00000000	6.41609200	12.07554000
56.69999681	0.00000000	11.06668000	10.91289000
56.89999680	0.00000000	15.67421000	8.58759800
57.09999679	0.00000000	19.15600000	5.11195900
57.29999677	0.00000000	20.32480000	1.75935000
57.49999676	0.00000000	19.58046000	-0.14148620
57.69999675	0.00000000	16.87992000	0.59670270
57.89999674	0.00000000	13.06594000	3.29109200
58.09999673	0.00000000	9.57800100	7.24040300
58.29999672	0.00000000	6.87746000	12.58612000
58.49999670	0.00000000	5.71481200	17.50738000
58.69999669	0.00000000	6.45915300	19.83883000
58.89999668	0.00000000	8.32308000	19.46358000
59.09999667	0.00000000	10.64838000	16.30167000
59.29999666	0.00000000	12.60458000	10.53765000
59.49999664	0.00000000	14.18553000	3.66633800
59.69999663	0.00000000	15.29897000	-2.09153500
59.89999662	0.00000000	15.29897000	-5.20423200
60.09999661	0.00000000	14.18553000	-5.20423200
60.29999660	0.00000000	12.69070000	-2.09153500
60.49999658	0.00000000	11.53420000	3.70939900
60.69999657	0.00000000	11.10974000	11.04823000
60.89999656	0.00000000	11.06668000	18.30093000
61.09999655	0.00000000	11.10974000	23.27141000
61.29999654	0.00000000	11.48499000	24.06496000
61.49999653	0.00000000	12.22933000	20.99532000
61.69999651	0.00000000	12.55536000	14.81299000
61.89999650	0.00000000	12.22933000	6.72982200
62.09999649	0.00000000	11.44193000	-0.93503930
62.29999648	0.00000000	10.69144000	-6.36687900
62.49999647	0.00000000	9.90403500	-8.27386800
62.69999645	0.00000000	9.52879000	-6.36687900
62.89999644	0.00000000	9.52879000	-0.97810030
63.09999643	0.00000000	9.95324800	6.31766700
63.29999642	0.00000000	11.10974000	13.69956000
63.49999641	0.00000000	12.64764000	19.83883000
63.69999639	0.00000000	14.13632000	23.32062000
63.89999638	0.00000000	14.92372000	22.95152000
64.09999637	0.00000000	14.56078000	19.50664000
64.29999636	0.00000000	13.81028000	13.69956000
64.49999635	0.00000000	12.60458000	6.77903500
64.69999634	0.00000000	11.06668000	0.59670270
64.89999632	0.00000000	9.57800100	-3.67249000
65.09999631	0.00000000	8.79060000	-5.20423200
65.29999630	0.00000000	9.15354300	-3.76476400
65.49999629	0.00000000	9.90403500	-0.28297240
65.69999628	0.00000000	11.10974000	3.99237200
65.89999626	0.00000000	12.60458000	9.05511800
66.09999625	0.00000000	13.71801000	13.61343000
66.29999624	0.00000000	13.71801000	16.39395000
66.49999623	0.00000000	12.60458000	17.23056000
66.69999622	0.00000000	11.06668000	16.89837000
66.89999620	0.00000000	9.52879000	15.69882000
67.09999619	0.00000000	8.41535400	13.74262000
67.29999618	0.00000000	8.45841400	10.96211000
67.49999617	0.00000000	9.95324800	7.51722400
67.69999616	0.00000000	12.27239000	4.03543200
67.89999615	0.00000000	14.60384000	1.66707700
68.09999613	0.00000000	16.87992000	0.04306102
68.29999612	0.00000000	17.99951000	-1.02116100
68.49999611	0.00000000	17.21210000	-0.60285430
68.69999610	0.00000000	14.88066000	1.71013800
68.89999609	0.00000000	11.02362000	5.19808000
69.09999607	0.00000000	6.83439900	9.51648500
69.29999606	0.00000000	3.71555100	14.11786000
69.49999605	0.00000000	2.17765700	17.93184000
69.69999604	0.00000000	2.60211600	19.46358000
69.89999603	0.00000000	5.33956700	18.39321000
70.09999601	0.00000000	9.95324800	15.64960000
70.29999600	0.00000000	15.34203000	11.74336000
70.49999599	0.00000000	19.99877000	6.68676100
70.69999598	0.00000000	23.06841000	1.71013800
70.89999597	0.00000000	23.81275000	-2.14074800
71.09999596	0.00000000	21.53666000	-3.62942900
71.29999594	0.00000000	17.25517000	-2.14074800
71.49999593	0.00000000	11.81102000	1.66707700
71.69999592	0.00000000	5.62869100	6.31151500
71.89999591	0.00000000	0.68897630	10.95595000
72.09999590	0.00000000	-1.67938000	14.81299000
72.29999588	0.00000000	-0.89197830	16.76919000
72.49999587	0.00000000	2.55290300	16.76919000
72.69999586	0.00000000	7.99704600	14.85605000
72.89999585	0.00000000	14.13632000	11.42347000
73.09999584	0.00000000	19.58046000	7.98474400
73.29999582	0.00000000	23.02534000	5.24729300
73.49999581	0.00000000	23.81275000	3.70939900
73.69999580	0.00000000	21.53666000	3.66633800
73.89999579	0.00000000	17.29823000	4.77977300
74.09999578	0.00000000	12.27239000	6.31151500
74.29999577	0.00000000	7.25270600	7.80019600
74.49999575	0.00000000	3.80782500	8.58759800
74.69999574	0.00000000	2.60211600	8.22465500
74.89999573	0.00000000	3.71555100	7.47416300
75.09999572	0.00000000	6.36687900	6.31151500
75.29999571	0.00000000	9.48572700	5.24729300
75.49999569	0.00000000	12.60458000	5.29035400
75.69999568	0.00000000	15.29897000	6.82209600
75.89999567	0.00000000	16.83686000	9.51648500
76.09999566	0.00000000	16.87992000	12.53691000
76.29999565	0.00000000	15.76649000	14.85605000
76.49999563	0.00000000	14.22859000	15.60654000
76.69999562	0.00000000	12.64764000	14.81299000
76.89999561	0.00000000	11.10974000	12.03248000
77.09999560	0.00000000	9.99630800	7.47416300
77.29999559	0.00000000	9.95324800	2.50369100
77.49999558	0.00000000	10.64838000	-0.97810030
77.69999556	0.00000000	11.02362000	-2.55905500
77.89999555	0.00000000	11.02362000	-2.09153500
78.09999554	0.00000000	10.64838000	0.97194880
78.29999553	0.00000000	9.86097400	5.98548200
78.49999552	0.00000000	9.15354300	11.38041000
78.69999550	0.00000000	8.79060000	16.39395000
78.89999549	0.00000000	9.57800100	19.42052000
79.09999548	0.00000000	11.10974000	19.50664000
79.29999547	0.00000000	13.06594000	17.18750000
79.49999546	0.00000000	15.34203000	13.32431000
79.69999544	0.00000000	16.83686000	8.31077700
79.89999543	0.00000000	16.87992000	3.66633800
80.09999542	0.00000000	15.71727000	0.17839570
80.29999541	0.00000000	13.76107000	-1.76550200
80.49999540	0.00000000	11.06668000	-1.39640700
80.69999539	0.00000000	8.37229300	0.51058070
80.89999537	0.00000000	6.45915300	3.62327700
81.09999536	0.00000000	5.67175200	7.47416300
81.29999535	0.00000000	6.45915300	10.96211000
81.49999534	0.00000000	8.41535400	13.69956000
81.69999533	0.00000000	11.48499000	15.27436000
81.89999531	0.00000000	14.88066000	15.64960000
82.09999530	0.00000000	16.83686000	14.90526000
82.29999529	0.00000000	17.29823000	12.95522000
82.49999528	0.00000000	16.87992000	10.62992000
82.69999527	0.00000000	15.29897000	7.89247000
82.89999525	0.00000000	12.64764000	5.15501900
83.09999524	0.00000000	9.99630800	2.82972400
83.29999523	0.00000000	8.41535400	0.87967510
83.49999522	0.00000000	7.99704600	0.17839570
83.69999521	0.00000000	8.37229300	0.92888770
83.89999520	0.00000000	9.48572700	3.24803100
84.09999518	0.00000000	10.64838000	6.31151500
84.29999517	0.00000000	11.44193000	9.47342500
84.49999516	0.00000000	12.22933000	12.58612000
84.69999515	0.00000000	12.60458000	15.27436000
84.89999514	0.00000000	12.64764000	16.76919000
85.09999512	0.00000000	12.64764000	16.39395000
85.29999511	0.00000000	12.64764000	14.07480000
85.49999510	0.00000000	12.64764000	10.62992000
85.69999509	0.00000000	12.64764000	6.68676100
85.89999508	0.00000000	12.64764000	2.87278500
86.09999506	0.00000000	12.64764000	-0.18454720
86.29999505	0.00000000	12.60458000	-0.93503930
86.49999504	0.00000000	12.18012000	0.55364170
86.69999503	0.00000000	11.06668000	3.66633800
86.89999502	0.00000000	9.90403500	7.89247000
87.09999501	0.00000000	9.15354300	12.16166000
87.29999499	0.00000000	8.79060000	15.60654000
87.49999498	0.00000000	9.52879000	17.50738000
87.69999497	0.00000000	10.69144000	16.72613000
87.89999496	0.00000000	11.86024000	13.69956000
88.09999495	0.00000000	13.39198000	9.43036400
88.29999493	0.00000000	14.13632000	4.82898600
88.49999492	0.00000000	14.18553000	0.97194880
88.69999491	0.00000000	13.81028000	-0.93503930
88.89999490	0.00000000	13.02288000	-0.55979330
89.09999489	0.00000000	12.22933000	2.12844500
89.29999487	0.00000000	11.06668000	6.35457700
89.49999486	0.00000000	9.95324800	10.95595000
89.69999485	0.00000000	9.52879000	14.81299000
89.89999484	0.00000000	9.52879000	16.71998000
90.09999483	0.00000000	9.95324800	16.35089000
90.29999482	0.00000000	11.06668000	13.65650000
90.49999480	0.00000000	12.18012000	9.43036400
90.69999479	0.00000000	12.60458000	4.82898600
90.89999478	0.00000000	12.64764000	0.97194880
91.09999477	0.00000000	12.64764000	-0.93503930
91.29999476	0.00000000	12.64764000	-0.51673230
91.49999474	0.00000000	12.64764000	2.55290300
91.69999473	0.00000000	12.64764000	7.51722400
91.89999472	0.00000000	12.60458000	12.49385000
92.09999471	0.00000000	12.27239000	16.35089000
92.29999470	0.00000000	11.90330000	17.83957000
92.49999468	0.00000000	12.22933000	16.35089000
92.69999467	0.00000000	12.18012000	12.53691000
92.89999466	0.00000000	11.44193000	7.93553100
93.09999465	0.00000000	10.64838000	3.66633800
93.29999464	0.00000000	9.52879000	0.59670270
93.49999463	0.00000000	8.79060000	-0.55979330
93.69999461	0.00000000	9.15354300	0.64591530
93.89999460	0.00000000	9.90403500	4.04158400
94.09999459	0.00000000	11.15896000	8.63681000
94.29999458	0.00000000	13.06594000	12.45079000
94.49999457	0.00000000	15.34203000	14.81299000
94.69999455	0.00000000	16.87992000	15.18824000
94.89999454	0.00000000	17.25517000	13.65650000
95.09999453	0.00000000	16.46161000	10.58686000
95.29999452	0.00000000	14.13632000	6.72982200
95.49999451	0.00000000	11.06668000	3.29109200
95.69999449	0.00000000	7.94783400	1.01501000
95.89999448	0.00000000	5.29650500	1.01501000
96.09999447	0.00000000	4.13385800	3.24803100
96.29999446	0.00000000	4.87819900	6.31151500
96.49999445	0.00000000	6.83439900	9.42421200
96.69999444	0.00000000	9.95324800	12.11860000
96.89999442	0.00000000	13.81028000	13.61343000
97.09999441	0.00000000	17.25517000	13.28125000
97.29999440	0.00000000	19.62352000	11.38041000
97.49999439	0.00000000	20.37401000	9.09817800
97.69999438	0.00000000	19.58046000	6.77903500
97.89999436	0.00000000	16.83686000	5.24729300
98.09999435	0.00000000	12.64764000	4.82898600
98.29999434	0.00000000	8.41535400	5.19808000
98.49999433	0.00000000	5.29650500	6.31151500
98.69999432	0.00000000	3.71555100	7.47416300
98.89999430	0.00000000	3.71555100	8.26771600
99.09999429	0.00000000	5.25344500	9.05511800
99.29999428	0.00000000	7.99704600	9.43036400
99.49999427	0.00000000	11.48499000	9.47342500
99.69999426	0.00000000	15.34203000	9.47342500
99.89999425	0.00000000	18.41781000	9.51648500
100.09999423	0.00000000	19.95571000	9.89173200
100.29999422	0.00000000	19.58046000	10.62992000
100.49999421	0.00000000	17.29823000	10.95595000
100.69999420	0.00000000	14.27165000	10.62992000
100.89999419	0.00000000	11.48499000	9.79945900
101.09999417	0.00000000	9.11048200	8.63681000
101.29999416	0.00000000	6.83439900	6.68676100
101.49999415	0.00000000	5.71481200	4.82283400
101.69999414	0.00000000	6.41609200	3.66633800
101.89999413	0.00000000	7.90477300	3.70939900
102.09999411	0.00000000	9.52879000	5.19808000
102.29999410	0.00000000	11.48499000	7.51722400
102.49999409	0.00000000	13.81028000	9.84867000
102.69999408	0.00000000	15.71727000	12.21087000
102.89999407	0.00000000	16.87992000	14.03174000
103.09999406	0.00000000	16.87992000	14.43775000
103.29999404	0.00000000	15.76649000	12.91215000
103.49999403	0.00000000	14.18553000	10.62992000
103.69999402	0.00000000	12.22933000	7.84940900
103.89999401	0.00000000	9.95324800	4.82283400
104.09999400	0.00000000	8.41535400	2.50369100
104.29999398	0.00000000	7.99704600	1.75319900
104.49999397	0.00000000	8.37229300	2.50369100
104.69999396	0.00000000	9.52879000	4.82283400
104.89999395	0.00000000	11.06668000	7.84940900
105.09999394	0.00000000	12.60458000	10.58686000
105.29999392	0.00000000	13.76107000	12.53691000
105.49999391	0.00000000	14.18553000	13.65650000
105.69999390	0.00000000	14.18553000	13.28125000
105.89999389	0.00000000	13.76107000	11.38041000
106.09999388	0.00000000	12.64764000	9.09817800
106.29999387	0.00000000	11.48499000	6.72982200
106.49999385	0.00000000	10.69144000	4.87204700
106.69999384	0.00000000	9.90403500	4.08464600
106.89999383	0.00000000	9.62106200	4.82283400
107.09999382	0.00000000	10.32234000	6.31151500
107.29999381	0.00000000	11.81102000	7.89247000
107.49999379	0.00000000	12.60458000	9.42421200
107.69999378	0.00000000	13.02288000	10.58686000
107.89999377	0.00000000	13.39198000	10.95595000
108.09999376	0.00000000	12.97982000	10.58686000
108.29999375	0.00000000	12.22933000	9.42421200
108.49999374	0.00000000	11.06668000	7.89247000
108.69999372	0.00000000	9.95324800	6.36072800
108.89999371	0.00000000	9.57800100	5.24729300
109.09999370	0.00000000	9.90403500	5.24729300
109.29999369	0.00000000	10.69144000	6.36072800
109.49999368	0.00000000	11.48499000	7.89247000
109.69999366	0.00000000	12.64764000	9.42421200
109.89999365	0.00000000	13.76107000	10.58686000
110.09999364	0.00000000	14.18553000	11.00517000
110.29999363	0.00000000	14.18553000	11.00517000
110.49999362	0.00000000	13.76107000	10.58686000
110.69999360	0.00000000	12.64764000	9.42421200
110.89999359	0.00000000	11.48499000	7.89247000
111.09999358	0.00000000	10.69144000	6.36072800
111.29999357	0.00000000	9.95324800	5.24729300
111.49999356	0.00000000	9.95324800	5.19808000
111.69999355	0.00000000	10.64838000	5.93626900
111.89999353	0.00000000	11.06668000	6.72982200
112.09999352	0.00000000	11.48499000	7.89247000
112.29999351	0.00000000	12.22933000	9.00590400
112.49999350	0.00000000	12.60458000	9.43036400
112.69999349	0.00000000	12.64764000	9.47342500
112.89999347	0.00000000	12.64764000	9.47342500
113.09999346	0.00000000	12.60458000	9.47342500
113.29999345	0.00000000	12.22933000	9.43036400
113.49999344	0.00000000	11.48499000	9.05511800
113.69999343	0.00000000	11.10974000	8.31077700
113.89999341	0.00000000	11.06668000	7.93553100
114.09999340	0.00000000	11.06668000	7.84940900
114.29999339	0.00000000	11.06668000	7.47416300
114.49999338	0.00000000	11.06668000	6.72982200
114.69999337	0.00000000	11.06668000	6.35457700
114.89999336	0.00000000	11.10974000	6.31151500
115.09999334	0.00000000	11.48499000	6.35457700
115.29999333	0.00000000	12.22933000	6.72982200
115.49999332	0.00000000	12.60458000	7.51722400
115.69999331	0.00000000	12.64764000	8.26771600
115.89999330	0.00000000	12.60458000	9.05511800
116.09999328	0.00000000	12.22933000	9.47342500
116.29999327	0.00000000	11.48499000	9.89173200
116.49999326	0.00000000	11.10974000	10.58686000
116.69999325	0.00000000	11.06668000	10.53765000
116.89999324	0.00000000	11.06668000	9.47342500
117.09999322	0.00000000	11.10974000	8.31077700
117.29999321	0.00000000	11.48499000	7.51722400
117.49999320	0.00000000	12.22933000	6.68676100
117.69999319	0.00000000	12.64764000	5.98548200
117.89999318	0.00000000	13.06594000	5.57332700
118.09999317	0.00000000	13.76107000	5.98548200
118.29999315	0.00000000	13.76107000	6.68676100
118.49999314	0.00000000	13.02288000	7.51722400
118.69999313	0.00000000	12.22933000	8.26771600
118.89999312	0.00000000	11.06668000	9.05511800
119.09999311	0.00000000	9.95324800	9.43036400
119.29999309	0.00000000	9.52879000	9.47342500
119.49999308	0.00000000	9.52879000	9.47342500
119.69999307	0.00000000	9.95324800	9.43036400
119.89999306	0.00000000	11.10974000	9.05511800
120.09999305	0.00000000	12.60458000	8.31077700
120.29999303	0.00000000	13.76107000	7.93553100
120.49999302	0.00000000	14.18553000	7.84940900
120.69999301	0.00000000	14.22859000	7.47416300
120.89999300	0.00000000	14.18553000	6.77903500
121.09999299	0.00000000	13.76107000	6.77903500
121.29999298	0.00000000	12.60458000	7.47416300
121.49999296	0.00000000	11.10974000	7.84940900
121.69999295	0.00000000	9.90403500	7.89247000
121.89999294	0.00000000	9.15354300	7.93553100
122.09999293	0.00000000	8.74138700	8.31077700
122.29999292	0.00000000	9.15354300	9.05511800
122.49999290	0.00000000	9.90403500	9.43036400
122.69999289	0.00000000	11.06668000	9.47342500
122.89999288	0.00000000	12.22933000	9.47342500
123.09999287	0.00000000	13.02288000	9.43036400
123.29999286	0.00000000	13.81028000	9.05511800
123.49999284	0.00000000	14.18553000	8.31077700
123.69999283	0.00000000	14.18553000	7.89247000
123.89999282	0.00000000	13.76107000	7.47416300
124.09999281	0.00000000	12.69070000	6.77903500
124.29999280	0.00000000	11.90330000	6.77903500
124.49999279	0.00000000	11.81102000	7.47416300
124.69999277	0.00000000	11.02362000	7.84940900
124.89999276	0.00000000	9.95324800	7.89247000
125.09999275	0.00000000	9.52879000	7.93553100
125.29999274	0.00000000	9.52879000	8.31077700
125.49999273	0.00000000	9.90403500	9.05511800
125.69999271	0.00000000	10.69144000	9.43036400
125.89999270	0.00000000	11.48499000	9.47342500
126.09999269	0.00000000	12.60458000	9.47342500
126.29999268	0.00000000	13.39198000	9.43036400
126.49999267	0.00000000	13.44119000	9.05511800
126.69999265	0.00000000	13.81028000	8.31077700
126.89999264	0.00000000	13.71801000	7.89247000
127.09999263	0.00000000	12.64764000	7.51722400
127.29999262	0.00000000	11.48499000	7.14812900
127.49999261	0.00000000	10.69144000	7.51722400
127.69999260	0.00000000	9.90403500	7.84940900
127.89999258	0.00000000	9.57800100	7.89247000
128.09999257	0.00000000	9.90403500	7.93553100
128.29999256	0.00000000	10.69144000	8.31077700
128.49999255	0.00000000	11.48499000	9.05511800
128.69999254	0.00000000	12.64764000	9.38115100
128.89999252	0.00000000	13.76107000	9.05511800
129.09999251	0.00000000	14.13632000	8.31077700
129.29999250	0.00000000	13.81028000	7.93553100
129.49999249	0.00000000	13.02288000	7.89247000
129.69999248	0.00000000	12.22933000	7.89247000
129.89999246	0.00000000	11.06668000	7.89247000
130.09999245	0.00000000	9.95324800	7.89247000
130.29999244	0.00000000	9.52879000	7.93553100
130.49999243	0.00000000	9.52879000	8.26771600
130.69999242	0.00000000	9.95324800	8.67987200
130.89999241	0.00000000	11.06668000	8.68602300
131.09999239	0.00000000	12.22933000	9.05511800
131.29999238	0.00000000	12.97982000	9.00590400
131.49999237	0.00000000	13.39198000	8.31077700
131.69999236	0.00000000	13.02288000	7.93553100
131.89999235	0.00000000	12.64764000	7.84940900
132.09999233	0.00000000	12.22933000	7.47416300
132.29999232	0.00000000	11.48499000	6.77903500
132.49999231	0.00000000	11.10974000	6.77903500
132.69999230	0.00000000	11.10974000	7.51722400
132.89999229	0.00000000	11.48499000	8.26771600
133.09999227	0.00000000	12.18012000	9.05511800
133.29999226	0.00000000	12.22933000	9.43036400
133.49999225	0.00000000	11.86024000	9.47342500
133.69999224	0.00000000	11.85408000	9.47342500
133.89999223	0.00000000	11.48499000	9.43036400
134.09999222	0.00000000	11.48499000	9.05511800
134.29999220	0.00000000	11.85408000	8.26771600
134.49999219	0.00000000	11.86024000	7.51722400
134.69999218	0.00000000	12.27239000	6.72982200
134.89999217	0.00000000	12.60458000	6.35457700
135.09999216	0.00000000	12.64764000	6.35457700
135.29999214	0.00000000	12.64764000	6.72982200
135.49999213	0.00000000	12.64764000	7.51722400
135.69999212	0.00000000	12.60458000	8.26771600
135.89999211	0.00000000	12.22933000	9.05511800
136.09999210	0.00000000	11.48499000	9.43036400
136.29999208	0.00000000	11.10974000	9.47342500
136.49999207	0.00000000	11.06668000	9.47342500
136.69999206	0.00000000	11.06668000	9.43036400
136.89999205	0.00000000	11.10974000	9.05511800
137.09999204	0.00000000	11.48499000	8.31077700
137.29999203	0.00000000	12.27239000	7.93553100
137.49999201	0.00000000	13.02288000	7.84940900
137.69999200	0.00000000	13.81028000	7.47416300
137.89999199	0.00000000	14.13632000	6.72982200
138.09999198	0.00000000	13.81028000	6.35457700
138.29999197	0.00000000	13.02288000	6.35457700
138.49999195	0.00000000	12.27239000	6.72982200
138.69999194	0.00000000	11.48499000	7.51722400
138.89999193	0.00000000	11.10974000	8.26771600
139.09999192	0.00000000	11.06668000	9.09817800
139.29999191	0.00000000	11.06668000	9.79945900
139.49999189	0.00000000	11.10974000	10.21161000
139.69999188	0.00000000	11.48499000	9.84867000
139.89999187	0.00000000	12.22933000	9.47342500
140.09999186	0.00000000	12.60458000	9.05511800
140.29999185	0.00000000	12.64764000	8.26771600
140.49999184	0.00000000	12.60458000	7.51722400
140.69999182	0.00000000	12.22933000	6.72982200
140.89999181	0.00000000	11.48499000	6.35457700
141.09999180	0.00000000	11.10974000	6.35457700
141.29999179	0.00000000	11.06668000	6.72982200
141.49999178	0.00000000	11.06668000	7.51722400
141.69999176	0.00000000	11.10974000	8.26771600
141.89999175	0.00000000	11.48499000	9.05511800
142.09999174	0.00000000	12.22933000	9.43036400
142.29999173	0.00000000	12.60458000	9.47342500
142.49999172	0.00000000	12.64764000	9.47342500
142.69999170	0.00000000	12.64764000	9.43036400
142.89999169	0.00000000	12.64764000	9.00590400
143.09999168	0.00000000	12.60458000	7.89247000
143.29999167	0.00000000	12.22933000	6.77903500
143.49999166	0.00000000	11.48499000	6.35457700
143.69999165	0.00000000	11.10974000	6.35457700
143.89999163	0.00000000	11.10974000	6.72982200
144.09999162	0.00000000	11.48499000	7.47416300
144.29999161	0.00000000	12.22933000	7.89247000
144.49999160	0.00000000	12.60458000	8.31077700
144.69999159	0.00000000	12.64764000	9.05511800
144.89999157	0.00000000	12.64764000	9.43036400
145.09999156	0.00000000	12.64764000	9.47342500
145.29999155	0.00000000	12.60458000	9.43036400
145.49999154	0.00000000	12.22933000	9.05511800
145.69999153	0.00000000	11.48499000	8.31077700
145.89999151	0.00000000	11.10974000	7.89247000
146.09999150	0.00000000	11.06668000	7.47416300
146.29999149	0.00000000	11.10974000	6.72982200
146.49999148	0.00000000	11.48499000	6.40378900
146.69999147	0.00000000	12.22933000	6.77903500
146.89999146	0.00000000	12.60458000	7.89247000
147.09999144	0.00000000	12.64764000	9.00590400
147.29999143	0.00000000	12.64764000	9.43036400
147.49999142	0.00000000	12.64764000	9.47342500
147.69999141	0.00000000	12.60458000	9.47342500
147.89999140	0.00000000	12.22933000	9.47342500
148.09999138	0.00000000	11.48499000	9.43036400
148.29999137	0.00000000	11.10974000	9.05511800
148.49999136	0.00000000	11.06668000	8.31077700
148.69999135	0.00000000	11.10974000	7.93553100
148.89999134	0.00000000	11.48499000	7.89247000
149.09999132	0.00000000	12.22933000	7.89247000
149.29999131	0.00000000	12.60458000	7.89247000
149.49999130	0.00000000	12.64764000	7.89247000
149.69999129	0.00000000	12.64764000	7.89247000
149.89999128	0.00000000	12.64764000	7.93553100
150.09999127	0.00000000	12.64764000	8.31077700
150.29999125	0.00000000	12.60458000	9.05511800
150.49999124	0.00000000	12.22933000	9.43036400
150.69999123	0.00000000	11.48499000	9.43036400
150.89999122	0.00000000	11.10974000	9.05511800
151.09999121	0.00000000	11.06668000	8.31077700
151.29999119	0.00000000	11.06668000	7.93553100
151.49999118	0.00000000	11.10974000	7.89247000
151.69999117	0.00000000	11.48499000	7.89247000
151.89999116	0.00000000	12.22933000	7.89247000
152.09999115	0.00000000	12.60458000	7.89247000
152.29999113	0.00000000	12.64764000	7.89247000
152.49999112	0.00000000	12.64764000	7.89247000
152.69999111	0.00000000	12.64764000	7.89247000
152.89999110	0.00000000	12.64764000	7.89247000
153.09999109	0.00000000	12.64764000	7.89247000
153.29999108	0.00000000	12.60458000	7.89247000
153.49999106	0.00000000	12.22933000	7.89247000
153.69999105	0.00000000	11.48499000	7.89247000
153.89999104	0.00000000	11.10974000	7.89247000
154.09999103	0.00000000	11.06668000	7.89247000
154.29999102	0.00000000	11.06668000	7.89247000
154.49999100	0.00000000	11.06668000	7.89247000
154.69999099	0.00000000	11.06668000	7.89247000
154.89999098	0.00000000	11.10974000	7.89247000
155.09999097	0.00000000	11.48499000	7.89247000
155.29999096	0.00000000	12.22933000	7.89247000
155.49999094	0.00000000	12.60458000	7.89247000
155.69999093	0.00000000	12.64764000	7.89247000
155.89999092	0.00000000	12.64764000	7.93553100
156.09999091	0.00000000	12.64764000	8.26771600
156.29999090	0.00000000	12.60458000	8.67987200
156.49999089	0.00000000	12.22933000	8.68602300
156.69999087	0.00000000	11.48499000	9.09817800
156.89999086	0.00000000	11.10974000	9.43036400
157.09999085	0.00000000	11.06668000	9.47342500
157.29999084	0.00000000	11.06668000	9.43036400
157.49999083	0.00000000	11.10974000	9.05511800
157.69999081	0.00000000	11.48499000	8.31077700
157.89999080	0.00000000	12.22933000	7.89247000
158.09999079	0.00000000	12.60458000	7.51722400
158.29999078	0.00000000	12.64764000	7.10506800
158.49999077	0.00000000	12.64764000	7.14197800
158.69999075	0.00000000	12.64764000	7.10506800
158.89999074	0.00000000	12.64764000	7.51722400
159.09999073	0.00000000	12.64764000	7.89247000
159.29999072	0.00000000	12.64764000	8.31077700
159.49999071	0.00000000	12.60458000	9.05511800
159.69999070	0.00000000	12.22933000	9.43036400
159.89999068	0.00000000	11.48499000	9.47342500
160.09999067	0.00000000	11.10974000	9.43036400
160.29999066	0.00000000	11.06668000	9.05511800
160.49999065	0.00000000	11.06668000	8.31077700
160.69999064	0.00000000	11.06668000	7.93553100
160.89999062	0.00000000	11.10974000	7.84940900
161.09999061	0.00000000	11.48499000	7.51722400
161.29999060	0.00000000	12.22933000	7.14812900
161.49999059	0.00000000	12.60458000	7.51722400
161.69999058	0.00000000	12.64764000	7.84940900
161.89999056	0.00000000	12.64764000	7.93553100
162.09999055	0.00000000	12.64764000	8.26771600
162.29999054	0.00000000	12.64764000	8.63681000
162.49999053	0.00000000	12.64764000	8.31077700
162.69999052	0.00000000	12.60458000	8.35998900
162.89999051	0.00000000	12.22933000	9.00590400
163.09999049	0.00000000	11.44193000	9.05511800
163.29999048	0.00000000	10.73450000	8.68602300
163.49999047	0.00000000	10.32234000	8.67987200
163.69999046	0.00000000	10.73450000	8.31077700
163.89999045	0.00000000	11.39887000	8.31077700
164.09999043	0.00000000	11.85408000	8.63681000
164.29999042	0.00000000	11.86024000	8.26771600
164.49999041	0.00000000	12.27239000	7.93553100
164.69999040	0.00000000	12.60458000	7.89247000
164.89999039	0.00000000	12.64764000	7.89247000
165.09999037	0.00000000	12.64764000	7.89247000
165.29999036	0.00000000	12.64764000	7.89247000
165.49999035	0.00000000	12.64764000	7.89247000
165.69999034	0.00000000	12.60458000	7.89247000
165.89999033	0.00000000	12.22933000	7.89247000
166.09999032	0.00000000	11.48499000	7.89247000
166.29999030	0.00000000	11.15896000	7.89247000
166.49999029	0.00000000	11.44193000	7.89247000
166.69999028	0.00000000	11.85408000	7.89247000
166.89999027	0.00000000	11.86024000	7.89247000
167.09999026	0.00000000	12.27239000	7.89247000
167.29999024	0.00000000	12.60458000	7.89247000
167.49999023	0.00000000	12.64764000	7.89247000
167.69999022	0.00000000	12.64764000	7.89247000
167.89999021	0.00000000	12.64764000	7.89247000
168.09999020	0.00000000	12.64764000	7.89247000
168.29999018	0.00000000	12.64764000	7.89247000
168.49999017	0.00000000	12.64764000	7.89247000
168.69999016	0.00000000	12.64764000	7.89247000
168.89999015	0.00000000	12.64764000	7.89247000
169.09999014	0.00000000	12.60458000	7.89247000
169.29999013	0.00000000	12.27239000	7.89247000
169.49999011	0.00000000	11.90330000	7.93553100
169.69999010	0.00000000	12.22933000	8.26771600
169.89999009	0.00000000	12.22933000	8.63681000
170.09999008	0.00000000	11.86024000	8.26771600
170.29999007	0.00000000	11.89715000	7.93553100
170.49999005	0.00000000	11.86024000	7.89247000
170.69999004	0.00000000	12.27239000	7.89247000
170.89999003	0.00000000	12.60458000	7.89247000
171.09999002	0.00000000	12.64764000	7.89247000
171.29999001	0.00000000	12.64764000	7.89247000
171.49998999	0.00000000	12.64764000	7.89247000
171.69998998	0.00000000	12.64764000	7.89247000
171.89998997	0.00000000	12.64764000	7.89247000
172.09998996	0.00000000	12.64764000	7.89247000
172.29998995	0.00000000	12.64764000	7.89247000
172.49998994	0.00000000	12.64764000	7.89247000
172.69998992	0.00000000	12.64764000	7.89247000
172.89998991	0.00000000	12.64764000	7.89247000
173.09998990	0.00000000	12.64764000	7.89247000
173.29998989	0.00000000	12.64764000	7.89247000
173.49998988	0.00000000	12.64764000	7.89247000
173.69998986	0.00000000	12.64764000	7.89247000
173.89998985	0.00000000	12.64764000	7.89247000
174.09998984	0.00000000	12.64764000	7.89247000
174.29998983	0.00000000	12.64764000	7.89247000
174.49998982	0.00000000	12.60458000	7.89247000
174.69998980	0.00000000	12.27239000	7.89247000
174.89998979	0.00000000	11.90330000	7.89247000
175.09998978	0.00000000	12.27239000	7.89247000
175.29998977	0.00000000	12.60458000	7.89247000
175.49998976	0.00000000	12.64764000	7.89247000
175.69998975	0.00000000	12.64764000	7.89247000
175.89998973	0.00000000	12.64764000	7.89247000
176.09998972	0.00000000	12.64764000	7.89247000
176.29998971	0.00000000	12.64764000	7.89247000
176.49998970	0.00000000	12.64764000	7.89247000
176.69998969	0.00000000	12.64764000	7.89247000
176.89998967	0.00000000	12.64764000	7.89247000
177.09998966	0.00000000	12.64764000	7.89247000
177.29998965	0.00000000	12.60458000	7.89247000
177.49998964	0.00000000	12.27239000	7.89247000
177.69998963	0.00000000	11.90330000	7.89247000
177.89998961	0.00000000	12.27239000	7.89247000
178.09998960	0.00000000	12.60458000	7.89247000
178.29998959	0.00000000	12.60458000	7.89247000
178.49998958	0.00000000	12.27239000	7.89247000
178.69998957	0.00000000	11.90330000	7.89247000
178.89998956	0.00000000	12.27239000	7.89247000
179.09998954	0.00000000	12.60458000	7.89247000
179.29998953	0.00000000	12.64764000	7.89247000
179.49998952	0.00000000	12.64764000	7.89247000
179.69998951	0.00000000	12.64764000	7.89247000
179.89998950	0.00000000	12.64764000	7.89247000
180.09998948	0.00000000	12.64764000	7.89247000
180.29998947	0.00000000	12.64764000	7.89247000
180.49998946	0.00000000	12.64764000	7.89247000
180.69998945	0.00000000	12.64764000	7.89247000
180.89998944	0.00000000	12.60458000	7.89247000
181.09998942	0.00000000	12.27239000	7.89247000
181.29998941	0.00000000	11.90330000	7.93553100
181.49998940	0.00000000	12.27239000	8.31077700
181.69998939	0.00000000	12.60458000	9.05511800
181.89998938	0.00000000	12.64764000	9.43036400
182.09998937	0.00000000	12.64764000	9.43036400
182.29998935	0.00000000	12.64764000	9.05511800
182.49998934	0.00000000	12.64764000	8.31077700
182.69998933	0.00000000	12.64764000	7.93553100
182.89998932	0.00000000	12.64764000	7.89247000
183.09998931	0.00000000	12.64764000	7.89247000
183.29998929	0.00000000	12.64764000	7.89247000
183.49998928	0.00000000	12.64764000	7.89247000
183.69998927	0.00000000	12.60458000	7.89247000
183.89998926	0.00000000	12.22933000	7.89247000
184.09998925	0.00000000	11.48499000	7.93553100
184.29998923	0.00000000	11.10974000	8.31077700
184.49998922	0.00000000	11.06668000	9.05511800
184.69998921	0.00000000	11.10974000	9.43036400
184.89998920	0.00000000	11.48499000	9.47342500
185.09998919	0.00000000	12.22933000	9.43036400
185.29998918	0.00000000	12.60458000	9.05511800
185.49998916	0.00000000	12.64764000	8.31077700
185.69998915	0.00000000	12.64764000	7.93553100
185.89998914	0.00000000	12.64764000	7.89247000
186.09998913	0.00000000	12.64764000	7.89247000
186.29998912	0.00000000	12.64764000	7.89247000
186.49998910	0.00000000	12.64764000	7.89247000
186.69998909	0.00000000	12.60458000	7.89247000
186.89998908	0.00000000	12.27239000	7.93553100
187.09998907	0.00000000	11.90330000	8.31077700
187.29998906	0.00000000	12.22933000	9.05511800
187.49998904	0.00000000	12.18012000	9.43036400
187.69998903	0.00000000	11.53420000	9.47342500
187.89998902	0.00000000	11.53420000	9.47342500
188.09998901	0.00000000	12.22933000	9.43036400
188.29998900	0.00000000	12.60458000	9.05511800
188.49998899	0.00000000	12.64764000	8.31077700
188.69998897	0.00000000	12.64764000	7.93553100
188.89998896	0.00000000	12.64764000	7.89247000
189.09998895	0.00000000	12.64764000	7.89247000
189.29998894	0.00000000	12.64764000	7.89247000
189.49998893	0.00000000	12.64764000	7.89247000
189.69998891	0.00000000	12.64764000	7.89247000
189.89998890	0.00000000	12.64764000	7.89247000
190.09998889	0.00000000	12.64764000	7.93553100
190.29998888	0.00000000	12.64764000	8.31077700
190.49998887	0.00000000	12.64764000	9.00590400
190.69998885	0.00000000	12.64764000	9.05511800
190.89998884	0.00000000	12.64764000	8.72908400
191.09998883	0.00000000	12.64764000	9.05511800
191.29998882	0.00000000	12.64764000	9.00590400
191.49998881	0.00000000	12.64764000	8.31077700
191.69998880	0.00000000	12.64764000	7.93553100
191.89998878	0.00000000	12.64764000	7.89247000
192.09998877	0.00000000	12.64764000	7.89247000
192.29998876	0.00000000	12.64764000	7.89247000
192.49998875	0.00000000	12.64764000	7.89247000
192.69998874	0.00000000	12.64764000	7.89247000
192.89998872	0.00000000	12.64764000	7.89247000
193.09998871	0.00000000	12.64764000	7.93553100
193.29998870	0.00000000	12.64764000	8.26771600
193.49998869	0.00000000	12.60458000	8.63681000
193.69998868	0.00000000	12.27239000	8.31077700
193.89998866	0.00000000	11.90330000	8.35998900
194.09998865	0.00000000	12.27239000	9.05511800
194.29998864	0.00000000	12.60458000	9.43036400
194.49998863	0.00000000	12.64764000	9.43036400
194.69998862	0.00000000	12.64764000	9.05511800
194.89998861	0.00000000	12.64764000	8.31077700
195.09998859	0.00000000	12.64764000	7.93553100
195.29998858	0.00000000	12.60458000	7.89247000
195.49998857	0.00000000	12.22933000	7.89247000
195.69998856	0.00000000	11.48499000	7.89247000
195.89998855	0.00000000	11.15896000	7.84940900
196.09998853	0.00000000	11.44193000	7.56028500
