Time	Channel A	Channel B
(us)	(V)	(mV)

-4.49999956	0.00000000	5.19192900
-4.29999957	0.00000000	5.19192900
-4.09999958	0.00000000	5.19192900
-3.89999959	0.00000000	5.19192900
-3.69999960	0.00000000	5.19192900
-3.49999962	0.00000000	5.19192900
-3.29999963	0.00000000	5.19192900
-3.09999964	0.00000000	5.19192900
-2.89999965	0.00000000	5.19192900
-2.69999966	0.00000000	5.19192900
-2.49999968	0.00000000	5.19192900
-2.29999969	0.00000000	5.19192900
-2.09999970	0.00000000	5.19192900
-1.89999971	0.00000000	5.19192900
-1.69999972	0.00000000	5.19192900
-1.49999973	0.00000000	5.19192900
-1.29999975	0.00000000	5.19192900
-1.09999976	0.00000000	5.19192900
-0.89999977	0.00000000	5.19192900
-0.69999978	0.00000000	5.19192900
-0.49999979	0.00000000	5.19192900
-0.29999981	0.35125490	5.19192900
-0.09999982	0.70250980	5.19192900
0.10000017	1.05376500	5.19192900
0.30000016	0.87844490	5.14271600
0.50000015	0.70250980	4.77977300
0.70000013	0.00000000	4.37992100
0.90000012	-0.87844490	4.77977300
1.10000011	-1.93282500	5.19192900
1.30000010	-2.63533500	5.65329700
1.50000009	-2.81127000	6.46530500
1.70000008	-2.10814500	6.87746000
1.90000006	-0.70250980	6.87746000
2.10000005	1.40563500	6.46530500
2.30000004	3.33846000	5.60408400
2.50000003	4.91941500	4.77977300
2.70000002	5.27128500	3.92470400
2.90000000	4.21690500	3.51254900
3.09999999	1.93282500	3.46333600
3.29999998	-1.40563500	3.51254900
3.49999997	-4.74409400	3.92470400
3.69999996	-7.20410900	4.77977300
3.89999994	-8.08255400	5.60408400
4.09999993	-6.67691900	6.46530500
4.29999992	-3.68971500	6.87746000
4.49999991	0.52657480	6.92667200
4.69999990	4.91941500	6.87746000
4.89999989	8.25849000	6.46530500
5.09999987	9.48818900	5.60408400
5.29999986	8.43380900	4.77977300
5.49999985	5.09534900	3.92470400
5.69999984	0.52657480	3.56176100
5.89999983	-4.21690500	3.92470400
6.09999981	-7.73129900	4.73056000
6.29999980	-9.48818900	5.19192900
6.49999979	-8.78567900	5.65329700
6.69999978	-5.79847400	6.41609200
6.89999977	-1.58095500	6.46530500
7.09999975	2.63533500	6.11466500
7.29999974	5.97379400	6.46530500
7.49999973	7.55536400	6.41609200
7.69999972	7.20410900	5.65329700
7.89999971	5.09534900	5.24114100
8.09999970	2.10814500	5.19192900
8.29999968	-1.22970000	5.19192900
8.49999967	-3.86565000	5.19192900
8.69999966	-5.09534900	5.19192900
8.89999965	-4.91941500	5.24114100
9.09999964	-3.68971500	5.60408400
9.29999962	-1.75689000	6.00393600
9.49999961	0.17531990	5.60408400
9.69999960	1.75689000	5.29035400
9.89999959	2.45940000	5.60408400
10.09999958	2.28408000	6.00393600
10.29999956	1.75689000	5.60408400
10.49999955	0.87844490	5.24114100
10.69999954	0.00000000	5.19192900
10.89999953	-0.52657480	5.19192900
11.09999952	-0.87844490	5.19192900
11.29999951	-0.87844490	5.24114100
11.49999949	-0.70250980	5.60408400
11.69999948	-0.52657480	6.00393600
11.89999947	-0.17531990	5.60408400
12.09999946	0.00000000	5.24114100
12.29999945	0.00000000	5.19192900
12.49999943	0.00000000	5.19192900
12.69999942	-0.17531990	5.19192900
12.89999941	-0.17531990	5.19192900
13.09999940	-0.17531990	5.19192900
13.29999939	-0.17531990	5.19192900
13.49999937	0.00000000	5.19192900
13.69999936	0.00000000	5.19192900
13.89999935	0.00000000	5.24114100
14.09999934	0.00000000	5.60408400
14.29999933	0.00000000	6.00393600
14.49999932	0.00000000	5.60408400
14.69999930	0.00000000	5.24114100
14.89999929	0.00000000	5.19192900
15.09999928	0.00000000	5.19192900
15.29999927	0.00000000	5.19192900
15.49999926	0.00000000	5.19192900
15.69999924	0.00000000	5.19192900
15.89999923	0.00000000	5.19192900
16.09999922	0.00000000	5.19192900
16.29999921	0.00000000	5.19192900
16.49999920	0.00000000	5.14271600
16.69999919	0.00000000	4.82898600
16.89999917	0.00000000	4.79207600
17.09999916	0.00000000	5.59793300
17.29999915	0.00000000	5.55487200
17.49999914	0.00000000	5.24114100
17.69999913	0.00000000	5.19192900
17.89999911	0.00000000	5.19192900
18.09999910	0.00000000	5.19192900
18.29999909	0.00000000	5.19192900
18.49999908	0.00000000	5.24114100
18.69999907	0.00000000	5.60408400
18.89999905	0.00000000	6.00393600
19.09999904	0.00000000	5.60408400
19.29999903	0.00000000	5.24114100
19.49999902	0.00000000	5.19192900
19.69999901	0.00000000	5.24114100
19.89999900	0.00000000	5.60408400
20.09999898	0.00000000	6.00393600
20.29999897	0.00000000	5.60408400
20.49999896	0.00000000	5.24114100
20.69999895	0.00000000	5.19192900
20.89999894	0.00000000	5.19192900
21.09999892	0.00000000	5.19192900
21.29999891	0.00000000	5.19192900
21.49999890	0.00000000	5.19192900
21.69999889	0.00000000	5.19192900
21.89999888	0.00000000	5.19192900
22.09999886	0.00000000	5.19192900
22.29999885	0.00000000	5.19192900
22.49999884	0.00000000	5.19192900
22.69999883	0.00000000	5.19192900
22.89999882	0.00000000	5.19192900
23.09999881	0.00000000	5.19192900
23.29999879	0.00000000	5.19192900
23.49999878	0.00000000	5.14271600
23.69999877	0.00000000	4.73056000
23.89999876	0.00000000	3.97391700
24.09999875	0.00000000	4.02313000
24.29999873	0.00000000	5.19192900
24.49999872	0.00000000	6.46530500
24.69999871	0.00000000	7.33882900
24.89999870	0.00000000	8.19389700
25.09999869	0.00000000	8.60605200
25.29999867	0.00000000	8.55684000
25.49999866	0.00000000	7.68946800
25.69999865	0.00000000	5.55487200
25.89999864	0.00000000	3.00196800
26.09999863	0.00000000	0.04921259
26.29999862	0.00000000	-2.44832700
26.49999860	0.00000000	-3.26648600
26.69999859	0.00000000	-2.39911400
26.89999858	0.00000000	0.65821850
27.09999857	0.00000000	5.75172200
27.29999856	0.00000000	12.06939000
27.49999854	0.00000000	17.93184000
27.69999853	0.00000000	21.29675000
27.89999852	0.00000000	21.24754000
28.09999851	0.00000000	17.37205000
28.29999850	0.00000000	9.68257800
28.49999848	0.00000000	-0.41215550
28.69999847	0.00000000	-10.54380000
28.89999846	0.00000000	-17.73499000
29.09999845	0.00000000	-20.63853000
29.29999844	0.00000000	-17.98720000
29.49999843	0.00000000	-9.02436000
29.69999841	0.00000000	4.52755900
29.89999840	0.00000000	20.12180000
30.09999839	0.00000000	33.57529000
30.29999838	0.00000000	40.81570000
30.49999837	0.00000000	40.76648000
30.69999835	0.00000000	33.01550000
30.89999834	0.00000000	17.73499000
31.09999833	0.00000000	-1.67938000
31.29999832	0.00000000	-20.68774000
31.49999831	0.00000000	-34.60261000
31.69999829	0.00000000	-39.64690000
31.89999828	0.00000000	-34.55339000
32.09999827	0.00000000	-20.07874000
32.29999826	0.00000000	1.06422200
32.49999825	0.00000000	24.34793000
32.69999824	0.00000000	44.13140000
32.89999822	0.00000000	55.53641000
33.09999821	0.00000000	55.08735000
33.29999820	0.00000000	43.30709000
33.49999819	0.00000000	22.93307000
33.69999818	0.00000000	-1.58095500
33.89999816	0.00000000	-24.86466000
34.09999815	0.00000000	-41.33243000
34.29999814	0.00000000	-47.28715000
34.49999813	0.00000000	-41.33243000
34.69999812	0.00000000	-24.86466000
34.89999810	0.00000000	-1.53174200
35.09999809	0.00000000	23.33907000
35.29999808	0.00000000	44.06988000
35.49999807	0.00000000	55.08735000
35.69999806	0.00000000	54.72441000
35.89999805	0.00000000	43.30709000
36.09999803	0.00000000	23.43750000
36.29999802	0.00000000	0.19685040
36.49999801	0.00000000	-21.35212000
36.69999800	0.00000000	-35.72834000
36.89999799	0.00000000	-39.59768000
37.09999797	0.00000000	-32.86786000
37.29999796	0.00000000	-17.22441000
37.49999795	0.00000000	3.36491100
37.69999794	0.00000000	23.23450000
37.89999793	0.00000000	37.20472000
38.09999791	0.00000000	42.80265000
38.29999790	0.00000000	38.98253000
38.49999789	0.00000000	27.25147000
38.69999788	0.00000000	10.80217000
38.89999787	0.00000000	-5.61638700
39.09999786	0.00000000	-17.93799000
39.29999784	0.00000000	-23.39444000
39.49999783	0.00000000	-20.93996000
39.69999782	0.00000000	-11.36811000
39.89999781	0.00000000	1.27337600
40.09999780	0.00000000	13.55807000
40.29999778	0.00000000	23.22835000
40.49999777	0.00000000	27.00541000
40.69999776	0.00000000	24.20029000
40.89999775	0.00000000	16.65846000
41.09999774	0.00000000	6.97588500
41.29999772	0.00000000	-2.25147600
41.49999771	0.00000000	-8.20620100
41.69999770	0.00000000	-9.53494100
41.89999769	0.00000000	-7.08046200
42.09999768	0.00000000	-1.58095500
42.29999767	0.00000000	5.09350300
42.49999765	0.00000000	11.00517000
42.69999764	0.00000000	14.37008000
42.89999763	0.00000000	14.46850000
43.09999762	0.00000000	11.97096000
43.29999761	0.00000000	8.24311000
43.49999759	0.00000000	4.47834600
43.69999758	0.00000000	2.33759800
43.89999757	0.00000000	1.82701800
44.09999756	0.00000000	2.23917300
44.29999755	0.00000000	3.46333600
44.49999753	0.00000000	4.68134800
44.69999752	0.00000000	5.14271600
44.89999751	0.00000000	5.14271600
45.09999750	0.00000000	4.73056000
45.29999749	0.00000000	3.92470400
45.49999748	0.00000000	3.56176100
45.69999746	0.00000000	3.97391700
45.89999745	0.00000000	5.29035400
46.09999744	0.00000000	7.38804100
46.29999743	0.00000000	9.87942800
46.49999742	0.00000000	11.50960000
46.69999740	0.00000000	11.55881000
46.89999739	0.00000000	10.24237000
47.09999738	0.00000000	7.68946800
47.29999737	0.00000000	3.92470400
47.49999736	0.00000000	0.55979330
47.69999734	0.00000000	-1.58095500
47.89999733	0.00000000	-2.39296200
48.09999732	0.00000000	-1.12573800
48.29999731	0.00000000	1.77780500
48.49999730	0.00000000	5.19192900
48.69999729	0.00000000	8.50762700
48.89999727	0.00000000	10.69144000
49.09999726	0.00000000	11.15896000
49.29999725	0.00000000	11.20202000
49.49999724	0.00000000	10.24237000
49.69999723	0.00000000	8.19389700
49.89999721	0.00000000	5.60408400
50.09999720	0.00000000	3.10039400
50.29999719	0.00000000	0.96579720
50.49999718	0.00000000	0.09842519
50.69999717	0.00000000	0.04921259
50.89999715	0.00000000	0.51058070
51.09999714	0.00000000	1.77780500
51.29999713	0.00000000	3.46333600
51.49999712	0.00000000	5.24114100
51.69999711	0.00000000	7.33882900
51.89999710	0.00000000	9.42421200
52.09999708	0.00000000	10.29158000
52.29999707	0.00000000	10.34080000
52.49999706	0.00000000	9.87942800
52.69999705	0.00000000	8.55684000
52.89999704	0.00000000	6.46530500
53.09999702	0.00000000	3.87549200
53.29999701	0.00000000	1.42101400
53.49999700	0.00000000	-0.30142710
53.69999699	0.00000000	-0.26451770
53.89999698	0.00000000	0.91658460
54.09999696	0.00000000	3.14960600
54.29999695	0.00000000	6.06545300
54.49999694	0.00000000	9.46727400
54.69999693	0.00000000	11.92175000
54.89999692	0.00000000	12.83218000
55.09999691	0.00000000	12.02018000
55.29999689	0.00000000	10.29158000
55.49999688	0.00000000	7.68946800
55.69999687	0.00000000	3.92470400
55.89999686	0.00000000	0.60900590
56.09999685	0.00000000	-1.07037400
56.29999683	0.00000000	-0.71358260
56.49999682	0.00000000	1.37180100
56.69999681	0.00000000	3.92470400
56.89999680	0.00000000	6.92667200
57.09999679	0.00000000	9.78100300
57.29999677	0.00000000	11.05438000
57.49999676	0.00000000	10.24237000
57.69999675	0.00000000	8.09547100
57.89999674	0.00000000	4.77977300
58.09999673	0.00000000	1.42716500
58.29999672	0.00000000	-0.31373030
58.49999670	0.00000000	-1.16879900
58.69999669	0.00000000	-0.66437010
58.89999668	0.00000000	1.87623000
59.09999667	0.00000000	5.60408400
59.29999666	0.00000000	9.41806000
59.49999664	0.00000000	11.92175000
59.69999663	0.00000000	12.83218000
59.89999662	0.00000000	11.92175000
60.09999661	0.00000000	9.36884800
60.29999660	0.00000000	5.19192900
60.49999658	0.00000000	1.06422200
60.69999657	0.00000000	-1.11958700
60.89999656	0.00000000	-1.63016700
61.09999655	0.00000000	-1.11958700
61.29999654	0.00000000	1.01501000
61.49999653	0.00000000	4.73056000
61.69999651	0.00000000	8.14468500
61.89999650	0.00000000	10.70374000
62.09999649	0.00000000	12.42618000
62.29999648	0.00000000	12.38312000
62.49999647	0.00000000	11.15280000
62.69999645	0.00000000	8.55684000
62.89999644	0.00000000	5.24114100
63.09999643	0.00000000	2.28838600
63.29999642	0.00000000	0.55979330
63.49999641	0.00000000	0.04921259
63.69999639	0.00000000	0.04921259
63.89999638	0.00000000	0.55979330
64.09999637	0.00000000	2.23917300
64.29999636	0.00000000	4.73056000
64.49999635	0.00000000	6.92667200
64.69999634	0.00000000	9.06742000
64.89999632	0.00000000	11.15280000
65.09999631	0.00000000	11.97096000
65.29999630	0.00000000	11.55881000
65.49999629	0.00000000	9.87942800
65.69999628	0.00000000	7.33882900
65.89999626	0.00000000	4.73056000
66.09999625	0.00000000	1.77780500
66.29999624	0.00000000	-0.71358260
66.49999623	0.00000000	-1.58095500
66.69999622	0.00000000	-1.21801200
66.89999620	0.00000000	0.14763780
67.09999619	0.00000000	2.70054100
67.29999618	0.00000000	6.46530500
67.49999617	0.00000000	9.83021600
67.69999616	0.00000000	12.06939000
67.89999615	0.00000000	13.70571000
68.09999613	0.00000000	14.05635000
68.29999612	0.00000000	11.92175000
68.49999611	0.00000000	8.19389700
68.69999610	0.00000000	3.92470400
68.89999609	0.00000000	0.09842519
69.09999607	0.00000000	-2.85433100
69.29999606	0.00000000	-4.07849400
69.49999605	0.00000000	-2.85433100
69.69999604	0.00000000	0.09842519
69.89999603	0.00000000	3.92470400
70.09999601	0.00000000	8.19389700
70.29999600	0.00000000	11.97096000
70.49999599	0.00000000	14.51772000
70.69999598	0.00000000	14.92372000
70.89999597	0.00000000	13.29355000
71.09999596	0.00000000	10.29158000
71.29999594	0.00000000	6.46530500
71.49999593	0.00000000	2.23917300
71.69999592	0.00000000	-1.12573800
71.89999591	0.00000000	-2.80511800
72.09999590	0.00000000	-2.44832700
72.29999588	0.00000000	-0.36294290
72.49999587	0.00000000	2.23917300
72.69999586	0.00000000	5.65329700
72.89999585	0.00000000	9.41806000
73.09999584	0.00000000	11.97096000
73.29999582	0.00000000	13.24434000
73.49999581	0.00000000	12.78912000
73.69999580	0.00000000	10.29158000
73.89999579	0.00000000	6.92667200
74.09999578	0.00000000	3.51254900
74.29999577	0.00000000	0.51058070
74.49999575	0.00000000	-1.53174200
74.69999574	0.00000000	-1.93774600
74.89999573	0.00000000	0.14763780
75.09999572	0.00000000	3.46333600
75.29999571	0.00000000	6.92667200
75.49999569	0.00000000	10.29158000
75.69999568	0.00000000	12.78912000
75.89999567	0.00000000	13.19513000
76.09999566	0.00000000	11.50960000
76.29999565	0.00000000	8.14468500
76.49999563	0.00000000	3.92470400
76.69999562	0.00000000	0.14763780
76.89999561	0.00000000	-2.44832700
77.09999560	0.00000000	-3.21727300
77.29999559	0.00000000	-1.98695800
77.49999558	0.00000000	1.46407500
77.69999556	0.00000000	6.05930100
77.89999555	0.00000000	11.15280000
78.09999554	0.00000000	14.87451000
78.29999553	0.00000000	16.19710000
78.49999552	0.00000000	14.92372000
78.69999550	0.00000000	11.50960000
78.89999549	0.00000000	6.41609200
79.09999548	0.00000000	0.55979330
79.29999547	0.00000000	-4.07849400
79.49999546	0.00000000	-6.21924200
79.69999544	0.00000000	-5.81323800
79.89999543	0.00000000	-2.80511800
80.09999542	0.00000000	2.23917300
80.29999541	0.00000000	8.19389700
80.49999540	0.00000000	13.65650000
80.69999539	0.00000000	17.47047000
80.89999537	0.00000000	18.23942000
81.09999536	0.00000000	15.84030000
81.29999535	0.00000000	11.15896000
81.49999534	0.00000000	6.05930100
81.69999533	0.00000000	0.46136810
81.89999531	0.00000000	-4.53371000
82.09999530	0.00000000	-7.49261800
82.29999529	0.00000000	-7.49261800
82.49999528	0.00000000	-4.58292300
82.69999527	0.00000000	0.04921259
82.89999525	0.00000000	5.19192900
83.09999524	0.00000000	10.34080000
83.29999523	0.00000000	14.97293000
83.49999522	0.00000000	17.88263000
83.69999521	0.00000000	17.93184000
83.89999520	0.00000000	15.43430000
84.09999518	0.00000000	11.60802000
84.29999517	0.00000000	6.87746000
84.49999516	0.00000000	1.77780500
84.69999515	0.00000000	-2.90354300
84.89999514	0.00000000	-6.21924200
85.09999512	0.00000000	-7.08046200
85.29999511	0.00000000	-4.99507900
85.49999510	0.00000000	-1.21801200
85.69999509	0.00000000	3.51254900
85.89999508	0.00000000	8.60605200
86.09999506	0.00000000	13.29355000
86.29999505	0.00000000	16.65846000
86.49999504	0.00000000	17.88263000
86.69999503	0.00000000	16.19710000
86.89999502	0.00000000	12.02018000
87.09999501	0.00000000	6.92667200
87.29999499	0.00000000	1.77780500
87.49999498	0.00000000	-2.85433100
87.69999497	0.00000000	-5.81323800
87.89999496	0.00000000	-6.26845500
88.09999495	0.00000000	-4.58292300
88.29999493	0.00000000	-1.16879900
88.49999492	0.00000000	3.51254900
88.69999491	0.00000000	8.60605200
88.89999490	0.00000000	13.24434000
89.09999489	0.00000000	16.20325000
89.29999487	0.00000000	16.60925000
89.49999486	0.00000000	14.56693000
89.69999485	0.00000000	10.70374000
89.89999484	0.00000000	6.10851300
90.09999483	0.00000000	1.42716500
90.29999482	0.00000000	-1.53174200
90.49999480	0.00000000	-2.90354300
90.69999479	0.00000000	-2.85433100
90.89999478	0.00000000	-1.17495100
91.09999477	0.00000000	1.82701800
91.29999476	0.00000000	5.60408400
91.49999474	0.00000000	9.36884800
91.69999473	0.00000000	11.50960000
91.89999472	0.00000000	12.02018000
92.09999471	0.00000000	11.60802000
92.29999470	0.00000000	10.29158000
92.49999468	0.00000000	8.19389700
92.69999467	0.00000000	5.65329700
92.89999466	0.00000000	3.56176100
93.09999465	0.00000000	2.23917300
93.29999464	0.00000000	1.77780500
93.49999463	0.00000000	1.77780500
93.69999461	0.00000000	2.23917300
93.89999460	0.00000000	3.51254900
94.09999459	0.00000000	5.14271600
94.29999458	0.00000000	6.46530500
94.49999457	0.00000000	7.28961600
94.69999455	0.00000000	7.73868000
94.89999454	0.00000000	7.33882900
95.09999453	0.00000000	6.97588500
95.29999452	0.00000000	6.92667200
95.49999451	0.00000000	6.87746000
95.69999449	0.00000000	6.46530500
95.89999448	0.00000000	5.65329700
96.09999447	0.00000000	5.19192900
96.29999446	0.00000000	4.73056000
96.49999445	0.00000000	3.92470400
96.69999444	0.00000000	3.51254900
96.89999442	0.00000000	3.51254900
97.09999441	0.00000000	3.92470400
97.29999440	0.00000000	4.77977300
97.49999439	0.00000000	5.60408400
97.69999438	0.00000000	6.46530500
97.89999436	0.00000000	6.92667200
98.09999435	0.00000000	7.33882900
98.29999434	0.00000000	7.73868000
98.49999433	0.00000000	7.28961600
98.69999432	0.00000000	6.51451700
98.89999430	0.00000000	5.60408400
99.09999429	0.00000000	4.77977300
99.29999428	0.00000000	3.92470400
99.49999427	0.00000000	3.51254900
99.69999426	0.00000000	3.51254900
99.89999425	0.00000000	3.92470400
100.09999423	0.00000000	4.82898600
100.29999422	0.00000000	6.05930100
100.49999421	0.00000000	7.73868000
100.69999420	0.00000000	8.55684000
100.89999419	0.00000000	8.60605200
101.09999417	0.00000000	8.14468500
101.29999416	0.00000000	6.92667200
101.49999415	0.00000000	5.65329700
101.69999414	0.00000000	4.77977300
101.89999413	0.00000000	3.92470400
102.09999411	0.00000000	3.51254900
102.29999410	0.00000000	3.51254900
102.49999409	0.00000000	3.92470400
102.69999408	0.00000000	4.77977300
102.89999407	0.00000000	5.65329700
103.09999406	0.00000000	6.92667200
103.29999404	0.00000000	8.09547100
103.49999403	0.00000000	8.19389700
103.69999402	0.00000000	7.79404500
103.89999401	0.00000000	7.73868000
104.09999400	0.00000000	6.87746000
104.29999398	0.00000000	5.65329700
104.49999397	0.00000000	4.77977300
104.69999396	0.00000000	3.92470400
104.89999395	0.00000000	3.56176100
105.09999394	0.00000000	3.92470400
105.29999392	0.00000000	4.77977300
105.49999391	0.00000000	5.60408400
105.69999390	0.00000000	6.46530500
105.89999389	0.00000000	6.87746000
106.09999388	0.00000000	6.92667200
106.29999387	0.00000000	6.92667200
106.49999385	0.00000000	6.87746000
106.69999384	0.00000000	6.41609200
106.89999383	0.00000000	5.19192900
107.09999382	0.00000000	3.92470400
107.29999381	0.00000000	3.10039400
107.49999379	0.00000000	2.65132900
107.69999378	0.00000000	3.14960600
107.89999377	0.00000000	4.33070900
108.09999376	0.00000000	6.05930100
108.29999375	0.00000000	7.28961600
108.49999374	0.00000000	8.19389700
108.69999372	0.00000000	8.60605200
108.89999371	0.00000000	8.60605200
109.09999370	0.00000000	8.14468500
109.29999369	0.00000000	6.87746000
109.49999368	0.00000000	5.24114100
109.69999366	0.00000000	3.92470400
109.89999365	0.00000000	3.05118100
110.09999364	0.00000000	2.23917300
110.29999363	0.00000000	2.28838600
110.49999362	0.00000000	3.56176100
110.69999360	0.00000000	5.60408400
110.89999359	0.00000000	7.73868000
111.09999358	0.00000000	8.96899500
111.29999357	0.00000000	9.46727400
111.49999356	0.00000000	9.01820900
111.69999355	0.00000000	8.19389700
111.89999353	0.00000000	6.82824800
112.09999352	0.00000000	4.77977300
112.29999351	0.00000000	2.69439000
112.49999350	0.00000000	1.82701800
112.69999349	0.00000000	1.77780500
112.89999347	0.00000000	2.23917300
113.09999346	0.00000000	3.61097400
113.29999345	0.00000000	6.01624000
113.49999344	0.00000000	8.55068800
113.69999343	0.00000000	9.43036400
113.89999341	0.00000000	9.92864100
114.09999340	0.00000000	9.83021600
114.29999339	0.00000000	8.55684000
114.49999338	0.00000000	6.46530500
114.69999337	-0.17531990	3.92470400
114.89999336	0.00000000	1.87623000
115.09999334	0.00000000	1.01501000
115.29999333	0.00000000	1.82701800
115.49999332	0.00000000	3.46333600
115.69999331	0.00000000	5.19192900
115.89999330	0.00000000	6.92667200
116.09999328	0.00000000	8.60605200
116.29999327	0.00000000	9.83021600
116.49999326	0.00000000	9.87942800
116.69999325	0.00000000	9.01820900
116.89999324	0.00000000	7.73868000
117.09999322	0.00000000	5.60408400
117.29999321	0.00000000	3.61097400
117.49999320	0.00000000	2.70054100
117.69999319	0.00000000	3.10039400
117.89999318	0.00000000	3.87549200
118.09999317	0.00000000	4.77977300
118.29999315	0.00000000	5.65329700
118.49999314	0.00000000	6.92667200
118.69999313	0.00000000	8.14468500
118.89999312	0.00000000	8.55684000
119.09999311	0.00000000	8.14468500
119.29999309	0.00000000	6.92667200
119.49999308	0.00000000	5.65329700
119.69999307	0.00000000	4.77977300
119.89999306	0.00000000	3.92470400
120.09999305	0.00000000	3.56176100
120.29999303	0.00000000	3.92470400
120.49999302	0.00000000	4.73056000
120.69999301	0.00000000	5.19192900
120.89999300	0.00000000	5.65329700
121.09999299	0.00000000	6.46530500
121.29999298	0.00000000	6.87746000
121.49999296	0.00000000	6.87746000
121.69999295	0.00000000	6.51451700
121.89999294	0.00000000	6.06545300
122.09999293	0.00000000	6.05314900
122.29999292	0.00000000	5.55487200
122.49999290	0.00000000	4.82898600
122.69999289	0.00000000	4.37992100
122.89999288	0.00000000	4.82898600
123.09999287	0.00000000	5.60408400
123.29999286	0.00000000	6.46530500
123.49999284	0.00000000	6.87746000
123.69999283	0.00000000	6.92667200
123.89999282	0.00000000	6.87746000
124.09999281	0.00000000	6.46530500
124.29999280	0.00000000	5.65329700
124.49999279	0.00000000	5.24114100
124.69999277	0.00000000	5.19192900
124.89999276	0.00000000	5.19192900
125.09999275	0.00000000	5.19192900
125.29999274	0.00000000	5.19192900
125.49999273	0.00000000	5.24114100
125.69999271	0.00000000	5.65329700
125.89999270	0.00000000	6.46530500
126.09999269	0.00000000	6.87746000
126.29999268	0.00000000	6.92667200
126.49999267	0.00000000	6.87746000
126.69999265	0.00000000	6.46530500
126.89999264	0.00000000	5.60408400
127.09999263	0.00000000	4.77977300
127.29999262	0.00000000	3.92470400
127.49999261	0.00000000	3.51254900
127.69999260	0.00000000	3.51254900
127.89999258	0.00000000	3.97391700
128.09999257	0.00000000	5.24114100
128.29999256	0.00000000	6.87746000
128.49999255	0.00000000	8.14468500
128.69999254	0.00000000	8.55684000
128.89999252	0.00000000	8.19389700
129.09999251	0.00000000	7.33882900
129.29999250	0.00000000	6.46530500
129.49999249	0.00000000	5.19192900
129.69999248	0.00000000	3.97391700
129.89999246	0.00000000	3.51254900
130.09999245	0.00000000	3.51254900
130.29999244	0.00000000	3.92470400
130.49999243	0.00000000	4.77977300
130.69999242	0.00000000	5.60408400
130.89999241	0.00000000	6.51451700
131.09999239	0.00000000	7.28961600
131.29999238	0.00000000	7.73868000
131.49999237	0.00000000	7.28961600
131.69999236	0.00000000	6.51451700
131.89999235	0.00000000	5.65329700
132.09999233	0.00000000	5.24114100
132.29999232	0.00000000	5.19192900
132.49999231	0.00000000	5.19192900
132.69999230	0.00000000	5.19192900
132.89999229	0.00000000	5.24114100
133.09999227	0.00000000	5.65329700
133.29999226	0.00000000	6.46530500
133.49999225	0.00000000	6.82824800
133.69999224	0.00000000	6.46530500
133.89999223	0.00000000	5.60408400
134.09999222	0.00000000	4.82898600
134.29999220	0.00000000	4.37992100
134.49999219	0.00000000	4.77977300
134.69999218	0.00000000	5.14271600
134.89999217	0.00000000	5.29035400
135.09999216	0.00000000	6.10851300
135.29999214	0.00000000	7.73868000
135.49999213	0.00000000	8.55684000
135.69999212	0.00000000	8.65526600
135.89999211	0.00000000	8.60605200
136.09999210	0.00000000	8.14468500
136.29999208	0.00000000	6.82824800
136.49999207	0.00000000	4.77977300
136.69999206	0.00000000	2.79281500
136.89999205	0.00000000	2.69439000
137.09999204	0.00000000	3.86318900
137.29999203	0.00000000	4.28149600
137.49999201	0.00000000	4.82898600
137.69999200	0.00000000	5.60408400
137.89999199	0.00000000	6.46530500
138.09999198	0.00000000	6.87746000
138.29999197	0.00000000	6.92667200
138.49999195	0.00000000	6.87746000
138.69999194	0.00000000	6.46530500
138.89999193	0.00000000	5.60408400
139.09999192	0.00000000	4.77977300
139.29999191	0.00000000	3.92470400
139.49999189	0.00000000	3.51254900
139.69999188	0.00000000	3.46333600
139.89999187	0.00000000	3.51254900
140.09999186	0.00000000	3.92470400
140.29999185	0.00000000	4.77977300
140.49999184	0.00000000	5.60408400
140.69999182	0.00000000	6.46530500
140.89999181	0.00000000	6.87746000
141.09999180	0.00000000	6.92667200
141.29999179	0.00000000	6.87746000
141.49999178	0.00000000	6.46530500
141.69999176	0.00000000	5.65329700
141.89999175	0.00000000	5.19192900
142.09999174	0.00000000	4.73056000
142.29999173	0.00000000	3.92470400
142.49999172	0.00000000	3.51254900
142.69999170	0.00000000	3.51254900
142.89999169	0.00000000	3.92470400
143.09999168	0.00000000	4.77977300
143.29999167	0.00000000	5.60408400
143.49999166	0.00000000	6.46530500
143.69999165	0.00000000	6.87746000
143.89999163	0.00000000	6.92667200
144.09999162	0.00000000	6.92667200
144.29999161	0.00000000	6.87746000
144.49999160	0.00000000	6.46530500
144.69999159	0.00000000	5.65329700
144.89999157	0.00000000	5.24114100
145.09999156	0.00000000	5.14271600
145.29999155	0.00000000	4.73056000
145.49999154	0.00000000	3.97391700
145.69999153	0.00000000	3.97391700
145.89999151	0.00000000	4.73056000
146.09999150	0.00000000	5.14271600
146.29999149	0.00000000	5.24114100
146.49999148	0.00000000	5.65329700
146.69999147	0.00000000	6.46530500
146.89999146	0.00000000	6.87746000
147.09999144	0.00000000	6.92667200
147.29999143	0.00000000	6.92667200
147.49999142	0.00000000	6.87746000
147.69999141	0.00000000	6.46530500
147.89999140	0.00000000	5.65329700
148.09999138	0.00000000	5.19192900
148.29999137	0.00000000	4.73056000
148.49999136	0.00000000	3.97391700
148.69999135	0.00000000	3.97391700
148.89999134	0.00000000	4.77977300
149.09999132	0.00000000	5.60408400
149.29999131	0.00000000	6.46530500
149.49999130	0.00000000	6.92667200
149.69999129	0.00000000	7.33882900
149.89999128	0.00000000	7.73868000
150.09999127	0.00000000	7.33882900
150.29999125	0.00000000	6.92667200
150.49999124	0.00000000	6.46530500
150.69999123	0.00000000	5.60408400
150.89999122	0.00000000	4.82898600
151.09999121	0.00000000	4.37992100
151.29999119	0.00000000	4.77977300
151.49999118	0.00000000	5.14271600
151.69999117	0.00000000	5.19192900
151.89999116	0.00000000	5.24114100
152.09999115	0.00000000	5.65329700
152.29999113	0.00000000	6.46530500
152.49999112	0.00000000	6.87746000
152.69999111	0.00000000	6.92667200
152.89999110	0.00000000	6.87746000
153.09999109	0.00000000	6.46530500
153.29999108	0.00000000	5.65329700
153.49999106	0.00000000	5.24114100
153.69999105	0.00000000	5.19192900
153.89999104	0.00000000	5.19192900
154.09999103	0.00000000	5.24114100
154.29999102	0.00000000	5.65329700
154.49999100	0.00000000	6.46530500
154.69999099	0.00000000	6.87746000
154.89999098	0.00000000	6.87746000
155.09999097	0.00000000	6.46530500
155.29999096	0.00000000	5.70251000
155.49999094	0.00000000	5.65329700
155.69999093	0.00000000	6.05314900
155.89999092	0.00000000	6.06545300
156.09999091	0.00000000	6.51451700
156.29999090	0.00000000	6.87746000
156.49999089	0.00000000	6.92667200
156.69999087	0.00000000	6.92667200
156.89999086	0.00000000	6.87746000
157.09999085	0.00000000	6.46530500
157.29999084	0.00000000	5.65329700
157.49999083	0.00000000	5.24114100
157.69999081	0.00000000	5.19192900
157.89999080	0.00000000	5.19192900
158.09999079	0.00000000	5.24114100
158.29999078	0.00000000	5.65329700
158.49999077	0.00000000	6.46530500
158.69999075	0.00000000	6.82824800
158.89999074	0.00000000	6.46530500
159.09999073	0.00000000	5.65329700
159.29999072	0.00000000	5.29035400
159.49999071	0.00000000	5.60408400
159.69999070	0.00000000	6.00393600
159.89999068	0.00000000	5.60408400
160.09999067	0.00000000	5.24114100
160.29999066	0.00000000	5.19192900
160.49999065	0.00000000	5.19192900
160.69999064	0.00000000	5.19192900
160.89999062	0.00000000	5.24114100
161.09999061	0.00000000	5.65329700
161.29999060	0.00000000	6.46530500
161.49999059	0.00000000	6.87746000
161.69999058	0.00000000	6.87746000
161.89999056	0.00000000	6.46530500
162.09999055	0.00000000	5.65329700
162.29999054	0.00000000	5.24114100
162.49999053	0.00000000	5.19192900
162.69999052	0.00000000	5.19192900
162.89999051	0.00000000	5.19192900
163.09999049	0.00000000	5.19192900
163.29999048	0.00000000	5.19192900
163.49999047	0.00000000	5.19192900
163.69999046	0.00000000	5.24114100
163.89999045	0.00000000	5.60408400
164.09999043	0.00000000	6.00393600
164.29999042	0.00000000	5.65329700
164.49999041	0.00000000	5.65329700
164.69999040	0.00000000	6.00393600
164.89999039	0.00000000	5.65329700
165.09999037	0.00000000	5.65329700
165.29999036	0.00000000	6.00393600
165.49999035	0.00000000	5.60408400
165.69999034	0.00000000	5.24114100
165.89999033	0.00000000	5.19192900
166.09999032	0.00000000	5.19192900
166.29999030	0.00000000	5.19192900
166.49999029	0.00000000	5.19192900
166.69999028	0.00000000	5.24114100
166.89999027	0.00000000	5.65329700
167.09999026	0.00000000	6.46530500
167.29999024	0.00000000	6.82824800
167.49999023	0.00000000	6.46530500
167.69999022	0.00000000	5.65329700
167.89999021	0.00000000	5.24114100
168.09999020	0.00000000	5.19192900
168.29999018	0.00000000	5.14271600
168.49999017	0.00000000	4.77977300
168.69999016	0.00000000	4.42913300
168.89999015	0.00000000	5.24114100
169.09999014	0.00000000	6.41609200
169.29999013	0.00000000	6.87746000
169.49999011	0.00000000	6.87746000
169.69999010	0.00000000	6.46530500
169.89999009	0.00000000	5.65329700
170.09999008	0.00000000	5.29035400
170.29999007	0.00000000	5.60408400
170.49999005	0.00000000	6.00393600
170.69999004	0.00000000	5.60408400
170.89999003	0.00000000	5.24114100
171.09999002	0.00000000	5.24114100
171.29999001	0.00000000	5.65329700
171.49998999	0.00000000	6.41609200
171.69998998	0.00000000	6.46530500
171.89998997	0.00000000	6.11466500
172.09998996	0.00000000	6.51451700
172.29998995	0.00000000	6.82824800
172.49998994	0.00000000	6.46530500
172.69998992	0.00000000	5.65329700
172.89998991	0.00000000	5.19192900
173.09998990	0.00000000	4.77977300
173.29998989	0.00000000	4.37992100
173.49998988	0.00000000	4.77977300
173.69998986	0.00000000	5.14271600
173.89998985	0.00000000	5.24114100
174.09998984	0.00000000	5.65329700
174.29998983	0.00000000	6.41609200
174.49998982	0.00000000	6.46530500
174.69998980	0.00000000	6.11466500
174.89998979	0.00000000	6.46530500
175.09998978	0.00000000	6.41609200
175.29998977	0.00000000	5.65329700
175.49998976	0.00000000	5.24114100
175.69998975	0.00000000	5.19192900
175.89998973	0.00000000	5.24114100
176.09998972	0.00000000	5.60408400
176.29998971	0.00000000	6.00393600
176.49998970	0.00000000	5.65329700
176.69998969	0.00000000	5.70251000
176.89998967	0.00000000	6.46530500
177.09998966	0.00000000	6.87746000
177.29998965	0.00000000	6.82824800
177.49998964	0.00000000	6.10851300
177.69998963	0.00000000	5.25344500
177.89998961	0.00000000	5.64714500
178.09998960	0.00000000	5.55487200
178.29998959	0.00000000	5.24114100
178.49998958	0.00000000	5.19192900
178.69998957	0.00000000	5.19192900
178.89998956	0.00000000	5.24114100
179.09998954	0.00000000	5.60408400
179.29998953	0.00000000	6.05314900
179.49998952	0.00000000	6.06545300
179.69998951	0.00000000	6.51451700
179.89998950	0.00000000	6.82824800
180.09998948	0.00000000	6.51451700
180.29998947	0.00000000	6.11466500
180.49998946	0.00000000	6.51451700
180.69998945	0.00000000	6.82824800
180.89998944	0.00000000	6.46530500
181.09998942	0.00000000	5.65329700
181.29998941	0.00000000	5.24114100
181.49998940	0.00000000	5.24114100
181.69998939	0.00000000	5.60408400
181.89998938	0.00000000	6.00393600
182.09998937	0.00000000	5.60408400
182.29998935	0.00000000	5.24114100
182.49998934	0.00000000	5.19192900
182.69998933	0.00000000	5.24114100
182.89998932	0.00000000	5.65329700
183.09998931	0.00000000	6.46530500
183.29998929	0.00000000	6.87746000
183.49998928	0.00000000	6.87746000
183.69998927	0.00000000	6.51451700
183.89998926	0.00000000	6.06545300
184.09998925	0.00000000	6.10236200
184.29998923	0.00000000	6.06545300
184.49998922	0.00000000	6.51451700
184.69998921	0.00000000	6.82824800
184.89998920	0.00000000	6.51451700
185.09998919	0.00000000	6.11466500
185.29998918	0.00000000	6.51451700
185.49998916	0.00000000	6.87746000
185.69998915	0.00000000	6.92667200
185.89998914	0.00000000	6.92667200
186.09998913	0.00000000	6.97588500
186.29998912	0.00000000	7.28961600
186.49998910	0.00000000	7.27731300
186.69998909	0.00000000	6.05930100
186.89998908	0.00000000	5.29035400
187.09998907	0.00000000	5.19192900
187.29998906	0.00000000	5.19192900
187.49998904	0.00000000	5.19192900
187.69998903	0.00000000	5.14271600
187.89998902	0.00000000	4.73056000
188.09998901	0.00000000	3.97391700
188.29998900	0.00000000	3.97391700
188.49998899	0.00000000	4.77977300
188.69998897	0.00000000	5.55487200
188.89998896	0.00000000	6.05314900
189.09998895	0.00000000	6.06545300
189.29998894	0.00000000	6.51451700
189.49998893	0.00000000	6.87746000
189.69998891	0.00000000	6.92667200
189.89998890	0.00000000	6.87746000
190.09998889	0.00000000	6.46530500
190.29998888	0.00000000	5.70251000
190.49998887	0.00000000	5.65329700
190.69998885	0.00000000	6.00393600
190.89998884	0.00000000	5.60408400
191.09998883	0.00000000	5.24114100
191.29998882	0.00000000	5.19192900
191.49998881	0.00000000	5.19192900
191.69998880	0.00000000	5.24114100
191.89998878	0.00000000	5.65329700
192.09998877	0.00000000	6.46530500
192.29998876	0.00000000	6.87746000
192.49998875	0.00000000	6.92667200
192.69998874	0.00000000	6.87746000
192.89998872	0.00000000	6.51451700
193.09998871	0.00000000	6.06545300
193.29998870	0.00000000	6.05314900
193.49998869	0.00000000	5.60408400
193.69998868	0.00000000	5.24114100
193.89998866	0.00000000	5.19192900
194.09998865	0.00000000	5.19192900
194.29998864	0.00000000	5.19192900
194.49998863	0.00000000	5.24114100
194.69998862	0.00000000	5.65329700
194.89998861	0.00000000	6.46530500
195.09998859	0.00000000	6.87746000
195.29998858	0.00000000	6.92667200
195.49998857	0.00000000	6.92667200
195.69998856	0.00000000	6.92667200
195.89998855	0.00000000	6.92667200
196.09998853	0.00000000	6.87746000
