Time	Channel A	Channel B	Channel C
(us)	(V)	(mV)	(mV)

-4.59999956	0.00000000	-72.73621000	-18.90379000
-4.39999957	0.00000000	-72.73621000	-18.94685000
-4.19999958	0.00000000	-72.73621000	-18.94685000
-3.99999959	0.00000000	-72.73621000	-18.94685000
-3.79999960	0.00000000	-72.73621000	-18.94685000
-3.59999962	0.00000000	-72.73621000	-18.94685000
-3.39999963	0.00000000	-72.73621000	-18.94685000
-3.19999964	0.00000000	-72.73621000	-18.94685000
-2.99999965	0.00000000	-72.73621000	-18.94685000
-2.79999966	0.00000000	-72.73621000	-18.94685000
-2.59999968	0.00000000	-72.73621000	-18.94685000
-2.39999969	0.00000000	-72.69316000	-18.94685000
-2.19999970	0.00000000	-72.36097000	-18.94685000
-1.99999971	0.00000000	-71.99188000	-18.94685000
-1.79999972	0.00000000	-72.36097000	-18.94685000
-1.59999973	0.00000000	-72.69316000	-18.94685000
-1.39999975	0.00000000	-72.73621000	-18.94685000
-1.19999976	0.00000000	-72.73621000	-18.94685000
-0.99999977	0.00000000	-72.73621000	-18.94685000
-0.79999978	0.00000000	-72.73621000	-18.94685000
-0.59999979	0.00000000	-72.73621000	-18.94685000
-0.39999981	0.15871060	-72.73621000	-18.94685000
-0.19999982	0.47736220	-72.73621000	-18.94685000
0.00000017	0.79601380	-72.73621000	-18.94685000
0.20000016	0.95533960	-72.73621000	-18.94685000
0.40000015	0.95533960	-72.73621000	-18.94685000
0.60000013	0.47736220	-72.73621000	-18.94685000
0.80000012	-0.15871060	-72.73621000	-18.94685000
1.00000011	-1.27399100	-72.73621000	-18.94685000
1.20000010	-2.22994600	-72.73621000	-18.94685000
1.40000009	-2.70792300	-72.69316000	-18.94685000
1.60000008	-2.54859700	-72.36097000	-18.94685000
1.80000006	-1.75196900	-71.99188000	-18.94685000
2.00000005	0.00000000	-72.36097000	-18.94685000
2.20000004	2.07062000	-72.69316000	-18.94685000
2.40000003	3.98191400	-72.73621000	-18.94685000
2.60000002	5.25652100	-72.73621000	-18.94685000
2.80000000	5.09719500	-72.73621000	-18.98991000
2.99999999	3.66326300	-72.73621000	-19.32210000
3.19999998	0.79601380	-72.73621000	-19.69119000
3.39999997	-2.70792300	-72.73621000	-19.32210000
3.59999996	-5.73449800	-72.73621000	-18.98991000
3.79999994	-7.64579200	-72.73621000	-18.94685000
3.99999993	-7.80511800	-72.73621000	-18.90379000
4.19999992	-5.89382400	-72.73621000	-18.52854000
4.39999991	-2.22994600	-72.73621000	-17.83341000
4.59999990	2.07062000	-72.73621000	-17.83341000
4.79999989	6.21247500	-72.73621000	-18.52854000
4.99999987	8.92039900	-72.73621000	-18.90379000
5.19999986	9.39837600	-72.73621000	-18.94685000
5.39999985	7.48646600	-72.73621000	-18.94685000
5.59999984	3.66326300	-72.73621000	-18.94685000
5.79999983	-0.95533960	-72.73621000	-18.94685000
5.99999981	-5.57517200	-72.73621000	-18.94685000
6.19999980	-8.60174700	-72.73621000	-18.94685000
6.39999979	-9.39837600	-72.73621000	-18.94685000
6.59999978	-7.96444400	-72.73621000	-18.94685000
6.79999977	-4.61921700	-72.73621000	-18.94685000
6.99999975	-0.15871060	-72.69316000	-18.94685000
7.19999974	3.98191400	-72.31791000	-18.94685000
7.39999973	6.69045300	-71.62278000	-18.98991000
7.59999972	7.80511800	-71.62278000	-19.32210000
7.79999971	6.84916400	-72.31791000	-19.69119000
7.99999970	4.30056600	-72.69316000	-19.32210000
8.19999968	0.95533960	-72.73621000	-18.98991000
8.39999967	-2.07062000	-72.73621000	-18.94685000
8.59999966	-4.30056600	-72.73621000	-18.94685000
8.79999965	-5.25652100	-72.69316000	-18.94685000
8.99999964	-4.77854300	-72.31791000	-18.94685000
9.19999962	-3.18590100	-71.62278000	-18.94685000
9.39999961	-1.11466500	-71.62278000	-18.94685000
9.59999960	0.63668800	-72.31791000	-18.94685000
9.79999959	1.91129400	-72.69316000	-18.94685000
9.99999958	2.54859700	-72.69316000	-18.94685000
10.19999956	2.38927200	-72.36097000	-18.94685000
10.39999955	1.59264300	-71.99188000	-18.94685000
10.59999954	0.79601380	-72.36097000	-18.94685000
10.79999953	0.00000000	-72.69316000	-18.94685000
10.99999952	-0.63668800	-72.73621000	-18.94685000
11.19999951	-0.95533960	-72.73621000	-18.94685000
11.39999949	-0.95533960	-72.73621000	-18.94685000
11.59999948	-0.79601380	-72.73621000	-18.94685000
11.79999947	-0.47736220	-72.73621000	-18.94685000
11.99999946	-0.15871060	-72.69316000	-18.94685000
12.19999945	-0.15871060	-72.31791000	-18.94685000
12.39999943	0.00000000	-71.62278000	-18.94685000
12.59999942	0.00000000	-71.62278000	-18.94685000
12.79999941	0.00000000	-72.26870000	-18.94685000
12.99999940	0.00000000	-72.31791000	-18.94685000
13.19999939	0.00000000	-71.99188000	-18.94685000
13.39999937	0.00000000	-72.36097000	-18.94685000
13.59999936	0.00000000	-72.69316000	-18.94685000
13.79999935	0.00000000	-72.73621000	-18.94685000
13.99999934	-0.15871060	-72.69316000	-18.94685000
14.19999933	-0.15871060	-72.36097000	-18.94685000
14.39999932	-0.15871060	-71.99188000	-18.94685000
14.59999930	-0.15871060	-72.36097000	-18.94685000
14.79999929	0.00000000	-72.69316000	-18.94685000
14.99999928	0.00000000	-72.73621000	-18.94685000
15.19999927	0.00000000	-72.73621000	-18.94685000
15.39999926	0.00000000	-72.73621000	-18.94685000
15.59999924	0.00000000	-72.73621000	-18.94685000
15.79999923	0.00000000	-72.73621000	-18.94685000
15.99999922	0.00000000	-72.73621000	-18.94685000
16.19999921	0.00000000	-72.69316000	-18.94685000
16.39999920	0.00000000	-72.31791000	-18.94685000
16.59999919	-0.15871060	-71.57356000	-18.94685000
16.79999917	-0.15871060	-71.19833000	-18.94685000
16.99999916	0.00000000	-71.11221000	-18.94685000
17.19999915	0.00000000	-70.73695000	-18.94685000
17.39999914	0.00000000	-69.99261000	-18.94685000
17.59999913	0.00000000	-69.66658000	-18.94685000
17.79999911	0.00000000	-70.04182000	-18.94685000
17.99999910	0.00000000	-71.19833000	-18.94685000
18.19999909	0.00000000	-72.73621000	-18.94685000
18.39999908	0.00000000	-74.31717000	-18.94685000
18.59999907	0.00000000	-75.85506000	-18.94685000
18.79999905	-0.15871060	-76.96850000	-18.94685000
18.99999904	0.00000000	-76.96850000	-18.94685000
19.19999903	0.00000000	-75.80585000	-18.94685000
19.39999902	0.00000000	-73.80659000	-18.94685000
19.59999901	0.00000000	-70.64468000	-18.94685000
19.79999900	0.00000000	-66.45546000	-18.94685000
19.99999898	0.00000000	-62.63533000	-18.94685000
20.19999897	0.00000000	-60.67913000	-18.94685000
20.39999896	0.00000000	-60.72834000	-18.94685000
20.59999895	0.00000000	-63.14591000	-18.94685000
20.79999894	0.00000000	-68.59006000	-18.94685000
20.99999892	0.00000000	-75.94118000	-18.94685000
21.19999891	0.00000000	-83.66756000	-18.94685000
21.39999890	0.00000000	-90.13287000	-18.94685000
21.59999889	0.00000000	-92.78419000	-18.94685000
21.79999888	0.00000000	-90.41584000	-18.94685000
21.99999886	0.00000000	-83.43380000	-18.94685000
22.19999885	0.00000000	-72.55782000	-18.94685000
22.39999884	0.00000000	-60.21776000	-18.94685000
22.59999883	0.00000000	-49.00959000	-18.94685000
22.79999882	0.00000000	-41.75073000	-18.90379000
22.99999881	0.00000000	-40.67421000	-18.52854000
23.19999879	0.00000000	-46.95497000	-17.78420000
23.39999878	0.00000000	-60.11934000	-17.40895000
23.59999877	0.00000000	-77.52214000	-17.36589000
23.79999876	0.00000000	-95.25098000	-17.36589000
23.99999875	0.00000000	-109.07360000	-17.36589000
24.19999873	0.00000000	-114.80070000	-17.40895000
24.39999872	0.00000000	-110.51920000	-17.83341000
24.59999871	0.00000000	-96.97342000	-18.98991000
24.79999870	0.00000000	-76.83316000	-20.52780000
24.99999869	0.00000000	-54.44759000	-22.05955000
25.19999867	0.00000000	-34.76870000	-23.21604000
25.39999866	0.00000000	-22.89616000	-23.54823000
25.59999865	0.00000000	-22.10876000	-22.75467000
25.79999864	0.00000000	-32.94783000	-20.39247000
25.99999863	0.00000000	-52.63287000	-16.94759000
26.19999862	0.00000000	-77.01156000	-13.04749000
26.39999860	0.00000000	-100.55980000	-9.60875900
26.59999859	0.00000000	-117.91340000	-7.33267600
26.79999858	0.00000000	-124.84620000	-7.37573800
26.99999857	0.00000000	-119.45130000	-10.11319000
27.19999856	0.00000000	-103.26030000	-15.18209000
27.39999854	0.00000000	-80.08734000	-22.15182000
27.59999853	0.00000000	-55.37647000	-29.49065000
27.79999852	0.00000000	-34.90403000	-35.62377000
27.99999851	0.00000000	-23.27141000	-39.01944000
28.19999850	0.00000000	-22.81004000	-37.77067000
28.39999848	0.00000000	-32.81250000	-31.63140000
28.59999847	0.00000000	-50.59055000	-21.92421000
28.79999846	0.00000000	-72.22563000	-10.67913000
28.99999845	0.00000000	-92.74113000	0.46751960
29.19999844	0.00000000	-107.86790000	8.50147600
29.39999843	0.00000000	-114.88680000	10.78986000
29.59999841	0.00000000	-112.56770000	6.92667200
29.79999840	0.00000000	-101.76550000	-2.81742100
29.99999839	0.00000000	-84.83022000	-16.71383000
30.19999838	0.00000000	-66.31397000	-32.18504000
30.39999837	0.00000000	-50.76894000	-45.62008000
30.59999835	0.00000000	-40.63115000	-53.74631000
30.79999834	0.00000000	-37.46924000	-54.45374000
30.99999833	0.00000000	-41.32628000	-47.47785000
31.19999832	0.00000000	-50.96579000	-33.58760000
31.39999831	0.00000000	-64.49925000	-16.25246000
31.59999829	0.00000000	-78.41412000	0.42445860
31.79999828	0.00000000	-90.04675000	13.57037000
31.99999827	0.00000000	-97.06570000	20.44783000
32.19999826	0.00000000	-98.27756000	18.91609000
32.39999825	0.00000000	-94.41436000	9.30118100
32.59999824	0.00000000	-85.90058000	-5.75787400
32.79999822	0.00000000	-74.73548000	-23.17298000
32.99999821	0.00000000	-63.89025000	-39.43774000
33.19999820	0.00000000	-55.37647000	-51.42716000
33.39999819	0.00000000	-51.10113000	-56.81594000
33.59999818	0.00000000	-51.83932000	-54.07849000
33.79999816	0.00000000	-56.82209000	-43.71309000
33.99999815	0.00000000	-64.91756000	-28.28494000
34.19999814	0.00000000	-73.76353000	-11.65108000
34.39999813	0.00000000	-81.11466000	3.07578700
34.59999812	0.00000000	-85.39001000	13.10900000
34.79999810	0.00000000	-85.80831000	16.17864000
34.99999809	0.00000000	-82.78174000	11.57726000
35.19999808	0.00000000	-77.38681000	0.42445860
35.39999807	0.00000000	-71.19833000	-14.21014000
35.59999806	0.00000000	-65.42815000	-28.89395000
35.79999805	0.00000000	-61.61417000	-40.45890000
35.99999803	0.00000000	-61.18971000	-46.31520000
36.19999802	0.00000000	-63.79798000	-45.52780000
36.39999801	0.00000000	-68.07948000	-38.64419000
36.59999800	0.00000000	-73.06840000	-27.07923000
36.79999799	0.00000000	-77.66363000	-14.43159000
36.99999797	0.00000000	-79.99508000	-3.66018700
37.19999796	0.00000000	-80.04429000	2.10383800
37.39999795	0.00000000	-78.08808000	1.45177200
37.59999794	0.00000000	-74.22490000	-4.26304100
37.79999793	0.00000000	-69.61736000	-13.13976000
37.99999791	0.00000000	-65.37893000	-23.12992000
38.19999790	0.00000000	-62.68454000	-31.49606000
38.39999789	0.00000000	-62.30930000	-35.34695000
38.59999788	0.00000000	-64.17323000	-33.45226000
38.79999787	0.00000000	-67.66117000	-26.98080000
38.99999786	0.00000000	-71.53051000	-17.78420000
39.19999784	0.00000000	-75.43060000	-8.99975300
39.39999783	0.00000000	-78.50639000	-3.23572800
39.59999782	0.00000000	-80.08734000	-2.07923200
39.79999781	0.00000000	-80.08734000	-5.93626900
39.99999780	0.00000000	-78.50639000	-13.60113000
40.19999778	0.00000000	-75.38755000	-23.21604000
40.39999777	0.00000000	-71.15526000	-31.95743000
40.59999776	0.00000000	-66.91682000	-36.97096000
40.79999775	0.00000000	-63.75492000	-36.56496000
40.99999774	0.00000000	-61.79872000	-31.25615000
41.19999772	0.00000000	-61.10359000	-22.38558000
41.39999771	0.00000000	-62.63533000	-12.85679000
41.59999770	0.00000000	-66.08021000	-5.05659400
41.79999769	0.00000000	-69.94955000	-0.82431100
41.99999768	0.00000000	-73.89886000	-0.45521650
42.19999767	0.00000000	-77.34374000	-4.73056000
42.39999765	0.00000000	-79.66904000	-12.72146000
42.59999764	0.00000000	-80.04429000	-21.54897000
42.79999763	0.00000000	-78.54945000	-28.89395000
42.99999762	0.00000000	-75.85506000	-33.16314000
43.19999761	0.00000000	-72.77928000	-33.58144000
43.39999759	0.00000000	-70.04182000	-30.51796000
43.59999758	0.00000000	-68.07948000	-24.75394000
43.79999757	0.00000000	-66.87376000	-17.87647000
43.99999756	0.00000000	-66.49852000	-12.11245000
44.19999755	0.00000000	-66.82455000	-8.95669300
44.39999753	0.00000000	-67.61810000	-8.48917200
44.59999752	0.00000000	-68.36859000	-10.02707000
44.79999751	0.00000000	-69.15600000	-13.09670000
44.99999750	0.00000000	-69.53124000	-16.94759000
45.19999749	0.00000000	-69.66658000	-20.43553000
45.39999748	0.00000000	-70.46014000	-23.12992000
45.59999746	0.00000000	-72.40403000	-24.29257000
45.79999745	0.00000000	-74.73548000	-23.59129000
45.99999744	0.00000000	-77.43602000	-22.05955000
46.19999743	0.00000000	-79.71210000	-20.10950000
46.39999742	0.00000000	-80.46259000	-17.78420000
46.59999740	0.00000000	-79.61983000	-15.87721000
46.79999739	0.00000000	-76.45792000	-14.67150000
46.99999738	0.00000000	-71.10605000	-14.30241000
47.19999737	0.00000000	-65.29281000	-14.67150000
47.39999736	0.00000000	-60.26082000	-15.87721000
47.59999734	0.00000000	-56.82209000	-17.78420000
47.79999733	0.00000000	-56.53912000	-20.10950000
47.99999732	0.00000000	-59.94094000	-22.01649000
48.19999731	0.00000000	-66.16634000	-23.17298000
48.39999730	0.00000000	-73.52977000	-23.17298000
48.59999729	0.00000000	-81.29305000	-22.01649000
48.79999727	0.00000000	-87.34621000	-20.06029000
48.99999726	0.00000000	-89.67150000	-17.32283000
49.19999725	0.00000000	-87.34621000	-14.29626000
49.39999724	0.00000000	-81.15772000	-12.02018000
49.59999723	0.00000000	-72.26870000	-11.64493000
49.79999721	0.00000000	-62.68454000	-13.13976000
49.99999720	0.00000000	-55.37647000	-15.83415000
50.19999719	0.00000000	-52.25763000	-18.94685000
50.39999718	0.00000000	-53.79552000	-22.05955000
50.59999717	0.00000000	-59.56569000	-24.75394000
50.79999715	0.00000000	-68.07948000	-26.28568000
50.99999714	0.00000000	-77.30068000	-26.24262000
51.19999713	0.00000000	-84.97169000	-24.29257000
51.39999712	0.00000000	-88.41658000	-20.43553000
51.59999711	0.00000000	-86.97095000	-15.87721000
51.79999710	0.00000000	-81.57603000	-11.97711000
51.99999708	0.00000000	-73.89886000	-9.69488100
52.19999707	0.00000000	-65.80339000	-9.28272600
52.39999706	0.00000000	-59.65797000	-11.22662000
52.59999705	0.00000000	-56.91437000	-14.62844000
52.79999704	0.00000000	-58.07701000	-18.52854000
52.99999702	0.00000000	-62.68454000	-22.01649000
53.19999701	0.00000000	-69.61736000	-24.71087000
53.39999700	0.00000000	-76.88238000	-25.82431000
53.59999699	0.00000000	-82.22810000	-24.71087000
53.79999698	0.00000000	-83.80905000	-22.05955000
53.99999696	0.00000000	-81.53297000	-18.98991000
54.19999695	0.00000000	-76.55019000	-16.29552000
54.39999694	0.00000000	-70.03568000	-14.76378000
54.59999693	0.00000000	-64.30856000	-14.72072000
54.79999692	0.00000000	-61.14665000	-15.83415000
54.99999691	0.00000000	-60.72834000	-17.36589000
55.19999689	0.00000000	-62.68454000	-18.94685000
55.39999688	0.00000000	-66.95989000	-20.39247000
55.59999687	0.00000000	-72.68700000	-20.75541000
55.79999686	0.00000000	-78.03887000	-19.22982000
55.99999685	0.00000000	-81.11466000	-17.03986000
56.19999683	0.00000000	-81.15772000	-15.08981000
56.39999682	0.00000000	-78.50639000	-14.34547000
56.59999681	0.00000000	-74.27411000	-14.76378000
56.79999680	0.00000000	-69.61736000	-16.71383000
56.99999679	0.00000000	-65.37893000	-20.15256000
57.19999677	0.00000000	-62.72760000	-23.54823000
57.39999676	0.00000000	-62.68454000	-25.86737000
57.59999675	0.00000000	-64.91756000	-26.24262000
57.79999674	0.00000000	-67.99335000	-24.66166000
57.99999673	0.00000000	-71.15526000	-21.13066000
58.19999672	0.00000000	-74.18184000	-15.78494000
58.39999670	0.00000000	-76.13188000	-10.44537000
58.59999669	0.00000000	-76.13804000	-6.95743000
58.79999668	0.00000000	-75.06151000	-5.84399600
58.99999667	0.00000000	-73.06840000	-7.79404500
59.19999666	0.00000000	-70.82307000	-12.76452000
59.39999664	0.00000000	-68.87917000	-18.94685000
59.59999663	0.00000000	-68.08563000	-25.12918000
59.79999662	0.00000000	-68.03641000	-30.09350000
59.99999661	0.00000000	-68.46087000	-32.00049000
60.19999660	0.00000000	-69.57431000	-30.46875000
60.39999658	0.00000000	-70.68774000	-25.82431000
60.59999657	0.00000000	-71.11221000	-18.89764000
60.79999656	0.00000000	-71.15526000	-11.55881000
60.99999655	0.00000000	-71.11221000	-5.42568800
61.19999654	0.00000000	-70.73695000	-2.03617100
61.39999653	0.00000000	-69.99261000	-3.19266700
61.59999651	0.00000000	-69.61736000	-8.48917200
61.79999650	0.00000000	-69.61736000	-15.83415000
61.99999649	0.00000000	-70.04182000	-23.59129000
62.19999648	0.00000000	-71.15526000	-30.51181000
62.39999647	0.00000000	-72.31791000	-34.69488000
62.59999645	0.00000000	-73.06840000	-34.74409000
62.79999644	0.00000000	-73.48056000	-30.88705000
62.99999643	0.00000000	-73.01919000	-24.33563000
63.19999642	0.00000000	-71.89960000	-16.25246000
63.39999641	0.00000000	-69.99261000	-8.95669300
63.59999639	0.00000000	-68.46087000	-4.26304100
63.79999638	0.00000000	-67.66117000	-2.73129900
63.99999637	0.00000000	-67.29208000	-4.63828700
64.19999636	0.00000000	-68.07948000	-9.65182000
64.39999635	0.00000000	-69.57431000	-16.16018000
64.59999634	0.00000000	-71.15526000	-22.75467000
64.79999632	0.00000000	-72.69316000	-27.82357000
64.99999631	0.00000000	-73.84965000	-30.93627000
65.19999630	0.00000000	-74.22490000	-31.67446000
65.39999629	0.00000000	-73.84965000	-29.35531000
65.59999628	0.00000000	-72.69316000	-24.79700000
65.79999626	0.00000000	-71.15526000	-19.41437000
65.99999625	0.00000000	-69.66658000	-14.76378000
66.19999624	0.00000000	-68.87917000	-11.55881000
66.39999623	0.00000000	-69.24213000	-9.60875900
66.59999622	0.00000000	-69.99261000	-8.82135800
66.79999620	0.00000000	-71.19833000	-9.60875900
66.99999619	0.00000000	-72.69316000	-11.51575000
67.19999618	0.00000000	-73.80659000	-14.25320000
67.39999617	0.00000000	-73.76353000	-17.36589000
67.59999616	0.00000000	-72.22563000	-20.52780000
67.79999615	0.00000000	-69.57431000	-23.59129000
67.99999613	0.00000000	-66.91682000	-25.91043000
68.19999612	0.00000000	-65.33588000	-26.70398000
68.39999611	0.00000000	-64.96062000	-26.32874000
68.59999610	0.00000000	-65.80339000	-24.75394000
68.79999609	0.00000000	-68.50394000	-22.01649000
68.99999607	0.00000000	-72.31791000	-18.47933000
69.19999606	0.00000000	-75.80585000	-14.21014000
69.39999605	0.00000000	-78.50639000	-10.02707000
69.59999604	0.00000000	-79.61983000	-7.28346400
69.79999603	0.00000000	-78.46333000	-6.53912400
69.99999601	0.00000000	-75.34448000	-7.75098400
70.19999600	0.00000000	-70.68774000	-11.60187000
70.39999599	0.00000000	-65.29281000	-16.94759000
70.59999598	0.00000000	-60.72834000	-22.01033000
70.79999597	0.00000000	-58.40305000	-26.28568000
70.99999596	0.00000000	-59.14739000	-28.93701000
71.19999594	0.00000000	-62.26008000	-28.98007000
71.39999593	0.00000000	-67.33513000	-26.70398000
71.59999592	0.00000000	-73.84965000	-23.17298000
71.79999591	0.00000000	-79.61983000	-18.52854000
71.99999590	0.00000000	-83.11392000	-13.55807000
72.19999588	0.00000000	-83.90133000	-10.11319000
72.39999587	0.00000000	-81.57603000	-8.91363100
72.59999586	0.00000000	-76.96850000	-10.02707000
72.79999585	0.00000000	-71.15526000	-12.67224000
72.99999584	0.00000000	-65.37893000	-15.78494000
73.19999582	0.00000000	-61.10359000	-18.89764000
73.39999581	0.00000000	-59.14739000	-21.54897000
73.59999580	0.00000000	-59.52263000	-22.71161000
73.79999579	0.00000000	-62.26008000	-22.01649000
73.99999578	0.00000000	-66.87376000	-20.52780000
74.19999577	0.00000000	-72.26870000	-18.98991000
74.39999575	0.00000000	-76.88238000	-17.87647000
74.59999574	0.00000000	-79.61983000	-17.83341000
74.79999573	0.00000000	-80.04429000	-18.57160000
74.99999572	0.00000000	-78.50639000	-19.32210000
75.19999571	0.00000000	-75.43060000	-20.10950000
75.39999569	0.00000000	-71.62278000	-20.39247000
75.59999568	0.00000000	-68.50394000	-19.64198000
75.79999567	0.00000000	-66.49852000	-17.69808000
75.99999566	0.00000000	-65.33588000	-15.40969000
76.19999565	0.00000000	-65.33588000	-13.09055000
76.39999563	0.00000000	-66.49852000	-11.60187000
76.59999562	0.00000000	-68.36859000	-11.60187000
76.79999561	0.00000000	-70.26943000	-13.18282000
76.99999560	0.00000000	-71.06299000	-16.29552000
77.19999559	0.00000000	-71.15526000	-20.57087000
77.39999558	0.00000000	-71.15526000	-25.12918000
77.59999556	0.00000000	-71.15526000	-28.56176000
77.79999555	0.00000000	-71.19833000	-29.31225000
77.99999554	0.00000000	-71.57356000	-27.40526000
78.19999553	0.00000000	-72.36097000	-23.17298000
78.39999552	0.00000000	-73.06840000	-17.78420000
78.59999550	0.00000000	-73.43134000	-12.72146000
78.79999549	0.00000000	-72.64394000	-8.48917200
78.99999548	0.00000000	-71.15526000	-6.21924200
79.19999547	0.00000000	-69.57431000	-6.95743000
79.39999546	0.00000000	-67.99335000	-10.02707000
79.59999544	0.00000000	-66.45546000	-14.62844000
79.79999543	0.00000000	-65.33588000	-19.69119000
79.99999542	0.00000000	-65.37893000	-23.92347000
80.19999541	0.00000000	-66.87376000	-27.07308000
80.39999540	0.00000000	-69.24213000	-28.19882000
80.59999539	0.00000000	-71.90575000	-27.44832000
80.79999537	0.00000000	-74.63705000	-24.75394000
80.99999536	0.00000000	-76.13804000	-20.90305000
81.19999535	0.00000000	-76.55019000	-17.03986000
81.39999534	0.00000000	-75.34448000	-13.51501000
81.59999533	0.00000000	-72.69316000	-11.18356000
81.79999531	0.00000000	-69.61736000	-9.98400600
81.99999530	0.00000000	-66.91682000	-10.02707000
82.19999529	0.00000000	-65.37893000	-11.55881000
82.39999528	0.00000000	-65.33588000	-14.21014000
82.59999527	0.00000000	-66.45546000	-16.94759000
82.79999525	0.00000000	-68.03641000	-19.36516000
82.99999524	0.00000000	-69.94955000	-22.05955000
83.19999523	0.00000000	-71.85040000	-24.37869000
83.39999522	0.00000000	-72.64394000	-25.54749000
83.59999521	0.00000000	-72.73621000	-25.91043000
83.79999520	0.00000000	-72.69316000	-24.71087000
83.99999518	0.00000000	-72.26870000	-22.01649000
84.19999517	0.00000000	-71.15526000	-18.52854000
84.39999516	0.00000000	-70.04182000	-14.67150000
84.59999515	0.00000000	-69.61736000	-11.55881000
84.79999514	0.00000000	-69.57431000	-9.60875900
84.99999512	0.00000000	-69.57431000	-8.86441900
85.19999511	0.00000000	-69.57431000	-10.07013000
85.39999510	0.00000000	-69.53124000	-13.13976000
85.59999509	0.00000000	-69.15600000	-17.40895000
85.79999508	0.00000000	-68.41166000	-22.01033000
85.99999506	0.00000000	-68.08563000	-25.86737000
86.19999505	0.00000000	-68.46087000	-27.77436000
86.39999504	0.00000000	-69.61736000	-27.44832000
86.59999503	0.00000000	-71.11221000	-25.12918000
86.79999502	0.00000000	-72.31791000	-21.64124000
86.99999501	0.00000000	-73.11147000	-17.32283000
87.19999499	0.00000000	-73.84965000	-12.72146000
87.39999498	0.00000000	-73.80659000	-8.95669300
87.59999497	0.00000000	-72.69316000	-7.83710600
87.79999496	0.00000000	-71.15526000	-10.07013000
87.99999495	0.00000000	-69.57431000	-14.25320000
88.19999493	0.00000000	-68.03641000	-18.90379000
88.39999492	0.00000000	-66.91682000	-23.17298000
88.59999491	0.00000000	-66.91682000	-26.24262000
88.79999490	0.00000000	-68.03641000	-27.39911000
88.99999489	0.00000000	-69.57431000	-26.19955000
89.19999487	0.00000000	-71.11221000	-22.75467000
89.39999486	0.00000000	-72.26870000	-17.74114000
89.59999485	0.00000000	-72.69316000	-12.80758000
89.79999484	0.00000000	-72.69316000	-9.33193800
89.99999483	0.00000000	-72.26870000	-8.53838500
90.19999482	0.00000000	-71.15526000	-10.07013000
90.39999480	0.00000000	-70.04182000	-13.55807000
90.59999479	0.00000000	-69.57431000	-18.52854000
90.79999478	0.00000000	-69.15600000	-23.12992000
90.99999477	0.00000000	-68.46087000	-26.24262000
91.19999476	0.00000000	-68.46087000	-27.35605000
91.39999474	0.00000000	-69.15600000	-25.82431000
91.59999473	0.00000000	-69.53124000	-21.96727000
91.79999472	0.00000000	-69.57431000	-16.99065000
91.99999471	0.00000000	-69.57431000	-12.02018000
92.19999470	0.00000000	-69.57431000	-8.95669300
92.39999468	0.00000000	-69.57431000	-8.53838500
92.59999467	0.00000000	-69.61736000	-10.44537000
92.79999466	0.00000000	-70.04182000	-14.30241000
92.99999465	0.00000000	-71.15526000	-18.90379000
93.19999464	0.00000000	-72.26870000	-23.12992000
93.39999463	0.00000000	-72.69316000	-25.82431000
93.59999461	0.00000000	-72.69316000	-26.19955000
93.79999460	0.00000000	-72.26870000	-24.29257000
93.99999459	0.00000000	-71.06299000	-20.43553000
94.19999458	0.00000000	-69.15600000	-15.87721000
94.39999457	0.00000000	-66.87376000	-12.02018000
94.59999455	0.00000000	-65.33588000	-10.11319000
94.79999454	0.00000000	-64.91756000	-10.48843000
94.99999453	0.00000000	-65.33588000	-13.13976000
95.19999452	0.00000000	-66.91682000	-16.99065000
95.39999451	0.00000000	-69.57431000	-20.81078000
95.59999449	0.00000000	-72.31791000	-23.91732000
95.79999448	0.00000000	-74.64935000	-25.03691000
95.99999447	0.00000000	-76.55019000	-24.33563000
96.19999446	0.00000000	-76.92544000	-21.96727000
96.39999445	0.00000000	-75.76279000	-18.57160000
96.59999444	0.00000000	-73.43134000	-15.13902000
96.79999442	0.00000000	-69.94955000	-13.18282000
96.99999441	0.00000000	-66.45546000	-12.76452000
97.19999440	0.00000000	-63.37967000	-13.50886000
97.39999439	0.00000000	-61.47884000	-15.45891000
97.59999438	0.00000000	-61.84178000	-17.74114000
97.79999436	0.00000000	-63.75492000	-20.06029000
97.99999435	0.00000000	-66.91682000	-21.54897000
98.19999434	0.00000000	-71.10605000	-21.59203000
98.39999433	0.00000000	-74.96924000	-20.52780000
98.59999432	0.00000000	-77.30068000	-19.36516000
98.79999430	0.00000000	-78.13115000	-18.57160000
98.99999429	0.00000000	-77.34374000	-17.78420000
99.19999428	0.00000000	-75.38755000	-17.40895000
99.39999427	0.00000000	-72.26870000	-17.36589000
99.59999426	0.00000000	-68.45472000	-17.36589000
99.79999425	0.00000000	-65.33588000	-17.32283000
99.99999423	0.00000000	-63.37967000	-16.94759000
100.19999422	0.00000000	-62.59227000	-16.16018000
100.39999421	0.00000000	-63.37967000	-15.45891000
100.59999420	0.00000000	-65.29281000	-15.04675000
100.79999419	0.00000000	-68.03641000	-15.45891000
100.99999417	0.00000000	-71.11221000	-16.25246000
101.19999416	0.00000000	-73.84965000	-17.83341000
101.39999415	0.00000000	-75.76279000	-20.10950000
101.59999414	0.00000000	-76.55019000	-22.01649000
101.79999413	0.00000000	-75.80585000	-23.12992000
101.99999411	0.00000000	-74.27411000	-22.71161000
102.19999410	0.00000000	-72.26870000	-20.43553000
102.39999409	0.00000000	-69.57431000	-17.41511000
102.59999408	0.00000000	-66.91682000	-14.67150000
102.79999407	0.00000000	-65.33588000	-12.72146000
102.99999406	0.00000000	-64.91756000	-11.55881000
103.19999404	0.00000000	-65.33588000	-11.60187000
103.39999403	0.00000000	-66.87376000	-13.13976000
103.59999402	0.00000000	-69.15600000	-15.87721000
103.79999401	0.00000000	-71.11221000	-19.32210000
103.99999400	0.00000000	-72.69316000	-22.71161000
104.19999398	0.00000000	-73.80659000	-24.29257000
104.39999397	0.00000000	-73.80659000	-23.96653000
104.59999396	0.00000000	-72.73621000	-22.80389000
104.79999395	0.00000000	-71.57356000	-20.43553000
104.99999394	0.00000000	-70.73695000	-17.41511000
105.19999392	0.00000000	-69.53124000	-14.72072000
105.39999391	0.00000000	-68.07948000	-13.13976000
105.59999390	0.00000000	-67.29208000	-12.76452000
105.79999389	0.00000000	-67.66117000	-13.55807000
105.99999388	0.00000000	-68.41166000	-15.83415000
106.19999387	0.00000000	-69.57431000	-18.47933000
106.39999385	0.00000000	-70.73695000	-20.43553000
106.59999384	0.00000000	-71.48744000	-21.59203000
106.79999383	0.00000000	-71.85040000	-21.59203000
106.99999382	0.00000000	-71.11221000	-20.47859000
107.19999381	0.00000000	-69.99261000	-18.94685000
107.39999379	0.00000000	-69.19906000	-17.36589000
107.59999378	0.00000000	-68.41166000	-15.83415000
107.79999377	0.00000000	-68.08563000	-14.72072000
107.99999376	0.00000000	-68.41166000	-14.72072000
108.19999375	0.00000000	-69.19906000	-15.87721000
108.39999374	0.00000000	-69.99261000	-17.74114000
108.59999372	0.00000000	-71.15526000	-19.64198000
108.79999371	0.00000000	-72.22563000	-20.43553000
108.99999370	0.00000000	-72.22563000	-20.48474000
109.19999369	0.00000000	-71.15526000	-20.06029000
109.39999368	0.00000000	-69.99261000	-18.90379000
109.59999366	0.00000000	-69.19906000	-17.36589000
109.79999365	0.00000000	-68.36859000	-15.83415000
109.99999364	0.00000000	-67.66117000	-14.67150000
110.19999363	0.00000000	-67.24901000	-14.30241000
110.39999362	0.00000000	-67.66117000	-14.67150000
110.59999360	0.00000000	-68.41166000	-15.83415000
110.79999359	0.00000000	-69.57431000	-17.36589000
110.99999358	0.00000000	-70.68774000	-18.90379000
111.19999357	0.00000000	-71.11221000	-20.06029000
111.39999356	0.00000000	-71.15526000	-20.48474000
111.59999355	0.00000000	-71.11221000	-20.48474000
111.79999353	0.00000000	-70.73695000	-20.06029000
111.99999352	0.00000000	-69.99261000	-18.94685000
112.19999351	0.00000000	-69.57431000	-17.78420000
112.39999350	0.00000000	-69.15600000	-16.99065000
112.59999349	0.00000000	-68.46087000	-16.20325000
112.79999347	0.00000000	-68.46087000	-15.82800000
112.99999346	0.00000000	-69.15600000	-15.82800000
113.19999345	0.00000000	-69.53124000	-16.20325000
113.39999344	0.00000000	-69.57431000	-16.94759000
113.59999343	0.00000000	-69.57431000	-17.32283000
113.79999341	0.00000000	-69.57431000	-17.36589000
113.99999340	0.00000000	-69.57431000	-17.40895000
114.19999339	0.00000000	-69.57431000	-17.78420000
114.39999338	0.00000000	-69.57431000	-18.57160000
114.59999337	0.00000000	-69.57431000	-19.27903000
114.79999336	0.00000000	-69.57431000	-19.73425000
114.99999334	0.00000000	-69.57431000	-19.69734000
115.19999333	0.00000000	-69.57431000	-19.73425000
115.39999332	0.00000000	-69.57431000	-19.27903000
115.59999331	0.00000000	-69.57431000	-18.57160000
115.79999330	0.00000000	-69.57431000	-17.74114000
115.99999328	0.00000000	-69.57431000	-16.99065000
116.19999327	0.00000000	-69.61736000	-16.20325000
116.39999326	0.00000000	-69.94955000	-15.82800000
116.59999325	0.00000000	-70.36171000	-15.82800000
116.79999324	0.00000000	-70.32480000	-16.20325000
116.99999322	0.00000000	-70.36171000	-16.99065000
117.19999321	0.00000000	-69.94955000	-17.74114000
117.39999320	0.00000000	-69.57431000	-18.52854000
117.59999319	0.00000000	-69.15600000	-18.94685000
117.79999318	0.00000000	-68.41166000	-19.32210000
117.99999317	0.00000000	-68.03641000	-19.69119000
118.19999315	0.00000000	-67.99335000	-19.32210000
118.39999314	0.00000000	-68.03641000	-18.94685000
118.59999313	0.00000000	-68.46087000	-18.47933000
118.79999312	0.00000000	-69.57431000	-17.36589000
118.99999311	0.00000000	-70.73695000	-16.25246000
119.19999309	0.00000000	-71.48744000	-15.82800000
119.39999308	0.00000000	-71.89960000	-15.78494000
119.59999307	0.00000000	-71.48744000	-15.78494000
119.79999306	0.00000000	-70.73695000	-15.82800000
119.99999305	0.00000000	-69.53124000	-16.20325000
120.19999303	0.00000000	-68.03641000	-16.99065000
120.39999302	0.00000000	-66.87376000	-17.74114000
120.59999301	0.00000000	-66.44931000	-18.52854000
120.79999300	0.00000000	-66.44931000	-18.90379000
120.99999299	0.00000000	-66.82455000	-18.94685000
121.19999298	0.00000000	-67.66117000	-18.94685000
121.39999296	0.00000000	-68.78691000	-18.90379000
121.59999295	0.00000000	-70.36171000	-18.52854000
121.79999294	0.00000000	-71.48744000	-17.78420000
121.99999293	0.00000000	-72.26870000	-17.40895000
122.19999292	0.00000000	-72.26870000	-17.32283000
122.39999290	0.00000000	-71.53051000	-16.94759000
122.59999289	0.00000000	-70.73695000	-16.20325000
122.79999288	0.00000000	-69.57431000	-15.82800000
122.99999287	0.00000000	-68.41166000	-15.82800000
123.19999286	0.00000000	-67.61810000	-16.20325000
123.39999284	0.00000000	-66.82455000	-16.94759000
123.59999283	0.00000000	-66.49852000	-17.36589000
123.79999282	0.00000000	-66.82455000	-17.78420000
123.99999281	0.00000000	-67.61810000	-18.52854000
124.19999280	0.00000000	-68.36859000	-18.90379000
124.39999279	0.00000000	-69.19906000	-18.94685000
124.59999277	0.00000000	-69.94955000	-18.94685000
124.79999276	0.00000000	-70.73695000	-18.90379000
124.99999275	0.00000000	-71.11221000	-18.52854000
125.19999274	0.00000000	-71.15526000	-17.78420000
125.39999273	0.00000000	-71.11221000	-17.40895000
125.59999271	0.00000000	-70.73695000	-17.32283000
125.79999270	0.00000000	-69.94955000	-16.99065000
125.99999269	0.00000000	-69.19906000	-16.62155000
126.19999268	0.00000000	-68.36859000	-16.99065000
126.39999267	0.00000000	-67.61810000	-17.32283000
126.59999265	0.00000000	-66.87376000	-17.36589000
126.79999264	0.00000000	-66.91682000	-17.40895000
126.99999263	0.00000000	-67.99335000	-17.78420000
127.19999262	0.00000000	-69.15600000	-18.52854000
127.39999261	0.00000000	-69.94955000	-18.90379000
127.59999260	0.00000000	-70.73695000	-18.90379000
127.79999258	0.00000000	-71.11221000	-18.52854000
127.99999257	0.00000000	-71.15526000	-17.78420000
128.19999256	0.00000000	-71.11221000	-17.40895000
128.39999255	0.00000000	-70.68774000	-17.36589000
128.59999254	0.00000000	-69.53124000	-17.36589000
128.79999252	0.00000000	-68.03641000	-17.36589000
128.99999251	0.00000000	-66.91682000	-17.36589000
129.19999250	0.00000000	-66.91682000	-17.36589000
129.39999249	0.00000000	-67.99335000	-17.36589000
129.59999248	0.00000000	-69.15600000	-17.36589000
129.79999246	0.00000000	-69.94955000	-17.36589000
129.99999245	0.00000000	-70.73695000	-17.36589000
130.19999244	0.00000000	-71.11221000	-17.36589000
130.39999243	0.00000000	-71.11221000	-17.36589000
130.59999242	0.00000000	-70.68774000	-17.32283000
130.79999241	0.00000000	-69.57431000	-16.94759000
130.99999239	0.00000000	-68.46087000	-16.25246000
131.19999238	0.00000000	-68.03641000	-16.25246000
131.39999237	0.00000000	-67.99335000	-16.94759000
131.59999236	0.00000000	-67.99335000	-17.36589000
131.79999235	0.00000000	-68.03641000	-17.78420000
131.99999233	0.00000000	-68.41166000	-18.47933000
132.19999232	0.00000000	-69.15600000	-18.47933000
132.39999231	0.00000000	-69.53124000	-17.78420000
132.59999230	0.00000000	-69.57431000	-17.40895000
132.79999229	0.00000000	-69.57431000	-17.36589000
132.99999227	0.00000000	-69.57431000	-17.32283000
133.19999226	0.00000000	-69.57431000	-16.94759000
133.39999225	0.00000000	-69.57431000	-16.20325000
133.59999224	0.00000000	-69.57431000	-15.82800000
133.79999223	0.00000000	-69.57431000	-15.82800000
133.99999222	0.00000000	-69.57431000	-16.20325000
134.19999220	0.00000000	-69.57431000	-16.99065000
134.39999219	0.00000000	-69.57431000	-17.74114000
134.59999218	0.00000000	-69.57431000	-18.52854000
134.79999217	0.00000000	-69.53124000	-18.90379000
134.99999216	0.00000000	-69.15600000	-18.94685000
135.19999214	0.00000000	-68.46087000	-18.94685000
135.39999213	0.00000000	-68.41166000	-18.90379000
135.59999212	0.00000000	-68.78075000	-18.52854000
135.79999211	0.00000000	-68.78691000	-17.74114000
135.99999210	0.00000000	-69.19906000	-16.99065000
136.19999208	0.00000000	-69.57431000	-16.20325000
136.39999207	0.00000000	-69.99261000	-15.82800000
136.59999206	0.00000000	-70.68774000	-15.82800000
136.79999205	0.00000000	-70.68774000	-16.20325000
136.99999204	0.00000000	-69.99261000	-16.94759000
137.19999203	0.00000000	-69.57431000	-17.36589000
137.39999201	0.00000000	-69.15600000	-17.78420000
137.59999200	0.00000000	-68.41166000	-18.52854000
137.79999199	0.00000000	-68.03641000	-18.90379000
137.99999198	0.00000000	-67.99335000	-18.94685000
138.19999197	0.00000000	-68.03641000	-18.94685000
138.39999195	0.00000000	-68.41166000	-18.90379000
138.59999194	0.00000000	-69.19906000	-18.52854000
138.79999193	0.00000000	-69.94955000	-17.78420000
138.99999192	0.00000000	-70.73695000	-17.36589000
139.19999191	0.00000000	-71.06299000	-16.94759000
139.39999189	0.00000000	-70.73695000	-16.20325000
139.59999188	0.00000000	-69.94955000	-15.82800000
139.79999187	0.00000000	-69.19906000	-15.82800000
139.99999186	0.00000000	-68.41166000	-16.20325000
140.19999185	0.00000000	-68.03641000	-16.99065000
140.39999184	0.00000000	-67.99335000	-17.74114000
140.59999182	0.00000000	-68.03641000	-18.52854000
140.79999181	0.00000000	-68.41166000	-18.90379000
140.99999180	0.00000000	-69.15600000	-18.94685000
141.19999179	0.00000000	-69.53124000	-18.90379000
141.39999178	0.00000000	-69.57431000	-18.47933000
141.59999176	0.00000000	-69.57431000	-17.36589000
141.79999175	0.00000000	-69.57431000	-16.25246000
141.99999174	0.00000000	-69.53124000	-15.82800000
142.19999173	0.00000000	-69.15600000	-15.78494000
142.39999172	0.00000000	-68.41166000	-15.78494000
142.59999170	0.00000000	-68.03641000	-15.82800000
142.79999169	0.00000000	-68.03641000	-16.20325000
142.99999168	0.00000000	-68.41166000	-16.99065000
143.19999167	0.00000000	-69.15600000	-17.74114000
143.39999166	0.00000000	-69.53124000	-18.52854000
143.59999165	0.00000000	-69.57431000	-18.90379000
143.79999163	0.00000000	-69.57431000	-18.94685000
143.99999162	0.00000000	-69.57431000	-18.90379000
144.19999161	0.00000000	-69.53124000	-18.47933000
144.39999160	0.00000000	-69.15600000	-17.36589000
144.59999159	0.00000000	-68.41166000	-16.25246000
144.79999157	0.00000000	-68.03641000	-15.82800000
144.99999156	0.00000000	-67.99335000	-15.78494000
145.19999155	0.00000000	-68.03641000	-15.82800000
145.39999154	0.00000000	-68.41166000	-16.20325000
145.59999153	0.00000000	-69.15600000	-16.94759000
145.79999151	0.00000000	-69.53124000	-17.32283000
145.99999150	0.00000000	-69.57431000	-17.40895000
146.19999149	0.00000000	-69.57431000	-17.78420000
146.39999148	0.00000000	-69.57431000	-18.52854000
146.59999147	0.00000000	-69.57431000	-18.90379000
146.79999146	0.00000000	-69.53124000	-18.90379000
146.99999144	0.00000000	-69.15600000	-18.52854000
147.19999143	0.00000000	-68.41166000	-17.74114000
147.39999142	0.00000000	-68.03641000	-16.99065000
147.59999141	0.00000000	-68.03641000	-16.20325000
147.79999140	0.00000000	-68.41166000	-15.87721000
147.99999138	0.00000000	-69.15600000	-16.16018000
148.19999137	0.00000000	-69.53124000	-16.57234000
148.39999136	0.00000000	-69.57431000	-16.57849000
148.59999135	0.00000000	-69.57431000	-17.03371000
148.79999134	0.00000000	-69.57431000	-17.74114000
148.99999132	0.00000000	-69.53124000	-18.52854000
149.19999131	0.00000000	-69.15600000	-18.90379000
149.39999130	0.00000000	-68.41166000	-18.90379000
149.59999129	0.00000000	-68.03641000	-18.52854000
149.79999128	0.00000000	-67.99335000	-17.78420000
149.99999127	0.00000000	-67.99335000	-17.40895000
150.19999125	0.00000000	-67.99335000	-17.36589000
150.39999124	0.00000000	-68.03641000	-17.36589000
150.59999123	0.00000000	-68.41166000	-17.36589000
150.79999122	0.00000000	-69.15600000	-17.36589000
150.99999121	0.00000000	-69.53124000	-17.36589000
151.19999119	0.00000000	-69.57431000	-17.36589000
151.39999118	0.00000000	-69.57431000	-17.36589000
151.59999117	0.00000000	-69.57431000	-17.36589000
151.79999116	0.00000000	-69.53124000	-17.36589000
151.99999115	0.00000000	-69.19906000	-17.36589000
152.19999113	0.00000000	-68.78691000	-17.36589000
152.39999112	0.00000000	-68.78075000	-17.36589000
152.59999111	0.00000000	-68.36859000	-17.36589000
152.79999110	0.00000000	-68.03641000	-17.36589000
152.99999109	0.00000000	-67.99335000	-17.36589000
153.19999108	0.00000000	-67.99335000	-17.36589000
153.39999106	0.00000000	-68.03641000	-17.36589000
153.59999105	0.00000000	-68.41166000	-17.36589000
153.79999104	0.00000000	-69.15600000	-17.32283000
153.99999103	0.00000000	-69.53124000	-16.99065000
154.19999102	0.00000000	-69.57431000	-16.62155000
154.39999100	0.00000000	-69.57431000	-16.99065000
154.59999099	0.00000000	-69.57431000	-17.32283000
154.79999098	0.00000000	-69.53124000	-17.36589000
154.99999097	0.00000000	-69.15600000	-17.36589000
155.19999096	0.00000000	-68.36859000	-17.36589000
155.39999094	0.00000000	-67.66117000	-17.36589000
155.59999093	0.00000000	-67.24901000	-17.36589000
155.79999092	0.00000000	-67.61810000	-17.36589000
155.99999091	0.00000000	-67.95029000	-17.36589000
156.19999090	0.00000000	-68.03641000	-17.36589000
156.39999089	0.00000000	-68.41166000	-17.32283000
156.59999087	0.00000000	-69.15600000	-16.94759000
156.79999086	0.00000000	-69.53124000	-16.20325000
156.99999085	0.00000000	-69.57431000	-15.82800000
157.19999084	0.00000000	-69.57431000	-15.82800000
157.39999083	0.00000000	-69.57431000	-16.20325000
157.59999081	0.00000000	-69.53124000	-16.94759000
157.79999080	0.00000000	-69.15600000	-17.32283000
157.99999079	0.00000000	-68.41166000	-17.36589000
158.19999078	0.00000000	-68.03641000	-17.36589000
158.39999077	0.00000000	-67.99335000	-17.36589000
158.59999075	0.00000000	-67.99335000	-17.36589000
158.79999074	0.00000000	-67.99335000	-17.36589000
158.99999073	0.00000000	-67.99335000	-17.36589000
159.19999072	0.00000000	-67.99335000	-17.32283000
159.39999071	0.00000000	-68.03641000	-16.94759000
159.59999070	0.00000000	-68.41166000	-16.20325000
159.79999068	0.00000000	-69.15600000	-15.82800000
159.99999067	0.00000000	-69.53124000	-15.78494000
160.19999066	0.00000000	-69.57431000	-15.82800000
160.39999065	0.00000000	-69.53124000	-16.20325000
160.59999064	0.00000000	-69.15600000	-16.94759000
160.79999062	0.00000000	-68.41166000	-17.32283000
160.99999061	0.00000000	-68.03641000	-17.36589000
161.19999060	0.00000000	-67.99335000	-17.36589000
161.39999059	0.00000000	-67.99335000	-17.36589000
161.59999058	0.00000000	-67.99335000	-17.36589000
161.79999056	0.00000000	-67.99335000	-17.36589000
161.99999055	0.00000000	-67.99335000	-17.40895000
162.19999054	0.00000000	-67.99335000	-17.69808000
162.39999053	0.00000000	-68.03641000	-17.68578000
162.59999052	0.00000000	-68.36859000	-16.62155000
162.79999051	0.00000000	-68.78075000	-16.29552000
162.99999049	0.00000000	-68.78691000	-16.94759000
163.19999048	0.00000000	-69.19906000	-17.32283000
163.39999047	0.00000000	-69.53124000	-17.36589000
163.59999046	0.00000000	-69.57431000	-17.36589000
163.79999045	0.00000000	-69.57431000	-17.36589000
163.99999043	0.00000000	-69.53124000	-17.36589000
164.19999042	0.00000000	-69.15600000	-17.36589000
164.39999041	0.00000000	-68.41166000	-17.36589000
164.59999040	0.00000000	-68.03641000	-17.36589000
164.79999039	0.00000000	-67.99335000	-17.36589000
164.99999037	0.00000000	-67.99335000	-17.36589000
165.19999036	0.00000000	-67.99335000	-17.36589000
165.39999035	0.00000000	-67.99335000	-17.36589000
165.59999034	0.00000000	-67.99335000	-17.36589000
165.79999033	0.00000000	-67.99335000	-17.32283000
165.99999032	0.00000000	-68.03641000	-16.94759000
166.19999030	0.00000000	-68.41166000	-16.25246000
166.39999029	0.00000000	-69.15600000	-16.25246000
166.59999028	0.00000000	-69.53124000	-16.94759000
166.79999027	0.00000000	-69.53124000	-17.32283000
166.99999026	0.00000000	-69.15600000	-17.36589000
167.19999024	0.00000000	-68.41166000	-17.36589000
167.39999023	0.00000000	-68.03641000	-17.36589000
167.59999022	0.00000000	-67.99335000	-17.36589000
167.79999021	0.00000000	-67.99335000	-17.36589000
167.99999020	0.00000000	-67.99335000	-17.32283000
168.19999018	0.00000000	-67.99335000	-16.94759000
168.39999017	0.00000000	-67.99335000	-16.25246000
168.59999016	0.00000000	-67.99335000	-16.25246000
168.79999015	0.00000000	-67.99335000	-16.89837000
168.99999014	0.00000000	-67.99335000	-16.94759000
169.19999013	0.00000000	-67.99335000	-16.62155000
169.39999011	0.00000000	-68.03641000	-16.99065000
169.59999010	0.00000000	-68.36859000	-17.32283000
169.79999009	0.00000000	-68.73769000	-17.36589000
169.99999008	0.00000000	-68.36859000	-17.36589000
170.19999007	0.00000000	-68.03641000	-17.36589000
170.39999005	0.00000000	-67.99335000	-17.36589000
170.59999004	0.00000000	-67.99335000	-17.36589000
170.79999003	0.00000000	-67.99335000	-17.36589000
170.99999002	0.00000000	-67.99335000	-17.36589000
171.19999001	0.00000000	-67.99335000	-17.36589000
171.39998999	0.00000000	-67.99335000	-17.36589000
171.59998998	0.00000000	-67.99335000	-17.36589000
171.79998997	0.00000000	-67.99335000	-17.36589000
171.99998996	0.00000000	-67.99335000	-17.36589000
172.19998995	0.00000000	-67.99335000	-17.36589000
172.39998994	0.00000000	-67.99335000	-17.36589000
172.59998992	0.00000000	-68.03641000	-17.36589000
172.79998991	0.00000000	-68.36859000	-17.36589000
172.99998990	0.00000000	-68.73769000	-17.36589000
173.19998989	0.00000000	-68.36859000	-17.36589000
173.39998988	0.00000000	-68.03641000	-17.36589000
173.59998986	0.00000000	-67.99335000	-17.36589000
173.79998985	0.00000000	-67.99335000	-17.36589000
173.99998984	0.00000000	-67.99335000	-17.36589000
174.19998983	0.00000000	-67.99335000	-17.36589000
174.39998982	0.00000000	-67.99335000	-17.36589000
174.59998980	0.00000000	-67.99335000	-17.36589000
174.79998979	0.00000000	-67.99335000	-17.36589000
174.99998978	0.00000000	-67.99335000	-17.36589000
175.19998977	0.00000000	-67.99335000	-17.36589000
175.39998976	0.00000000	-67.99335000	-17.36589000
175.59998975	0.00000000	-67.99335000	-17.36589000
175.79998973	0.00000000	-67.99335000	-17.36589000
175.99998972	0.00000000	-67.99335000	-17.36589000
176.19998971	0.00000000	-68.03641000	-17.36589000
176.39998970	0.00000000	-68.36859000	-17.36589000
176.59998969	0.00000000	-68.73769000	-17.36589000
176.79998967	0.00000000	-68.36859000	-17.36589000
176.99998966	0.00000000	-68.03641000	-17.36589000
177.19998965	0.00000000	-67.95029000	-17.36589000
177.39998964	0.00000000	-67.61810000	-17.36589000
177.59998963	0.00000000	-67.24901000	-17.36589000
177.79998961	0.00000000	-67.61810000	-17.36589000
177.99998960	0.00000000	-67.95029000	-17.36589000
178.19998959	0.00000000	-67.99335000	-17.36589000
178.39998958	0.00000000	-67.99335000	-17.36589000
178.59998957	0.00000000	-67.99335000	-17.36589000
178.79998956	0.00000000	-67.99335000	-17.32283000
178.99998954	0.00000000	-67.99335000	-16.94759000
179.19998953	0.00000000	-67.99335000	-16.25246000
179.39998952	0.00000000	-67.99335000	-16.25246000
179.59998951	0.00000000	-67.99335000	-16.94759000
179.79998950	0.00000000	-67.95029000	-17.32283000
179.99998948	0.00000000	-67.61810000	-17.36589000
180.19998947	0.00000000	-67.24901000	-17.36589000
180.39998946	0.00000000	-67.61810000	-17.36589000
180.59998945	0.00000000	-67.95029000	-17.36589000
180.79998944	0.00000000	-67.99335000	-17.36589000
180.99998942	0.00000000	-67.99335000	-17.36589000
181.19998941	0.00000000	-67.99335000	-17.36589000
181.39998940	0.00000000	-67.99335000	-17.32283000
181.59998939	0.00000000	-67.99335000	-16.94759000
181.79998938	0.00000000	-67.99335000	-16.20325000
181.99998937	0.00000000	-67.99335000	-15.87721000
182.19998935	0.00000000	-67.99335000	-16.20325000
182.39998934	0.00000000	-67.99335000	-16.94759000
182.59998933	0.00000000	-67.99335000	-17.32283000
182.79998932	0.00000000	-67.99335000	-17.36589000
182.99998931	0.00000000	-67.99335000	-17.36589000
183.19998929	0.00000000	-67.99335000	-17.36589000
183.39998928	0.00000000	-67.99335000	-17.36589000
183.59998927	0.00000000	-67.99335000	-17.36589000
183.79998926	0.00000000	-67.99335000	-17.36589000
183.99998925	0.00000000	-67.99335000	-17.36589000
184.19998923	0.00000000	-67.99335000	-17.32283000
184.39998922	0.00000000	-67.99335000	-16.94759000
184.59998921	0.00000000	-67.99335000	-16.25246000
184.79998920	0.00000000	-67.99335000	-16.25246000
184.99998919	0.00000000	-67.99335000	-16.94759000
185.19998918	0.00000000	-67.99335000	-17.32283000
185.39998916	0.00000000	-67.99335000	-17.36589000
185.59998915	0.00000000	-67.99335000	-17.36589000
185.79998914	0.00000000	-67.99335000	-17.36589000
185.99998913	0.00000000	-67.99335000	-17.36589000
186.19998912	0.00000000	-67.99335000	-17.36589000
186.39998910	0.00000000	-67.99335000	-17.36589000
186.59998909	0.00000000	-67.99335000	-17.36589000
186.79998908	0.00000000	-67.99335000	-17.32283000
186.99998907	0.00000000	-67.99335000	-16.94759000
187.19998906	0.00000000	-67.99335000	-16.20325000
187.39998904	0.00000000	-67.99335000	-15.82800000
187.59998903	0.00000000	-67.99335000	-15.78494000
187.79998902	0.00000000	-67.99335000	-15.82800000
187.99998901	0.00000000	-67.99335000	-16.20325000
188.19998900	0.00000000	-67.99335000	-16.94759000
188.39998899	0.00000000	-67.99335000	-17.32283000
188.59998897	0.00000000	-67.99335000	-17.36589000
188.79998896	0.00000000	-67.99335000	-17.36589000
188.99998895	0.00000000	-67.99335000	-17.36589000
189.19998894	0.00000000	-67.99335000	-17.36589000
189.39998893	0.00000000	-67.99335000	-17.36589000
189.59998891	0.00000000	-67.99335000	-17.36589000
189.79998890	0.00000000	-67.99335000	-17.36589000
189.99998889	0.00000000	-67.99335000	-17.32283000
190.19998888	0.00000000	-67.99335000	-16.94759000
190.39998887	0.00000000	-67.99335000	-16.20325000
190.59998885	0.00000000	-67.99335000	-15.82800000
190.79998884	0.00000000	-67.99335000	-15.82800000
190.99998883	0.00000000	-67.99335000	-16.16018000
191.19998882	0.00000000	-67.99335000	-16.57234000
191.39998881	0.00000000	-67.99335000	-16.57849000
191.59998880	0.00000000	-67.99335000	-16.99065000
191.79998878	0.00000000	-67.99335000	-17.32283000
191.99998877	0.00000000	-67.99335000	-17.36589000
192.19998876	0.00000000	-67.99335000	-17.36589000
192.39998875	0.00000000	-67.99335000	-17.36589000
192.59998874	0.00000000	-67.99335000	-17.36589000
192.79998872	0.00000000	-67.99335000	-17.36589000
192.99998871	0.00000000	-67.99335000	-17.36589000
193.19998870	0.00000000	-67.99335000	-17.36589000
193.39998869	0.00000000	-67.99335000	-17.36589000
193.59998868	0.00000000	-67.99335000	-17.36589000
193.79998866	0.00000000	-67.99335000	-17.36589000
193.99998865	0.00000000	-67.99335000	-17.32283000
194.19998864	0.00000000	-67.99335000	-16.94759000
194.39998863	0.00000000	-67.99335000	-16.25246000
194.59998862	0.00000000	-67.99335000	-16.25246000
194.79998861	0.00000000	-67.99335000	-16.94759000
194.99998859	0.00000000	-67.99335000	-17.27362000
195.19998858	0.00000000	-67.99335000	-16.99065000
195.39998857	0.00000000	-67.99335000	-16.62155000
195.59998856	0.00000000	-67.99335000	-16.99065000
195.79998855	0.00000000	-67.99335000	-17.32283000
195.99998853	0.00000000	-67.99335000	-17.36589000
