Time	Channel A	Channel B	Channel C
(us)	(V)	(mV)	(mV)

-4.53333289	0.00000000	-1.58095500	6.31151500
-4.33333290	0.00000000	-1.58095500	6.31151500
-4.13333291	0.00000000	-1.58095500	6.31151500
-3.93333293	0.00000000	-1.58095500	6.31151500
-3.73333294	0.00000000	-1.58095500	6.31151500
-3.53333295	0.00000000	-1.58095500	6.31151500
-3.33333296	0.00000000	-1.58095500	6.31151500
-3.13333297	0.00000000	-1.58095500	6.31151500
-2.93333299	0.00000000	-1.58095500	6.31151500
-2.73333300	0.00000000	-1.58095500	6.31151500
-2.53333301	0.00000000	-1.58095500	6.31151500
-2.33333302	0.00000000	-1.58095500	6.31151500
-2.13333303	0.00000000	-1.58095500	6.31151500
-1.93333304	0.00000000	-1.58095500	6.35457700
-1.73333306	0.00000000	-1.58095500	6.68676100
-1.53333307	0.00000000	-1.58095500	7.05585600
-1.33333308	0.00000000	-1.53789400	6.68676100
-1.13333309	0.00000000	-1.20570900	6.35457700
-0.93333310	0.00000000	-0.83661410	6.31151500
-0.73333312	0.00000000	-1.20570900	6.31151500
-0.53333313	0.00000000	-1.53789400	6.26845500
-0.33333314	0.15871060	-1.53789400	5.93626900
-0.13333315	0.47736220	-1.20570900	5.57332700
0.06666684	0.95533960	-0.83661410	5.93626900
0.26666682	0.95533960	-1.20570900	6.26845500
0.46666681	0.95533960	-1.53789400	6.31151500
0.66666680	0.47736220	-1.58095500	6.31151500
0.86666679	-0.31803640	-1.58095500	6.31151500
1.06666678	-1.27399100	-1.58095500	6.31151500
1.26666677	-2.22994600	-1.58095500	6.31151500
1.46666675	-2.70792300	-1.58095500	6.35457700
1.66666674	-2.54859700	-1.58095500	6.72982200
1.86666673	-1.59264300	-1.58095500	7.42495000
2.06666672	0.15871060	-1.58095500	7.42495000
2.26666671	2.22994600	-1.58095500	6.72982200
2.46666669	4.14124000	-1.58095500	6.35457700
2.66666668	5.25652100	-1.58095500	6.31151500
2.86666667	5.09719500	-1.58095500	6.31151500
3.06666666	3.50393700	-1.58095500	6.31151500
3.26666665	0.63668800	-1.58095500	6.31151500
3.46666663	-2.86724900	-1.58095500	6.31151500
3.66666662	-5.89382400	-1.58095500	6.31151500
3.86666661	-7.80511800	-1.53789400	6.35457700
4.06666660	-7.80511800	-1.20570900	6.72982200
4.26666659	-5.73449800	-0.79355310	7.47416300
4.46666658	-2.07062000	-0.78740150	7.84940900
4.66666656	2.38927200	-0.41830710	7.84940900
4.86666655	6.37180100	-0.46751960	7.47416300
5.06666654	8.92039900	-1.16264800	6.72982200
5.26666653	9.23905000	-1.53789400	6.35457700
5.46666652	7.32714100	-1.58095500	6.31151500
5.66666650	3.34522600	-1.58095500	6.31151500
5.86666649	-1.27399100	-1.53789400	6.31151500
6.06666648	-5.73449800	-1.20570900	6.35457700
6.26666647	-8.76107300	-0.79355310	6.72982200
6.46666646	-9.39837600	-0.78740150	7.47416300
6.66666644	-7.80511800	-0.37524600	7.84940900
6.86666643	-4.30056600	-0.04306102	7.89247000
7.06666642	0.00000000	0.00000000	7.84940900
7.26666641	4.14124000	-0.04306102	7.47416300
7.46666640	6.84916400	-0.37524600	6.72982200
7.66666639	7.80511800	-0.78740150	6.35457700
7.86666637	6.69045300	-0.79355310	6.31151500
8.06666636	4.14124000	-1.20570900	6.31151500
8.26666635	0.79601380	-1.53789400	6.31151500
8.46666634	-2.22994600	-1.53789400	6.35457700
8.66666633	-4.45989200	-1.20570900	6.68676100
8.86666631	-5.25652100	-0.79355310	7.05585600
9.06666630	-4.61921700	-0.78740150	6.68676100
9.26666629	-3.02657500	-0.41830710	6.35457700
9.46666628	-1.11466500	-0.46751960	6.31151500
9.66666627	0.79601380	-1.16264800	6.31151500
9.86666625	1.91129400	-1.53789400	6.31151500
10.06666624	2.54859700	-1.58095500	6.31151500
10.26666623	2.38927200	-1.53789400	6.35457700
10.46666622	1.59264300	-1.20570900	6.68676100
10.66666621	0.79601380	-0.83661410	7.05585600
10.86666620	0.00000000	-1.20570900	6.68676100
11.06666618	-0.63668800	-1.53789400	6.35457700
11.26666617	-0.95533960	-1.58095500	6.31151500
11.46666616	-0.95533960	-1.58095500	6.31151500
11.66666615	-0.79601380	-1.58095500	6.31151500
11.86666614	-0.47736220	-1.58095500	6.31151500
12.06666612	-0.15871060	-1.53789400	6.31151500
12.26666611	-0.15871060	-1.20570900	6.31151500
12.46666610	-0.15871060	-0.79355310	6.31151500
12.66666609	0.00000000	-0.83046260	6.31151500
12.86666608	0.00000000	-0.79355310	6.31151500
13.06666606	0.00000000	-1.16264800	6.31151500
13.26666605	0.00000000	-1.16264800	6.31151500
13.46666604	0.00000000	-0.83661410	6.31151500
13.66666603	0.00000000	-1.16264800	6.31151500
13.86666602	0.00000000	-1.16264800	6.31151500
14.06666601	0.00000000	-0.83661410	6.31151500
14.26666599	-0.15871060	-1.20570900	6.31151500
14.46666598	-0.15871060	-1.53789400	6.31151500
14.66666597	-0.15871060	-1.58095500	6.31151500
14.86666596	0.00000000	-1.58095500	6.31151500
15.06666595	0.00000000	-1.58095500	6.31151500
15.26666593	0.00000000	-1.53789400	6.35457700
15.46666592	0.00000000	-1.20570900	6.72982200
15.66666591	0.00000000	-0.83661410	7.42495000
15.86666590	0.00000000	-1.20570900	7.42495000
16.06666589	0.00000000	-1.53789400	6.77903500
16.26666587	-0.15871060	-1.58095500	6.72982200
16.46666586	-0.15871060	-1.53789400	7.05585600
16.66666585	-0.15871060	-1.16264800	6.68676100
16.86666584	0.00000000	-0.41830710	6.35457700
17.06666583	0.00000000	-0.04306102	6.31151500
17.26666582	0.00000000	0.04306102	6.31151500
17.46666580	0.00000000	0.37524600	6.31151500
17.66666579	0.00000000	0.74434050	6.31151500
17.86666578	0.00000000	0.33218500	6.31151500
18.06666577	0.00000000	-0.41830710	6.31151500
18.26666576	0.00000000	-1.62401600	6.31151500
18.46666574	0.00000000	-3.16190900	6.31151500
18.66666573	0.00000000	-4.69980300	6.35457700
18.86666572	0.00000000	-5.85629900	6.72982200
19.06666571	-0.15871060	-6.18848400	7.42495000
19.26666570	0.00000000	-5.39493100	7.47416300
19.46666568	0.00000000	-3.02657500	7.10506800
19.66666567	0.00000000	0.46751960	7.09891700
19.86666566	0.00000000	4.69980300	6.68676100
20.06666565	0.00000000	8.51377900	6.35457700
20.26666564	0.00000000	10.42077000	6.31151500
20.46666563	0.00000000	10.04552000	6.31151500
20.66666561	0.00000000	7.21579700	6.31151500
20.86666560	0.00000000	1.76550200	6.31151500
21.06666559	0.00000000	-5.94857300	6.31151500
21.26666558	0.00000000	-13.63189000	6.31151500
21.46666557	0.00000000	-19.39591000	6.35457700
21.66666555	0.00000000	-21.67815000	6.68676100
21.86666554	0.00000000	-19.26058000	7.05585600
22.06666553	0.00000000	-12.23548000	6.68676100
22.26666552	0.00000000	-0.98425190	6.35457700
22.46666551	0.00000000	12.09400000	6.31151500
22.66666549	0.00000000	23.63435000	6.31151500
22.86666548	0.00000000	30.51796000	6.35457700
23.06666547	0.00000000	30.47490000	6.72982200
23.26666546	0.00000000	23.07455000	7.47416300
23.46666545	0.00000000	9.49187900	7.89247000
23.66666544	0.00000000	-7.90477300	8.31077700
23.86666542	0.00000000	-25.25836000	9.00590400
24.06666541	0.00000000	-38.33661000	9.00590400
24.26666540	0.00000000	-43.68848000	8.26771600
24.46666539	0.00000000	-39.36393000	7.47416300
24.66666538	0.00000000	-25.77510000	6.26845500
24.86666536	0.00000000	-5.30265700	4.73671200
25.06666535	0.00000000	17.44587000	3.19881900
25.26666534	0.00000000	36.71260000	2.08538400
25.46666533	0.00000000	47.92076000	2.08538400
25.66666532	0.00000000	48.25295000	3.24803100
25.86666530	0.00000000	37.40772000	5.24729300
26.06666529	0.00000000	17.31053000	8.40305000
26.26666528	0.00000000	-7.39419200	12.58612000
26.46666527	0.00000000	-30.93627000	16.39395000
26.66666526	0.00000000	-47.92076000	18.30093000
26.86666525	0.00000000	-54.06619000	17.92569000
27.06666523	0.00000000	-47.96383000	15.14518000
27.26666522	0.00000000	-31.36073000	10.07628000
27.46666521	0.00000000	-8.55684000	3.11269700
27.66666520	0.00000000	15.81570000	-4.22613100
27.86666519	0.00000000	36.24508000	-10.35925000
28.06666517	0.00000000	47.87770000	-13.74877000
28.26666516	0.00000000	48.29601000	-12.50000000
28.46666515	0.00000000	37.91830000	-6.32381900
28.66666514	0.00000000	19.40207000	3.70939900
28.86666513	0.00000000	-2.60826800	15.32357000
29.06666511	0.00000000	-23.12377000	26.15034000
29.26666510	0.00000000	-37.82603000	34.19045000
29.46666509	0.00000000	-43.68848000	36.79257000
29.66666508	0.00000000	-39.91757000	32.52337000
29.86666507	0.00000000	-28.37721000	22.11491000
30.06666506	0.00000000	-12.09400000	7.80634800
30.26666504	0.00000000	5.67790300	-7.29576700
30.46666503	0.00000000	21.16757000	-20.39862000
30.66666502	0.00000000	30.89321000	-28.43258000
30.86666501	0.00000000	33.67987000	-28.80782000
31.06666500	0.00000000	29.44759000	-21.46899000
31.26666498	0.00000000	19.39591000	-7.89862200
31.46666497	0.00000000	5.90551100	9.47342500
31.66666496	0.00000000	-8.04626000	26.80241000
31.86666495	0.00000000	-19.30979000	39.95448000
32.06666494	0.00000000	-26.28568000	46.13066000
32.26666492	0.00000000	-27.44217000	44.22367000
32.46666491	0.00000000	-22.51476000	34.51648000
32.66666490	0.00000000	-13.67495000	19.08834000
32.86666489	0.00000000	-3.16190900	0.92888770
33.06666488	0.00000000	7.25885800	-15.66191000
33.26666487	0.00000000	15.39739000	-27.27608000
33.46666485	0.00000000	19.26058000	-31.55143000
33.66666484	0.00000000	18.55930000	-27.73745000
33.86666483	0.00000000	13.53962000	-17.28592000
34.06666482	0.00000000	5.85629900	-2.18380900
34.26666481	0.00000000	-2.65132900	14.76993000
34.46666479	0.00000000	-9.95939900	29.45374000
34.66666478	0.00000000	-14.23474000	38.74877000
34.86666477	0.00000000	-14.65305000	41.11097000
35.06666476	0.00000000	-11.62648000	36.09744000
35.26666475	0.00000000	-6.23154500	25.27067000
35.46666473	0.00000000	-0.04306102	10.62992000
35.66666472	0.00000000	5.72711600	-4.36761800
35.86666471	0.00000000	9.53494100	-15.56963000
36.06666470	0.00000000	9.95939900	-21.05069000
36.26666469	0.00000000	7.30807100	-19.88804000
36.46666468	0.00000000	2.69439000	-12.59227000
36.66666466	0.00000000	-2.69439000	-1.07037400
36.86666465	0.00000000	-7.30807100	11.61417000
37.06666464	0.00000000	-10.00246000	22.02264000
37.26666463	0.00000000	-10.00246000	27.78666000
37.46666462	0.00000000	-7.35113100	27.45448000
37.66666460	0.00000000	-3.11884800	21.32751000
37.86666459	0.00000000	1.53789400	11.79257000
38.06666458	0.00000000	5.77017700	1.39025600
38.26666457	0.00000000	8.46456700	-6.60679100
38.46666456	0.00000000	8.83981200	-10.08243000
38.66666454	0.00000000	6.97588500	-7.81250000
38.86666453	0.00000000	3.49409400	-0.97810030
39.06666452	0.00000000	-0.41830710	7.89247000
39.26666451	0.00000000	-4.69980300	16.67692000
39.46666450	0.00000000	-8.51377900	22.76083000
39.66666449	0.00000000	-10.46998000	23.51132000
39.86666447	0.00000000	-10.46998000	19.00221000
40.06666446	0.00000000	-8.51377900	10.91289000
40.26666445	0.00000000	-4.69980300	1.66707700
40.46666444	0.00000000	-0.46751960	-6.78518600
40.66666443	0.00000000	3.11884800	-12.03863000
40.86666441	0.00000000	6.23154500	-11.66339000
41.06666440	0.00000000	8.51377900	-5.57947800
41.26666439	0.00000000	8.88902600	3.57406500
41.46666438	0.00000000	7.35113100	13.23819000
41.66666437	0.00000000	4.27534400	20.95226000
41.86666435	0.00000000	0.37524600	25.17839000
42.06666434	0.00000000	-3.49409400	24.80315000
42.26666433	0.00000000	-6.97588500	19.83883000
42.46666432	0.00000000	-8.88902600	12.16781000
42.66666431	0.00000000	-8.93208600	3.66633800
42.86666430	0.00000000	-7.39419200	-3.62942900
43.06666428	0.00000000	-4.74286400	-7.85556000
43.26666427	0.00000000	-1.99926200	-7.90477300
43.46666426	0.00000000	0.33218500	-4.14000900
43.66666425	0.00000000	2.32529500	1.62401600
43.86666424	0.00000000	3.44488200	7.80019600
44.06666422	0.00000000	3.90625000	13.18898000
44.26666421	0.00000000	3.49409400	16.30167000
44.46666420	0.00000000	2.78666300	16.76919000
44.66666419	0.00000000	1.99926200	15.23130000
44.86666418	0.00000000	1.62401600	12.16166000
45.06666416	0.00000000	1.53789400	8.31077700
45.26666415	0.00000000	1.11343500	4.82283400
45.46666414	0.00000000	-0.09227362	2.12844500
45.66666413	0.00000000	-2.04847400	0.97194880
45.86666412	0.00000000	-4.74286400	1.71013800
46.06666411	0.00000000	-7.43725300	3.57406500
46.26666409	0.00000000	-9.35039300	5.89320800
46.46666408	0.00000000	-10.09473000	7.84940900
46.66666407	0.00000000	-8.83981200	9.42421200
46.86666406	0.00000000	-5.35187000	10.58686000
47.06666405	0.00000000	0.04306102	10.95595000
47.26666403	0.00000000	5.85629900	10.53765000
47.46666402	0.00000000	10.88829000	9.05511800
47.66666401	0.00000000	14.32702000	7.06200700
47.86666400	0.00000000	14.60999000	5.14271600
48.06666399	0.00000000	11.16511000	2.82972400
48.26666397	0.00000000	4.56446800	1.75319900
48.46666396	0.00000000	-3.53715500	2.08538400
48.66666395	0.00000000	-11.62648000	3.61712600
48.86666394	0.00000000	-17.35359000	5.93626900
49.06666393	0.00000000	-18.93455000	8.31077700
49.26666392	0.00000000	-16.19094000	11.00517000
49.46666390	0.00000000	-9.62721400	13.23819000
49.66666389	0.00000000	-0.37524600	13.61343000
49.86666388	0.00000000	8.83981200	12.11860000
50.06666387	0.00000000	15.81570000	9.38115100
50.26666386	0.00000000	18.89148000	5.93626900
50.46666384	0.00000000	17.35359000	2.46063000
50.66666383	0.00000000	11.54035000	0.13533460
50.86666382	0.00000000	2.69439000	-1.06422200
51.06666381	0.00000000	-6.88361200	-0.97810030
51.26666380	0.00000000	-14.19168000	0.97194880
51.46666379	0.00000000	-17.35359000	4.82898600
51.66666377	0.00000000	-16.19094000	9.38115100
51.86666376	0.00000000	-11.16511000	13.23819000
52.06666375	0.00000000	-3.11884800	15.18824000
52.26666374	0.00000000	5.30265700	15.23130000
52.46666373	0.00000000	11.49114000	13.65650000
52.66666371	0.00000000	14.19168000	10.58686000
52.86666370	0.00000000	12.65379000	6.72982200
53.06666369	0.00000000	7.30807100	3.29109200
53.26666368	0.00000000	0.04306102	0.92888770
53.46666367	0.00000000	-6.88361200	0.17839570
53.66666365	0.00000000	-11.54035000	0.92888770
53.86666364	0.00000000	-13.07210000	3.24803100
54.06666363	0.00000000	-11.11590000	6.26845500
54.26666362	0.00000000	-5.81323800	8.96284400
54.46666361	0.00000000	0.69512790	10.49459000
54.66666360	0.00000000	6.09621000	10.53765000
54.86666358	0.00000000	9.58415200	9.42421200
55.06666357	0.00000000	9.95939900	7.89247000
55.26666356	0.00000000	7.30807100	6.36072800
55.46666355	0.00000000	2.69439000	5.24729300
55.66666354	0.00000000	-2.69439000	5.24729300
55.86666352	0.00000000	-7.30807100	6.40378900
56.06666351	0.00000000	-10.00246000	8.26771600
56.26666350	0.00000000	-10.00246000	10.16855000
56.46666349	0.00000000	-7.35113100	10.86983000
56.66666348	0.00000000	-3.11884800	10.16855000
56.86666346	0.00000000	1.48868100	8.17544300
57.06666345	0.00000000	5.35187000	5.47490100
57.26666344	0.00000000	7.30807100	2.04232300
57.46666343	0.00000000	7.30807100	-0.55979330
57.66666342	0.00000000	5.39493100	-0.97810030
57.86666341	0.00000000	1.95620100	0.59670270
58.06666339	0.00000000	-1.48868100	4.08464600
58.26666338	0.00000000	-4.23228400	9.09817800
58.46666337	0.00000000	-5.77017700	14.07480000
58.66666336	0.00000000	-5.81323800	17.88263000
58.86666335	0.00000000	-4.65059000	19.00221000
59.06666333	0.00000000	-2.74360200	16.67692000
59.26666332	0.00000000	-0.41830710	11.70029000
59.46666331	0.00000000	1.48868100	5.15501900
59.66666330	0.00000000	2.65132900	-1.02116100
59.86666329	0.00000000	2.65132900	-5.62253900
60.06666327	0.00000000	1.58095500	-7.52337600
60.26666326	0.00000000	0.41830710	-5.57947800
60.46666325	0.00000000	-0.37524600	-0.55979330
60.66666324	0.00000000	-1.16264800	6.77903500
60.86666323	0.00000000	-1.48868100	14.76993000
61.06666322	0.00000000	-1.16264800	20.57702000
61.26666320	0.00000000	-0.37524600	22.90231000
61.46666319	0.00000000	0.37524600	21.73966000
61.66666318	0.00000000	1.11343500	16.67692000
61.86666317	0.00000000	1.07037400	9.05511800
62.06666316	0.00000000	0.00000000	0.92888770
62.26666314	0.00000000	-1.16264800	-5.62253900
62.46666313	0.00000000	-1.95620100	-9.47957600
62.66666312	0.00000000	-2.74360200	-9.43036400
62.86666311	0.00000000	-3.06963600	-5.25344500
63.06666310	0.00000000	-2.69439000	1.66707700
63.26666308	0.00000000	-1.53789400	9.38115100
63.46666307	0.00000000	0.00000000	16.39395000
63.66666306	0.00000000	1.53789400	21.32751000
63.86666305	0.00000000	2.69439000	22.89616000
64.06666304	0.00000000	3.06963600	20.21407000
64.26666303	0.00000000	2.65132900	14.90526000
64.46666301	0.00000000	1.16264800	8.26771600
64.66666300	0.00000000	-0.78740150	1.75319900
64.86666299	0.00000000	-2.33144700	-3.29724400
65.06666298	0.00000000	-3.85703700	-5.67175200
65.26666297	0.00000000	-4.18922200	-5.71481200
65.46666295	0.00000000	-3.11884800	-3.71555100
65.66666294	0.00000000	-1.58095500	0.51058070
65.86666293	0.00000000	-0.04306102	5.89320800
66.06666292	0.00000000	1.11343500	10.91289000
66.26666291	0.00000000	1.48868100	14.81299000
66.46666289	0.00000000	1.11343500	16.76919000
66.66666288	0.00000000	-0.04306102	16.85531000
66.86666287	0.00000000	-1.58095500	15.69882000
67.06666286	0.00000000	-3.06963600	13.74262000
67.26666285	0.00000000	-3.81397600	11.00517000
67.46666284	0.00000000	-3.02657500	7.89247000
67.66666282	0.00000000	-1.16264800	4.73671200
67.86666281	0.00000000	1.20570900	1.66707700
68.06666280	0.00000000	3.49409400	-0.64591530
68.26666279	0.00000000	5.39493100	-1.43946800
68.46666278	0.00000000	5.72711600	-1.11343500
68.66666276	0.00000000	4.18922200	0.13533460
68.86666275	0.00000000	1.11343500	2.50369100
69.06666274	0.00000000	-2.74360200	6.40378900
69.26666273	0.00000000	-6.23154500	10.95595000
69.46666272	0.00000000	-8.93208600	14.85605000
69.66666270	0.00000000	-10.00246000	17.18750000
69.86666269	0.00000000	-8.46456700	17.92569000
70.06666268	0.00000000	-4.60752900	16.35089000
70.26666267	0.00000000	0.37524600	12.49385000
70.46666266	0.00000000	5.43799200	7.51722400
70.66666265	0.00000000	9.25812000	2.46063000
70.86666263	0.00000000	11.20817000	-1.39640700
71.06666262	0.00000000	10.42077000	-3.76476400
71.26666261	0.00000000	7.35113100	-4.09079700
71.46666260	0.00000000	2.65132900	-2.14074800
71.66666259	0.00000000	-3.16190900	2.08538400
71.86666257	0.00000000	-8.88902600	7.42495000
72.06666256	0.00000000	-12.74606000	12.03248000
72.26666255	0.00000000	-13.49655000	14.81299000
72.46666254	0.00000000	-11.25123000	15.56348000
72.66666253	0.00000000	-6.60679100	14.48081000
72.86666251	0.00000000	-1.20570900	11.75566000
73.06666250	0.00000000	4.27534400	8.72293300
73.26666249	0.00000000	8.83981200	5.57332700
73.46666248	0.00000000	11.16511000	3.33415300
73.66666247	0.00000000	10.42077000	2.50369100
73.86666246	0.00000000	7.39419200	3.24803100
74.06666244	0.00000000	3.11884800	4.73671200
74.26666243	0.00000000	-1.53789400	6.26845500
74.46666242	0.00000000	-5.77017700	7.38188900
74.66666241	0.00000000	-8.46456700	7.42495000
74.86666240	0.00000000	-8.88902600	6.68676100
75.06666238	0.00000000	-7.39419200	5.89320800
75.26666237	0.00000000	-4.69980300	4.77977300
75.46666236	0.00000000	-1.58095500	4.08464600
75.66666235	0.00000000	1.48868100	4.91510800
75.86666234	0.00000000	3.81397600	7.14812900
76.06666232	0.00000000	4.60752900	10.21161000
76.26666231	0.00000000	4.27534400	12.49385000
76.46666230	0.00000000	3.11884800	13.69956000
76.66666229	0.00000000	1.58095500	13.65650000
76.86666228	0.00000000	0.04306102	12.03248000
77.06666227	0.00000000	-1.11343500	8.54453700
77.26666225	0.00000000	-1.48868100	3.57406500
77.46666224	0.00000000	-1.16264800	-0.97810030
77.66666223	0.00000000	-0.46751960	-3.71555100
77.86666222	0.00000000	-0.46751960	-4.09079700
78.06666221	0.00000000	-1.20570900	-2.14074800
78.26666219	0.00000000	-1.95620100	2.08538400
78.46666218	0.00000000	-2.74360200	7.47416300
78.66666217	0.00000000	-3.06963600	12.49385000
78.86666216	0.00000000	-2.69439000	16.39395000
79.06666215	0.00000000	-1.53789400	18.30093000
79.26666213	0.00000000	0.04306102	17.92569000
79.46666212	0.00000000	1.95620100	15.18824000
79.66666211	0.00000000	3.85703700	10.53765000
79.86666210	0.00000000	4.60752900	4.82898600
80.06666209	0.00000000	4.27534400	-0.18454720
80.26666208	0.00000000	3.06963600	-2.93430100
80.46666206	0.00000000	1.11343500	-3.76476400
80.66666205	0.00000000	-1.58095500	-2.55905500
80.86666204	0.00000000	-4.23228400	0.46751960
81.06666203	0.00000000	-5.77017700	4.36146600
81.26666202	0.00000000	-5.77017700	8.22465500
81.46666200	0.00000000	-4.27534400	11.74951000
81.66666199	0.00000000	-1.95620100	14.07480000
81.86666198	0.00000000	0.37524600	15.27436000
82.06666197	0.00000000	2.69439000	15.23130000
82.26666196	0.00000000	4.23228400	13.74262000
82.46666194	0.00000000	4.60752900	11.38041000
82.66666193	0.00000000	3.85703700	8.67987200
82.86666192	0.00000000	1.95620100	5.53026500
83.06666191	0.00000000	0.04306102	2.82972400
83.26666190	0.00000000	-1.53789400	0.46751960
83.46666189	0.00000000	-2.69439000	-1.02116100
83.66666187	0.00000000	-3.06963600	-1.02116100
83.86666186	0.00000000	-2.74360200	0.51058070
84.06666185	0.00000000	-1.95620100	3.24803100
84.26666184	0.00000000	-1.20570900	6.72982200
84.46666183	0.00000000	-0.41830710	10.58686000
84.66666181	0.00000000	-0.04306102	13.69956000
84.86666180	0.00000000	0.00000000	15.64960000
85.06666179	0.00000000	0.00000000	16.34473000
85.26666178	0.00000000	0.04306102	14.81299000
85.46666177	0.00000000	0.41830710	11.38041000
85.66666175	0.00000000	1.16264800	7.47416300
85.86666174	0.00000000	1.53789400	3.20497000
86.06666173	0.00000000	1.58095500	-0.60285430
86.26666172	0.00000000	1.53789400	-2.50984200
86.46666171	0.00000000	1.11343500	-2.14074800
86.66666170	0.00000000	-0.04306102	0.55364170
86.86666168	0.00000000	-1.53789400	4.77977300
87.06666167	0.00000000	-2.69439000	9.43036400
87.26666166	0.00000000	-3.06963600	13.65650000
87.46666165	0.00000000	-2.74360200	16.35089000
87.66666164	0.00000000	-1.91314000	16.71998000
87.86666162	0.00000000	-0.74434050	14.81299000
88.06666161	0.00000000	1.16264800	10.95595000
88.26666160	0.00000000	2.65132900	6.35457700
88.46666159	0.00000000	3.11884800	2.08538400
88.66666158	0.00000000	3.06963600	-0.97810030
88.86666156	0.00000000	2.32529500	-2.09153500
89.06666155	0.00000000	0.75049200	-0.55979330
89.26666154	0.00000000	-0.75049200	3.24803100
89.46666153	0.00000000	-2.32529500	7.84940900
89.66666152	0.00000000	-3.06963600	12.11860000
89.86666151	0.00000000	-3.11884800	15.18824000
90.06666149	0.00000000	-2.69439000	16.30167000
90.26666148	0.00000000	-1.53789400	14.76993000
90.46666147	0.00000000	-0.04306102	10.95595000
90.66666146	0.00000000	1.11343500	6.35457700
90.86666145	0.00000000	1.53789400	2.08538400
91.06666143	0.00000000	1.58095500	-0.93503930
91.26666142	0.00000000	1.53789400	-1.71628900
91.46666141	0.00000000	1.16264800	0.22760820
91.66666140	0.00000000	0.41830710	3.99237200
91.86666139	0.00000000	0.04306102	8.67987200
92.06666137	0.00000000	0.00000000	12.86909000
92.26666136	0.00000000	0.00000000	15.92642000
92.46666135	0.00000000	0.00000000	16.25861000
92.66666134	0.00000000	-0.04306102	13.65650000
92.86666133	0.00000000	-0.41830710	9.43036400
93.06666132	0.00000000	-1.20570900	4.82898600
93.26666130	0.00000000	-1.95620100	0.97194880
93.46666129	0.00000000	-2.74360200	-0.97810030
93.66666128	0.00000000	-3.06963600	-0.97810030
93.86666127	0.00000000	-2.65132900	0.97194880
94.06666126	0.00000000	-1.11343500	4.82898600
94.26666124	0.00000000	1.16264800	9.38115100
94.46666123	0.00000000	3.06963600	13.18898000
94.66666122	0.00000000	4.27534400	14.76993000
94.86666121	0.00000000	4.65059000	14.03174000
95.06666120	0.00000000	4.27534400	11.70029000
95.26666118	0.00000000	3.06963600	7.84940900
95.46666117	0.00000000	1.11343500	3.70939900
95.66666116	0.00000000	-1.62401600	0.97194880
95.86666115	0.00000000	-4.65059000	0.17839570
96.06666114	0.00000000	-6.93282500	0.92888770
96.26666113	0.00000000	-7.30807100	3.24803100
96.46666111	0.00000000	-5.81323800	6.31151500
96.66666110	0.00000000	-3.06963600	9.38115100
96.86666109	0.00000000	0.41830710	11.70029000
97.06666108	0.00000000	4.27534400	12.45079000
97.26666107	0.00000000	7.35113100	11.74951000
97.46666105	0.00000000	8.88902600	9.79945900
97.66666104	0.00000000	8.51377900	7.51722400
97.86666103	0.00000000	6.18848400	5.19808000
98.06666102	0.00000000	2.69439000	3.70939900
98.26666101	0.00000000	-1.53789400	3.66633800
98.46666099	0.00000000	-5.39493100	4.73671200
98.66666098	0.00000000	-7.72637700	5.89320800
98.86666097	0.00000000	-8.55684000	6.68676100
99.06666096	0.00000000	-7.72637700	7.47416300
99.26666095	0.00000000	-5.43799200	7.84940900
99.46666094	0.00000000	-1.95620100	7.89247000
99.66666092	0.00000000	1.53789400	7.89247000
99.86666091	0.00000000	4.65059000	7.93553100
100.06666090	0.00000000	6.97588500	8.31077700
100.26666089	0.00000000	7.72637700	9.05511800
100.46666088	0.00000000	6.97588500	9.43036400
100.66666086	0.00000000	4.65059000	9.43036400
100.86666085	0.00000000	1.58095500	9.00590400
101.06666084	0.00000000	-1.53789400	7.84940900
101.26666083	0.00000000	-4.23228400	6.31151500
101.46666082	0.00000000	-5.81323800	4.73671200
101.66666080	0.00000000	-6.23154500	3.24803100
101.86666079	0.00000000	-5.81323800	2.50369100
102.06666078	0.00000000	-4.23228400	3.29109200
102.26666077	0.00000000	-1.58095500	5.19808000
102.46666076	0.00000000	1.11343500	7.89247000
102.66666075	0.00000000	3.06963600	10.58686000
102.86666073	0.00000000	4.27534400	12.53691000
103.06666072	0.00000000	4.65059000	13.69956000
103.26666071	0.00000000	4.27534400	13.65650000
103.46666070	0.00000000	3.06963600	12.07554000
103.66666069	0.00000000	1.16264800	9.00590400
103.86666067	0.00000000	-1.16264800	5.19808000
104.06666066	0.00000000	-3.06963600	2.12844500
104.26666065	0.00000000	-4.23228400	0.55364170
104.46666064	0.00000000	-4.23228400	0.55364170
104.66666063	0.00000000	-3.11884800	2.08538400
104.86666061	0.00000000	-1.58095500	4.77977300
105.06666060	0.00000000	0.00000000	7.84940900
105.26666059	0.00000000	1.53789400	10.53765000
105.46666058	0.00000000	2.69439000	12.11860000
105.66666057	0.00000000	3.06963600	12.49385000
105.86666056	0.00000000	2.69439000	11.70029000
106.06666054	0.00000000	1.53789400	9.42421200
106.26666053	0.00000000	0.04306102	6.77903500
106.46666052	0.00000000	-1.11343500	4.82283400
106.66666051	0.00000000	-1.53789400	3.66633800
106.86666050	0.00000000	-1.53789400	3.66633800
107.06666048	0.00000000	-1.11343500	4.77977300
107.26666047	0.00000000	0.00000000	6.31151500
107.46666046	0.00000000	1.11343500	7.89247000
107.66666045	0.00000000	1.53789400	9.38115100
107.86666044	0.00000000	1.53789400	10.16855000
108.06666042	0.00000000	1.16264800	9.75639700
108.26666041	0.00000000	0.37524600	8.63681000
108.46666040	0.00000000	-0.41830710	6.72982200
108.66666039	0.00000000	-1.53789400	5.24729300
108.86666038	0.00000000	-2.27608300	4.77977300
109.06666037	0.00000000	-1.91314000	4.77977300
109.26666035	0.00000000	-1.20570900	5.19808000
109.46666034	0.00000000	-0.37524600	6.36072800
109.66666033	0.00000000	0.41830710	7.89247000
109.86666032	0.00000000	1.58095500	9.42421200
110.06666031	0.00000000	2.65132900	10.53765000
110.26666029	0.00000000	2.69439000	10.53765000
110.46666028	0.00000000	1.95620100	9.42421200
110.66666027	0.00000000	1.16264800	7.89247000
110.86666026	0.00000000	0.00000000	6.36072800
111.06666025	0.00000000	-1.11343500	5.15501900
111.26666023	0.00000000	-1.53789400	4.40452700
111.46666022	0.00000000	-1.58095500	3.99237200
111.66666021	0.00000000	-1.53789400	4.40452700
111.86666020	0.00000000	-1.16264800	5.15501900
112.06666019	0.00000000	-0.37524600	6.31151500
112.26666018	0.00000000	0.37524600	7.42495000
112.46666016	0.00000000	1.16264800	7.89247000
112.66666015	0.00000000	1.48868100	8.26771600
112.86666014	0.00000000	1.16264800	8.63681000
113.06666013	0.00000000	0.41830710	8.26771600
113.26666012	0.00000000	0.04306102	7.89247000
113.46666010	0.00000000	0.00000000	7.51722400
113.66666009	0.00000000	0.00000000	7.10506800
113.86666008	0.00000000	0.00000000	7.09891700
114.06666007	0.00000000	0.00000000	6.68676100
114.26666006	0.00000000	0.00000000	6.35457700
114.46666004	0.00000000	0.00000000	6.31151500
114.66666003	0.00000000	0.00000000	6.31151500
114.86666002	0.00000000	0.00000000	6.31151500
115.06666001	0.00000000	0.00000000	6.31151500
115.26666000	0.00000000	0.00000000	6.31151500
115.46665999	0.00000000	0.00000000	6.31151500
115.66665997	0.00000000	0.00000000	6.35457700
115.86665996	0.00000000	0.00000000	6.77903500
116.06665995	0.00000000	0.00000000	7.89247000
116.26665994	0.00000000	0.00000000	9.00590400
116.46665993	0.00000000	-0.04306102	9.43036400
116.66665991	0.00000000	-0.37524600	9.43036400
116.86665990	0.00000000	-0.74434050	9.05511800
117.06665989	0.00000000	-0.37524600	8.26771600
117.26665988	0.00000000	0.00000000	7.47416300
117.46665987	0.00000000	0.41830710	6.31151500
117.66665985	0.00000000	1.16264800	5.19808000
117.86665984	0.00000000	1.53789400	4.77977300
118.06665983	0.00000000	1.58095500	4.77977300
118.26665982	0.00000000	1.58095500	5.15501900
118.46665981	0.00000000	1.53789400	5.93626900
118.66665980	0.00000000	1.11343500	6.68676100
118.86665978	0.00000000	0.00000000	7.51722400
119.06665977	0.00000000	-1.16264800	8.26771600
119.26665976	0.00000000	-1.95620100	9.05511800
119.46665975	0.00000000	-2.69439000	9.43036400
119.66665974	0.00000000	-2.65132900	9.47342500
119.86665972	0.00000000	-1.53789400	9.43036400
120.06665971	0.00000000	0.00000000	9.05511800
120.26665970	0.00000000	1.53789400	8.31077700
120.46665969	0.00000000	2.69439000	7.89247000
120.66665968	0.00000000	3.11884800	7.47416300
120.86665966	0.00000000	3.11884800	6.72982200
121.06665965	0.00000000	2.69439000	6.35457700
121.26665964	0.00000000	1.58095500	6.31151500
121.46665963	0.00000000	0.41830710	6.31151500
121.66665962	0.00000000	-0.41830710	6.35457700
121.86665961	0.00000000	-1.58095500	6.72982200
122.06665959	0.00000000	-2.69439000	7.47416300
122.26665958	0.00000000	-3.06963600	7.84940900
122.46665957	0.00000000	-2.69439000	7.89247000
122.66665956	0.00000000	-1.53789400	7.89247000
122.86665955	0.00000000	-0.04306102	7.89247000
123.06665953	0.00000000	1.16264800	7.89247000
123.26665952	0.00000000	1.95620100	7.89247000
123.46665951	0.00000000	2.69439000	7.84940900
123.66665950	0.00000000	2.69439000	7.47416300
123.86665949	0.00000000	1.99926200	6.72982200
124.06665947	0.00000000	1.58095500	6.35457700
124.26665946	0.00000000	1.16264800	6.31151500
124.46665945	0.00000000	0.37524600	6.31151500
124.66665944	0.00000000	-0.37524600	6.31151500
124.86665943	0.00000000	-1.16264800	6.35457700
125.06665942	0.00000000	-1.53789400	6.72982200
125.26665940	0.00000000	-1.58095500	7.47416300
125.46665939	0.00000000	-1.53789400	7.84940900
125.66665938	0.00000000	-1.16264800	7.89247000
125.86665937	0.00000000	-0.37524600	7.89247000
126.06665936	0.00000000	0.37524600	7.89247000
126.26665934	0.00000000	1.20570900	7.89247000
126.46665933	0.00000000	1.95620100	7.84940900
126.66665932	0.00000000	2.69439000	7.47416300
126.86665931	0.00000000	2.65132900	6.72982200
127.06665930	0.00000000	1.58095500	6.35457700
127.26665928	0.00000000	0.41830710	6.31151500
127.46665927	0.00000000	-0.41830710	6.31151500
127.66665926	0.00000000	-1.48868100	6.35457700
127.86665925	0.00000000	-1.85777500	6.72982200
128.06665924	0.00000000	-0.83661410	7.47416300
128.26665923	0.00000000	-0.46751960	7.84940900
128.46665921	0.00000000	-0.69512790	7.89247000
128.66665920	0.00000000	0.04306102	7.89247000
128.86665919	0.00000000	1.16264800	7.89247000
129.06665918	0.00000000	1.91314000	7.89247000
129.26665917	0.00000000	2.32529500	7.84940900
129.46665915	0.00000000	1.91314000	7.47416300
129.66665914	0.00000000	1.16264800	6.72982200
129.86665913	0.00000000	0.00000000	6.35457700
130.06665912	0.00000000	-1.11343500	6.35457700
130.26665911	0.00000000	-1.53789400	6.72982200
130.46665909	0.00000000	-1.53789400	7.47416300
130.66665908	0.00000000	-1.16264800	7.84940900
130.86665907	0.00000000	-0.37524600	7.89247000
131.06665906	0.00000000	0.37524600	7.89247000
131.26665905	0.00000000	1.16264800	7.84940900
131.46665904	0.00000000	1.53789400	7.47416300
131.66665902	0.00000000	1.58095500	6.72982200
131.86665901	0.00000000	1.58095500	6.35457700
132.06665900	0.00000000	1.53789400	6.31151500
132.26665899	0.00000000	1.16264800	6.31151500
132.46665898	0.00000000	0.41830710	6.31151500
132.66665896	0.00000000	0.04306102	6.35457700
132.86665895	0.00000000	0.00000000	6.72982200
133.06665894	0.00000000	0.00000000	7.51722400
133.26665893	0.00000000	0.00000000	8.22465500
133.46665892	0.00000000	0.00000000	8.67987200
133.66665890	0.00000000	0.00000000	8.64296200
133.86665889	0.00000000	0.00000000	8.67987200
134.06665888	0.00000000	0.00000000	8.26771600
134.26665887	0.00000000	0.00000000	7.89247000
134.46665886	0.00000000	0.00000000	7.47416300
134.66665885	0.00000000	0.04306102	6.72982200
134.86665883	0.00000000	0.41830710	6.35457700
135.06665882	0.00000000	1.16264800	6.31151500
135.26665881	0.00000000	1.53789400	6.31151500
135.46665880	0.00000000	1.58095500	6.35457700
135.66665879	0.00000000	1.53789400	6.72982200
135.86665877	0.00000000	1.16264800	7.51722400
136.06665876	0.00000000	0.37524600	8.22465500
136.26665875	0.00000000	-0.37524600	8.67987200
136.46665874	0.00000000	-1.16264800	8.68602300
136.66665873	0.00000000	-1.53789400	9.05511800
136.86665871	0.00000000	-1.53789400	9.00590400
137.06665870	0.00000000	-1.11343500	8.26771600
137.26665869	0.00000000	0.00000000	7.51722400
137.46665868	0.00000000	1.11343500	6.72982200
137.66665867	0.00000000	1.53789400	6.35457700
137.86665866	0.00000000	1.58095500	6.31151500
138.06665864	0.00000000	1.58095500	6.31151500
138.26665863	0.00000000	1.53789400	6.31151500
138.46665862	0.00000000	1.16264800	6.31151500
138.66665861	0.00000000	0.41830710	6.35457700
138.86665860	0.00000000	0.00000000	6.72982200
139.06665858	0.00000000	-0.41830710	7.51722400
139.26665857	0.00000000	-1.11343500	8.26771600
139.46665856	0.00000000	-1.11343500	9.00590400
139.66665855	0.00000000	-0.37524600	9.00590400
139.86665854	0.00000000	0.37524600	8.31077700
140.06665852	0.00000000	1.16264800	7.93553100
140.26665851	0.00000000	1.53789400	7.84940900
140.46665850	0.00000000	1.58095500	7.47416300
140.66665849	0.00000000	1.53789400	6.68676100
140.86665848	0.00000000	1.16264800	5.93626900
141.06665847	0.00000000	0.41830710	5.19808000
141.26665845	0.00000000	0.04306102	5.19808000
141.46665844	0.00000000	0.00000000	5.93626900
141.66665843	0.00000000	0.00000000	6.72982200
141.86665842	0.00000000	0.00000000	7.89247000
142.06665841	0.00000000	0.00000000	9.00590400
142.26665839	0.00000000	0.04306102	9.43036400
142.46665838	0.00000000	0.41830710	9.43036400
142.66665837	0.00000000	1.16264800	9.05511800
142.86665836	0.00000000	1.48868100	8.26771600
143.06665835	0.00000000	1.16264800	7.51722400
143.26665834	0.00000000	0.41830710	6.72982200
143.46665832	0.00000000	0.04306102	6.35457700
143.66665831	0.00000000	0.00000000	6.31151500
143.86665830	0.00000000	0.00000000	6.31151500
144.06665829	0.00000000	0.04306102	6.35457700
144.26665828	0.00000000	0.41830710	6.72982200
144.46665826	0.00000000	1.16264800	7.47416300
144.66665825	0.00000000	1.53789400	7.89247000
144.86665824	0.00000000	1.58095500	8.31077700
145.06665823	0.00000000	1.58095500	9.00590400
145.26665822	0.00000000	1.53789400	9.00590400
145.46665820	0.00000000	1.16264800	8.31077700
145.66665819	0.00000000	0.41830710	7.89247000
145.86665818	0.00000000	0.04306102	7.47416300
146.06665817	0.00000000	0.00000000	6.72982200
146.26665816	0.00000000	0.00000000	6.35457700
146.46665815	0.00000000	0.00000000	6.31151500
146.66665813	0.00000000	0.04306102	6.31151500
146.86665812	0.00000000	0.41830710	6.31151500
147.06665811	0.00000000	1.16264800	6.35457700
147.26665810	0.00000000	1.53789400	6.72982200
147.46665809	0.00000000	1.53789400	7.47416300
147.66665807	0.00000000	1.16264800	7.89247000
147.86665806	0.00000000	0.41830710	8.26771600
148.06665805	0.00000000	0.04306102	8.63681000
148.26665804	0.00000000	0.00000000	8.26771600
148.46665803	0.00000000	0.00000000	7.89247000
148.66665801	0.00000000	0.00000000	7.47416300
148.86665800	0.00000000	0.04306102	6.72982200
149.06665799	0.00000000	0.37524600	6.35457700
149.26665798	0.00000000	0.78740150	6.31151500
149.46665797	0.00000000	0.79355310	6.31151500
149.66665796	0.00000000	1.20570900	6.35457700
149.86665794	0.00000000	1.53789400	6.72982200
150.06665793	0.00000000	1.58095500	7.47416300
150.26665792	0.00000000	1.58095500	7.84940900
150.46665791	0.00000000	1.53789400	7.89247000
150.66665790	0.00000000	1.16264800	7.89247000
150.86665788	0.00000000	0.41830710	7.89247000
151.06665787	0.00000000	0.04306102	7.89247000
151.26665786	0.00000000	0.00000000	7.89247000
151.46665785	0.00000000	0.00000000	7.84940900
151.66665784	0.00000000	0.00000000	7.47416300
151.86665782	0.00000000	0.00000000	6.77903500
152.06665781	0.00000000	0.04306102	6.77903500
152.26665780	0.00000000	0.41830710	7.42495000
152.46665779	0.00000000	1.16264800	7.42495000
152.66665778	0.00000000	1.53789400	6.77903500
152.86665777	0.00000000	1.58095500	6.77903500
153.06665775	0.00000000	1.58095500	7.47416300
153.26665774	0.00000000	1.58095500	7.84940900
153.46665773	0.00000000	1.53789400	7.89247000
153.66665772	0.00000000	1.16264800	7.89247000
153.86665771	0.00000000	0.41830710	7.89247000
154.06665769	0.00000000	0.04306102	7.89247000
154.26665768	0.00000000	0.00000000	7.89247000
154.46665767	0.00000000	0.00000000	7.89247000
154.66665766	0.00000000	0.00000000	7.89247000
154.86665765	0.00000000	0.00000000	7.84940900
155.06665763	0.00000000	0.04306102	7.47416300
155.26665762	0.00000000	0.41830710	6.72982200
155.46665761	0.00000000	1.16264800	6.35457700
155.66665760	0.00000000	1.53789400	6.31151500
155.86665759	0.00000000	1.58095500	6.35457700
156.06665758	0.00000000	1.58095500	6.72982200
156.26665756	0.00000000	1.53789400	7.47416300
156.46665755	0.00000000	1.16264800	7.84940900
156.66665754	0.00000000	0.41830710	7.89247000
156.86665753	0.00000000	0.00000000	7.89247000
157.06665752	0.00000000	-0.37524600	7.89247000
157.26665750	0.00000000	-0.74434050	7.89247000
157.46665749	0.00000000	-0.37524600	7.89247000
157.66665748	0.00000000	-0.04306102	7.89247000
157.86665747	0.00000000	0.04306102	7.84940900
158.06665746	0.00000000	0.41830710	7.47416300
158.26665744	0.00000000	1.16264800	6.72982200
158.46665743	0.00000000	1.53789400	6.35457700
158.66665742	0.00000000	1.58095500	6.35457700
158.86665741	0.00000000	1.58095500	6.68676100
159.06665740	0.00000000	1.53789400	7.09891700
159.26665739	0.00000000	1.16264800	7.10506800
159.46665737	0.00000000	0.41830710	7.51722400
159.66665736	0.00000000	0.04306102	7.84940900
159.86665735	0.00000000	0.04306102	7.89247000
160.06665734	0.00000000	0.37524600	7.89247000
160.26665733	0.00000000	0.74434050	7.89247000
160.46665731	0.00000000	0.37524600	7.89247000
160.66665730	0.00000000	0.04306102	7.84940900
160.86665729	0.00000000	0.04306102	7.47416300
161.06665728	0.00000000	0.41830710	6.72982200
161.26665727	0.00000000	1.16264800	6.35457700
161.46665725	0.00000000	1.53789400	6.31151500
161.66665724	0.00000000	1.58095500	6.35457700
161.86665723	0.00000000	1.58095500	6.72982200
162.06665722	0.00000000	1.58095500	7.47416300
162.26665721	0.00000000	1.58095500	7.84940900
162.46665720	0.00000000	1.58095500	7.89247000
162.66665718	0.00000000	1.53789400	7.89247000
162.86665717	0.00000000	1.16264800	7.89247000
163.06665716	0.00000000	0.41830710	7.89247000
163.26665715	0.00000000	0.04306102	7.89247000
163.46665714	0.00000000	0.00000000	7.89247000
163.66665712	0.00000000	0.00000000	7.89247000
163.86665711	0.00000000	0.00000000	7.89247000
164.06665710	0.00000000	0.00000000	7.89247000
164.26665709	0.00000000	0.04306102	7.84940900
164.46665708	0.00000000	0.41830710	7.47416300
164.66665706	0.00000000	1.16264800	6.77903500
164.86665705	0.00000000	1.53789400	6.77903500
165.06665704	0.00000000	1.58095500	7.47416300
165.26665703	0.00000000	1.58095500	7.84940900
165.46665702	0.00000000	1.58095500	7.89247000
165.66665701	0.00000000	1.58095500	7.89247000
165.86665699	0.00000000	1.53789400	7.89247000
166.06665698	0.00000000	1.16264800	7.89247000
166.26665697	0.00000000	0.41830710	7.89247000
166.46665696	0.00000000	0.04306102	7.84940900
166.66665695	0.00000000	0.00000000	7.51722400
166.86665693	0.00000000	0.00000000	7.10506800
167.06665692	0.00000000	0.04306102	7.09891700
167.26665691	0.00000000	0.41830710	6.68676100
167.46665690	0.00000000	1.16264800	6.35457700
167.66665689	0.00000000	1.53789400	6.31151500
167.86665687	0.00000000	1.58095500	6.35457700
168.06665686	0.00000000	1.58095500	6.72982200
168.26665685	0.00000000	1.58095500	7.42495000
168.46665684	0.00000000	1.58095500	7.47416300
168.66665683	0.00000000	1.58095500	7.14812900
168.86665682	0.00000000	1.53789400	7.51722400
169.06665680	0.00000000	1.16264800	7.84940900
169.26665679	0.00000000	0.41830710	7.89247000
169.46665678	0.00000000	0.04306102	7.89247000
169.66665677	0.00000000	0.00000000	7.89247000
169.86665676	0.00000000	0.00000000	7.89247000
170.06665674	0.00000000	0.00000000	7.89247000
170.26665673	0.00000000	0.04306102	7.89247000
170.46665672	0.00000000	0.41830710	7.89247000
170.66665671	0.00000000	1.11343500	7.89247000
170.86665670	0.00000000	1.16264800	7.89247000
171.06665668	0.00000000	0.83661410	7.89247000
171.26665667	0.00000000	1.20570900	7.89247000
171.46665666	0.00000000	1.53789400	7.84940900
171.66665665	0.00000000	1.58095500	7.47416300
171.86665664	0.00000000	1.53789400	6.77903500
172.06665663	0.00000000	1.20570900	6.72982200
172.26665661	0.00000000	0.79355310	7.09891700
172.46665660	0.00000000	0.78740150	7.10506800
172.66665659	0.00000000	0.37524600	7.51722400
172.86665658	0.00000000	0.04306102	7.84940900
173.06665657	0.00000000	0.00000000	7.89247000
173.26665655	0.00000000	0.04306102	7.89247000
173.46665654	0.00000000	0.41830710	7.89247000
173.66665653	0.00000000	1.16264800	7.89247000
173.86665652	0.00000000	1.53789400	7.89247000
174.06665651	0.00000000	1.58095500	7.84940900
174.26665649	0.00000000	1.58095500	7.47416300
174.46665648	0.00000000	1.58095500	6.77903500
174.66665647	0.00000000	1.53789400	6.72982200
174.86665646	0.00000000	1.20570900	7.09891700
175.06665645	0.00000000	0.83661410	7.10506800
175.26665644	0.00000000	1.16264800	7.47416300
175.46665642	0.00000000	1.11343500	7.47416300
175.66665641	0.00000000	0.46751960	7.14812900
175.86665640	0.00000000	0.41830710	7.51722400
176.06665639	0.00000000	0.78740150	7.84940900
176.26665638	0.00000000	0.79355310	7.89247000
176.46665636	0.00000000	1.20570900	7.89247000
176.66665635	0.00000000	1.53789400	7.89247000
176.86665634	0.00000000	1.58095500	7.89247000
177.06665633	0.00000000	1.53789400	7.84940900
177.26665632	0.00000000	1.20570900	7.51722400
177.46665630	0.00000000	0.83661410	7.14812900
177.66665629	0.00000000	1.16264800	7.51722400
177.86665628	0.00000000	1.16264800	7.84940900
178.06665627	0.00000000	0.79355310	7.89247000
178.26665626	0.00000000	0.83046260	7.89247000
178.46665625	0.00000000	0.79355310	7.89247000
178.66665623	0.00000000	1.20570900	7.89247000
178.86665622	0.00000000	1.53789400	7.89247000
179.06665621	0.00000000	1.58095500	7.89247000
179.26665620	0.00000000	1.58095500	7.89247000
179.46665619	0.00000000	1.58095500	7.89247000
179.66665617	0.00000000	1.58095500	7.84940900
179.86665616	0.00000000	1.58095500	7.51722400
180.06665615	0.00000000	1.53789400	7.10506800
180.26665614	0.00000000	1.16264800	7.14197800
180.46665613	0.00000000	0.41830710	7.06200700
180.66665611	0.00000000	0.04306102	7.09891700
180.86665610	0.00000000	0.00000000	6.72982200
181.06665609	0.00000000	0.04306102	6.77903500
181.26665608	0.00000000	0.41830710	7.47416300
181.46665607	0.00000000	1.11343500	7.84940900
181.66665606	0.00000000	1.16264800	7.89247000
181.86665604	0.00000000	0.83661410	7.89247000
182.06665603	0.00000000	1.20570900	7.89247000
182.26665602	0.00000000	1.53789400	7.89247000
182.46665601	0.00000000	1.58095500	7.89247000
182.66665600	0.00000000	1.58095500	7.84940900
182.86665598	0.00000000	1.58095500	7.47416300
183.06665597	0.00000000	1.53789400	6.72982200
183.26665596	0.00000000	1.20570900	6.40378900
183.46665595	0.00000000	0.79355310	6.68676100
183.66665594	0.00000000	0.83046260	7.09891700
183.86665592	0.00000000	0.79355310	7.10506800
184.06665591	0.00000000	1.16264800	7.51722400
184.26665590	0.00000000	1.11343500	7.84940900
184.46665589	0.00000000	0.41830710	7.89247000
184.66665588	0.00000000	0.09227362	7.89247000
184.86665587	0.00000000	0.41830710	7.89247000
185.06665585	0.00000000	1.16264800	7.89247000
185.26665584	0.00000000	1.53789400	7.84940900
185.46665583	0.00000000	1.58095500	7.51722400
185.66665582	0.00000000	1.58095500	7.10506800
185.86665581	0.00000000	1.58095500	7.09891700
186.06665579	0.00000000	1.58095500	6.68676100
186.26665578	0.00000000	1.58095500	6.35457700
186.46665577	0.00000000	1.58095500	6.35457700
186.66665576	0.00000000	1.58095500	6.72982200
186.86665575	0.00000000	1.53789400	7.47416300
187.06665573	0.00000000	1.16264800	7.84940900
187.26665572	0.00000000	0.41830710	7.89247000
187.46665571	0.00000000	0.09227362	7.89247000
187.66665570	0.00000000	0.37524600	7.89247000
187.86665569	0.00000000	0.78740150	7.89247000
188.06665568	0.00000000	0.79355310	7.89247000
188.26665566	0.00000000	1.20570900	7.89247000
188.46665565	0.00000000	1.53789400	7.84940900
188.66665564	0.00000000	1.58095500	7.51722400
188.86665563	0.00000000	1.58095500	7.10506800
189.06665562	0.00000000	1.58095500	7.09891700
189.26665560	0.00000000	1.58095500	6.68676100
189.46665559	0.00000000	1.58095500	6.35457700
189.66665558	0.00000000	1.53789400	6.35457700
189.86665557	0.00000000	1.16264800	6.72982200
190.06665556	0.00000000	0.41830710	7.47416300
190.26665554	0.00000000	0.04306102	7.84940900
190.46665553	0.00000000	0.04306102	7.89247000
190.66665552	0.00000000	0.41830710	7.89247000
190.86665551	0.00000000	1.16264800	7.89247000
191.06665550	0.00000000	1.53789400	7.89247000
191.26665549	0.00000000	1.58095500	7.89247000
191.46665547	0.00000000	1.58095500	7.84940900
191.66665546	0.00000000	1.58095500	7.47416300
191.86665545	0.00000000	1.58095500	6.72982200
192.06665544	0.00000000	1.58095500	6.40378900
192.26665543	0.00000000	1.53789400	6.68676100
192.46665541	0.00000000	1.20570900	7.05585600
192.66665540	0.00000000	0.79355310	6.72982200
192.86665539	0.00000000	0.78740150	6.77903500
193.06665538	0.00000000	0.37524600	7.47416300
193.26665537	0.00000000	0.04306102	7.84940900
193.46665535	0.00000000	0.04306102	7.89247000
193.66665534	0.00000000	0.41830710	7.89247000
193.86665533	0.00000000	1.16264800	7.89247000
194.06665532	0.00000000	1.53789400	7.89247000
194.26665531	0.00000000	1.58095500	7.89247000
194.46665530	0.00000000	1.58095500	7.89247000
194.66665528	0.00000000	1.58095500	7.89247000
194.86665527	0.00000000	1.58095500	7.89247000
195.06665526	0.00000000	1.58095500	7.89247000
195.26665525	0.00000000	1.58095500	7.84940900
195.46665524	0.00000000	1.53789400	7.51722400
195.66665522	0.00000000	1.16264800	7.10506800
195.86665521	0.00000000	0.41830710	7.09891700
196.06665520	0.00000000	0.04306102	6.72982200
