Time	Channel A	Channel B
(us)	(V)	(mV)

-4.49999956	0.00000000	0.00000000
-4.29999957	0.00000000	0.00000000
-4.09999958	0.00000000	0.00000000
-3.89999959	0.00000000	0.04921259
-3.69999960	0.00000000	0.41215550
-3.49999962	0.00000000	0.81200780
-3.29999963	0.00000000	0.41215550
-3.09999964	0.00000000	0.04921259
-2.89999965	0.00000000	0.00000000
-2.69999966	0.00000000	0.00000000
-2.49999968	0.00000000	0.00000000
-2.29999969	0.00000000	0.00000000
-2.09999970	0.00000000	0.00000000
-1.89999971	0.00000000	0.00000000
-1.69999972	0.00000000	0.00000000
-1.49999973	0.00000000	0.00000000
-1.29999975	0.00000000	0.00000000
-1.09999976	0.00000000	0.00000000
-0.89999977	0.00000000	0.00000000
-0.69999978	0.00000000	0.00000000
-0.49999979	0.00000000	0.00000000
-0.29999981	0.35125490	0.00000000
-0.09999982	0.70250980	0.00000000
0.10000017	1.05376500	0.00000000
0.30000016	1.05376500	0.00000000
0.50000015	0.87844490	0.00000000
0.70000013	0.17531990	0.00000000
0.90000012	-0.52657480	0.00000000
1.10000011	-1.58095500	0.04921259
1.30000010	-2.45940000	0.46136810
1.50000009	-2.81127000	1.21801200
1.70000008	-2.28408000	1.26722400
1.90000006	-1.05376500	0.86737200
2.10000005	0.70250980	0.86122040
2.30000004	2.98659000	0.41215550
2.50000003	4.74409400	0.04921259
2.70000002	5.27128500	0.00000000
2.90000000	4.74409400	0.00000000
3.09999999	2.63533500	0.00000000
3.29999998	-0.52657480	0.00000000
3.49999997	-4.04096900	0.00000000
3.69999996	-6.67691900	0.04921259
3.89999994	-8.08255400	0.46136810
4.09999993	-7.20410900	1.26722400
4.29999992	-4.56816000	1.63016700
4.49999991	-0.52657480	1.26722400
4.69999990	3.86565000	0.46136810
4.89999989	7.55536400	0.04921259
5.09999987	9.31225400	-0.04921259
5.29999986	8.96099900	-0.41215550
5.49999985	5.97379400	-0.81200780
5.69999984	1.75689000	-0.41215550
5.89999983	-2.98659000	-0.04921259
6.09999981	-7.02817400	0.04921259
6.29999980	-9.31225400	0.41215550
6.49999979	-9.13693400	0.81200780
6.69999978	-6.67691900	0.46136810
6.89999977	-2.81127000	0.46136810
7.09999975	1.58095500	0.81200780
7.29999974	5.27128500	0.41215550
7.49999973	7.37942900	0.04921259
7.69999972	7.55536400	0.00000000
7.89999971	5.79847400	0.00000000
8.09999970	2.81127000	0.00000000
8.29999968	-0.52657480	0.00000000
8.49999967	-3.33846000	0.00000000
8.69999966	-4.91941500	0.00000000
8.89999965	-5.09534900	0.00000000
9.09999964	-4.04096900	0.00000000
9.29999962	-2.10814500	0.00000000
9.49999961	-0.17531990	0.00000000
9.69999960	1.40563500	0.00000000
9.89999959	2.28408000	0.00000000
10.09999958	2.45940000	0.00000000
10.29999956	1.93282500	0.00000000
10.49999955	1.05376500	0.00000000
10.69999954	0.17531990	0.00000000
10.89999953	-0.52657480	0.00000000
11.09999952	-0.87844490	0.00000000
11.29999951	-0.87844490	0.00000000
11.49999949	-0.87844490	0.00000000
11.69999948	-0.52657480	0.00000000
11.89999947	-0.17531990	0.04921259
12.09999946	0.00000000	0.46136810
12.29999945	0.00000000	1.21801200
12.49999943	0.00000000	1.21801200
12.69999942	-0.17531990	0.46136810
12.89999941	0.00000000	0.04921259
13.09999940	-0.17531990	0.00000000
13.29999939	-0.17531990	0.00000000
13.49999937	0.00000000	0.00000000
13.69999936	0.00000000	0.00000000
13.89999935	0.00000000	0.00000000
14.09999934	0.00000000	0.00000000
14.29999933	0.00000000	0.00000000
14.49999932	0.00000000	0.00000000
14.69999930	0.00000000	0.00000000
14.89999929	0.00000000	0.04921259
15.09999928	0.00000000	0.41215550
15.29999927	0.00000000	0.81200780
15.49999926	0.00000000	0.41215550
15.69999924	0.00000000	0.04921259
15.89999923	0.00000000	0.00000000
16.09999922	0.00000000	0.00000000
16.29999921	0.00000000	0.00000000
16.49999920	0.00000000	0.00000000
16.69999919	0.00000000	0.00000000
16.89999917	0.00000000	0.00000000
17.09999916	0.00000000	0.00000000
17.29999915	0.00000000	0.00000000
17.49999914	0.00000000	0.00000000
17.69999913	0.00000000	0.00000000
17.89999911	0.00000000	0.00000000
18.09999910	0.00000000	0.00000000
18.29999909	0.00000000	0.00000000
18.49999908	0.00000000	0.00000000
18.69999907	0.00000000	0.00000000
18.89999905	0.00000000	0.00000000
19.09999904	0.00000000	0.00000000
19.29999903	0.00000000	0.00000000
19.49999902	0.00000000	0.00000000
19.69999901	0.00000000	0.00000000
19.89999900	0.00000000	0.00000000
20.09999898	0.00000000	0.00000000
20.29999897	0.00000000	0.00000000
20.49999896	0.00000000	0.00000000
20.69999895	0.00000000	-0.04921259
20.89999894	0.00000000	-0.41215550
21.09999892	0.00000000	-0.81200780
21.29999891	0.00000000	-0.36294290
21.49999890	0.00000000	0.36294290
21.69999889	0.00000000	0.81200780
21.89999888	0.00000000	0.41215550
22.09999886	0.00000000	0.09842519
22.29999885	0.00000000	0.41215550
22.49999884	0.00000000	0.81200780
22.69999883	0.00000000	0.41215550
22.89999882	0.00000000	0.04921259
23.09999881	0.00000000	0.00000000
23.29999879	0.00000000	0.00000000
23.49999878	0.00000000	-0.04921259
23.69999877	0.00000000	-0.46136810
23.89999876	0.00000000	-1.21801200
24.09999875	0.00000000	-1.16879900
24.29999873	0.00000000	0.00000000
24.49999872	0.00000000	1.26722400
24.69999871	0.00000000	2.14074800
24.89999870	0.00000000	3.05118100
25.09999869	0.00000000	3.82627900
25.29999867	0.00000000	4.22613100
25.49999866	0.00000000	3.31569900
25.69999865	0.00000000	1.22416300
25.89999864	0.00000000	-1.72859200
26.09999863	0.00000000	-4.73056000
26.29999862	0.00000000	-7.24040300
26.49999860	0.00000000	-8.86441900
26.69999859	0.00000000	-7.94783400
26.89999858	0.00000000	-4.63213500
27.09999857	0.00000000	0.09842519
27.29999856	0.00000000	5.65329700
27.49999854	0.00000000	11.55881000
27.69999853	0.00000000	16.14788000
27.89999852	0.00000000	17.73499000
28.09999851	0.00000000	15.13287000
28.29999850	0.00000000	7.90477300
28.49999848	0.00000000	-2.23917300
28.69999847	0.00000000	-13.24434000
28.89999846	0.00000000	-22.52091000
29.09999845	0.00000000	-27.51599000
29.29999844	0.00000000	-26.59326000
29.49999843	0.00000000	-18.90994000
29.69999841	0.00000000	-5.76402500
29.89999840	0.00000000	10.34080000
30.09999839	0.00000000	25.93504000
30.29999838	0.00000000	36.89099000
30.49999837	0.00000000	40.20669000
30.69999835	0.00000000	34.60261000
30.89999834	0.00000000	20.12795000
31.09999833	0.00000000	-0.51058070
31.29999832	0.00000000	-22.10876000
31.49999831	0.00000000	-39.44390000
31.69999829	0.00000000	-49.12032000
31.89999828	0.00000000	-47.74852000
32.09999827	0.00000000	-35.05782000
32.29999826	0.00000000	-13.85950000
32.49999825	0.00000000	11.56496000
32.69999824	0.00000000	35.61762000
32.89999822	0.00000000	52.48523000
33.09999821	0.00000000	57.52953000
33.29999820	0.00000000	49.52633000
33.49999819	0.00000000	30.46875000
33.69999818	0.00000000	4.58292300
33.89999816	0.00000000	-22.88386000
34.09999815	0.00000000	-45.70620000
34.29999814	0.00000000	-57.94168000
34.49999813	0.00000000	-57.11737000
34.69999812	0.00000000	-43.11023000
34.89999810	0.00000000	-19.05758000
35.09999809	0.00000000	9.27657400
35.29999808	0.00000000	35.10704000
35.49999807	0.00000000	52.89739000
35.69999806	0.00000000	58.80290000
35.89999805	0.00000000	51.21186000
36.09999803	0.00000000	32.25270000
36.29999802	0.00000000	6.87746000
36.49999801	0.00000000	-18.90994000
36.69999800	0.00000000	-39.29010000
36.89999799	0.00000000	-49.89542000
37.09999797	0.00000000	-49.02190000
37.29999796	0.00000000	-36.38041000
37.49999795	0.00000000	-15.33587000
37.69999794	0.00000000	7.90477300
37.89999793	0.00000000	28.22958000
38.09999791	0.00000000	40.87106000
38.29999790	0.00000000	42.69808000
38.49999789	0.00000000	34.34424000
38.69999788	0.00000000	19.15600000
38.89999787	0.00000000	0.55979330
39.09999786	0.00000000	-16.71383000
39.29999784	0.00000000	-28.13115000
39.49999783	0.00000000	-31.18848000
39.69999782	0.00000000	-25.83661000
39.89999781	0.00000000	-14.92372000
40.09999780	0.00000000	-1.82701800
40.29999778	0.00000000	10.44537000
40.49999777	0.00000000	18.86073000
40.69999776	0.00000000	21.45054000
40.89999775	0.00000000	17.73499000
41.09999774	0.00000000	9.87942800
41.29999772	0.00000000	1.01501000
41.49999771	0.00000000	-6.17002900
41.69999770	0.00000000	-10.49459000
41.89999769	0.00000000	-11.31275000
42.09999768	0.00000000	-8.86441900
42.29999767	0.00000000	-3.87549200
42.49999765	0.00000000	1.16879900
42.69999764	0.00000000	4.99507900
42.89999763	0.00000000	7.12967500
43.09999762	0.00000000	6.72982200
43.29999761	0.00000000	4.73056000
43.49999759	0.00000000	2.23917300
43.69999758	0.00000000	0.55979330
43.89999757	0.00000000	0.04921259
44.09999756	0.00000000	0.00000000
44.29999755	0.00000000	0.04921259
44.49999753	0.00000000	0.41215550
44.69999752	0.00000000	0.76279520
44.89999751	0.00000000	-0.09842519
45.09999750	0.00000000	-1.72859200
45.29999749	0.00000000	-3.41412400
45.49999748	0.00000000	-4.58292300
45.69999746	0.00000000	-4.17691900
45.89999745	0.00000000	-2.04232300
46.09999744	0.00000000	0.86737200
46.29999743	0.00000000	4.27534400
46.49999742	0.00000000	6.77903500
46.69999740	0.00000000	8.04626000
46.89999739	0.00000000	7.54183000
47.09999738	0.00000000	4.63213500
47.29999737	0.00000000	0.46136810
47.49999736	0.00000000	-3.36491100
47.69999734	0.00000000	-6.36687900
47.89999733	0.00000000	-7.99704600
48.09999732	0.00000000	-7.59104300
48.29999731	0.00000000	-5.04429100
48.49999730	0.00000000	-1.26722400
48.69999729	0.00000000	2.95275600
48.89999727	0.00000000	6.31766700
49.09999726	0.00000000	8.04626000
49.29999725	0.00000000	8.04626000
49.49999724	0.00000000	6.41609200
49.69999723	0.00000000	3.87549200
49.89999721	0.00000000	1.32258800
50.09999720	0.00000000	-1.27337600
50.29999719	0.00000000	-3.36491100
50.49999718	0.00000000	-4.63213500
50.69999717	0.00000000	-4.63213500
50.89999715	0.00000000	-3.41412400
51.09999714	0.00000000	-1.72859200
51.29999713	0.00000000	-0.04921259
51.49999712	0.00000000	1.26722400
51.69999711	0.00000000	2.18996000
51.89999710	0.00000000	3.46333600
52.09999708	0.00000000	4.68134800
52.29999707	0.00000000	5.09350300
52.49999706	0.00000000	4.68134800
52.69999705	0.00000000	3.41412400
52.89999704	0.00000000	1.72859200
53.09999702	0.00000000	0.00000000
53.29999701	0.00000000	-1.72859200
53.49999700	0.00000000	-3.36491100
53.69999699	0.00000000	-4.22613100
53.89999698	0.00000000	-3.77706700
54.09999696	0.00000000	-2.54675200
54.29999695	0.00000000	-0.36294290
54.49999694	0.00000000	2.09153500
54.69999693	0.00000000	4.22613100
54.89999692	0.00000000	5.04429100
55.09999691	0.00000000	4.68134800
55.29999689	0.00000000	3.41412400
55.49999688	0.00000000	1.67938000
55.69999687	0.00000000	-0.41215550
55.89999686	0.00000000	-2.49753900
56.09999685	0.00000000	-3.36491100
56.29999683	0.00000000	-3.36491100
56.49999682	0.00000000	-2.44832700
56.69999681	0.00000000	0.04921259
56.89999680	0.00000000	2.95275600
57.09999679	0.00000000	5.04429100
57.29999677	0.00000000	5.90551100
57.49999676	0.00000000	5.04429100
57.69999675	0.00000000	3.00196800
57.89999674	0.00000000	0.41215550
58.09999673	0.00000000	-2.09153500
58.29999672	0.00000000	-4.22613100
58.49999670	0.00000000	-5.04429100
58.69999669	0.00000000	-4.63213500
58.89999668	0.00000000	-2.90354300
59.09999667	0.00000000	0.04921259
59.29999666	0.00000000	3.41412400
59.49999664	0.00000000	6.36687900
59.69999663	0.00000000	7.99704600
59.89999662	0.00000000	7.59104300
60.09999661	0.00000000	5.04429100
60.29999660	0.00000000	1.26722400
60.49999658	0.00000000	-2.95275600
60.69999657	0.00000000	-6.26845500
60.89999656	0.00000000	-7.59104300
61.09999655	0.00000000	-6.77903500
61.29999654	0.00000000	-4.63213500
61.49999653	0.00000000	-1.26722400
61.69999651	0.00000000	2.54675200
61.89999650	0.00000000	5.50565900
62.09999649	0.00000000	7.64025500
62.29999648	0.00000000	7.99704600
62.49999647	0.00000000	6.36687900
62.69999645	0.00000000	3.46333600
62.89999644	0.00000000	0.51058070
63.09999643	0.00000000	-1.67938000
63.29999642	0.00000000	-3.36491100
63.49999641	0.00000000	-4.22613100
63.69999639	0.00000000	-3.82627900
63.89999638	0.00000000	-3.05118100
64.09999637	0.00000000	-2.14074800
64.29999636	0.00000000	-1.26722400
64.49999635	0.00000000	0.04921259
64.69999634	0.00000000	1.72859200
64.89999632	0.00000000	3.46333600
65.09999631	0.00000000	5.14271600
65.29999630	0.00000000	6.36687900
65.49999629	0.00000000	6.36687900
65.69999628	0.00000000	5.14271600
65.89999626	0.00000000	3.36491100
66.09999625	0.00000000	0.76279520
66.29999624	0.00000000	-3.00196800
66.49999623	0.00000000	-6.31766700
66.69999622	0.00000000	-8.04626000
66.89999620	0.00000000	-8.04626000
67.09999619	0.00000000	-6.31766700
67.29999618	0.00000000	-2.95275600
67.49999617	0.00000000	1.31643700
67.69999616	0.00000000	5.60408400
67.89999615	0.00000000	9.78100300
68.09999613	0.00000000	12.22933000
68.29999612	0.00000000	11.41117000
68.49999611	0.00000000	8.04626000
68.69999610	0.00000000	2.95275600
68.89999609	0.00000000	-2.95275600
69.09999607	0.00000000	-8.04626000
69.29999606	0.00000000	-11.41117000
69.49999605	0.00000000	-12.22933000
69.69999604	0.00000000	-9.68257800
69.89999603	0.00000000	-4.68750000
70.09999601	0.00000000	1.27337600
70.29999600	0.00000000	6.77903500
70.49999599	0.00000000	11.00517000
70.69999598	0.00000000	12.73376000
70.89999597	0.00000000	11.92175000
71.09999596	0.00000000	9.31963500
71.29999594	0.00000000	4.68750000
71.49999593	0.00000000	-0.81200780
71.69999592	0.00000000	-5.45644600
71.89999591	0.00000000	-8.86441900
72.09999590	0.00000000	-9.68257800
72.29999588	0.00000000	-8.09547100
72.49999587	0.00000000	-5.09350300
72.69999586	0.00000000	-1.26722400
72.89999585	0.00000000	3.00196800
73.09999584	0.00000000	6.77903500
73.29999582	0.00000000	9.32578700
73.49999581	0.00000000	9.73179100
73.69999580	0.00000000	8.04626000
73.89999579	0.00000000	4.68134800
74.09999578	0.00000000	0.46136810
74.29999577	0.00000000	-3.36491100
74.49999575	0.00000000	-6.36687900
74.69999574	0.00000000	-7.99704600
74.89999573	0.00000000	-7.59104300
75.09999572	0.00000000	-5.04429100
75.29999571	0.00000000	-1.26722400
75.49999569	0.00000000	2.95275600
75.69999568	0.00000000	6.31766700
75.89999567	0.00000000	8.04626000
76.09999566	0.00000000	7.99704600
76.29999565	0.00000000	5.90551100
76.49999563	0.00000000	2.09153500
76.69999562	0.00000000	-2.09153500
76.89999561	0.00000000	-5.90551100
77.09999560	0.00000000	-7.99704600
77.29999559	0.00000000	-8.04626000
77.49999558	0.00000000	-6.26845500
77.69999556	0.00000000	-2.44832700
77.89999555	0.00000000	3.00196800
78.09999554	0.00000000	8.04626000
78.29999553	0.00000000	11.41117000
78.49999552	0.00000000	12.27854000
78.69999550	0.00000000	10.14395000
78.89999549	0.00000000	5.91166300
79.09999548	0.00000000	-0.04921259
79.29999547	0.00000000	-6.31766700
79.49999546	0.00000000	-10.95595000
79.69999544	0.00000000	-12.68455000
79.89999543	0.00000000	-11.41117000
80.09999542	0.00000000	-7.59104300
80.29999541	0.00000000	-1.63016700
80.49999540	0.00000000	5.09350300
80.69999539	0.00000000	11.05438000
80.89999537	0.00000000	14.82529000
81.09999536	0.00000000	15.69267000
81.29999535	0.00000000	13.09670000
81.49999534	0.00000000	7.64025500
81.69999533	0.00000000	0.41215550
81.89999531	0.00000000	-6.72982200
82.09999530	0.00000000	-12.27854000
82.29999529	0.00000000	-14.77608000
82.49999528	0.00000000	-14.00714000
82.69999527	0.00000000	-10.14395000
82.89999525	0.00000000	-4.27534400
83.09999524	0.00000000	2.59596400
83.29999523	0.00000000	8.91978400
83.49999522	0.00000000	14.05635000
83.69999521	0.00000000	16.51083000
83.89999520	0.00000000	15.69267000
84.09999518	0.00000000	11.46038000
84.29999517	0.00000000	5.19192900
84.49999516	0.00000000	-1.27337600
84.69999515	0.00000000	-7.24040300
84.89999514	0.00000000	-12.27854000
85.09999512	0.00000000	-14.37008000
85.29999511	0.00000000	-13.14591000
85.49999510	0.00000000	-9.32578700
85.69999509	0.00000000	-3.41412400
85.89999508	0.00000000	2.95275600
86.09999506	0.00000000	8.55684000
86.29999505	0.00000000	13.19513000
86.49999504	0.00000000	15.69267000
86.69999503	0.00000000	14.82529000
86.89999502	0.00000000	11.05438000
87.09999501	0.00000000	5.14271600
87.29999499	0.00000000	-1.22416300
87.49999498	0.00000000	-6.77903500
87.69999497	0.00000000	-11.05438000
87.89999496	0.00000000	-13.09670000
88.09999495	0.00000000	-12.27854000
88.29999493	0.00000000	-8.50762700
88.49999492	0.00000000	-3.41412400
88.69999491	0.00000000	2.18996000
88.89999490	0.00000000	8.09547100
89.09999489	0.00000000	12.68455000
89.29999487	0.00000000	14.37008000
89.49999486	0.00000000	12.73376000
89.69999485	0.00000000	8.55684000
89.89999484	0.00000000	3.46333600
90.09999483	0.00000000	-1.67938000
90.29999482	0.00000000	-6.31766700
90.49999480	0.00000000	-9.27657400
90.69999479	0.00000000	-9.73179100
90.89999478	0.00000000	-8.09547100
91.09999477	0.00000000	-5.09350300
91.29999476	0.00000000	-1.26722400
91.49999474	0.00000000	2.95275600
91.69999473	0.00000000	6.31766700
91.89999472	0.00000000	8.09547100
92.09999471	0.00000000	8.50762700
92.29999470	0.00000000	7.64025500
92.49999468	0.00000000	5.09350300
92.69999467	0.00000000	1.77780500
92.89999466	0.00000000	-1.22416300
93.09999465	0.00000000	-3.36491100
93.29999464	0.00000000	-4.63213500
93.49999463	0.00000000	-4.63213500
93.69999461	0.00000000	-3.41412400
93.89999460	0.00000000	-1.72859200
94.09999459	0.00000000	-0.04921259
94.29999458	0.00000000	1.26722400
94.49999457	0.00000000	2.14074800
94.69999455	0.00000000	3.00196800
94.89999454	0.00000000	3.41412400
95.09999453	0.00000000	3.41412400
95.29999452	0.00000000	3.00196800
95.49999451	0.00000000	2.14074800
95.69999449	0.00000000	1.31643700
95.89999448	0.00000000	0.46136810
96.09999447	0.00000000	0.00000000
96.29999446	0.00000000	-0.46136810
96.49999445	0.00000000	-1.26722400
96.69999444	0.00000000	-1.63016700
96.89999442	0.00000000	-1.26722400
97.09999441	0.00000000	-0.46136810
97.29999440	0.00000000	0.00000000
97.49999439	0.00000000	0.46136810
97.69999438	0.00000000	1.31643700
97.89999436	0.00000000	2.14074800
98.09999435	0.00000000	3.00196800
98.29999434	0.00000000	3.36491100
98.49999433	0.00000000	3.00196800
98.69999432	0.00000000	2.14074800
98.89999430	0.00000000	1.26722400
99.09999429	0.00000000	0.00000000
99.29999428	0.00000000	-1.21801200
99.49999427	0.00000000	-1.67938000
99.69999426	0.00000000	-1.67938000
99.89999425	0.00000000	-1.26722400
100.09999423	0.00000000	-0.41215550
100.29999422	0.00000000	0.46136810
100.49999421	0.00000000	1.72859200
100.69999420	0.00000000	2.95275600
100.89999419	0.00000000	3.41412400
101.09999417	0.00000000	3.41412400
101.29999416	0.00000000	2.95275600
101.49999415	0.00000000	1.72859200
101.69999414	0.00000000	0.51058070
101.89999413	0.00000000	0.00000000
102.09999411	0.00000000	-0.46136810
102.29999410	0.00000000	-1.21801200
102.49999409	0.00000000	-1.21801200
102.69999408	0.00000000	-0.41215550
102.89999407	0.00000000	0.41215550
103.09999406	0.00000000	1.26722400
103.29999404	0.00000000	1.72859200
103.49999403	0.00000000	2.14074800
103.69999402	0.00000000	2.54060000
103.89999401	0.00000000	2.14074800
104.09999400	0.00000000	1.72859200
104.29999398	0.00000000	1.26722400
104.49999397	0.00000000	0.46136810
104.69999396	0.00000000	0.00000000
104.89999395	0.00000000	-0.41215550
105.09999394	0.00000000	-0.81200780
105.29999392	0.00000000	-0.41215550
105.49999391	0.00000000	0.00000000
105.69999390	0.00000000	0.46136810
105.89999389	0.00000000	1.26722400
106.09999388	0.00000000	1.67938000
106.29999387	0.00000000	1.72859200
106.49999385	0.00000000	1.67938000
106.69999384	0.00000000	1.26722400
106.89999383	0.00000000	0.41215550
107.09999382	0.00000000	-0.41215550
107.29999381	0.00000000	-1.26722400
107.49999379	0.00000000	-1.63016700
107.69999378	0.00000000	-1.26722400
107.89999377	0.00000000	-0.41215550
108.09999376	0.00000000	0.46136810
108.29999375	0.00000000	1.72859200
108.49999374	0.00000000	2.95275600
108.69999372	0.00000000	3.41412400
108.89999371	0.00000000	3.41412400
109.09999370	0.00000000	2.95275600
109.29999369	0.00000000	1.72859200
109.49999368	0.00000000	0.41215550
109.69999366	0.00000000	-0.86737200
109.89999365	0.00000000	-2.54675200
110.09999364	0.00000000	-3.31569900
110.29999363	0.00000000	-2.95275600
110.49999362	0.00000000	-1.67938000
110.69999360	0.00000000	0.00000000
110.89999359	0.00000000	1.72859200
111.09999358	0.00000000	3.41412400
111.29999357	0.00000000	4.68134800
111.49999356	0.00000000	5.09350300
111.69999355	0.00000000	4.63213500
111.89999353	0.00000000	2.95275600
112.09999352	0.00000000	0.46136810
112.29999351	0.00000000	-1.67938000
112.49999350	0.00000000	-3.36491100
112.69999349	0.00000000	-4.22613100
112.89999347	0.00000000	-3.77706700
113.09999346	0.00000000	-2.54675200
113.29999345	0.00000000	-0.36294290
113.49999344	0.00000000	2.14074800
113.69999343	0.00000000	4.68134800
113.89999341	0.00000000	6.31766700
114.09999340	0.00000000	6.36687900
114.29999339	0.00000000	5.09350300
114.49999338	0.00000000	3.00196800
114.69999337	0.00000000	0.46136810
114.89999336	0.00000000	-1.67938000
115.09999334	0.00000000	-3.36491100
115.29999333	0.00000000	-4.17691900
115.49999332	0.00000000	-3.36491100
115.69999331	0.00000000	-1.67938000
115.89999330	0.00000000	0.46136810
116.09999328	0.00000000	3.00196800
116.29999327	0.00000000	5.04429100
116.49999326	0.00000000	5.95472400
116.69999325	0.00000000	5.50565900
116.89999324	0.00000000	4.27534400
117.09999322	0.00000000	2.14074800
117.29999321	0.00000000	0.04921259
117.49999320	0.00000000	-1.67938000
117.69999319	0.00000000	-2.90354300
117.89999318	0.00000000	-2.95275600
118.09999317	0.00000000	-2.09153500
118.29999315	0.00000000	-0.81200780
118.49999314	0.00000000	1.27337600
118.69999313	0.00000000	2.90354300
118.89999312	0.00000000	3.41412400
119.09999311	0.00000000	3.46333600
119.29999309	0.00000000	3.41412400
119.49999308	0.00000000	2.95275600
119.69999307	0.00000000	1.67938000
119.89999306	0.00000000	0.04921259
120.09999305	0.00000000	-1.16879900
120.29999303	0.00000000	-1.21801200
120.49999302	0.00000000	-0.41215550
120.69999301	0.00000000	0.41215550
120.89999300	0.00000000	1.26722400
121.09999299	0.00000000	1.67938000
121.29999298	0.00000000	1.72859200
121.49999296	0.00000000	1.72859200
121.69999295	0.00000000	1.72859200
121.89999294	0.00000000	1.67938000
122.09999293	0.00000000	1.26722400
122.29999292	0.00000000	0.46136810
122.49999290	0.00000000	0.04921259
122.69999289	0.00000000	0.00000000
122.89999288	0.00000000	0.00000000
123.09999287	0.00000000	0.04921259
123.29999286	0.00000000	0.46136810
123.49999284	0.00000000	1.26722400
123.69999283	0.00000000	1.67938000
123.89999282	0.00000000	1.72859200
124.09999281	0.00000000	1.67938000
124.29999280	0.00000000	1.26722400
124.49999279	0.00000000	0.46136810
124.69999277	0.00000000	0.04921259
124.89999276	0.00000000	0.00000000
125.09999275	0.00000000	0.00000000
125.29999274	0.00000000	0.00000000
125.49999273	0.00000000	0.04921259
125.69999271	0.00000000	0.46136810
125.89999270	0.00000000	1.31643700
126.09999269	0.00000000	2.14074800
126.29999268	0.00000000	2.95275600
126.49999267	0.00000000	2.95275600
126.69999265	0.00000000	2.14074800
126.89999264	0.00000000	1.31643700
127.09999263	0.00000000	0.41215550
127.29999262	0.00000000	-0.41215550
127.49999261	0.00000000	-1.21801200
127.69999260	0.00000000	-1.21801200
127.89999258	0.00000000	-0.41215550
128.09999257	0.00000000	0.41215550
128.29999256	0.00000000	1.31643700
128.49999255	0.00000000	2.14074800
128.69999254	0.00000000	3.00196800
128.89999252	0.00000000	3.36491100
129.09999251	0.00000000	3.00196800
129.29999250	0.00000000	2.14074800
129.49999249	0.00000000	1.26722400
129.69999248	0.00000000	0.00000000
129.89999246	0.00000000	-1.21801200
130.09999245	0.00000000	-1.63016700
130.29999244	0.00000000	-1.26722400
130.49999243	0.00000000	-0.41215550
130.69999242	0.00000000	0.41215550
130.89999241	0.00000000	1.31643700
131.09999239	0.00000000	2.14074800
131.29999238	0.00000000	2.95275600
131.49999237	0.00000000	2.95275600
131.69999236	0.00000000	2.14074800
131.89999235	0.00000000	1.31643700
132.09999233	0.00000000	0.46136810
132.29999232	0.00000000	0.04921259
132.49999231	0.00000000	0.00000000
132.69999230	0.00000000	0.00000000
132.89999229	0.00000000	0.04921259
133.09999227	0.00000000	0.46136810
133.29999226	0.00000000	1.26722400
133.49999225	0.00000000	1.67938000
133.69999224	0.00000000	1.72859200
133.89999223	0.00000000	1.67938000
134.09999222	0.00000000	1.26722400
134.29999220	0.00000000	0.46136810
134.49999219	0.00000000	0.04921259
134.69999218	0.00000000	0.04921259
134.89999217	0.00000000	0.46136810
135.09999216	0.00000000	1.26722400
135.29999214	0.00000000	1.67938000
135.49999213	0.00000000	1.72859200
135.69999212	0.00000000	1.72859200
135.89999211	0.00000000	1.72859200
136.09999210	0.00000000	1.67938000
136.29999208	0.00000000	1.26722400
136.49999207	0.00000000	0.41215550
136.69999206	0.00000000	-0.41215550
136.89999205	0.00000000	-1.21801200
137.09999204	0.00000000	-1.21801200
137.29999203	0.00000000	-0.41215550
137.49999201	0.00000000	0.46136810
137.69999200	0.00000000	1.72859200
137.89999199	0.00000000	2.95275600
138.09999198	0.00000000	3.41412400
138.29999197	0.00000000	3.41412400
138.49999195	0.00000000	3.00196800
138.69999194	0.00000000	2.14074800
138.89999193	0.00000000	1.31643700
139.09999192	0.00000000	0.41215550
139.29999191	0.00000000	-0.41215550
139.49999189	0.00000000	-1.26722400
139.69999188	0.00000000	-1.63016700
139.89999187	0.00000000	-1.26722400
140.09999186	0.00000000	-0.41215550
140.29999185	0.00000000	0.46136810
140.49999184	0.00000000	1.72859200
140.69999182	0.00000000	2.95275600
140.89999181	0.00000000	3.41412400
141.09999180	0.00000000	3.41412400
141.29999179	0.00000000	3.00196800
141.49999178	0.00000000	2.14074800
141.69999176	0.00000000	1.31643700
141.89999175	0.00000000	0.41215550
142.09999174	0.00000000	-0.41215550
142.29999173	0.00000000	-1.21801200
142.49999172	0.00000000	-1.21801200
142.69999170	0.00000000	-0.46136810
142.89999169	0.00000000	-0.04921259
143.09999168	0.00000000	0.04921259
143.29999167	0.00000000	0.46136810
143.49999166	0.00000000	1.26722400
143.69999165	0.00000000	1.67938000
143.89999163	0.00000000	1.72859200
144.09999162	0.00000000	1.72859200
144.29999161	0.00000000	1.72859200
144.49999160	0.00000000	1.72859200
144.69999159	0.00000000	1.67938000
144.89999157	0.00000000	1.26722400
145.09999156	0.00000000	0.46136810
145.29999155	0.00000000	0.04921259
145.49999154	0.00000000	0.00000000
145.69999153	0.00000000	0.00000000
145.89999151	0.00000000	0.00000000
146.09999150	0.00000000	0.04921259
146.29999149	0.00000000	0.46136810
146.49999148	0.00000000	1.26722400
146.69999147	0.00000000	1.72859200
146.89999146	0.00000000	2.14074800
147.09999144	0.00000000	2.54060000
147.29999143	0.00000000	2.14074800
147.49999142	0.00000000	1.77780500
147.69999141	0.00000000	1.67938000
147.89999140	0.00000000	1.26722400
148.09999138	0.00000000	0.46136810
148.29999137	0.00000000	0.04921259
148.49999136	0.00000000	0.00000000
148.69999135	0.00000000	0.00000000
148.89999134	0.00000000	0.00000000
149.09999132	0.00000000	0.04921259
149.29999131	0.00000000	0.51058070
149.49999130	0.00000000	1.72859200
149.69999129	0.00000000	2.95275600
149.89999128	0.00000000	3.36491100
150.09999127	0.00000000	3.00196800
150.29999125	0.00000000	2.14074800
150.49999124	0.00000000	1.31643700
150.69999123	0.00000000	0.46136810
150.89999122	0.00000000	0.04921259
151.09999121	0.00000000	0.00000000
151.29999119	0.00000000	0.00000000
151.49999118	0.00000000	0.04921259
151.69999117	0.00000000	0.46136810
151.89999116	0.00000000	1.31643700
152.09999115	0.00000000	2.14074800
152.29999113	0.00000000	3.00196800
152.49999112	0.00000000	3.36491100
152.69999111	0.00000000	3.00196800
152.89999110	0.00000000	2.14074800
153.09999109	0.00000000	1.31643700
153.29999108	0.00000000	0.46136810
153.49999106	0.00000000	0.04921259
153.69999105	0.00000000	0.00000000
153.89999104	0.00000000	0.00000000
154.09999103	0.00000000	0.04921259
154.29999102	0.00000000	0.46136810
154.49999100	0.00000000	1.26722400
154.69999099	0.00000000	1.67938000
154.89999098	0.00000000	1.72859200
155.09999097	0.00000000	1.72859200
155.29999096	0.00000000	1.72859200
155.49999094	0.00000000	1.72859200
155.69999093	0.00000000	1.72859200
155.89999092	0.00000000	1.72859200
156.09999091	0.00000000	1.72859200
156.29999090	0.00000000	1.72859200
156.49999089	0.00000000	1.72859200
156.69999087	0.00000000	1.72859200
156.89999086	0.00000000	1.67938000
157.09999085	0.00000000	1.26722400
157.29999084	0.00000000	0.46136810
157.49999083	0.00000000	0.04921259
157.69999081	0.00000000	0.00000000
157.89999080	0.00000000	0.04921259
158.09999079	0.00000000	0.46136810
158.29999078	0.00000000	1.26722400
158.49999077	0.00000000	1.67938000
158.69999075	0.00000000	1.72859200
158.89999074	0.00000000	1.72859200
159.09999073	0.00000000	1.72859200
159.29999072	0.00000000	1.72859200
159.49999071	0.00000000	1.67938000
159.69999070	0.00000000	1.26722400
159.89999068	0.00000000	0.46136810
160.09999067	0.00000000	0.04921259
160.29999066	0.00000000	0.00000000
160.49999065	0.00000000	0.04921259
160.69999064	0.00000000	0.41215550
160.89999062	0.00000000	0.86122040
161.09999061	0.00000000	0.86737200
161.29999060	0.00000000	1.31643700
161.49999059	0.00000000	1.67938000
161.69999058	0.00000000	1.72859200
161.89999056	0.00000000	1.72859200
162.09999055	0.00000000	1.72859200
162.29999054	0.00000000	1.67938000
162.49999053	0.00000000	1.26722400
162.69999052	0.00000000	0.46136810
162.89999051	0.00000000	0.04921259
163.09999049	0.00000000	0.00000000
163.29999048	0.00000000	0.00000000
163.49999047	0.00000000	0.04921259
163.69999046	0.00000000	0.46136810
163.89999045	0.00000000	1.26722400
164.09999043	0.00000000	1.67938000
164.29999042	0.00000000	1.72859200
164.49999041	0.00000000	1.72859200
164.69999040	0.00000000	1.72859200
164.89999039	0.00000000	1.67938000
165.09999037	0.00000000	1.26722400
165.29999036	0.00000000	0.46136810
165.49999035	0.00000000	0.04921259
165.69999034	0.00000000	0.04921259
165.89999033	0.00000000	0.46136810
166.09999032	0.00000000	1.26722400
166.29999030	0.00000000	1.67938000
166.49999029	0.00000000	1.72859200
166.69999028	0.00000000	1.72859200
166.89999027	0.00000000	1.72859200
167.09999026	0.00000000	1.67938000
167.29999024	0.00000000	1.26722400
167.49999023	0.00000000	0.46136810
167.69999022	0.00000000	0.04921259
167.89999021	0.00000000	0.04921259
168.09999020	0.00000000	0.46136810
168.29999018	0.00000000	1.26722400
168.49999017	0.00000000	1.67938000
168.69999016	0.00000000	1.72859200
168.89999015	0.00000000	1.72859200
169.09999014	0.00000000	1.72859200
169.29999013	0.00000000	1.72859200
169.49999011	0.00000000	1.72859200
169.69999010	0.00000000	1.72859200
169.89999009	0.00000000	1.67938000
170.09999008	0.00000000	1.26722400
170.29999007	0.00000000	0.46136810
170.49999005	0.00000000	0.04921259
170.69999004	0.00000000	0.04921259
170.89999003	0.00000000	0.46136810
171.09999002	0.00000000	1.26722400
171.29999001	0.00000000	1.67938000
171.49998999	0.00000000	1.72859200
171.69998998	0.00000000	1.72859200
171.89998997	0.00000000	1.72859200
172.09998996	0.00000000	1.72859200
172.29998995	0.00000000	1.72859200
172.49998994	0.00000000	1.67938000
172.69998992	0.00000000	1.26722400
172.89998991	0.00000000	0.46136810
173.09998990	0.00000000	0.04921259
173.29998989	0.00000000	0.00000000
173.49998988	0.00000000	0.00000000
173.69998986	0.00000000	0.00000000
173.89998985	0.00000000	0.04921259
174.09998984	0.00000000	0.46136810
174.29998983	0.00000000	1.26722400
174.49998982	0.00000000	1.67938000
174.69998980	0.00000000	1.72859200
174.89998979	0.00000000	1.72859200
175.09998978	0.00000000	1.72859200
175.29998977	0.00000000	1.67938000
175.49998976	0.00000000	1.31643700
175.69998975	0.00000000	0.86737200
175.89998973	0.00000000	0.86122040
176.09998972	0.00000000	0.41215550
176.29998971	0.00000000	0.04921259
176.49998970	0.00000000	0.04921259
176.69998969	0.00000000	0.46136810
176.89998967	0.00000000	1.26722400
177.09998966	0.00000000	1.67938000
177.29998965	0.00000000	1.67938000
177.49998964	0.00000000	1.31643700
177.69998963	0.00000000	0.91658460
177.89998961	0.00000000	1.26722400
178.09998960	0.00000000	1.21801200
178.29998959	0.00000000	0.51058070
178.49998958	0.00000000	0.46136810
178.69998957	0.00000000	0.81200780
178.89998956	0.00000000	0.41215550
179.09998954	0.00000000	0.09842519
179.29998953	0.00000000	0.46136810
179.49998952	0.00000000	1.26722400
179.69998951	0.00000000	1.67938000
179.89998950	0.00000000	1.72859200
180.09998948	0.00000000	1.72859200
180.29998947	0.00000000	1.72859200
180.49998946	0.00000000	1.72859200
180.69998945	0.00000000	1.72859200
180.89998944	0.00000000	1.67938000
181.09998942	0.00000000	1.31643700
181.29998941	0.00000000	0.86737200
181.49998940	0.00000000	0.86122040
181.69998939	0.00000000	0.46136810
181.89998938	0.00000000	0.51058070
182.09998937	0.00000000	1.26722400
182.29998935	0.00000000	1.67938000
182.49998934	0.00000000	1.72859200
182.69998933	0.00000000	1.72859200
182.89998932	0.00000000	1.72859200
183.09998931	0.00000000	1.72859200
183.29998929	0.00000000	1.72859200
183.49998928	0.00000000	1.72859200
183.69998927	0.00000000	1.72859200
183.89998926	0.00000000	1.72859200
184.09998925	0.00000000	1.72859200
184.29998923	0.00000000	1.72859200
184.49998922	0.00000000	1.72859200
184.69998921	0.00000000	1.67938000
184.89998920	0.00000000	1.26722400
185.09998919	0.00000000	0.46136810
185.29998918	0.00000000	0.09842519
185.49998916	0.00000000	0.41215550
185.69998915	0.00000000	0.86122040
185.89998914	0.00000000	0.86737200
186.09998913	0.00000000	1.31643700
186.29998912	0.00000000	1.67938000
186.49998910	0.00000000	1.72859200
186.69998909	0.00000000	1.72859200
186.89998908	0.00000000	1.72859200
187.09998907	0.00000000	1.72859200
187.29998906	0.00000000	1.72859200
187.49998904	0.00000000	1.72859200
187.69998903	0.00000000	1.67938000
187.89998902	0.00000000	1.26722400
188.09998901	0.00000000	0.46136810
188.29998900	0.00000000	0.04921259
188.49998899	0.00000000	0.04921259
188.69998897	0.00000000	0.46136810
188.89998896	0.00000000	1.26722400
189.09998895	0.00000000	1.67938000
189.29998894	0.00000000	1.72859200
189.49998893	0.00000000	1.72859200
189.69998891	0.00000000	1.72859200
189.89998890	0.00000000	1.72859200
190.09998889	0.00000000	1.72859200
190.29998888	0.00000000	1.67938000
190.49998887	0.00000000	1.26722400
190.69998885	0.00000000	0.46136810
190.89998884	0.00000000	0.04921259
191.09998883	0.00000000	0.00000000
191.29998882	0.00000000	0.04921259
191.49998881	0.00000000	0.46136810
191.69998880	0.00000000	1.26722400
191.89998878	0.00000000	1.67938000
192.09998877	0.00000000	1.72859200
192.29998876	0.00000000	1.72859200
192.49998875	0.00000000	1.72859200
192.69998874	0.00000000	1.67938000
192.89998872	0.00000000	1.31643700
193.09998871	0.00000000	0.86737200
193.29998870	0.00000000	0.86122040
193.49998869	0.00000000	0.41215550
193.69998868	0.00000000	0.04921259
193.89998866	0.00000000	0.00000000
194.09998865	0.00000000	0.04921259
194.29998864	0.00000000	0.41215550
194.49998863	0.00000000	0.86122040
194.69998862	0.00000000	0.86737200
194.89998861	0.00000000	1.31643700
195.09998859	0.00000000	1.67938000
195.29998858	0.00000000	1.72859200
195.49998857	0.00000000	1.72859200
195.69998856	0.00000000	1.72859200
195.89998855	0.00000000	1.72859200
196.09998853	0.00000000	1.72859200
