Time	Channel A	Channel B	Channel C
(us)	(V)	(mV)	(mV)

-4.53333289	0.00000000	7.06815900	-4.73671200
-4.33333290	0.00000000	6.69906400	-4.73671200
-4.13333291	0.00000000	6.36687900	-4.73671200
-3.93333293	0.00000000	6.32381900	-4.73671200
-3.73333294	0.00000000	6.36687900	-4.73671200
-3.53333295	0.00000000	6.74212600	-4.73671200
-3.33333296	0.00000000	7.48646600	-4.73671200
-3.13333297	0.00000000	7.86171200	-4.73671200
-2.93333299	0.00000000	7.86171200	-4.73671200
-2.73333300	0.00000000	7.48646600	-4.73671200
-2.53333301	0.00000000	6.74212600	-4.73671200
-2.33333302	0.00000000	6.41609200	-4.73671200
-2.13333303	0.00000000	6.69906400	-4.73671200
-1.93333304	0.00000000	7.06815900	-4.73671200
-1.73333306	0.00000000	6.69906400	-4.73671200
-1.53333307	0.00000000	6.36687900	-4.73671200
-1.33333308	0.00000000	6.36687900	-4.73671200
-1.13333309	0.00000000	6.69906400	-4.73671200
-0.93333310	0.00000000	7.06815900	-4.73671200
-0.73333312	0.00000000	6.69906400	-4.73671200
-0.53333313	0.00000000	6.36687900	-4.73671200
-0.33333314	0.15871060	6.32381900	-4.73671200
-0.13333315	0.47736220	6.36687900	-4.73671200
0.06666684	0.95533960	6.69906400	-4.73671200
0.26666682	0.95533960	7.06815900	-4.73671200
0.46666681	0.95533960	6.69906400	-4.73671200
0.66666680	0.47736220	6.36687900	-4.73671200
0.86666679	-0.15871060	6.32381900	-4.73671200
1.06666678	-1.11466500	6.32381900	-4.73671200
1.26666677	-2.07062000	6.32381900	-4.73671200
1.46666675	-2.70792300	6.32381900	-4.73671200
1.66666674	-2.54859700	6.36687900	-4.73671200
1.86666673	-1.75196900	6.69906400	-4.73671200
2.06666672	-0.15871060	7.06815900	-4.73671200
2.26666671	1.91129400	6.69906400	-4.73671200
2.46666669	3.82258900	6.36687900	-4.73671200
2.66666668	5.09719500	6.32381900	-4.77977300
2.86666667	5.09719500	6.32381900	-5.11195900
3.06666666	3.82258900	6.36687900	-5.51796200
3.26666665	1.11466500	6.69906400	-5.53026500
3.46666663	-2.22994600	7.06815900	-5.89320800
3.66666662	-5.57517200	6.74212600	-5.85014700
3.86666661	-7.64579200	6.79133800	-5.15501900
4.06666660	-7.80511800	7.48646600	-4.77977300
4.26666659	-6.21247500	7.86171200	-4.73671200
4.46666658	-2.70792300	7.90477300	-4.73671200
4.66666656	1.75196900	7.86171200	-4.73671200
4.86666655	5.89382400	7.48646600	-4.73671200
5.06666654	8.76107300	6.74212600	-4.77977300
5.26666653	9.39837600	6.36687900	-5.15501900
5.46666652	7.80511800	6.32381900	-5.89320800
5.66666650	3.98191400	6.32381900	-6.21924200
5.86666649	-0.63668800	6.36687900	-5.89320800
6.06666648	-5.09719500	6.74212600	-5.15501900
6.26666647	-8.44242100	7.43725300	-4.77977300
6.46666646	-9.39837600	7.48646600	-4.73671200
6.66666644	-8.12377000	7.16043300	-4.73671200
6.86666643	-4.77854300	7.48646600	-4.73671200
7.06666642	-0.63668800	7.48646600	-4.73671200
7.26666641	3.50393700	7.11737200	-4.73671200
7.46666640	6.53112700	7.11122000	-4.73671200
7.66666639	7.80511800	6.69906400	-4.73671200
7.86666637	7.00848900	6.36687900	-4.77977300
8.06666636	4.61921700	6.32381900	-5.11195900
8.26666635	1.43331700	6.32381900	-5.51796200
8.46666634	-1.91129400	6.32381900	-5.48105300
8.66666633	-4.14124000	6.32381900	-5.51796200
8.86666631	-5.09719500	6.32381900	-5.11195900
9.06666630	-4.77854300	6.32381900	-4.77977300
9.26666629	-3.34522600	6.36687900	-4.73671200
9.46666628	-1.43331700	6.69906400	-4.73671200
9.66666627	0.47736220	7.06815900	-4.73671200
9.86666625	1.91129400	6.69906400	-4.73671200
10.06666624	2.54859700	6.36687900	-4.73671200
10.26666623	2.38927200	6.32381900	-4.73671200
10.46666622	1.75196900	6.32381900	-4.73671200
10.66666621	0.79601380	6.32381900	-4.73671200
10.86666620	0.00000000	6.32381900	-4.73671200
11.06666618	-0.63668800	6.32381900	-4.73671200
11.26666617	-0.95533960	6.32381900	-4.73671200
11.46666616	-0.95533960	6.32381900	-4.73671200
11.66666615	-0.79601380	6.32381900	-4.77977300
11.86666614	-0.63668800	6.32381900	-5.11195900
12.06666612	-0.15871060	6.32381900	-5.47490100
12.26666611	-0.15871060	6.32381900	-5.11195900
12.46666610	-0.15871060	6.32381900	-4.77977300
12.66666609	0.00000000	6.32381900	-4.73671200
12.86666608	0.00000000	6.36687900	-4.73671200
13.06666606	0.00000000	6.69906400	-4.73671200
13.26666605	0.15871060	7.06815900	-4.73671200
13.46666604	0.00000000	6.69906400	-4.73671200
13.66666603	0.00000000	6.36687900	-4.77977300
13.86666602	0.00000000	6.32381900	-5.11195900
14.06666601	-0.15871060	6.32381900	-5.47490100
14.26666599	-0.15871060	6.32381900	-5.11195900
14.46666598	-0.15871060	6.32381900	-4.77977300
14.66666597	-0.15871060	6.32381900	-4.73671200
14.86666596	0.00000000	6.32381900	-4.73671200
15.06666595	0.00000000	6.32381900	-4.73671200
15.26666593	0.00000000	6.32381900	-4.73671200
15.46666592	0.00000000	6.32381900	-4.73671200
15.66666591	0.00000000	6.32381900	-4.73671200
15.86666590	0.00000000	6.32381900	-4.73671200
16.06666589	0.00000000	6.32381900	-4.73671200
16.26666587	0.00000000	6.32381900	-4.73671200
16.46666586	0.00000000	6.36687900	-4.73671200
16.66666585	-0.15871060	6.74212600	-4.73671200
16.86666584	0.00000000	7.48646600	-4.73671200
17.06666583	0.00000000	7.86171200	-4.73671200
17.26666582	0.00000000	7.90477300	-4.73671200
17.46666580	0.00000000	7.94783400	-4.73671200
17.66666579	0.00000000	8.28001900	-4.73671200
17.86666578	0.00000000	8.59990100	-4.73671200
18.06666577	0.00000000	7.81250000	-4.73671200
18.26666576	0.00000000	6.32381900	-4.73671200
18.46666574	0.00000000	4.74286400	-4.73671200
18.66666573	0.00000000	3.16190900	-4.73671200
18.86666572	0.00000000	1.67322800	-4.73671200
19.06666571	0.00000000	0.97194880	-4.77977300
19.26666570	0.00000000	2.13459600	-5.11195900
19.46666568	0.00000000	4.78592500	-5.47490100
19.66666567	0.00000000	7.94783400	-5.11195900
19.86666566	0.00000000	11.48499000	-4.77977300
20.06666565	0.00000000	15.29897000	-4.73671200
20.26666564	0.00000000	17.90723000	-4.73671200
20.46666563	0.00000000	17.90723000	-4.73671200
20.66666561	0.00000000	15.16363000	-4.73671200
20.86666560	0.00000000	10.09473000	-4.73671200
21.06666559	0.00000000	3.06963600	-4.73671200
21.26666558	0.00000000	-4.60752900	-4.73671200
21.46666557	0.00000000	-11.11590000	-4.73671200
21.66666555	0.00000000	-14.14862000	-4.73671200
21.86666554	0.00000000	-12.56767000	-4.77977300
22.06666553	0.00000000	-6.28690900	-5.15501900
22.26666552	0.00000000	4.18307100	-5.85014700
22.46666551	0.00000000	16.92298000	-5.85014700
22.66666549	0.00000000	28.83858000	-5.15501900
22.86666548	0.00000000	36.89099000	-4.77977300
23.06666547	0.00000000	38.38583000	-4.73671200
23.26666546	0.00000000	32.56643000	-4.69365100
23.46666545	0.00000000	20.47244000	-4.31840500
23.66666544	0.00000000	3.81397600	-3.57406500
23.86666542	0.00000000	-14.28396000	-3.19881900
24.06666541	0.00000000	-28.85088000	-3.19881900
24.26666540	0.00000000	-35.78371000	-3.57406500
24.46666539	0.00000000	-33.04010000	-4.36146600
24.66666538	0.00000000	-20.98917000	-5.19808000
24.86666536	0.00000000	-1.63016700	-6.77903500
25.06666535	0.00000000	21.11835000	-9.00590400
25.26666534	0.00000000	41.54158000	-10.49459000
25.46666533	0.00000000	54.66289000	-10.53765000
25.66666532	0.00000000	57.27116000	-9.38115100
25.86666530	0.00000000	48.00689000	-7.38188900
26.06666529	0.00000000	28.70325000	-4.26919300
26.26666528	0.00000000	4.41067900	-0.41830710
26.46666527	0.00000000	-19.58661000	3.06348400
26.66666526	0.00000000	-37.69070000	5.75787400
26.86666525	0.00000000	-45.82923000	6.78518600
27.06666523	0.00000000	-41.97219000	4.78592500
27.26666522	0.00000000	-27.31299000	-0.59670270
27.46666521	0.00000000	-5.25959600	-7.89247000
27.66666520	0.00000000	19.44513000	-15.27436000
27.86666519	0.00000000	41.03100000	-21.45669000
28.06666517	0.00000000	54.20152000	-25.26452000
28.26666516	0.00000000	56.20078000	-25.13533000
28.46666515	0.00000000	47.40403000	-20.06643000
28.66666514	0.00000000	30.37647000	-10.45152000
28.86666513	0.00000000	9.11048200	1.11343500
29.06666511	0.00000000	-12.10015000	11.98327000
29.26666510	0.00000000	-28.00812000	20.44168000
29.46666509	0.00000000	-35.45768000	24.20645000
29.66666508	0.00000000	-34.33809000	21.46899000
29.86666507	0.00000000	-24.66166000	12.54921000
30.06666506	0.00000000	-8.88902600	-1.01501000
30.26666504	0.00000000	8.93208600	-16.81225000
30.46666503	0.00000000	25.17224000	-31.02854000
30.66666502	0.00000000	36.42347000	-39.90526000
30.86666501	0.00000000	40.38509000	-41.48622000
31.06666500	0.00000000	37.40157000	-35.63607000
31.26666498	0.00000000	28.83858000	-23.22835000
31.46666497	0.00000000	16.46161000	-6.22539300
31.66666496	0.00000000	2.50984200	11.47884000
31.86666495	0.00000000	-9.82406400	25.78740000
32.06666494	0.00000000	-18.00566000	33.50147000
32.26666492	0.00000000	-20.33710000	33.16929000
32.46666491	0.00000000	-16.93528000	25.00000000
32.66666490	0.00000000	-8.79675100	10.68528000
32.86666489	0.00000000	1.99926200	-7.43110200
33.06666488	0.00000000	13.20743000	-24.80315000
33.26666487	0.00000000	22.09646000	-37.58612000
33.46666485	0.00000000	26.79626000	-43.80536000
33.66666484	0.00000000	26.83932000	-41.86147000
33.86666483	0.00000000	22.60704000	-32.60949000
34.06666482	0.00000000	15.25591000	-17.88263000
34.26666481	0.00000000	6.41609200	-0.55364170
34.46666479	0.00000000	-1.67938000	15.28666000
34.66666478	0.00000000	-6.70521600	26.11343000
34.86666477	0.00000000	-7.95398600	30.01353000
35.06666476	0.00000000	-5.63484200	26.15649000
35.26666475	0.00000000	-0.65206690	15.74803000
35.46666473	0.00000000	5.90551100	1.11343500
35.66666472	0.00000000	12.05093000	-14.30856000
35.86666471	0.00000000	16.28322000	-26.62401000
36.06666470	0.00000000	17.43971000	-33.26156000
36.26666469	0.00000000	15.16363000	-32.89247000
36.46666468	0.00000000	10.59916000	-26.38410000
36.66666466	0.00000000	5.21038300	-15.23130000
36.86666465	0.00000000	0.59670270	-2.54675200
37.06666464	0.00000000	-2.14074800	8.23080600
37.26666463	0.00000000	-2.51599400	14.81914000
37.46666462	0.00000000	-0.60900590	15.56963000
37.66666460	0.00000000	3.25418300	10.63607000
37.86666459	0.00000000	7.86171200	1.43946800
38.06666458	0.00000000	12.13706000	-8.87672100
38.26666457	0.00000000	15.21284000	-17.32899000
38.46666456	0.00000000	16.32628000	-21.55512000
38.66666454	0.00000000	14.83760000	-20.44168000
38.86666453	0.00000000	11.39887000	-14.67766000
39.06666452	0.00000000	7.48646600	-5.89320800
39.26666451	0.00000000	3.20497000	3.29724400
39.46666450	0.00000000	-0.60900590	9.76254800
39.66666449	0.00000000	-2.56520700	11.70645000
39.86666447	0.00000000	-2.60826800	8.23080600
40.06666446	0.00000000	-1.02731300	0.60285430
40.26666445	0.00000000	2.04847400	-9.01205700
40.46666444	0.00000000	5.90551100	-17.83957000
40.66666443	0.00000000	9.44266700	-23.55438000
40.86666441	0.00000000	12.60458000	-24.29872000
41.06666440	0.00000000	15.25591000	-19.32825000
41.26666439	0.00000000	16.36934000	-10.54380000
41.46666438	0.00000000	15.25591000	-0.55364170
41.66666437	0.00000000	12.55536000	7.90477300
41.86666435	0.00000000	9.01820900	12.54921000
42.06666434	0.00000000	4.78592500	12.59227000
42.26666433	0.00000000	0.97194880	8.36614100
42.46666432	0.00000000	-1.02731300	1.07037400
42.66666431	0.00000000	-1.44562000	-7.43110200
42.86666430	0.00000000	-0.69512790	-15.09596000
43.06666428	0.00000000	1.24877000	-20.10950000
43.26666427	0.00000000	3.58021600	-20.85999000
43.46666426	0.00000000	6.32381900	-17.50738000
43.66666425	0.00000000	8.97514600	-11.38041000
43.86666424	0.00000000	10.55610000	-4.87204700
44.06666422	0.00000000	10.97441000	0.60285430
44.26666421	0.00000000	10.64838000	4.09079700
44.46666420	0.00000000	9.90403500	5.29650500
44.66666419	0.00000000	9.52879000	4.13385800
44.86666418	0.00000000	9.44266700	1.07037400
45.06666416	0.00000000	9.06742000	-3.15575800
45.26666415	0.00000000	8.28001900	-7.33882900
45.46666414	0.00000000	7.43725300	-10.07628000
45.66666413	0.00000000	5.81323800	-10.91289000
45.86666412	0.00000000	3.16190900	-10.53765000
46.06666411	0.00000000	0.46751960	-9.00590400
46.26666409	0.00000000	-1.48868100	-6.72982200
46.46666408	0.00000000	-2.60826800	-4.77977300
46.66666407	0.00000000	-2.14074800	-3.15575800
46.86666406	0.00000000	0.59670270	-1.66707700
47.06666405	0.00000000	5.29650500	-0.92888770
47.26666403	0.00000000	11.44193000	-1.66707700
47.46666402	0.00000000	17.57505000	-3.15575800
47.66666401	0.00000000	21.40133000	-4.77977300
47.86666400	0.00000000	22.18258000	-6.68676100
48.06666399	0.00000000	19.39591000	-8.63681000
48.26666397	0.00000000	13.25664000	-9.75639700
48.46666396	0.00000000	5.11811000	-10.11934000
48.66666395	0.00000000	-2.98351400	-8.91978400
48.86666394	0.00000000	-9.53494100	-6.31151500
49.06666393	0.00000000	-12.56767000	-3.57406500
49.26666392	0.00000000	-11.02977000	-1.24877000
49.46666390	0.00000000	-5.21653500	0.69512790
49.66666389	0.00000000	3.62942900	1.43946800
49.86666388	0.00000000	13.25664000	1.02116100
50.06666387	0.00000000	20.97687000	-0.97194880
50.26666386	0.00000000	25.21530000	-4.77977300
50.46666384	0.00000000	24.79084000	-8.96284400
50.66666383	0.00000000	19.44513000	-12.07554000
50.86666382	0.00000000	11.02362000	-13.65650000
51.06666381	0.00000000	2.13459600	-13.61343000
51.26666380	0.00000000	-5.21653500	-11.65723000
51.46666379	0.00000000	-9.44881800	-7.84940900
51.66666377	0.00000000	-9.44881800	-3.62327700
51.86666376	0.00000000	-5.21653500	-0.09227362
52.06666375	0.00000000	2.04847400	2.60211600
52.26666374	0.00000000	10.13779000	3.71555100
52.46666373	0.00000000	16.70152000	2.55905500
52.66666371	0.00000000	20.55856000	-0.51058070
52.86666370	0.00000000	20.51550000	-4.73671200
53.06666369	0.00000000	16.32628000	-8.91978400
53.26666368	0.00000000	9.44266700	-11.61417000
53.46666367	0.00000000	2.17765700	-12.07554000
53.66666365	0.00000000	-3.26033400	-10.96211000
53.86666364	0.00000000	-5.54256900	-9.00590400
54.06666363	0.00000000	-4.42298200	-6.31151500
54.26666362	0.00000000	0.17839570	-3.61712600
54.46666361	0.00000000	6.28075700	-1.71013800
54.66666360	0.00000000	12.05093000	-0.97194880
54.86666358	0.00000000	15.90797000	-2.08538400
55.06666357	0.00000000	16.70152000	-4.31840500
55.26666356	0.00000000	14.78838000	-6.22539300
55.46666355	0.00000000	10.55610000	-7.38188900
55.66666354	0.00000000	5.21038300	-7.38188900
55.86666352	0.00000000	0.59670270	-6.22539300
56.06666351	0.00000000	-2.14074800	-4.31840500
56.26666350	0.00000000	-2.51599400	-2.04232300
56.46666349	0.00000000	-0.60900590	-0.59670270
56.66666348	0.00000000	3.25418300	-0.97194880
56.86666346	0.00000000	7.81250000	-3.24803100
57.06666345	0.00000000	11.67569000	-6.31151500
57.26666344	0.00000000	13.63189000	-9.42421200
57.46666343	0.00000000	13.67495000	-12.11860000
57.66666342	0.00000000	12.13706000	-13.56422000
57.86666341	0.00000000	9.44266700	-12.77067000
58.06666339	0.00000000	6.36687900	-9.29502900
58.26666338	0.00000000	3.67249000	-4.31840500
58.46666337	0.00000000	2.09153500	1.06422200
58.66666336	0.00000000	1.67322800	5.24729300
58.86666335	0.00000000	2.09153500	6.78518600
59.06666333	0.00000000	3.62942900	5.24729300
59.26666332	0.00000000	5.90551100	0.97810030
59.46666331	0.00000000	7.81250000	-5.20423200
59.66666330	0.00000000	8.97514600	-12.11860000
59.86666329	0.00000000	9.01820900	-17.83957000
60.06666327	0.00000000	8.28001900	-20.48474000
60.26666326	0.00000000	7.48646600	-18.95300000
60.46666325	0.00000000	6.32381900	-13.61343000
60.66666324	0.00000000	5.25344500	-6.31766700
60.86666323	0.00000000	5.21038300	1.07037400
61.06666322	0.00000000	5.94857300	7.20349400
61.26666320	0.00000000	6.69906400	10.68528000
61.46666319	0.00000000	7.48646600	10.22392000
61.66666318	0.00000000	7.81250000	6.03469500
61.86666317	0.00000000	7.48646600	-1.29183100
62.06666316	0.00000000	6.69906400	-9.33809000
62.26666314	0.00000000	5.90551100	-16.35089000
62.46666313	0.00000000	4.74286400	-20.95226000
62.66666312	0.00000000	3.62942900	-22.06570000
62.86666311	0.00000000	3.25418300	-19.00221000
63.06666310	0.00000000	3.62942900	-12.49385000
63.26666308	0.00000000	4.78592500	-4.77977300
63.46666307	0.00000000	6.36687900	2.60211600
63.66666306	0.00000000	8.28001900	8.31692900
63.86666305	0.00000000	10.18086000	10.64222000
64.06666304	0.00000000	10.93135000	8.78444900
64.26666303	0.00000000	10.55610000	4.18307100
64.46666301	0.00000000	9.01820900	-2.04232300
64.66666300	0.00000000	6.74212600	-8.96284400
64.86666299	0.00000000	4.78592500	-14.72687000
65.06666298	0.00000000	3.25418300	-17.88263000
65.26666297	0.00000000	2.46678100	-18.30093000
65.46666295	0.00000000	2.87893700	-16.39395000
65.66666294	0.00000000	3.99852300	-12.49385000
65.86666293	0.00000000	5.94857300	-7.51722400
66.06666292	0.00000000	7.81250000	-2.46063000
66.26666291	0.00000000	8.97514600	1.39640700
66.46666289	0.00000000	8.97514600	3.80782500
66.66666288	0.00000000	7.81250000	4.55831700
66.86666287	0.00000000	5.94857300	3.85088600
67.06666286	0.00000000	4.04773600	1.90698800
67.26666285	0.00000000	3.25418300	-0.41830710
67.46666284	0.00000000	3.25418300	-3.24803100
67.66666282	0.00000000	4.09079700	-6.68676100
67.86666281	0.00000000	6.41609200	-10.16855000
68.06666280	0.00000000	9.39345400	-12.49385000
68.26666279	0.00000000	11.71875000	-13.74262000
68.46666278	0.00000000	12.46924000	-14.07480000
68.66666276	0.00000000	11.71875000	-13.23819000
68.86666275	0.00000000	9.35039300	-10.49459000
69.06666274	0.00000000	5.90551100	-6.31151500
69.26666273	0.00000000	1.99926200	-1.99311000
69.46666272	0.00000000	-1.40255900	1.86392700
69.66666270	0.00000000	-3.30339500	4.96432100
69.86666269	0.00000000	-2.51599400	6.04084600
70.06666268	0.00000000	0.55364170	4.92125900
70.26666267	0.00000000	5.21038300	1.43946800
70.46666266	0.00000000	10.59916000	-3.20497000
70.66666265	0.00000000	15.21284000	-8.26771600
70.86666263	0.00000000	17.90723000	-13.23819000
71.06666262	0.00000000	17.90723000	-16.30167000
71.26666261	0.00000000	15.21284000	-16.71998000
71.46666260	0.00000000	10.55610000	-14.81299000
71.66666259	0.00000000	4.74286400	-10.95595000
71.86666257	0.00000000	-1.02731300	-6.31151500
72.06666256	0.00000000	-5.25959600	-1.71013800
72.26666255	0.00000000	-6.79749000	1.76550200
72.46666254	0.00000000	-5.25959600	2.93430100
72.66666253	0.00000000	-1.02731300	2.22687000
72.86666251	0.00000000	4.74286400	-0.09227362
73.06666250	0.00000000	10.55610000	-3.11269700
73.26666249	0.00000000	15.21284000	-5.85014700
73.46666248	0.00000000	17.90723000	-7.80019600
73.66666247	0.00000000	17.90723000	-8.96284400
73.86666246	0.00000000	15.25591000	-8.96284400
74.06666244	0.00000000	10.97441000	-7.84940900
74.26666243	0.00000000	5.94857300	-6.36072800
74.46666242	0.00000000	0.97194880	-5.19808000
74.66666241	0.00000000	-2.09768700	-4.82898600
74.86666240	0.00000000	-2.56520700	-5.19808000
75.06666238	0.00000000	-1.07037400	-6.31151500
75.26666237	0.00000000	1.62401600	-7.42495000
75.46666236	0.00000000	4.74286400	-7.75713500
75.66666235	0.00000000	7.86171200	-6.96358300
75.86666234	0.00000000	10.51304000	-4.68750000
76.06666232	0.00000000	11.67569000	-1.99311000
76.26666231	0.00000000	10.97441000	0.33218500
76.46666230	0.00000000	9.48572700	2.22687000
76.66666229	0.00000000	7.90477300	2.50984200
76.86666228	0.00000000	6.36687900	0.60285430
77.06666227	0.00000000	5.21038300	-3.24803100
77.26666225	0.00000000	4.83513700	-7.84940900
77.46666224	0.00000000	5.16117100	-12.11860000
77.66666223	0.00000000	5.85629900	-15.18824000
77.86666222	0.00000000	5.85629900	-16.34473000
78.06666221	0.00000000	5.11811000	-15.14518000
78.26666219	0.00000000	4.36761800	-11.65723000
78.46666218	0.00000000	3.58021600	-6.26845500
78.66666217	0.00000000	3.25418300	-0.51058070
78.86666216	0.00000000	3.62942900	4.14000900
79.06666215	0.00000000	4.78592500	6.82824800
79.26666213	0.00000000	6.32381900	6.82824800
79.46666212	0.00000000	7.94783400	4.14000900
79.66666211	0.00000000	9.86097400	-0.46136810
79.86666210	0.00000000	11.71875000	-5.89320800
80.06666209	0.00000000	12.05093000	-10.91289000
80.26666208	0.00000000	10.55610000	-14.76993000
80.46666206	0.00000000	7.86171200	-16.34473000
80.66666205	0.00000000	4.78592500	-15.60654000
80.86666204	0.00000000	2.09153500	-13.28125000
81.06666203	0.00000000	0.55364170	-9.43036400
81.26666202	0.00000000	0.51058070	-5.19808000
81.46666200	0.00000000	1.67322800	-1.66707700
81.66666199	0.00000000	3.62942900	1.07037400
81.86666198	0.00000000	6.32381900	2.60211600
82.06666197	0.00000000	8.97514600	2.64517700
82.26666196	0.00000000	10.55610000	1.48868100
82.46666194	0.00000000	10.97441000	-0.46751960
82.66666193	0.00000000	10.55610000	-3.19881900
82.86666192	0.00000000	9.01820900	-6.26845500
83.06666191	0.00000000	6.74212600	-9.00590400
83.26666190	0.00000000	4.83513700	-11.00517000
83.46666189	0.00000000	3.62942900	-12.53691000
83.66666187	0.00000000	3.25418300	-13.28125000
83.86666186	0.00000000	3.58021600	-12.45079000
84.06666185	0.00000000	4.36761800	-10.16855000
84.26666184	0.00000000	5.11811000	-6.64370100
84.46666183	0.00000000	5.90551100	-2.82972400
84.66666181	0.00000000	6.28075700	0.69512790
84.86666180	0.00000000	6.32381900	2.97736200
85.06666179	0.00000000	6.32381900	3.80782500
85.26666178	0.00000000	6.36687900	2.97736200
85.46666177	0.00000000	6.74212600	0.60285430
85.66666175	0.00000000	7.48646600	-3.62327700
85.86666174	0.00000000	7.86171200	-8.58759800
86.06666173	0.00000000	7.90477300	-12.45079000
86.26666172	0.00000000	7.86171200	-14.81299000
86.46666171	0.00000000	7.43725300	-15.14518000
86.66666170	0.00000000	6.28075700	-13.23819000
86.86666168	0.00000000	4.78592500	-9.38115100
87.06666167	0.00000000	3.62942900	-4.73671200
87.26666166	0.00000000	3.20497000	-0.13533460
87.46666165	0.00000000	3.20497000	3.34645700
87.66666164	0.00000000	3.62942900	4.46604300
87.86666162	0.00000000	4.78592500	3.34645700
88.06666161	0.00000000	6.32381900	-0.13533460
88.26666160	0.00000000	7.86171200	-4.73671200
88.46666159	0.00000000	9.01820900	-9.38115100
88.66666158	0.00000000	9.39345400	-13.18898000
88.86666156	0.00000000	9.01820900	-14.72687000
89.06666155	0.00000000	7.86171200	-13.60728000
89.26666154	0.00000000	6.32381900	-10.53765000
89.46666153	0.00000000	4.74286400	-6.31151500
89.66666152	0.00000000	3.25418300	-2.04232300
89.86666151	0.00000000	2.50984200	1.44562000
90.06666149	0.00000000	3.20497000	3.67249000
90.26666148	0.00000000	4.32455700	3.25418300
90.46666147	0.00000000	5.16117100	-0.13533460
90.66666146	0.00000000	6.32381900	-4.73671200
90.86666145	0.00000000	7.43725300	-9.38115100
91.06666143	0.00000000	7.86171200	-13.18898000
91.26666142	0.00000000	7.86171200	-14.67766000
91.46666141	0.00000000	7.48646600	-13.18898000
91.66666140	0.00000000	6.74212600	-9.38115100
91.86666139	0.00000000	6.36687900	-4.77977300
92.06666137	0.00000000	6.32381900	-0.51058070
92.26666136	0.00000000	6.32381900	2.55905500
92.46666135	0.00000000	6.32381900	3.67249000
92.66666134	0.00000000	6.28075700	2.14074800
92.86666133	0.00000000	5.90551100	-1.66707700
93.06666132	0.00000000	5.11811000	-6.26845500
93.26666130	0.00000000	4.36761800	-10.49459000
93.46666129	0.00000000	3.58021600	-13.18898000
93.66666128	0.00000000	3.25418300	-13.56422000
93.86666127	0.00000000	3.62942900	-11.65723000
94.06666126	0.00000000	4.78592500	-7.84940900
94.26666124	0.00000000	6.32381900	-3.62327700
94.46666123	0.00000000	7.90477300	-0.13533460
94.66666122	0.00000000	9.44266700	2.14074800
94.86666121	0.00000000	10.55610000	2.09153500
95.06666120	0.00000000	10.55610000	-0.51058070
95.26666118	0.00000000	9.39345400	-4.31840500
95.46666117	0.00000000	7.43725300	-7.80019600
95.66666116	0.00000000	4.69980300	-10.53765000
95.86666115	0.00000000	1.67322800	-12.03248000
96.06666114	0.00000000	-0.65206690	-11.65723000
96.26666113	0.00000000	-1.40255900	-9.38115100
96.46666111	0.00000000	-0.60900590	-6.31151500
96.66666110	0.00000000	2.09153500	-3.24803100
96.86666109	0.00000000	5.90551100	-0.92888770
97.06666108	0.00000000	9.39345400	-0.13533460
97.26666107	0.00000000	12.18012000	-0.51058070
97.46666105	0.00000000	14.05020000	-2.08538400
97.66666104	0.00000000	14.41314000	-4.73671200
97.86666103	0.00000000	12.51230000	-7.38188900
98.06666102	0.00000000	9.44266700	-8.91978400
98.26666101	0.00000000	5.90551100	-9.00590400
98.46666099	0.00000000	2.04847400	-8.22465500
98.66666098	0.00000000	-1.02731300	-7.09891700
98.86666097	0.00000000	-2.56520700	-5.57332700
99.06666096	0.00000000	-2.18996000	-4.82898600
99.26666095	0.00000000	0.09227362	-4.73671200
99.46666094	0.00000000	3.20497000	-4.73671200
99.66666092	0.00000000	6.74212600	-4.73671200
99.86666091	0.00000000	10.55610000	-4.73671200
100.06666090	0.00000000	13.25664000	-4.69365100
100.26666089	0.00000000	14.05020000	-4.31840500
100.46666088	0.00000000	13.29970000	-3.57406500
100.66666086	0.00000000	10.97441000	-3.19881900
100.86666085	0.00000000	7.90477300	-3.19881900
101.06666084	0.00000000	4.78592500	-3.62327700
101.26666083	0.00000000	2.04847400	-4.82283400
101.46666082	0.00000000	0.13533460	-6.68676100
101.66666080	0.00000000	-0.65206690	-8.58759800
101.86666079	0.00000000	0.09227362	-9.38115100
102.06666078	0.00000000	1.62401600	-9.38115100
102.26666077	0.00000000	3.58021600	-8.54453700
102.46666076	0.00000000	5.94857300	-6.22539300
102.66666075	0.00000000	8.23695900	-3.19881900
102.86666073	0.00000000	10.18086000	-0.51058070
103.06666072	0.00000000	10.93135000	1.02116100
103.26666071	0.00000000	10.59916000	1.02116100
103.46666070	0.00000000	9.39345400	-0.51058070
103.66666069	0.00000000	7.48646600	-3.19881900
103.86666067	0.00000000	5.16117100	-6.26845500
104.06666066	0.00000000	3.25418300	-9.00590400
104.26666065	0.00000000	2.04847400	-10.91289000
104.46666064	0.00000000	1.67322800	-11.65723000
104.66666063	0.00000000	2.04847400	-10.49459000
104.86666061	0.00000000	3.20497000	-7.84940900
105.06666060	0.00000000	4.74286400	-4.77977300
105.26666059	0.00000000	6.32381900	-2.08538400
105.46666058	0.00000000	7.86171200	-0.51058070
105.66666057	0.00000000	8.97514600	-0.13533460
105.86666056	0.00000000	8.97514600	-0.87967510
106.06666054	0.00000000	7.86171200	-2.82972400
106.26666053	0.00000000	6.36687900	-5.11195900
106.46666052	0.00000000	5.21038300	-7.43110200
106.66666051	0.00000000	4.78592500	-8.91978400
106.86666050	0.00000000	4.74286400	-8.96284400
107.06666048	0.00000000	4.78592500	-7.84940900
107.26666047	0.00000000	5.21038300	-6.31151500
107.46666046	0.00000000	6.32381900	-4.73671200
107.66666045	0.00000000	7.43725300	-3.19881900
107.86666044	0.00000000	7.81250000	-2.08538400
108.06666042	0.00000000	7.43725300	-2.08538400
108.26666041	0.00000000	6.32381900	-3.19881900
108.46666040	0.00000000	5.16117100	-4.73671200
108.66666039	0.00000000	4.36761800	-6.26845500
108.86666038	0.00000000	3.62942900	-7.42495000
109.06666037	0.00000000	3.62942900	-7.80019600
109.26666035	0.00000000	4.36761800	-7.42495000
109.46666034	0.00000000	5.16117100	-6.26845500
109.66666033	0.00000000	6.32381900	-4.73671200
109.86666032	0.00000000	7.48646600	-3.19881900
110.06666031	0.00000000	8.23695900	-2.04232300
110.26666029	0.00000000	8.64911400	-1.66707700
110.46666028	0.00000000	8.23695900	-2.04232300
110.66666027	0.00000000	7.48646600	-3.19881900
110.86666026	0.00000000	6.32381900	-4.73671200
111.06666025	0.00000000	5.16117100	-6.31151500
111.26666023	0.00000000	4.36761800	-7.80019600
111.46666022	0.00000000	3.62942900	-8.58759800
111.66666021	0.00000000	3.62942900	-8.22465500
111.86666020	0.00000000	4.36761800	-7.47416300
112.06666019	0.00000000	5.11811000	-6.31151500
112.26666018	0.00000000	5.90551100	-5.15501900
112.46666016	0.00000000	6.28075700	-4.36146600
112.66666015	0.00000000	6.32381900	-3.62327700
112.86666014	0.00000000	6.32381900	-3.62327700
113.06666013	0.00000000	6.28075700	-4.31840500
113.26666012	0.00000000	5.90551100	-4.69365100
113.46666010	0.00000000	5.16117100	-4.77977300
113.66666009	0.00000000	4.78592500	-5.15501900
113.86666008	0.00000000	4.78592500	-5.89320800
114.06666007	0.00000000	5.11811000	-6.26845500
114.26666006	0.00000000	5.53026500	-6.31151500
114.46666004	0.00000000	5.53641700	-6.31151500
114.66666003	0.00000000	5.94857300	-6.31151500
114.86666002	0.00000000	6.28075700	-6.31151500
115.06666001	0.00000000	6.32381900	-6.31151500
115.26666000	0.00000000	6.32381900	-6.31151500
115.46665999	0.00000000	6.32381900	-6.31151500
115.66665997	0.00000000	6.32381900	-6.26845500
115.86665996	0.00000000	6.28075700	-5.89320800
116.06665995	0.00000000	5.90551100	-5.11195900
116.26665994	0.00000000	5.16117100	-4.36146600
116.46665993	0.00000000	4.78592500	-3.57406500
116.66665991	0.00000000	4.74286400	-3.19881900
116.86665990	0.00000000	4.74286400	-3.19881900
117.06665989	0.00000000	4.78592500	-3.62327700
117.26665988	0.00000000	5.16117100	-4.73671200
117.46665987	0.00000000	5.94857300	-5.89320800
117.66665985	0.00000000	6.69906400	-6.68676100
117.86665984	0.00000000	7.48646600	-7.47416300
118.06665983	0.00000000	7.81250000	-7.80019600
118.26665982	0.00000000	7.48646600	-7.47416300
118.46665981	0.00000000	6.69906400	-6.68676100
118.66665980	0.00000000	5.94857300	-5.93626900
118.86665978	0.00000000	5.11811000	-5.11195900
119.06665977	0.00000000	4.36761800	-4.36146600
119.26665976	0.00000000	3.58021600	-3.57406500
119.46665975	0.00000000	3.25418300	-3.19881900
119.66665974	0.00000000	3.58021600	-3.19881900
119.86665972	0.00000000	4.36761800	-3.57406500
120.06665971	0.00000000	5.16117100	-4.31840500
120.26665970	0.00000000	6.32381900	-4.73671200
120.46665969	0.00000000	7.48646600	-5.15501900
120.66665968	0.00000000	8.28001900	-5.89320800
120.86665966	0.00000000	9.01820900	-6.26845500
121.06665965	0.00000000	8.97514600	-6.31151500
121.26665964	0.00000000	7.86171200	-6.31151500
121.46665963	0.00000000	6.36687900	-6.31151500
121.66665962	0.00000000	5.16117100	-6.31151500
121.86665961	0.00000000	4.36761800	-6.26845500
122.06665959	0.00000000	3.58021600	-5.89320800
122.26665958	0.00000000	3.20497000	-5.15501900
122.46665957	0.00000000	3.20497000	-4.77977300
122.66665956	0.00000000	3.62942900	-4.69365100
122.86665955	0.00000000	4.74286400	-4.36146600
123.06665953	0.00000000	5.90551100	-3.99237200
123.26665952	0.00000000	6.69906400	-4.36146600
123.46665951	0.00000000	7.48646600	-4.73671200
123.66665950	0.00000000	7.86171200	-5.15501900
123.86665949	0.00000000	7.86171200	-5.89320800
124.06665947	0.00000000	7.48646600	-6.26845500
124.26665946	0.00000000	6.69906400	-6.31151500
124.46665945	0.00000000	5.94857300	-6.31151500
124.66665944	0.00000000	5.16117100	-6.31151500
124.86665943	0.00000000	4.74286400	-6.26845500
125.06665942	0.00000000	4.32455700	-5.89320800
125.26665940	0.00000000	3.62942900	-5.15501900
125.46665939	0.00000000	3.62942900	-4.77977300
125.66665938	0.00000000	4.36761800	-4.73671200
125.86665937	0.00000000	5.11811000	-4.73671200
126.06665936	0.00000000	5.94857300	-4.73671200
126.26665934	0.00000000	6.69906400	-4.73671200
126.46665933	0.00000000	7.48646600	-4.73671200
126.66665932	0.00000000	7.86171200	-4.73671200
126.86665931	0.00000000	7.86171200	-4.77977300
127.06665930	0.00000000	7.43725300	-5.15501900
127.26665928	0.00000000	6.32381900	-5.89320800
127.46665927	0.00000000	5.16117100	-6.26845500
127.66665926	0.00000000	4.36761800	-6.31151500
127.86665925	0.00000000	3.58021600	-6.31151500
128.06665924	0.00000000	3.25418300	-6.26845500
128.26665923	0.00000000	3.62942900	-5.89320800
128.46665921	0.00000000	4.74286400	-5.15501900
128.66665920	0.00000000	5.90551100	-4.77977300
128.86665919	0.00000000	6.69906400	-4.73671200
129.06665918	0.00000000	7.48646600	-4.73671200
129.26665917	0.00000000	7.81250000	-4.73671200
129.46665915	0.00000000	7.48646600	-4.77977300
129.66665914	0.00000000	6.69906400	-5.15501900
129.86665913	0.00000000	5.90551100	-5.89320800
130.06665912	0.00000000	4.74286400	-6.26845500
130.26665911	0.00000000	3.67249000	-6.26845500
130.46665909	0.00000000	3.62942900	-5.89320800
130.66665908	0.00000000	4.32455700	-5.15501900
130.86665907	0.00000000	4.74286400	-4.77977300
131.06665906	0.00000000	5.21038300	-4.73671200
131.26665905	0.00000000	6.32381900	-4.73671200
131.46665904	0.00000000	7.43725300	-4.77977300
131.66665902	0.00000000	7.81250000	-5.15501900
131.86665901	0.00000000	7.48646600	-5.89320800
132.06665900	0.00000000	6.69906400	-6.26845500
132.26665899	0.00000000	5.94857300	-6.31151500
132.46665898	0.00000000	5.16117100	-6.31151500
132.66665896	0.00000000	4.78592500	-6.26845500
132.86665895	0.00000000	4.74286400	-5.89320800
133.06665894	0.00000000	4.78592500	-5.11195900
133.26665893	0.00000000	5.16117100	-4.40452700
133.46665892	0.00000000	5.90551100	-3.94931100
133.66665890	0.00000000	6.28075700	-3.98622000
133.86665889	0.00000000	6.32381900	-3.94931100
134.06665888	0.00000000	6.32381900	-4.36146600
134.26665887	0.00000000	6.32381900	-4.73671200
134.46665886	0.00000000	6.32381900	-5.19808000
134.66665885	0.00000000	6.32381900	-6.31151500
134.86665883	0.00000000	6.32381900	-7.42495000
135.06665882	0.00000000	6.32381900	-7.80019600
135.26665881	0.00000000	6.32381900	-7.47416300
135.46665880	0.00000000	6.32381900	-6.68676100
135.66665879	0.00000000	6.32381900	-5.93626900
135.86665877	0.00000000	6.32381900	-5.15501900
136.06665876	0.00000000	6.28075700	-4.77977300
136.26665875	0.00000000	5.90551100	-4.69365100
136.46665874	0.00000000	5.16117100	-4.36146600
136.66665873	0.00000000	4.78592500	-3.99237200
136.86665871	0.00000000	4.74286400	-4.36146600
137.06665870	0.00000000	4.78592500	-4.69365100
137.26665869	0.00000000	5.16117100	-4.77977300
137.46665868	0.00000000	5.94857300	-5.15501900
137.66665867	0.00000000	6.69906400	-5.89320800
137.86665866	0.00000000	7.48646600	-6.26845500
138.06665864	0.00000000	7.81250000	-6.31151500
138.26665863	0.00000000	7.48646600	-6.31151500
138.46665862	0.00000000	6.69906400	-6.26845500
138.66665861	0.00000000	5.94857300	-5.89320800
138.86665860	0.00000000	5.16117100	-5.11195900
139.06665858	0.00000000	4.78592500	-4.40452700
139.26665857	0.00000000	4.74286400	-3.99237200
139.46665856	0.00000000	4.74286400	-4.31840500
139.66665855	0.00000000	4.78592500	-4.31840500
139.86665854	0.00000000	5.16117100	-3.99237200
140.06665852	0.00000000	5.90551100	-4.36146600
140.26665851	0.00000000	6.28075700	-4.73671200
140.46665850	0.00000000	6.32381900	-5.15501900
140.66665849	0.00000000	6.32381900	-5.93626900
140.86665848	0.00000000	6.28075700	-6.68676100
141.06665847	0.00000000	5.90551100	-7.47416300
141.26665845	0.00000000	5.16117100	-7.80019600
141.46665844	0.00000000	4.78592500	-7.42495000
141.66665843	0.00000000	4.78592500	-6.31151500
141.86665842	0.00000000	5.11811000	-5.15501900
142.06665841	0.00000000	5.53026500	-4.36146600
142.26665839	0.00000000	5.53641700	-3.57406500
142.46665838	0.00000000	5.94857300	-3.24803100
142.66665837	0.00000000	6.28075700	-3.57406500
142.86665836	0.00000000	6.32381900	-4.36146600
143.06665835	0.00000000	6.32381900	-5.11195900
143.26665834	0.00000000	6.32381900	-5.89320800
143.46665832	0.00000000	6.28075700	-6.31151500
143.66665831	0.00000000	5.90551100	-6.72982200
143.86665830	0.00000000	5.16117100	-7.42495000
144.06665829	0.00000000	4.83513700	-7.42495000
144.26665828	0.00000000	5.16117100	-6.68676100
144.46665826	0.00000000	5.90551100	-5.93626900
144.66665825	0.00000000	6.28075700	-5.11195900
144.86665824	0.00000000	6.32381900	-4.40452700
145.06665823	0.00000000	6.32381900	-3.99237200
145.26665822	0.00000000	6.28075700	-4.36146600
145.46665820	0.00000000	5.90551100	-4.69365100
145.66665819	0.00000000	5.16117100	-4.77977300
145.86665818	0.00000000	4.78592500	-5.15501900
146.06665817	0.00000000	4.74286400	-5.89320800
146.26665816	0.00000000	4.74286400	-6.26845500
146.46665815	0.00000000	4.74286400	-6.31151500
146.66665813	0.00000000	4.78592500	-6.31151500
146.86665812	0.00000000	5.16117100	-6.31151500
147.06665811	0.00000000	5.90551100	-6.26845500
147.26665810	0.00000000	6.28075700	-5.89320800
147.46665809	0.00000000	6.32381900	-5.15501900
147.66665807	0.00000000	6.32381900	-4.77977300
147.86665806	0.00000000	6.28075700	-4.73671200
148.06665805	0.00000000	5.90551100	-4.73671200
148.26665804	0.00000000	5.16117100	-4.73671200
148.46665803	0.00000000	4.78592500	-4.73671200
148.66665801	0.00000000	4.74286400	-4.77977300
148.86665800	0.00000000	4.78592500	-5.15501900
149.06665799	0.00000000	5.16117100	-5.89320800
149.26665798	0.00000000	5.90551100	-6.26845500
149.46665797	0.00000000	6.28075700	-6.31151500
149.66665796	0.00000000	6.32381900	-6.26845500
149.86665794	0.00000000	6.32381900	-5.89320800
150.06665793	0.00000000	6.32381900	-5.15501900
150.26665792	0.00000000	6.32381900	-4.77977300
150.46665791	0.00000000	6.32381900	-4.73671200
150.66665790	0.00000000	6.28075700	-4.73671200
150.86665788	0.00000000	5.90551100	-4.73671200
151.06665787	0.00000000	5.16117100	-4.73671200
151.26665786	0.00000000	4.78592500	-4.73671200
151.46665785	0.00000000	4.74286400	-4.77977300
151.66665784	0.00000000	4.74286400	-5.15501900
151.86665782	0.00000000	4.78592500	-5.89320800
152.06665781	0.00000000	5.16117100	-6.26845500
152.26665780	0.00000000	5.90551100	-6.31151500
152.46665779	0.00000000	6.28075700	-6.26845500
152.66665778	0.00000000	6.32381900	-5.89320800
152.86665777	0.00000000	6.32381900	-5.15501900
153.06665775	0.00000000	6.32381900	-4.77977300
153.26665774	0.00000000	6.28075700	-4.73671200
153.46665773	0.00000000	5.90551100	-4.73671200
153.66665772	0.00000000	5.16117100	-4.73671200
153.86665771	0.00000000	4.78592500	-4.73671200
154.06665769	0.00000000	4.74286400	-4.73671200
154.26665768	0.00000000	4.74286400	-4.73671200
154.46665767	0.00000000	4.74286400	-4.73671200
154.66665766	0.00000000	4.74286400	-4.73671200
154.86665765	0.00000000	4.74286400	-4.77977300
155.06665763	0.00000000	4.78592500	-5.15501900
155.26665762	0.00000000	5.16117100	-5.89320800
155.46665761	0.00000000	5.90551100	-6.26845500
155.66665760	0.00000000	6.28075700	-6.31151500
155.86665759	0.00000000	6.32381900	-6.31151500
156.06665758	0.00000000	6.32381900	-6.26845500
156.26665756	0.00000000	6.32381900	-5.89320800
156.46665755	0.00000000	6.28075700	-5.15501900
156.66665754	0.00000000	5.90551100	-4.77977300
156.86665753	0.00000000	5.16117100	-4.73671200
157.06665752	0.00000000	4.78592500	-4.73671200
157.26665750	0.00000000	4.74286400	-4.73671200
157.46665749	0.00000000	4.74286400	-4.73671200
157.66665748	0.00000000	4.74286400	-4.77977300
157.86665747	0.00000000	4.78592500	-5.11195900
158.06665746	0.00000000	5.16117100	-5.51796200
158.26665744	0.00000000	5.90551100	-5.53026500
158.46665743	0.00000000	6.28075700	-5.93626900
158.66665742	0.00000000	6.32381900	-6.26845500
158.86665741	0.00000000	6.32381900	-6.26845500
159.06665740	0.00000000	6.32381900	-5.89320800
159.26665739	0.00000000	6.28075700	-5.15501900
159.46665737	0.00000000	5.90551100	-4.77977300
159.66665736	0.00000000	5.16117100	-4.73671200
159.86665735	0.00000000	4.78592500	-4.73671200
160.06665734	0.00000000	4.74286400	-4.73671200
160.26665733	0.00000000	4.74286400	-4.73671200
160.46665731	0.00000000	4.74286400	-4.77977300
160.66665730	0.00000000	4.74286400	-5.15501900
160.86665729	0.00000000	4.74286400	-5.89320800
161.06665728	0.00000000	4.78592500	-6.26845500
161.26665727	0.00000000	5.16117100	-6.31151500
161.46665725	0.00000000	5.90551100	-6.31151500
161.66665724	0.00000000	6.28075700	-6.31151500
161.86665723	0.00000000	6.32381900	-6.31151500
162.06665722	0.00000000	6.32381900	-6.26845500
162.26665721	0.00000000	6.28075700	-5.89320800
162.46665720	0.00000000	5.90551100	-5.15501900
162.66665718	0.00000000	5.16117100	-4.77977300
162.86665717	0.00000000	4.78592500	-4.73671200
163.06665716	0.00000000	4.74286400	-4.73671200
163.26665715	0.00000000	4.74286400	-4.77977300
163.46665714	0.00000000	4.74286400	-5.11195900
163.66665712	0.00000000	4.74286400	-5.47490100
163.86665711	0.00000000	4.74286400	-5.15501900
164.06665710	0.00000000	4.74286400	-5.15501900
164.26665709	0.00000000	4.78592500	-5.51796200
164.46665708	0.00000000	5.16117100	-5.53026500
164.66665706	0.00000000	5.90551100	-5.93626900
164.86665705	0.00000000	6.28075700	-6.26845500
165.06665704	0.00000000	6.32381900	-6.26845500
165.26665703	0.00000000	6.32381900	-5.89320800
165.46665702	0.00000000	6.32381900	-5.15501900
165.66665701	0.00000000	6.28075700	-4.77977300
165.86665699	0.00000000	5.90551100	-4.73671200
166.06665698	0.00000000	5.16117100	-4.73671200
166.26665697	0.00000000	4.78592500	-4.73671200
166.46665696	0.00000000	4.74286400	-4.73671200
166.66665695	0.00000000	4.74286400	-4.77977300
166.86665693	0.00000000	4.74286400	-5.15501900
167.06665692	0.00000000	4.74286400	-5.89320800
167.26665691	0.00000000	4.74286400	-6.26845500
167.46665690	0.00000000	4.78592500	-6.31151500
167.66665689	0.00000000	5.16117100	-6.26845500
167.86665687	0.00000000	5.90551100	-5.93626900
168.06665686	0.00000000	6.28075700	-5.53026500
168.26665685	0.00000000	6.28075700	-5.56717500
168.46665684	0.00000000	5.94857300	-5.48105300
168.66665683	0.00000000	5.53641700	-5.51796200
168.86665682	0.00000000	5.53026500	-5.15501900
169.06665680	0.00000000	5.11811000	-5.19808000
169.26665679	0.00000000	4.78592500	-5.89320800
169.46665678	0.00000000	4.74286400	-6.26845500
169.66665677	0.00000000	4.74286400	-6.31151500
169.86665676	0.00000000	4.74286400	-6.26845500
170.06665674	0.00000000	4.74286400	-5.89320800
170.26665673	0.00000000	4.74286400	-5.15501900
170.46665672	0.00000000	4.74286400	-4.77977300
170.66665671	0.00000000	4.78592500	-4.73671200
170.86665670	0.00000000	5.11811000	-4.73671200
171.06665668	0.00000000	5.53026500	-4.77977300
171.26665667	0.00000000	5.53641700	-5.15501900
171.46665666	0.00000000	5.90551100	-5.89320800
171.66665665	0.00000000	5.85629900	-6.26845500
171.86665664	0.00000000	5.16117100	-6.31151500
172.06665663	0.00000000	4.78592500	-6.31151500
172.26665661	0.00000000	4.74286400	-6.31151500
172.46665660	0.00000000	4.74286400	-6.26845500
172.66665659	0.00000000	4.74286400	-5.89320800
172.86665658	0.00000000	4.74286400	-5.19808000
173.06665657	0.00000000	4.74286400	-5.15501900
173.26665655	0.00000000	4.74286400	-5.51796200
173.46665654	0.00000000	4.74286400	-5.48105300
173.66665653	0.00000000	4.74286400	-5.51796200
173.86665652	0.00000000	4.78592500	-5.11195900
174.06665651	0.00000000	5.11811000	-4.82898600
174.26665649	0.00000000	5.48720400	-5.15501900
174.46665648	0.00000000	5.11811000	-5.89320800
174.66665647	0.00000000	4.78592500	-6.26845500
174.86665646	0.00000000	4.74286400	-6.31151500
175.06665645	0.00000000	4.74286400	-6.26845500
175.26665644	0.00000000	4.74286400	-5.93626900
175.46665642	0.00000000	4.78592500	-5.53026500
175.66665641	0.00000000	5.11811000	-5.56717500
175.86665640	0.00000000	5.48720400	-5.48105300
176.06665639	0.00000000	5.16117100	-5.51796200
176.26665638	0.00000000	5.16117100	-5.11195900
176.46665636	0.00000000	5.53026500	-4.77977300
176.66665635	0.00000000	5.49335600	-4.77977300
176.86665634	0.00000000	5.53026500	-5.15501900
177.06665633	0.00000000	5.11811000	-5.89320800
177.26665632	0.00000000	4.78592500	-6.26845500
177.46665630	0.00000000	4.74286400	-6.31151500
177.66665629	0.00000000	4.74286400	-6.31151500
177.86665628	0.00000000	4.74286400	-6.31151500
178.06665627	0.00000000	4.74286400	-6.31151500
178.26665626	0.00000000	4.78592500	-6.26845500
178.46665625	0.00000000	5.11811000	-5.89320800
178.66665623	0.00000000	5.48720400	-5.19808000
178.86665622	0.00000000	5.11811000	-5.15501900
179.06665621	0.00000000	4.78592500	-5.47490100
179.26665620	0.00000000	4.78592500	-5.11195900
179.46665619	0.00000000	5.16117100	-4.82898600
179.66665617	0.00000000	5.85629900	-5.15501900
179.86665616	0.00000000	5.85629900	-5.89320800
180.06665615	0.00000000	5.16117100	-6.26845500
180.26665614	0.00000000	4.78592500	-6.31151500
180.46665613	0.00000000	4.74286400	-6.31151500
180.66665611	0.00000000	4.74286400	-6.31151500
180.86665610	0.00000000	4.74286400	-6.31151500
181.06665609	0.00000000	4.74286400	-6.26845500
181.26665608	0.00000000	4.74286400	-5.89320800
181.46665607	0.00000000	4.74286400	-5.15501900
181.66665606	0.00000000	4.74286400	-4.77977300
181.86665604	0.00000000	4.74286400	-4.73671200
182.06665603	0.00000000	4.74286400	-4.73671200
182.26665602	0.00000000	4.74286400	-4.77977300
182.46665601	0.00000000	4.74286400	-5.11195900
182.66665600	0.00000000	4.74286400	-5.51796200
182.86665598	0.00000000	4.74286400	-5.53026500
183.06665597	0.00000000	4.74286400	-5.93626900
183.26665596	0.00000000	4.74286400	-6.26845500
183.46665595	0.00000000	4.74286400	-6.31151500
183.66665594	0.00000000	4.74286400	-6.26845500
183.86665592	0.00000000	4.74286400	-5.93626900
184.06665591	0.00000000	4.74286400	-5.57332700
184.26665590	0.00000000	4.74286400	-5.89320800
184.46665589	0.00000000	4.74286400	-5.85014700
184.66665588	0.00000000	4.74286400	-5.15501900
184.86665587	0.00000000	4.78592500	-4.73671200
185.06665585	0.00000000	5.16117100	-4.36146600
185.26665584	0.00000000	5.85629900	-3.99237200
185.46665583	0.00000000	5.90551100	-4.36146600
185.66665582	0.00000000	5.57947800	-4.69365100
185.86665581	0.00000000	5.94857300	-4.77977300
186.06665579	0.00000000	6.28075700	-5.15501900
186.26665578	0.00000000	6.32381900	-5.89320800
186.46665577	0.00000000	6.28075700	-6.26845500
186.66665576	0.00000000	5.90551100	-6.31151500
186.86665575	0.00000000	5.16117100	-6.31151500
187.06665573	0.00000000	4.78592500	-6.26845500
187.26665572	0.00000000	4.74286400	-5.89320800
187.46665571	0.00000000	4.74286400	-5.15501900
187.66665570	0.00000000	4.74286400	-4.77977300
187.86665569	0.00000000	4.74286400	-4.73671200
188.06665568	0.00000000	4.74286400	-4.73671200
188.26665566	0.00000000	4.78592500	-4.77977300
188.46665565	0.00000000	5.16117100	-5.15501900
188.66665564	0.00000000	5.90551100	-5.89320800
188.86665563	0.00000000	6.23154500	-6.26845500
189.06665562	0.00000000	5.94857300	-6.31151500
189.26665560	0.00000000	5.53641700	-6.31151500
189.46665559	0.00000000	5.53026500	-6.31151500
189.66665558	0.00000000	5.11811000	-6.26845500
189.86665557	0.00000000	4.78592500	-5.93626900
190.06665556	0.00000000	4.74286400	-5.53026500
190.26665554	0.00000000	4.74286400	-5.51796200
190.46665553	0.00000000	4.74286400	-5.11195900
190.66665552	0.00000000	4.74286400	-4.77977300
190.86665551	0.00000000	4.74286400	-4.73671200
191.06665550	0.00000000	4.74286400	-4.73671200
191.26665549	0.00000000	4.74286400	-4.73671200
191.46665547	0.00000000	4.78592500	-4.77977300
191.66665546	0.00000000	5.11811000	-5.15501900
191.86665545	0.00000000	5.48720400	-5.89320800
192.06665544	0.00000000	5.11811000	-6.26845500
192.26665543	0.00000000	4.78592500	-6.31151500
192.46665541	0.00000000	4.74286400	-6.31151500
192.66665540	0.00000000	4.74286400	-6.31151500
192.86665539	0.00000000	4.74286400	-6.31151500
193.06665538	0.00000000	4.74286400	-6.31151500
193.26665537	0.00000000	4.74286400	-6.31151500
193.46665535	0.00000000	4.74286400	-6.26845500
193.66665534	0.00000000	4.74286400	-5.89320800
193.86665533	0.00000000	4.74286400	-5.15501900
194.06665532	0.00000000	4.74286400	-4.77977300
194.26665531	0.00000000	4.78592500	-4.73671200
194.46665530	0.00000000	5.11811000	-4.73671200
194.66665528	0.00000000	5.48720400	-4.77977300
194.86665527	0.00000000	5.11811000	-5.15501900
195.06665526	0.00000000	4.78592500	-5.85014700
195.26665525	0.00000000	4.74286400	-5.89320800
195.46665524	0.00000000	4.74286400	-5.57332700
195.66665522	0.00000000	4.74286400	-5.93626900
195.86665521	0.00000000	4.74286400	-6.26845500
196.06665520	0.00000000	4.74286400	-6.31151500
