Time	Channel A	Channel B	Channel C
(us)	(V)	(mV)	(mV)

-4.49999956	0.00000000	10.23007000	-4.31840500
-4.29999957	0.00000000	9.86097400	-4.26919300
-4.09999958	0.00000000	9.52879000	-3.57406500
-3.89999959	0.00000000	9.48572700	-3.19881900
-3.69999960	0.00000000	9.48572700	-3.19881900
-3.49999962	0.00000000	9.48572700	-3.57406500
-3.29999963	0.00000000	9.48572700	-4.31840500
-3.09999964	0.00000000	9.48572700	-4.69365100
-2.89999965	0.00000000	9.48572700	-4.73671200
-2.69999966	0.00000000	9.48572700	-4.73671200
-2.49999968	0.00000000	9.48572700	-4.73671200
-2.29999969	0.00000000	9.48572700	-4.73671200
-2.09999970	0.00000000	9.48572700	-4.73671200
-1.89999971	0.00000000	9.48572700	-4.73671200
-1.69999972	0.00000000	9.48572700	-4.73671200
-1.49999973	0.00000000	9.48572700	-4.73671200
-1.29999975	0.00000000	9.48572700	-4.69365100
-1.09999976	0.00000000	9.48572700	-4.31840500
-0.89999977	0.00000000	9.48572700	-3.62327700
-0.69999978	0.00000000	9.48572700	-3.57406500
-0.49999979	0.00000000	9.48572700	-3.94315900
-0.29999981	0.31803640	9.48572700	-3.94931100
-0.09999982	0.63668800	9.48572700	-4.36146600
0.10000017	0.95533960	9.48572700	-4.64443900
0.30000016	1.11466500	9.48572700	-4.36146600
0.50000015	0.79601380	9.48572700	-3.99237200
0.70000013	0.15871060	9.48572700	-4.36146600
0.90000012	-0.63668800	9.48572700	-4.69365100
1.10000011	-1.59264300	9.48572700	-4.69365100
1.30000010	-2.38927200	9.48572700	-4.31840500
1.50000009	-2.70792300	9.48572700	-3.57406500
1.70000008	-2.38927200	9.48572700	-3.19881900
1.90000006	-0.95533960	9.48572700	-3.15575800
2.10000005	0.79601380	9.48572700	-3.15575800
2.30000004	3.02657500	9.48572700	-3.19881900
2.50000003	4.61921700	9.48572700	-3.57406500
2.70000002	5.41584600	9.48572700	-4.31840500
2.90000000	4.61921700	9.48572700	-4.69365100
3.09999999	2.54859700	9.48572700	-4.73671200
3.29999998	-0.63668800	9.48572700	-4.73671200
3.49999997	-3.98191400	9.48572700	-4.69365100
3.69999996	-6.84916400	9.48572700	-4.31840500
3.89999994	-7.96444400	9.48572700	-3.57406500
4.09999993	-7.16781500	9.48572700	-3.19881900
4.29999992	-4.45989200	9.48572700	-3.15575800
4.49999991	-0.31803640	9.48572700	-3.15575800
4.69999990	4.14124000	9.48572700	-3.19881900
4.89999989	7.64579200	9.48572700	-3.57406500
5.09999987	9.39837600	9.48572700	-4.31840500
5.29999986	8.92039900	9.48572700	-4.69365100
5.49999985	6.05315000	9.48572700	-4.73671200
5.69999984	1.59264300	9.48572700	-4.73671200
5.89999983	-3.18590100	9.48572700	-4.73671200
6.09999981	-7.16781500	9.48572700	-4.69365100
6.29999980	-9.23905000	9.48572700	-4.31840500
6.49999979	-9.07972400	9.48572700	-3.57406500
6.69999978	-6.53112700	9.48572700	-3.19881900
6.89999977	-2.70792300	9.48572700	-3.15575800
7.09999975	1.59264300	9.48572700	-3.15575800
7.29999974	5.41584600	9.48572700	-3.19881900
7.49999973	7.48646600	9.48572700	-3.57406500
7.69999972	7.48646600	9.48572700	-4.31840500
7.89999971	5.89382400	9.48572700	-4.69365100
8.09999970	2.86724900	9.48572700	-4.73671200
8.29999968	-0.31803640	9.48572700	-4.73671200
8.49999967	-3.18590100	9.48572700	-4.73671200
8.69999966	-4.93786900	9.48572700	-4.73671200
8.89999965	-5.09719500	9.48572700	-4.69365100
9.09999964	-4.14124000	9.48572700	-4.31840500
9.29999962	-2.38927200	9.48572700	-3.62327700
9.49999961	-0.31803640	9.48572700	-3.57406500
9.69999960	1.27399100	9.48572700	-3.94315900
9.89999959	2.22994600	9.48572700	-3.94931100
10.09999958	2.54859700	9.48572700	-4.36146600
10.29999956	2.07062000	9.48572700	-4.69365100
10.49999955	1.27399100	9.48572700	-4.69365100
10.69999954	0.47736220	9.48572700	-4.36146600
10.89999953	-0.31803640	9.48572700	-3.99237200
11.09999952	-0.79601380	9.48572700	-4.36146600
11.29999951	-0.95533960	9.48572700	-4.69365100
11.49999949	-0.95533960	9.48572700	-4.73671200
11.69999948	-0.63668800	9.48572700	-4.69365100
11.89999947	-0.31803640	9.48572700	-4.36146600
12.09999946	-0.15871060	9.48572700	-3.94931100
12.29999945	-0.15871060	9.48572700	-3.94315900
12.49999943	-0.15871060	9.48572700	-3.57406500
12.69999942	0.00000000	9.48572700	-3.62327700
12.89999941	0.00000000	9.48572700	-4.31840500
13.09999940	0.15871060	9.48572700	-4.69365100
13.29999939	0.00000000	9.48572700	-4.73671200
13.49999937	0.00000000	9.48572700	-4.73671200
13.69999936	0.00000000	9.48572700	-4.73671200
13.89999935	0.00000000	9.48572700	-4.73671200
14.09999934	-0.15871060	9.48572700	-4.69365100
14.29999933	-0.15871060	9.48572700	-4.36146600
14.49999932	-0.15871060	9.48572700	-3.99237200
14.69999930	0.00000000	9.48572700	-4.36146600
14.89999929	0.00000000	9.48572700	-4.64443900
15.09999928	0.00000000	9.48572700	-4.36146600
15.29999927	0.00000000	9.48572700	-3.99237200
15.49999926	0.00000000	9.48572700	-4.31840500
15.69999924	0.00000000	9.48572700	-4.31840500
15.89999923	0.00000000	9.48572700	-3.99237200
16.09999922	0.00000000	9.48572700	-4.36146600
16.29999921	0.00000000	9.48572700	-4.69365100
16.49999920	-0.15871060	9.48572700	-4.73671200
16.69999919	0.00000000	9.52879000	-4.73671200
16.89999917	-0.15871060	9.90403500	-4.73671200
17.09999916	0.00000000	10.64838000	-4.69365100
17.29999915	0.00000000	11.02362000	-4.36146600
17.49999914	0.00000000	11.06668000	-3.99237200
17.69999913	0.00000000	11.02362000	-4.36146600
17.89999911	0.00000000	10.59916000	-4.69365100
18.09999910	0.00000000	9.44266700	-4.73671200
18.29999909	0.00000000	7.90477300	-4.69365100
18.49999908	0.00000000	6.36687900	-4.36146600
18.69999907	0.00000000	5.16117100	-3.99237200
18.89999905	0.00000000	4.45989200	-4.36146600
19.09999904	0.00000000	4.46604300	-4.69365100
19.29999903	0.00000000	6.08390700	-4.73671200
19.49999902	0.00000000	8.74138700	-4.73671200
19.69999901	0.00000000	12.31545000	-4.73671200
19.89999900	0.00000000	16.14173000	-4.73671200
20.09999898	0.00000000	19.58046000	-4.69365100
20.29999897	0.00000000	21.02608000	-4.36146600
20.49999896	0.00000000	19.48819000	-3.99237200
20.69999895	0.00000000	15.21284000	-4.31840500
20.89999894	0.00000000	8.97514600	-4.31840500
21.09999892	0.00000000	1.58095500	-3.99237200
21.29999891	0.00000000	-5.67790300	-4.36146600
21.49999890	0.00000000	-10.65453000	-4.69365100
21.69999889	0.00000000	-11.35581000	-4.73671200
21.89999888	0.00000000	-7.40034400	-4.73671200
22.09999886	0.00000000	1.53174200	-4.73671200
22.29999885	0.00000000	13.85334000	-4.73671200
22.49999884	0.00000000	26.23647000	-4.73671200
22.69999883	0.00000000	36.23893000	-4.73671200
22.89999882	0.00000000	41.17249000	-4.69365100
23.09999881	0.00000000	38.80413000	-4.31840500
23.29999879	0.00000000	29.44759000	-3.57406500
23.49999878	0.00000000	14.32702000	-3.19881900
23.69999877	0.00000000	-3.81397600	-3.11269700
23.89999876	0.00000000	-20.33710000	-2.78051200
24.09999875	0.00000000	-31.12697000	-2.41141700
24.29999873	0.00000000	-32.99704000	-2.82357300
24.49999872	0.00000000	-25.22145000	-3.62327700
24.69999871	0.00000000	-8.93823700	-5.19808000
24.89999870	0.00000000	12.69685000	-7.43110200
25.09999869	0.00000000	34.70103000	-8.96284400
25.29999867	0.00000000	52.01156000	-9.38115100
25.49999866	0.00000000	60.05782000	-9.00590400
25.69999865	0.00000000	56.20078000	-7.75713500
25.89999864	0.00000000	41.54158000	-5.38262700
26.09999863	0.00000000	19.44513000	-1.53174200
26.29999862	0.00000000	-5.63484200	2.64517700
26.49999860	0.00000000	-27.96506000	5.75787400
26.69999859	0.00000000	-41.46161000	7.24655500
26.89999858	0.00000000	-43.08563000	6.40994000
27.09999857	0.00000000	-33.04010000	2.51599400
27.29999856	0.00000000	-13.73031000	-3.66633800
27.49999854	0.00000000	10.60531000	-11.04823000
27.69999853	0.00000000	34.14739000	-18.35015000
27.89999852	0.00000000	51.59325000	-23.68971000
28.09999851	0.00000000	59.31963000	-25.17839000
28.29999850	0.00000000	55.86860000	-22.06570000
28.49999848	0.00000000	42.05216000	-14.63459000
28.69999847	0.00000000	21.99803000	-3.85088600
28.89999846	0.00000000	0.68897630	8.12622900
29.09999845	0.00000000	-17.91339000	18.12254000
29.29999844	0.00000000	-29.92126000	24.29257000
29.49999843	0.00000000	-33.08317000	24.58169000
29.69999841	0.00000000	-27.31299000	18.39936000
29.89999840	0.00000000	-14.19168000	6.74212600
30.09999839	0.00000000	3.16190900	-8.31077700
30.29999838	0.00000000	20.60777000	-23.73892000
30.49999837	0.00000000	34.56570000	-35.63607000
30.69999835	0.00000000	42.70423000	-41.02485000
30.89999834	0.00000000	43.12869000	-38.33046000
31.09999833	0.00000000	36.28199000	-28.29724000
31.29999832	0.00000000	24.69857000	-13.19513000
31.49999831	0.00000000	11.10974000	4.22613100
31.69999829	0.00000000	-2.09768700	20.39862000
31.89999828	0.00000000	-12.51845000	31.59449000
32.09999827	0.00000000	-17.91339000	35.08243000
32.29999826	0.00000000	-16.84301000	30.48105000
32.49999825	0.00000000	-10.33464000	18.86688000
32.69999824	0.00000000	-0.65206690	2.60211600
32.89999822	0.00000000	10.55610000	-15.18824000
33.09999821	0.00000000	20.60162000	-30.94242000
33.29999820	0.00000000	27.25763000	-40.64960000
33.49999819	0.00000000	29.95817000	-42.23671000
33.69999818	0.00000000	28.00197000	-36.46653000
33.89999816	0.00000000	21.48745000	-24.06496000
34.09999815	0.00000000	12.69070000	-7.89247000
34.29999814	0.00000000	4.13385800	8.36614100
34.49999813	0.00000000	-2.42987200	21.55512000
34.69999812	0.00000000	-5.91166300	29.22613000
34.89999810	0.00000000	-5.16732200	29.59522000
35.09999809	0.00000000	-0.98425190	21.93036000
35.29999808	0.00000000	5.21038300	8.87672100
35.49999807	0.00000000	12.13706000	-6.17618100
35.69999806	0.00000000	17.86417000	-20.06643000
35.89999805	0.00000000	20.60162000	-29.36146000
36.09999803	0.00000000	19.86343000	-32.47416000
36.29999802	0.00000000	16.41855000	-29.03543000
36.49999801	0.00000000	11.06668000	-19.78961000
36.69999800	0.00000000	5.67175200	-7.52337600
36.89999799	0.00000000	1.80856300	4.78592500
37.09999797	0.00000000	-0.14148620	13.61343000
37.29999796	0.00000000	0.64591530	16.77534000
37.49999795	0.00000000	3.67249000	14.12401000
37.69999794	0.00000000	7.94783400	6.82824800
37.89999793	0.00000000	12.55536000	-3.15575800
38.09999791	0.00000000	16.41855000	-13.10285000
38.29999790	0.00000000	18.32554000	-19.98031000
38.49999789	0.00000000	17.99951000	-21.51206000
38.69999788	0.00000000	15.67421000	-17.37205000
38.89999787	0.00000000	12.18012000	-9.33809000
39.09999786	0.00000000	7.90477300	-0.13533460
39.29999784	0.00000000	3.67249000	7.94783400
39.49999783	0.00000000	0.55364170	12.45694000
39.69999782	0.00000000	-0.93503930	11.70645000
39.89999781	0.00000000	-0.18454720	5.57947800
40.09999780	0.00000000	2.87893700	-3.57406500
40.29999778	0.00000000	6.69906400	-13.18898000
40.49999777	0.00000000	10.64838000	-20.48474000
40.69999776	0.00000000	14.13632000	-23.55438000
40.89999775	0.00000000	16.87992000	-21.60433000
41.09999774	0.00000000	18.41781000	-14.67766000
41.29999772	0.00000000	18.37475000	-4.73671200
41.49999771	0.00000000	16.46161000	5.20423200
41.69999770	0.00000000	12.97982000	12.17397000
41.89999769	0.00000000	9.11048200	14.49926000
42.09999768	0.00000000	5.21038300	12.26009000
42.29999767	0.00000000	2.13459600	6.09005900
42.49999765	0.00000000	0.55364170	-1.99311000
42.69999764	0.00000000	0.55364170	-10.45152000
42.89999763	0.00000000	2.09153500	-16.95374000
43.09999762	0.00000000	4.78592500	-19.32825000
43.29999761	0.00000000	7.86171200	-17.88263000
43.49999759	0.00000000	10.59916000	-13.65650000
43.69999758	0.00000000	12.55536000	-7.84940900
43.89999757	0.00000000	13.71801000	-1.71013800
44.09999756	0.00000000	13.76107000	3.29724400
44.29999755	0.00000000	13.06594000	5.62253900
44.49999753	0.00000000	12.64764000	5.33956700
44.69999752	0.00000000	12.27239000	3.02042300
44.89999751	0.00000000	11.86024000	-0.41830710
45.09999750	0.00000000	11.81102000	-4.26919300
45.29999749	0.00000000	10.97441000	-7.33882900
45.49999748	0.00000000	9.44266700	-8.96284400
45.69999746	-0.15871060	7.43725300	-9.38115100
45.89999745	0.00000000	4.74286400	-8.96284400
46.09999744	0.00000000	2.09153500	-7.43110200
46.29999743	0.00000000	0.55364170	-5.15501900
46.49999742	0.00000000	0.55364170	-3.19881900
46.69999740	0.00000000	2.17765700	-1.62401600
46.89999739	0.00000000	5.71481200	-0.51058070
47.09999738	0.00000000	11.10974000	-0.51058070
47.29999737	0.00000000	16.87992000	-1.62401600
47.49999736	0.00000000	21.53666000	-3.19881900
47.69999734	0.00000000	24.13878000	-5.15501900
47.89999733	0.00000000	23.30216000	-7.43110200
48.09999732	-0.15871060	18.32554000	-8.96284400
48.29999731	0.00000000	11.02362000	-9.38115100
48.49999730	0.00000000	3.20497000	-8.96284400
48.69999729	0.00000000	-4.09694900	-7.38188900
48.89999727	0.00000000	-9.03051100	-4.68750000
49.09999726	0.00000000	-9.40575800	-1.62401600
49.29999725	0.00000000	-5.21653500	1.07037400
49.49999724	0.00000000	2.17765700	2.60211600
49.69999723	0.00000000	11.44193000	2.60211600
49.89999721	0.00000000	20.65084000	1.02116100
50.09999720	0.00000000	26.79626000	-2.04232300
50.29999719	0.00000000	28.37721000	-5.89320800
50.49999718	0.00000000	25.30143000	-9.38115100
50.69999717	0.00000000	18.37475000	-12.07554000
50.89999715	0.00000000	9.48572700	-13.18898000
51.09999714	0.00000000	0.64591530	-12.03248000
51.29999713	0.00000000	-5.86860200	-8.96284400
51.49999712	0.00000000	-7.82480200	-4.73671200
51.69999711	0.00000000	-5.16732200	-0.51058070
51.89999710	0.00000000	0.97194880	2.60211600
52.09999708	0.00000000	9.06742000	4.14000900
52.29999707	0.00000000	16.74459000	3.76476400
52.49999706	0.00000000	22.13952000	1.44562000
52.69999705	0.00000000	23.67741000	-1.99311000
52.89999704	0.00000000	21.02608000	-5.85014700
53.09999702	0.00000000	15.29897000	-8.91978400
53.29999701	0.00000000	8.37229300	-10.49459000
53.49999700	0.00000000	2.22687000	-10.49459000
53.69999699	-0.15871060	-1.63016700	-8.96284400
53.89999698	0.00000000	-2.05462600	-6.31151500
54.09999696	0.00000000	0.64591530	-3.61712600
54.29999695	0.00000000	5.62869100	-1.66707700
54.49999694	0.00000000	11.76181000	-0.55364170
54.69999693	0.00000000	16.74459000	-0.92888770
54.89999692	0.00000000	19.48819000	-2.78051200
55.09999691	0.00000000	19.44513000	-4.68750000
55.29999689	0.00000000	16.36934000	-6.22539300
55.49999688	0.00000000	11.06668000	-6.96358300
55.69999687	0.00000000	5.67175200	-6.17618100
55.89999686	0.00000000	1.80856300	-4.31840500
56.09999685	0.00000000	-0.14148620	-2.04232300
56.29999683	0.00000000	0.64591530	-0.51058070
56.49999682	0.00000000	3.67249000	-0.13533460
56.69999681	0.00000000	7.90477300	-0.97194880
56.89999680	0.00000000	12.18012000	-3.66633800
57.09999679	0.00000000	15.58194000	-7.47416300
57.29999677	0.00000000	17.15674000	-10.86983000
57.49999676	0.00000000	16.04946000	-12.81373000
57.69999675	0.00000000	13.76107000	-12.40157000
57.89999674	0.00000000	10.64838000	-10.07628000
58.09999673	0.00000000	7.20964500	-5.75787400
58.29999672	0.00000000	4.87819900	-0.09227362
58.49999670	0.00000000	3.67249000	4.92125900
58.69999669	0.00000000	3.71555100	7.57874000
58.89999668	0.00000000	5.21038300	7.61564900
59.09999667	0.00000000	7.48646600	4.46604300
59.29999666	0.00000000	9.44266700	-0.92888770
59.49999664	0.00000000	10.97441000	-7.84940900
59.69999663	0.00000000	11.76181000	-14.35162000
59.89999662	0.00000000	11.39887000	-18.21481000
60.09999661	0.00000000	10.64838000	-18.95300000
60.29999660	0.00000000	9.48572700	-15.84030000
60.49999658	0.00000000	8.37229300	-9.33809000
60.69999657	0.00000000	7.94783400	-1.66707700
60.89999656	0.00000000	7.94783400	5.29650500
61.09999655	0.00000000	8.37229300	9.94094400
61.29999654	0.00000000	9.48572700	11.42962000
61.49999653	0.00000000	10.55610000	9.10433000
61.69999651	0.00000000	10.59916000	2.97736200
61.89999650	0.00000000	9.86097400	-4.73671200
62.09999649	0.00000000	9.06742000	-12.45079000
62.29999648	0.00000000	7.86171200	-18.57775000
62.49999647	0.00000000	6.36687900	-20.90920000
62.69999645	0.00000000	5.25344500	-19.42052000
62.89999644	0.00000000	5.25344500	-14.72687000
63.09999643	0.00000000	6.41609200	-7.43110200
63.29999642	0.00000000	8.28001900	0.64591530
63.49999641	0.00000000	10.23007000	7.20349400
63.69999639	0.00000000	11.44193000	11.05438000
63.89999638	0.00000000	12.60458000	11.10359000
64.09999637	0.00000000	13.25664000	7.67101300
64.29999636	0.00000000	12.13706000	2.27608300
64.49999635	0.00000000	9.90403500	-4.31840500
64.69999634	0.00000000	7.94783400	-10.49459000
64.89999632	0.00000000	6.36687900	-15.14518000
65.09999631	0.00000000	5.25344500	-17.46432000
65.29999630	0.00000000	5.25344500	-16.72613000
65.49999629	0.00000000	6.36687900	-13.69956000
65.69999628	0.00000000	7.90477300	-9.43036400
65.89999626	0.00000000	9.48572700	-4.73671200
66.09999625	0.00000000	10.97441000	-0.13533460
66.29999624	0.00000000	11.71875000	3.34645700
66.49999623	0.00000000	10.97441000	4.60137700
66.69999622	0.00000000	9.48572700	4.64443900
66.89999620	0.00000000	7.90477300	3.80782500
67.09999619	0.00000000	6.36687900	1.48868100
67.29999618	0.00000000	5.29650500	-1.58095500
67.49999617	0.00000000	5.67175200	-4.73671200
67.69999616	0.00000000	7.57258800	-7.84940900
67.89999615	0.00000000	9.90403500	-10.58686000
68.09999613	0.00000000	12.60458000	-12.53691000
68.29999612	0.00000000	14.83760000	-13.65650000
68.49999611	0.00000000	15.21284000	-13.23819000
68.69999610	0.00000000	13.67495000	-10.91289000
68.89999609	0.00000000	10.55610000	-7.43110200
69.09999607	0.00000000	6.32381900	-3.15575800
69.29999606	0.00000000	2.13459600	1.11343500
69.49999605	0.00000000	-0.55979330	4.60137700
69.69999604	0.00000000	-0.93503930	6.87746000
69.89999603	0.00000000	1.02116100	6.82824800
70.09999601	0.00000000	5.25344500	4.18307100
70.29999600	0.00000000	10.64838000	-0.09227362
70.49999599	0.00000000	15.67421000	-5.11195900
70.69999598	0.00000000	19.53125000	-10.11934000
70.89999597	0.00000000	21.06914000	-13.60728000
71.09999596	0.00000000	19.86343000	-15.18824000
71.29999594	0.00000000	15.99409000	-14.76993000
71.49999593	0.00000000	9.86097400	-12.07554000
71.69999592	0.00000000	3.71555100	-7.84940900
71.89999591	0.00000000	-0.98425190	-3.20497000
72.09999590	0.00000000	-3.67864200	1.07037400
72.29999588	0.00000000	-3.67864200	4.09079700
72.49999587	0.00000000	-0.98425190	4.87819900
72.69999586	0.00000000	3.67249000	3.02042300
72.89999585	0.00000000	9.48572700	0.00000000
73.09999584	0.00000000	15.25591000	-3.11269700
73.29999582	0.00000000	19.48819000	-5.80093500
73.49999581	0.00000000	21.02608000	-7.33882900
73.69999580	0.00000000	19.53125000	-7.38188900
73.89999579	0.00000000	15.67421000	-6.31151500
74.09999578	0.00000000	10.69144000	-5.15501900
74.29999577	0.00000000	5.67175200	-4.36146600
74.49999575	0.00000000	2.17765700	-3.62327700
74.69999574	0.00000000	0.55364170	-3.66633800
74.89999573	0.00000000	0.55364170	-4.77977300
75.09999572	0.00000000	2.13459600	-6.26845500
75.29999571	0.00000000	5.21038300	-7.38188900
75.49999569	0.00000000	9.01820900	-7.33882900
75.69999568	0.00000000	12.09400000	-5.80093500
75.89999567	0.00000000	13.67495000	-3.11269700
76.09999566	0.00000000	13.71801000	-0.04306102
76.29999565	0.00000000	12.60458000	2.60211600
76.49999563	0.00000000	11.06668000	3.71555100
76.69999562	0.00000000	9.52879000	2.60211600
76.89999561	0.00000000	8.37229300	-0.13533460
77.09999560	0.00000000	7.94783400	-4.04158400
77.29999559	0.00000000	7.90477300	-9.00590400
77.49999558	0.00000000	7.90477300	-13.18898000
77.69999556	0.00000000	7.90477300	-15.14518000
77.89999555	0.00000000	7.90477300	-14.76993000
78.09999554	0.00000000	7.86171200	-12.03248000
78.29999553	0.00000000	7.48646600	-7.42495000
78.49999552	0.00000000	6.74212600	-1.99311000
78.69999550	0.00000000	6.41609200	2.97736200
78.89999549	0.00000000	6.79133800	6.45300100
79.09999548	0.00000000	7.99704600	7.24655500
79.29999547	0.00000000	9.90403500	5.75787400
79.49999546	0.00000000	12.13706000	2.60211600
79.69999544	0.00000000	13.34276000	-2.04232300
79.89999543	0.00000000	13.39813000	-7.42495000
80.09999542	0.00000000	13.34276000	-12.03248000
80.29999541	0.00000000	12.09400000	-14.76993000
80.49999540	0.00000000	9.44266700	-15.18824000
80.69999539	0.00000000	6.36687900	-13.65650000
80.89999537	0.00000000	3.71555100	-10.53765000
81.09999536	0.00000000	2.55290300	-6.31151500
81.29999535	0.00000000	3.29724400	-2.04232300
81.49999534	0.00000000	5.21038300	1.44562000
81.69999533	0.00000000	7.90477300	3.76476400
81.89999531	0.00000000	10.59916000	4.18307100
82.09999530	0.00000000	12.55536000	3.06348400
82.29999529	0.00000000	13.71801000	1.15649600
82.49999528	0.00000000	13.71801000	-1.20570900
82.69999527	0.00000000	12.55536000	-3.57406500
82.89999525	0.00000000	10.64838000	-6.31151500
83.09999524	0.00000000	8.37229300	-9.00590400
83.29999523	0.00000000	6.83439900	-10.96211000
83.49999522	0.00000000	6.36687900	-12.11860000
83.69999521	0.00000000	6.36687900	-12.07554000
83.89999520	0.00000000	6.74212600	-10.49459000
84.09999518	0.00000000	7.52952700	-7.42495000
84.29999517	0.00000000	8.28001900	-3.57406500
84.49999516	0.00000000	9.06742000	-0.09227362
84.69999515	0.00000000	9.44266700	2.64517700
84.89999514	0.00000000	9.48572700	4.18307100
85.09999512	0.00000000	9.48572700	4.18307100
85.29999511	0.00000000	9.52879000	2.60211600
85.49999510	0.00000000	9.90403500	-0.51058070
85.69999509	0.00000000	10.64838000	-4.77977300
85.89999508	0.00000000	11.02362000	-9.38115100
86.09999506	0.00000000	11.02362000	-13.18898000
86.29999505	0.00000000	10.59916000	-14.72687000
86.49999504	0.00000000	9.44266700	-13.60728000
86.69999503	0.00000000	7.94783400	-10.53765000
86.89999502	0.00000000	6.74212600	-6.26845500
87.09999501	0.00000000	5.99163300	-1.62401600
87.29999499	0.00000000	5.57947800	2.55905500
87.49999498	0.00000000	5.99163300	4.87819900
87.69999497	0.00000000	6.74212600	4.55831700
87.89999496	0.00000000	7.94783400	2.60211600
88.09999495	0.00000000	9.48572700	-0.92888770
88.29999493	0.00000000	11.02362000	-5.89320800
88.49999492	0.00000000	12.13706000	-10.45152000
88.69999491	0.00000000	12.13706000	-13.18898000
88.89999490	0.00000000	11.02362000	-13.56422000
89.09999489	0.00000000	9.48572700	-11.65723000
89.29999487	0.00000000	7.90477300	-7.80019600
89.49999486	0.00000000	6.36687900	-3.20497000
89.69999485	0.00000000	5.25344500	1.02116100
89.89999484	0.00000000	5.25344500	3.71555100
90.09999483	0.00000000	6.32381900	4.09079700
90.29999482	0.00000000	7.48646600	2.18380900
90.49999480	0.00000000	8.32308000	-1.66707700
90.69999479	0.00000000	9.48572700	-6.26845500
90.89999478	0.00000000	10.55610000	-10.49459000
91.09999477	0.00000000	10.64838000	-13.14591000
91.29999476	0.00000000	10.27928000	-13.14591000
91.49999474	0.00000000	10.27313000	-10.49459000
91.69999473	0.00000000	9.86097400	-6.26845500
91.89999472	0.00000000	9.52879000	-1.66707700
92.09999471	0.00000000	9.48572700	2.18380900
92.29999470	0.00000000	9.44266700	4.09079700
92.49999468	0.00000000	9.06742000	3.71555100
92.69999467	0.00000000	8.28001900	1.02116100
92.89999466	0.00000000	7.52952700	-3.20497000
93.09999465	0.00000000	6.74212600	-7.80019600
93.29999464	0.00000000	6.36687900	-11.61417000
93.49999463	0.00000000	6.32381900	-13.14591000
93.69999461	0.00000000	6.36687900	-12.03248000
93.89999460	0.00000000	6.83439900	-8.96284400
94.09999459	0.00000000	8.37229300	-4.73671200
94.29999458	0.00000000	10.59916000	-0.55364170
94.49999457	0.00000000	12.18012000	2.18380900
94.69999455	0.00000000	12.97982000	2.97736200
94.89999454	0.00000000	13.34276000	2.18380900
95.09999453	0.00000000	12.51230000	-0.55364170
95.29999452	0.00000000	10.59916000	-4.69365100
95.49999451	0.00000000	7.86171200	-8.54453700
95.69999449	0.00000000	4.83513700	-10.86983000
95.89999448	0.00000000	2.50984200	-11.65723000
96.09999447	0.00000000	1.71628900	-10.45152000
96.29999446	0.00000000	2.09153500	-7.42495000
96.49999445	0.00000000	3.67249000	-3.62327700
96.69999444	0.00000000	6.41609200	-0.55364170
96.89999442	0.00000000	9.86097400	1.02116100
97.09999441	0.00000000	13.34276000	1.02116100
97.29999440	0.00000000	15.67421000	-0.46751960
97.49999439	0.00000000	16.83686000	-2.78051200
97.69999438	0.00000000	16.36934000	-5.06274600
97.89999436	0.00000000	13.71801000	-7.01279500
98.09999435	0.00000000	9.90403500	-7.75713500
98.29999434	0.00000000	6.36687900	-7.42495000
98.49999433	0.00000000	3.25418300	-6.31151500
98.69999432	0.00000000	0.97194880	-5.15501900
98.89999430	0.00000000	0.55364170	-4.36146600
99.09999429	0.00000000	1.71628900	-3.57406500
99.29999428	0.00000000	4.04773600	-3.19881900
99.49999427	0.00000000	7.52952700	-3.15575800
99.69999426	0.00000000	10.97441000	-3.15575800
99.89999425	0.00000000	13.76107000	-3.15575800
100.09999423	0.00000000	15.67421000	-3.11269700
100.29999422	0.00000000	16.41855000	-2.73745100
100.49999421	0.00000000	15.25591000	-2.04232300
100.69999420	0.00000000	12.60458000	-2.04232300
100.89999419	0.00000000	9.48572700	-2.78051200
101.09999417	0.00000000	6.36687900	-3.62327700
101.29999416	0.00000000	3.67249000	-5.19808000
101.49999415	0.00000000	2.13459600	-7.43110200
101.69999414	0.00000000	2.09153500	-8.96284400
101.89999413	0.00000000	3.25418300	-9.33809000
102.09999411	0.00000000	5.16117100	-8.54453700
102.29999410	0.00000000	7.52952700	-6.26845500
102.49999409	0.00000000	9.86097400	-3.57406500
102.69999408	0.00000000	12.18012000	-1.20570900
102.89999407	0.00000000	13.67495000	1.07037400
103.09999406	0.00000000	13.71801000	2.18380900
103.29999404	0.00000000	12.60458000	1.43946800
103.49999403	0.00000000	11.06668000	-0.46751960
103.69999402	0.00000000	9.44266700	-3.19881900
103.89999401	0.00000000	7.52952700	-6.26845500
104.09999400	0.00000000	5.62869100	-8.96284400
104.29999398	0.00000000	4.83513700	-10.49459000
104.49999397	0.00000000	4.78592500	-10.49459000
104.69999396	0.00000000	5.21038300	-8.96284400
104.89999395	0.00000000	6.36687900	-6.26845500
105.09999394	0.00000000	7.90477300	-3.19881900
105.29999392	0.00000000	9.44266700	-0.51058070
105.49999391	0.00000000	10.55610000	1.02116100
105.69999390	0.00000000	10.59916000	1.02116100
105.89999389	0.00000000	9.86097400	-0.51058070
106.09999388	0.00000000	9.11048200	-3.15575800
106.29999387	0.00000000	8.28001900	-5.80093500
106.49999385	0.00000000	7.57258800	-7.38188900
106.69999384	0.00000000	7.16043300	-7.80019600
106.89999383	0.00000000	7.52952700	-7.42495000
107.09999382	0.00000000	7.90477300	-6.26845500
107.29999381	0.00000000	8.37229300	-4.73671200
107.49999379	0.00000000	9.48572700	-3.19881900
107.69999378	0.00000000	10.55610000	-2.04232300
107.89999377	0.00000000	10.55610000	-1.66707700
108.09999376	0.00000000	9.48572700	-2.04232300
108.29999375	0.00000000	8.32308000	-3.19881900
108.49999374	0.00000000	7.52952700	-4.73671200
108.69999372	0.00000000	6.74212600	-6.26845500
108.89999371	0.00000000	6.41609200	-7.38188900
109.09999370	0.00000000	6.74212600	-7.38188900
109.29999369	0.00000000	7.52952700	-6.26845500
109.49999368	0.00000000	8.32308000	-4.73671200
109.69999366	0.00000000	9.48572700	-3.19881900
109.89999365	0.00000000	10.59916000	-2.04232300
110.09999364	0.00000000	10.97441000	-1.61786400
110.29999363	0.00000000	10.59916000	-1.61786400
110.49999362	0.00000000	9.48572700	-2.08538400
110.69999360	0.00000000	8.32308000	-3.57406500
110.89999359	0.00000000	7.52952700	-5.47490100
111.09999358	0.00000000	6.74212600	-6.64370100
111.29999357	0.00000000	6.36687900	-7.47416300
111.49999356	0.00000000	6.36687900	-7.80019600
111.69999355	0.00000000	6.79133800	-7.42495000
111.89999353	0.00000000	7.90477300	-6.26845500
112.09999352	0.00000000	9.01820900	-4.77977300
112.29999351	0.00000000	9.44266700	-3.62327700
112.49999350	0.00000000	9.44266700	-3.19881900
112.69999349	0.00000000	9.06742000	-3.15575800
112.89999347	0.00000000	8.37229300	-3.15575800
113.09999346	0.00000000	8.32308000	-3.19881900
113.29999345	0.00000000	8.64911400	-3.57406500
113.49999344	0.00000000	8.28001900	-4.31840500
113.69999343	0.00000000	7.94783400	-4.69365100
113.89999341	0.00000000	7.90477300	-4.73671200
114.09999340	0.00000000	7.90477300	-4.73671200
114.29999339	0.00000000	7.94783400	-4.73671200
114.49999338	0.00000000	8.32308000	-4.77977300
114.69999337	0.00000000	9.01820900	-5.15501900
114.89999336	0.00000000	9.06742000	-5.89320800
115.09999334	0.00000000	8.74138700	-6.26845500
115.29999333	0.00000000	9.06742000	-6.26845500
115.49999332	0.00000000	9.01820900	-5.89320800
115.69999331	0.00000000	8.32308000	-5.11195900
115.89999330	0.00000000	7.94783400	-4.36146600
116.09999328	0.00000000	7.90477300	-3.57406500
116.29999327	0.00000000	7.90477300	-3.15575800
116.49999326	0.00000000	7.90477300	-2.78051200
116.69999325	0.00000000	7.90477300	-2.41141700
116.89999324	0.00000000	7.94783400	-2.82357300
117.09999322	0.00000000	8.28001900	-3.53100400
117.29999321	0.00000000	8.69217500	-4.36146600
117.49999320	0.00000000	8.69832600	-5.15501900
117.69999319	0.00000000	9.15354300	-6.26845500
117.89999318	0.00000000	9.81791200	-7.00664300
118.09999317	0.00000000	10.23007000	-6.68676100
118.29999315	0.00000000	9.81791200	-6.31151500
118.49999314	0.00000000	9.11048200	-5.85014700
118.69999313	0.00000000	8.28001900	-4.73671200
118.89999312	0.00000000	7.52952700	-3.62327700
119.09999311	0.00000000	6.74212600	-3.15575800
119.29999309	0.00000000	6.36687900	-2.78051200
119.49999308	0.00000000	6.32381900	-2.41141700
119.69999307	0.00000000	6.41609200	-2.78051200
119.89999306	0.00000000	7.16043300	-3.15575800
120.09999305	0.00000000	8.69217500	-3.57406500
120.29999303	0.00000000	9.81791200	-4.31840500
120.49999302	0.00000000	10.64838000	-4.73671200
120.69999301	0.00000000	11.02362000	-5.15501900
120.89999300	0.00000000	11.02362000	-5.89320800
121.09999299	0.00000000	10.59916000	-6.26845500
121.29999298	0.00000000	9.44266700	-6.26845500
121.49999296	0.00000000	7.94783400	-5.89320800
121.69999295	0.00000000	6.74212600	-5.15501900
121.89999294	0.00000000	5.94857300	-4.77977300
122.09999293	0.00000000	5.21038300	-4.69365100
122.29999292	0.00000000	5.21038300	-4.31840500
122.49999290	0.00000000	5.94857300	-3.57406500
122.69999289	0.00000000	6.74212600	-3.19881900
122.89999288	0.00000000	7.90477300	-3.15575800
123.09999287	0.00000000	9.06742000	-3.15575800
123.29999286	0.00000000	9.86097400	-3.19881900
123.49999284	0.00000000	10.64838000	-3.57406500
123.69999283	0.00000000	10.97441000	-4.36146600
123.89999282	0.00000000	10.64838000	-5.11195900
124.09999281	0.00000000	9.86097400	-5.89320800
124.29999280	0.00000000	9.06742000	-6.26845500
124.49999279	0.00000000	7.90477300	-6.26845500
124.69999277	0.00000000	6.79133800	-5.89320800
124.89999276	0.00000000	6.36687900	-5.15501900
125.09999275	0.00000000	6.32381900	-4.73671200
125.29999274	0.00000000	6.36687900	-4.31840500
125.49999273	0.00000000	6.74212600	-3.57406500
125.69999271	0.00000000	7.52952700	-3.19881900
125.89999270	0.00000000	8.28001900	-3.15575800
126.09999269	0.00000000	9.11048200	-3.15575800
126.29999268	0.00000000	9.86097400	-3.19881900
126.49999267	0.00000000	10.59916000	-3.57406500
126.69999265	0.00000000	10.59916000	-4.31840500
126.89999264	0.00000000	9.86097400	-4.69365100
127.09999263	0.00000000	9.06742000	-4.73671200
127.29999262	0.00000000	7.90477300	-4.73671200
127.49999261	0.00000000	6.79133800	-4.73671200
127.69999260	0.00000000	6.36687900	-4.73671200
127.89999258	0.00000000	6.32381900	-4.73671200
128.09999257	0.00000000	6.36687900	-4.69365100
128.29999256	0.00000000	6.79133800	-4.31840500
128.49999255	-0.15871060	7.90477300	-3.62327700
128.69999254	0.00000000	9.01820900	-3.57406500
128.89999252	0.00000000	9.48572700	-3.94315900
129.09999251	0.00000000	9.86097400	-3.94931100
129.29999250	0.00000000	10.18086000	-4.36146600
129.49999249	0.00000000	9.44266700	-4.69365100
129.69999248	0.00000000	8.32308000	-4.73671200
129.89999246	0.00000000	7.52952700	-4.73671200
130.09999245	0.00000000	6.74212600	-4.73671200
130.29999244	0.00000000	6.36687900	-4.73671200
130.49999243	0.00000000	6.36687900	-4.69365100
130.69999242	0.00000000	6.79133800	-4.36146600
130.89999241	0.00000000	7.90477300	-3.94931100
131.09999239	0.00000000	9.01820900	-3.98622000
131.29999238	0.00000000	9.44266700	-3.94931100
131.49999237	0.00000000	9.48572700	-4.36146600
131.69999236	0.00000000	9.44266700	-4.73671200
131.89999235	0.00000000	9.06742000	-5.15501900
132.09999233	0.00000000	8.32308000	-5.89320800
132.29999232	0.00000000	7.94783400	-6.21924200
132.49999231	0.00000000	7.90477300	-5.89320800
132.69999230	0.00000000	7.90477300	-5.11195900
132.89999229	0.00000000	7.90477300	-4.36146600
133.09999227	0.00000000	7.90477300	-3.57406500
133.29999226	0.00000000	7.90477300	-3.19881900
133.49999225	0.00000000	7.90477300	-3.15575800
133.69999224	0.00000000	7.90477300	-3.15575800
133.89999223	0.00000000	7.90477300	-3.19881900
134.09999222	0.00000000	7.90477300	-3.57406500
134.29999220	0.00000000	7.90477300	-4.36146600
134.49999219	0.00000000	7.90477300	-5.11195900
134.69999218	0.00000000	7.94783400	-5.89320800
134.89999217	0.00000000	8.32308000	-6.26845500
135.09999216	0.00000000	9.06742000	-6.31151500
135.29999214	0.00000000	9.44266700	-6.26845500
135.49999213	0.00000000	9.48572700	-5.89320800
135.69999212	0.00000000	9.44266700	-5.11195900
135.89999211	0.00000000	9.01820900	-4.36146600
136.09999210	0.00000000	7.94783400	-3.57406500
136.29999208	0.00000000	7.16043300	-3.19881900
136.49999207	0.00000000	7.11122000	-3.15575800
136.69999206	0.00000000	6.69906400	-3.15575800
136.89999205	0.00000000	6.41609200	-3.19881900
137.09999204	0.00000000	6.74212600	-3.57406500
137.29999203	0.00000000	7.52952700	-4.31840500
137.49999201	0.00000000	8.28001900	-4.73671200
137.69999200	0.00000000	9.06742000	-5.15501900
137.89999199	0.00000000	9.44266700	-5.89320800
138.09999198	0.00000000	9.44266700	-6.26845500
138.29999197	0.00000000	9.06742000	-6.26845500
138.49999195	0.00000000	8.32308000	-5.89320800
138.69999194	0.00000000	7.90477300	-5.15501900
138.89999193	0.00000000	7.48646600	-4.73671200
139.09999192	0.00000000	6.74212600	-4.31840500
139.29999191	0.00000000	6.41609200	-3.57406500
139.49999189	0.00000000	6.74212600	-3.19881900
139.69999188	0.00000000	7.52952700	-3.15575800
139.89999187	0.00000000	8.28001900	-3.19881900
140.09999186	0.00000000	9.06742000	-3.57406500
140.29999185	0.00000000	9.39345400	-4.36146600
140.49999184	0.00000000	9.06742000	-5.11195900
140.69999182	0.00000000	8.32308000	-5.89320800
140.89999181	0.00000000	7.94783400	-6.26845500
141.09999180	0.00000000	7.90477300	-6.31151500
141.29999179	0.00000000	7.86171200	-6.26845500
141.49999178	0.00000000	7.52952700	-5.89320800
141.69999176	0.00000000	7.16043300	-5.11195900
141.89999175	0.00000000	7.52952700	-4.36146600
142.09999174	0.00000000	7.86171200	-3.53100400
142.29999173	0.00000000	7.94783400	-2.82357300
142.49999172	0.00000000	8.32308000	-2.41141700
142.69999170	0.00000000	9.01820900	-2.82357300
142.89999169	0.00000000	9.01820900	-3.53100400
143.09999168	0.00000000	8.32308000	-4.36146600
143.29999167	0.00000000	7.94783400	-5.11195900
143.49999166	0.00000000	7.90477300	-5.89320800
143.69999165	0.00000000	7.90477300	-6.26845500
143.89999163	0.00000000	7.90477300	-6.26845500
144.09999162	0.00000000	7.94783400	-5.89320800
144.29999161	0.00000000	8.32308000	-5.15501900
144.49999160	0.00000000	9.01820900	-4.73671200
144.69999159	0.00000000	9.01820900	-4.31840500
144.89999157	0.00000000	8.37229300	-3.57406500
145.09999156	0.00000000	8.32308000	-3.19881900
145.29999155	0.00000000	8.64911400	-3.19881900
145.49999154	0.00000000	8.28001900	-3.57406500
145.69999153	0.00000000	7.94783400	-4.31840500
145.89999151	0.00000000	7.90477300	-4.73671200
146.09999150	0.00000000	7.86171200	-5.15501900
146.29999149	0.00000000	7.52952700	-5.85014700
146.49999148	0.00000000	7.16043300	-5.89320800
146.69999147	0.00000000	7.52952700	-5.53026500
146.89999146	0.00000000	7.90477300	-5.51796200
147.09999144	0.00000000	8.32308000	-5.11195900
147.29999143	0.00000000	9.01820900	-4.73671200
147.49999142	0.00000000	9.06742000	-4.31840500
147.69999141	0.00000000	8.69832600	-3.57406500
147.89999140	0.00000000	8.69217500	-3.19881900
148.09999138	0.00000000	8.28001900	-3.15575800
148.29999137	0.00000000	7.94783400	-3.19881900
148.49999136	0.00000000	7.90477300	-3.57406500
148.69999135	0.00000000	7.90477300	-4.31840500
148.89999134	0.00000000	7.90477300	-4.69365100
149.09999132	0.00000000	7.94783400	-4.73671200
149.29999131	0.00000000	8.28001900	-4.73671200
149.49999130	0.00000000	8.69217500	-4.73671200
149.69999129	0.00000000	8.69832600	-4.73671200
149.89999128	0.00000000	9.06742000	-4.73671200
150.09999127	0.00000000	9.01820900	-4.69365100
150.29999125	0.00000000	8.32308000	-4.31840500
150.49999124	0.00000000	7.94783400	-3.57406500
150.69999123	0.00000000	7.90477300	-3.19881900
150.89999122	0.00000000	7.90477300	-3.19881900
151.09999121	0.00000000	7.90477300	-3.57406500
151.29999119	0.00000000	7.90477300	-4.31840500
151.49999118	0.00000000	7.90477300	-4.69365100
151.69999117	0.00000000	7.90477300	-4.73671200
151.89999116	0.00000000	7.94783400	-4.73671200
152.09999115	0.00000000	8.28001900	-4.73671200
152.29999113	0.00000000	8.69217500	-4.73671200
152.49999112	0.00000000	8.69832600	-4.73671200
152.69999111	0.00000000	9.11048200	-4.73671200
152.89999110	0.00000000	9.44266700	-4.73671200
153.09999109	0.00000000	9.44266700	-4.73671200
153.29999108	0.00000000	9.06742000	-4.73671200
153.49999106	0.00000000	8.32308000	-4.73671200
153.69999105	0.00000000	7.94783400	-4.69365100
153.89999104	0.00000000	7.90477300	-4.31840500
154.09999103	0.00000000	7.86171200	-3.57406500
154.29999102	0.00000000	7.52952700	-3.19881900
154.49999100	0.00000000	7.16043300	-3.19881900
154.69999099	0.00000000	7.52952700	-3.57406500
154.89999098	0.00000000	7.86171200	-4.31840500
155.09999097	0.00000000	7.94783400	-4.69365100
155.29999096	0.00000000	8.32308000	-4.73671200
155.49999094	0.00000000	9.06742000	-4.77977300
155.69999093	0.00000000	9.44266700	-5.11195900
155.89999092	0.00000000	9.44266700	-5.47490100
156.09999091	0.00000000	9.06742000	-5.11195900
156.29999090	0.00000000	8.32308000	-4.77977300
156.49999089	0.00000000	7.94783400	-4.69365100
156.69999087	0.00000000	7.86171200	-4.31840500
156.89999086	0.00000000	7.48646600	-3.57406500
157.09999085	0.00000000	6.74212600	-3.19881900
157.29999084	0.00000000	6.36687900	-3.15575800
157.49999083	0.00000000	6.36687900	-3.19881900
157.69999081	0.00000000	6.74212600	-3.57406500
157.89999080	0.00000000	7.48646600	-4.31840500
158.09999079	0.00000000	7.86171200	-4.73671200
158.29999078	0.00000000	7.94783400	-5.11195900
158.49999077	0.00000000	8.32308000	-5.47490100
158.69999075	0.00000000	9.01820900	-5.11195900
158.89999074	0.00000000	9.01820900	-4.77977300
159.09999073	0.00000000	8.32308000	-4.73671200
159.29999072	0.00000000	7.94783400	-4.69365100
159.49999071	0.00000000	7.90477300	-4.31840500
159.69999070	0.00000000	7.90477300	-3.57406500
159.89999068	0.00000000	7.90477300	-3.19881900
160.09999067	0.00000000	7.90477300	-3.15575800
160.29999066	0.00000000	7.86171200	-3.19881900
160.49999065	0.00000000	7.52952700	-3.57406500
160.69999064	0.00000000	7.16043300	-4.31840500
160.89999062	0.00000000	7.52952700	-4.73671200
161.09999061	0.00000000	7.86171200	-5.11195900
161.29999060	0.00000000	7.90477300	-5.51796200
161.49999059	0.00000000	7.90477300	-5.48105300
161.69999058	0.00000000	7.94783400	-5.51796200
161.89999056	0.00000000	8.28001900	-5.11195900
162.09999055	0.00000000	8.64911400	-4.77977300
162.29999054	0.00000000	8.28001900	-4.69365100
162.49999053	0.00000000	7.94783400	-4.36146600
162.69999052	0.00000000	7.90477300	-3.94931100
162.89999051	0.00000000	7.90477300	-3.94315900
163.09999049	0.00000000	7.86171200	-3.57406500
163.29999048	0.00000000	7.52952700	-3.62327700
163.49999047	0.00000000	7.16043300	-4.31840500
163.69999046	0.00000000	7.52952700	-4.69365100
163.89999045	0.00000000	7.86171200	-4.73671200
164.09999043	0.00000000	7.90477300	-4.77977300
164.29999042	0.00000000	7.90477300	-5.11195900
164.49999041	0.00000000	7.90477300	-5.47490100
164.69999040	0.00000000	7.94783400	-5.11195900
164.89999039	0.00000000	8.32308000	-4.77977300
165.09999037	0.00000000	9.01820900	-4.73671200
165.29999036	0.00000000	9.01820900	-4.73671200
165.49999035	0.00000000	8.32308000	-4.73671200
165.69999034	0.00000000	7.94783400	-4.73671200
165.89999033	0.00000000	7.90477300	-4.73671200
166.09999032	0.00000000	7.90477300	-4.73671200
166.29999030	0.00000000	7.90477300	-4.73671200
166.49999029	0.00000000	7.90477300	-4.73671200
166.69999028	0.00000000	7.90477300	-4.73671200
166.89999027	0.00000000	7.90477300	-4.73671200
167.09999026	0.00000000	7.90477300	-4.73671200
167.29999024	0.00000000	7.90477300	-4.73671200
167.49999023	0.00000000	7.90477300	-4.73671200
167.69999022	0.00000000	7.94783400	-4.73671200
167.89999021	0.00000000	8.28001900	-4.73671200
168.09999020	0.00000000	8.69217500	-4.73671200
168.29999018	0.00000000	8.65526600	-4.73671200
168.49999017	0.00000000	8.69217500	-4.73671200
168.69999016	0.00000000	8.28001900	-4.73671200
168.89999015	0.00000000	7.94783400	-4.73671200
169.09999014	0.00000000	7.90477300	-4.73671200
169.29999013	0.00000000	7.90477300	-4.73671200
169.49999011	0.00000000	7.90477300	-4.73671200
169.69999010	0.00000000	7.90477300	-4.73671200
169.89999009	0.00000000	7.90477300	-4.73671200
170.09999008	0.00000000	7.90477300	-4.73671200
170.29999007	0.00000000	7.90477300	-4.73671200
170.49999005	0.00000000	7.90477300	-4.73671200
170.69999004	0.00000000	7.90477300	-4.73671200
170.89999003	0.00000000	7.90477300	-4.73671200
171.09999002	0.00000000	7.90477300	-4.73671200
171.29999001	0.00000000	7.90477300	-4.73671200
171.49998999	0.00000000	7.90477300	-4.73671200
171.69998998	0.00000000	7.90477300	-4.73671200
171.89998997	0.00000000	7.90477300	-4.73671200
172.09998996	0.00000000	7.90477300	-4.73671200
172.29998995	0.00000000	7.90477300	-4.73671200
172.49998994	0.00000000	7.90477300	-4.73671200
172.69998992	0.00000000	7.90477300	-4.73671200
172.89998991	0.00000000	7.90477300	-4.73671200
173.09998990	0.00000000	7.90477300	-4.73671200
173.29998989	0.00000000	7.90477300	-4.73671200
173.49998988	0.00000000	7.90477300	-4.73671200
173.69998986	0.00000000	7.90477300	-4.73671200
173.89998985	0.00000000	7.90477300	-4.73671200
174.09998984	0.00000000	7.90477300	-4.73671200
174.29998983	0.00000000	7.90477300	-4.73671200
174.49998982	0.00000000	7.90477300	-4.73671200
174.69998980	0.00000000	7.90477300	-4.73671200
174.89998979	0.00000000	7.90477300	-4.73671200
175.09998978	0.00000000	7.90477300	-4.73671200
175.29998977	0.00000000	7.90477300	-4.73671200
175.49998976	0.00000000	7.90477300	-4.73671200
175.69998975	0.00000000	7.90477300	-4.73671200
175.89998973	0.00000000	7.90477300	-4.73671200
176.09998972	0.00000000	7.90477300	-4.73671200
176.29998971	0.00000000	7.90477300	-4.73671200
176.49998970	0.00000000	7.90477300	-4.69365100
176.69998969	0.00000000	7.90477300	-4.36146600
176.89998967	0.00000000	7.90477300	-3.99237200
177.09998966	0.00000000	7.90477300	-4.36146600
177.29998965	0.00000000	7.90477300	-4.69365100
177.49998964	0.00000000	7.90477300	-4.73671200
177.69998963	0.00000000	7.90477300	-4.73671200
177.89998961	0.00000000	7.90477300	-4.73671200
178.09998960	0.00000000	7.90477300	-4.73671200
178.29998959	0.00000000	7.90477300	-4.73671200
178.49998958	0.00000000	7.90477300	-4.73671200
178.69998957	0.00000000	7.90477300	-4.73671200
178.89998956	0.00000000	7.90477300	-4.73671200
179.09998954	0.00000000	7.90477300	-4.73671200
179.29998953	0.00000000	7.90477300	-4.73671200
179.49998952	0.00000000	7.90477300	-4.73671200
179.69998951	0.00000000	7.90477300	-4.73671200
179.89998950	0.00000000	7.90477300	-4.73671200
180.09998948	0.00000000	7.90477300	-4.73671200
180.29998947	0.00000000	7.90477300	-4.73671200
180.49998946	0.00000000	7.90477300	-4.73671200
180.69998945	0.00000000	7.90477300	-4.73671200
180.89998944	0.00000000	7.90477300	-4.73671200
181.09998942	0.00000000	7.90477300	-4.73671200
181.29998941	0.00000000	7.90477300	-4.73671200
181.49998940	0.00000000	7.90477300	-4.73671200
181.69998939	0.00000000	7.90477300	-4.73671200
181.89998938	0.00000000	7.90477300	-4.73671200
182.09998937	0.00000000	7.90477300	-4.69365100
182.29998935	0.00000000	7.90477300	-4.36146600
182.49998934	0.00000000	7.90477300	-3.99237200
182.69998933	0.00000000	7.90477300	-4.36146600
182.89998932	0.00000000	7.90477300	-4.69365100
183.09998931	0.00000000	7.90477300	-4.73671200
183.29998929	0.00000000	7.90477300	-4.73671200
183.49998928	0.00000000	7.90477300	-4.73671200
183.69998927	0.00000000	7.90477300	-4.73671200
183.89998926	0.00000000	7.90477300	-4.73671200
184.09998925	0.00000000	7.90477300	-4.69365100
184.29998923	0.00000000	7.90477300	-4.31840500
184.49998922	0.00000000	7.90477300	-3.57406500
184.69998921	0.00000000	7.90477300	-3.19881900
184.89998920	0.00000000	7.90477300	-3.19881900
185.09998919	0.00000000	7.90477300	-3.57406500
185.29998918	0.00000000	7.90477300	-4.31840500
185.49998916	0.00000000	7.90477300	-4.69365100
185.69998915	0.00000000	7.90477300	-4.73671200
185.89998914	0.00000000	7.90477300	-4.73671200
186.09998913	0.00000000	7.90477300	-4.73671200
186.29998912	0.00000000	7.90477300	-4.77977300
186.49998910	0.00000000	7.90477300	-5.11195900
186.69998909	0.00000000	7.90477300	-5.47490100
186.89998908	0.00000000	7.90477300	-5.11195900
187.09998907	0.00000000	7.90477300	-4.73671200
187.29998906	0.00000000	7.86171200	-4.31840500
187.49998904	0.00000000	7.52952700	-3.57406500
187.69998903	0.00000000	7.16043300	-3.24803100
187.89998902	0.00000000	7.52952700	-3.57406500
188.09998901	0.00000000	7.86171200	-4.31840500
188.29998900	0.00000000	7.90477300	-4.69365100
188.49998899	0.00000000	7.90477300	-4.73671200
188.69998897	0.00000000	7.90477300	-4.73671200
188.89998896	0.00000000	7.90477300	-4.77977300
189.09998895	0.00000000	7.90477300	-5.11195900
189.29998894	0.00000000	7.90477300	-5.47490100
189.49998893	0.00000000	7.90477300	-5.11195900
189.69998891	0.00000000	7.90477300	-4.77977300
189.89998890	0.00000000	7.90477300	-4.73671200
190.09998889	0.00000000	7.90477300	-4.73671200
190.29998888	0.00000000	7.86171200	-4.69365100
190.49998887	0.00000000	7.52952700	-4.36146600
190.69998885	0.00000000	7.16043300	-3.99237200
190.89998884	0.00000000	7.52952700	-4.36146600
191.09998883	0.00000000	7.86171200	-4.69365100
191.29998882	0.00000000	7.90477300	-4.73671200
191.49998881	0.00000000	7.90477300	-4.73671200
191.69998880	0.00000000	7.90477300	-4.73671200
191.89998878	0.00000000	7.90477300	-4.73671200
192.09998877	0.00000000	7.90477300	-4.73671200
192.29998876	0.00000000	7.90477300	-4.73671200
192.49998875	0.00000000	7.90477300	-4.73671200
192.69998874	0.00000000	7.90477300	-4.73671200
192.89998872	0.00000000	7.86171200	-4.73671200
193.09998871	0.00000000	7.52952700	-4.73671200
193.29998870	0.00000000	7.16043300	-4.73671200
193.49998869	0.00000000	7.48646600	-4.73671200
193.69998868	0.00000000	7.48646600	-4.73671200
193.89998866	0.00000000	7.16043300	-4.73671200
194.09998865	0.00000000	7.52952700	-4.73671200
194.29998864	0.00000000	7.86171200	-4.73671200
194.49998863	0.00000000	7.90477300	-4.73671200
194.69998862	0.00000000	7.90477300	-4.73671200
194.89998861	0.00000000	7.90477300	-4.73671200
195.09998859	0.00000000	7.90477300	-4.73671200
195.29998858	0.00000000	7.90477300	-4.73671200
195.49998857	0.00000000	7.90477300	-4.73671200
195.69998856	0.00000000	7.86171200	-4.73671200
195.89998855	0.00000000	7.48646600	-4.73671200
196.09998853	0.00000000	6.79133800	-4.73671200
