Time	Channel A	Channel B
(us)	(V)	(mV)

-4.59999956	0.00000000	-8.65526600
-4.39999957	0.00000000	-8.65526600
-4.19999958	0.00000000	-8.65526600
-3.99999959	0.00000000	-8.65526600
-3.79999960	0.00000000	-8.65526600
-3.59999962	0.00000000	-8.65526600
-3.39999963	0.00000000	-8.65526600
-3.19999964	0.00000000	-8.65526600
-2.99999965	0.00000000	-8.65526600
-2.79999966	0.00000000	-8.65526600
-2.59999968	0.00000000	-8.65526600
-2.39999969	0.00000000	-8.65526600
-2.19999970	0.00000000	-8.65526600
-1.99999971	0.00000000	-8.60605200
-1.79999972	0.00000000	-8.24311000
-1.59999973	0.00000000	-7.84325700
-1.39999975	0.00000000	-8.24311000
-1.19999976	0.00000000	-8.55684000
-0.99999977	0.00000000	-8.24311000
-0.79999978	0.00000000	-7.84325700
-0.59999979	0.00000000	-8.24311000
-0.39999981	0.35125490	-8.60605200
-0.19999982	0.70250980	-8.65526600
0.00000017	0.87844490	-8.65526600
0.20000016	1.05376500	-8.65526600
0.40000015	0.87844490	-8.65526600
0.60000013	0.17531990	-8.65526600
0.80000012	-0.70250980	-8.65526600
1.00000011	-1.58095500	-8.65526600
1.20000010	-2.45940000	-8.65526600
1.40000009	-2.81127000	-8.65526600
1.60000008	-2.28408000	-8.65526600
1.80000006	-1.22970000	-8.65526600
2.00000005	0.70250980	-8.65526600
2.20000004	2.81127000	-8.65526600
2.40000003	4.56816000	-8.65526600
2.60000002	5.27128500	-8.70447700
2.80000000	4.74409400	-9.06742000
2.99999999	2.63533500	-9.46727400
3.19999998	-0.52657480	-9.06742000
3.39999997	-3.86565000	-8.70447700
3.59999996	-6.67691900	-8.60605200
3.79999994	-8.08255400	-8.19389700
3.99999993	-7.37942900	-7.38804100
4.19999992	-4.56816000	-6.97588500
4.39999991	-0.52657480	-6.97588500
4.59999990	3.86565000	-7.38804100
4.79999989	7.55536400	-8.19389700
4.99999987	9.31225400	-8.65526600
5.19999986	8.78567900	-9.06742000
5.39999985	5.97379400	-9.46727400
5.59999984	1.75689000	-9.06742000
5.79999983	-2.98659000	-8.70447700
5.99999981	-7.02817400	-8.60605200
6.19999980	-9.31225400	-8.19389700
6.39999979	-9.13693400	-7.38804100
6.59999978	-6.67691900	-7.02509800
6.79999977	-2.81127000	-7.38804100
6.99999975	1.58095500	-8.19389700
7.19999974	5.27128500	-8.60605200
7.39999973	7.37942900	-8.65526600
7.59999972	7.55536400	-8.65526600
7.79999971	5.79847400	-8.65526600
7.99999970	2.81127000	-8.65526600
8.19999968	-0.52657480	-8.65526600
8.39999967	-3.33846000	-8.65526600
8.59999966	-4.91941500	-8.65526600
8.79999965	-5.09534900	-8.65526600
8.99999964	-4.04096900	-8.65526600
9.19999962	-2.28408000	-8.65526600
9.39999961	-0.17531990	-8.65526600
9.59999960	1.40563500	-8.65526600
9.79999959	2.28408000	-8.65526600
9.99999958	2.45940000	-8.65526600
10.19999956	1.93282500	-8.65526600
10.39999955	1.05376500	-8.65526600
10.59999954	0.17531990	-8.65526600
10.79999953	-0.52657480	-8.65526600
10.99999952	-0.87844490	-8.65526600
11.19999951	-1.05376500	-8.65526600
11.39999949	-0.87844490	-8.65526600
11.59999948	-0.52657480	-8.65526600
11.79999947	-0.17531990	-8.65526600
11.99999946	0.00000000	-8.65526600
12.19999945	0.00000000	-8.65526600
12.39999943	0.00000000	-8.65526600
12.59999942	-0.17531990	-8.65526600
12.79999941	-0.17531990	-8.65526600
12.99999940	-0.17531990	-8.65526600
13.19999939	-0.17531990	-8.65526600
13.39999937	-0.17531990	-8.65526600
13.59999936	0.00000000	-8.65526600
13.79999935	0.00000000	-8.65526600
13.99999934	0.00000000	-8.65526600
14.19999933	0.00000000	-8.65526600
14.39999932	0.00000000	-8.65526600
14.59999930	0.00000000	-8.65526600
14.79999929	0.00000000	-8.65526600
14.99999928	0.00000000	-8.65526600
15.19999927	0.00000000	-8.65526600
15.39999926	0.00000000	-8.65526600
15.59999924	0.00000000	-8.65526600
15.79999923	0.00000000	-8.65526600
15.99999922	0.00000000	-8.65526600
16.19999921	0.00000000	-8.65526600
16.39999920	0.00000000	-8.65526600
16.59999919	0.00000000	-8.65526600
16.79999917	0.00000000	-8.65526600
16.99999916	0.00000000	-8.65526600
17.19999915	0.00000000	-8.65526600
17.39999914	0.00000000	-8.65526600
17.59999913	0.00000000	-8.65526600
17.79999911	0.00000000	-8.65526600
17.99999910	0.00000000	-8.65526600
18.19999909	0.00000000	-8.65526600
18.39999908	0.00000000	-8.65526600
18.59999907	0.00000000	-8.65526600
18.79999905	0.00000000	-8.65526600
18.99999904	0.00000000	-8.65526600
19.19999903	0.00000000	-8.65526600
19.39999902	0.00000000	-8.65526600
19.59999901	0.00000000	-8.65526600
19.79999900	0.00000000	-8.65526600
19.99999898	0.00000000	-8.65526600
20.19999897	0.00000000	-8.60605200
20.39999896	0.00000000	-8.24311000
20.59999895	0.00000000	-7.84325700
20.79999894	0.00000000	-8.24311000
20.99999892	0.00000000	-8.60605200
21.19999891	0.00000000	-8.65526600
21.39999890	0.00000000	-8.65526600
21.59999889	0.00000000	-8.65526600
21.79999888	0.00000000	-8.65526600
21.99999886	0.00000000	-8.65526600
22.19999885	0.00000000	-8.65526600
22.39999884	0.00000000	-8.65526600
22.59999883	0.00000000	-8.65526600
22.79999882	0.00000000	-8.65526600
22.99999881	0.00000000	-8.70447700
23.19999879	0.00000000	-9.11663300
23.39999878	0.00000000	-9.92864100
23.59999877	0.00000000	-10.29158000
23.79999876	0.00000000	-9.92864100
23.99999875	0.00000000	-9.06742000
24.19999873	0.00000000	-8.24311000
24.39999872	0.00000000	-7.33882900
24.59999871	0.00000000	-6.51451700
24.79999870	0.00000000	-5.65329700
24.99999869	0.00000000	-5.24114100
25.19999867	0.00000000	-5.24114100
25.39999866	0.00000000	-5.75172200
25.59999865	0.00000000	-7.48646600
25.79999864	0.00000000	-10.43922000
25.99999863	0.00000000	-13.75492000
26.19999862	0.00000000	-16.30167000
26.39999860	0.00000000	-17.11983000
26.59999859	0.00000000	-16.25246000
26.79999858	0.00000000	-13.19513000
26.99999857	0.00000000	-8.14468500
27.19999856	0.00000000	-2.18996000
27.39999854	0.00000000	3.31569900
27.59999853	0.00000000	7.54183000
27.79999852	0.00000000	9.07357200
27.99999851	0.00000000	6.47145600
28.19999850	0.00000000	-0.75664370
28.39999848	0.00000000	-10.90059000
28.59999847	0.00000000	-21.94882000
28.79999846	0.00000000	-31.58834000
28.99999845	0.00000000	-36.98942000
29.19999844	0.00000000	-35.66683000
29.39999843	0.00000000	-27.56521000
29.59999841	0.00000000	-13.95792000
29.79999840	0.00000000	2.95275600
29.99999839	0.00000000	18.90994000
30.19999838	0.00000000	29.50295000
30.39999837	0.00000000	31.95743000
30.59999835	0.00000000	25.52903000
30.79999834	0.00000000	10.19931000
30.99999833	0.00000000	-10.90059000
31.19999832	0.00000000	-32.86171000
31.39999831	0.00000000	-50.18454000
31.59999829	0.00000000	-58.64911000
31.79999828	0.00000000	-56.45915000
31.99999827	0.00000000	-43.25787000
32.19999826	0.00000000	-21.24754000
32.39999825	0.00000000	4.53986200
32.59999824	0.00000000	28.22958000
32.79999822	0.00000000	44.28518000
32.99999821	0.00000000	48.87426000
33.19999820	0.00000000	40.36048000
33.39999819	0.00000000	20.07874000
33.59999818	0.00000000	-6.97588500
33.79999816	0.00000000	-34.49187000
33.99999815	0.00000000	-56.50221000
34.19999814	0.00000000	-67.91953000
34.39999813	0.00000000	-66.19094000
34.59999812	0.00000000	-51.40871000
34.79999810	0.00000000	-26.85162000
34.99999809	0.00000000	1.43331700
35.19999808	0.00000000	27.31299000
35.39999807	0.00000000	44.64813000
35.59999806	0.00000000	50.14148000
35.79999805	0.00000000	42.09522000
35.99999803	0.00000000	22.32406000
36.19999802	0.00000000	-3.46333600
36.39999801	0.00000000	-29.29995000
36.59999800	0.00000000	-49.63091000
36.79999799	0.00000000	-59.77485000
36.99999797	0.00000000	-57.72638000
37.19999796	0.00000000	-44.22982000
37.39999795	0.00000000	-23.12992000
37.59999794	0.00000000	0.51673230
37.79999793	0.00000000	20.79232000
37.99999791	0.00000000	32.67101000
38.19999790	0.00000000	34.04282000
38.39999789	0.00000000	25.22761000
38.59999788	0.00000000	9.22736200
38.79999787	0.00000000	-9.73179100
38.99999786	0.00000000	-26.64862000
39.19999784	0.00000000	-37.25394000
39.39999783	0.00000000	-39.89296000
39.59999782	0.00000000	-34.44267000
39.79999781	0.00000000	-23.17298000
39.99999780	0.00000000	-9.67642700
40.19999778	0.00000000	2.15305100
40.39999777	0.00000000	9.83636800
40.59999776	0.00000000	11.98327000
40.79999775	0.00000000	8.66756800
40.99999774	0.00000000	1.17495100
41.19999772	0.00000000	-7.64025500
41.39999771	0.00000000	-14.82529000
41.59999770	0.00000000	-19.15600000
41.79999769	0.00000000	-20.02337000
41.99999768	0.00000000	-17.98105000
42.19999767	0.00000000	-13.80413000
42.39999765	0.00000000	-9.16584600
42.59999764	0.00000000	-5.38877900
42.79999763	0.00000000	-3.25418300
42.99999762	0.00000000	-3.61097400
43.19999761	0.00000000	-5.19192900
43.39999759	0.00000000	-6.92667200
43.59999758	0.00000000	-8.55684000
43.79999757	0.00000000	-9.41806000
43.99999756	0.00000000	-9.01820900
44.19999755	0.00000000	-8.24311000
44.39999753	0.00000000	-7.43725300
44.59999752	0.00000000	-7.48646600
44.79999751	0.00000000	-8.70447700
44.99999750	0.00000000	-10.39001000
45.19999749	0.00000000	-12.06939000
45.39999748	0.00000000	-13.24434000
45.59999746	0.00000000	-12.78912000
45.79999745	0.00000000	-10.29158000
45.99999744	0.00000000	-6.92667200
46.19999743	0.00000000	-3.56176100
46.39999742	0.00000000	-1.06422200
46.59999740	0.00000000	-0.65821850
46.79999739	0.00000000	-2.28838600
46.99999738	0.00000000	-5.29035400
47.19999737	0.00000000	-9.11663300
47.39999736	0.00000000	-13.34276000
47.59999734	0.00000000	-16.65846000
47.79999733	0.00000000	-17.93184000
47.99999732	0.00000000	-16.70768000
48.19999731	-0.17531990	-13.75492000
48.39999730	0.00000000	-9.92864100
48.59999729	-0.17531990	-5.70251000
48.79999727	0.00000000	-2.33759800
48.99999726	0.00000000	-0.60900590
49.19999725	0.00000000	-0.60900590
49.39999724	0.00000000	-2.28838600
49.59999723	0.00000000	-5.24114100
49.79999721	0.00000000	-8.60605200
49.99999720	0.00000000	-11.55881000
50.19999719	0.00000000	-13.29355000
50.39999718	0.00000000	-13.80413000
50.59999717	0.00000000	-13.80413000
50.79999715	0.00000000	-13.29355000
50.99999714	0.00000000	-11.65723000
51.19999713	0.00000000	-9.57185000
51.39999712	0.00000000	-8.24311000
51.59999711	0.00000000	-6.87746000
51.79999710	0.00000000	-5.24114100
51.99999708	0.00000000	-3.97391700
52.19999707	0.00000000	-3.56176100
52.39999706	0.00000000	-3.97391700
52.59999705	0.00000000	-5.29035400
52.79999704	0.00000000	-7.38804100
52.99999702	0.00000000	-9.92864100
53.19999701	0.00000000	-12.02018000
53.39999700	0.00000000	-13.34276000
53.59999699	0.00000000	-13.75492000
53.79999698	0.00000000	-13.29355000
53.99999696	0.00000000	-11.60802000
54.19999695	0.00000000	-9.06742000
54.39999694	0.00000000	-6.56373000
54.59999693	0.00000000	-4.42913300
54.79999692	0.00000000	-3.61097400
54.99999691	0.00000000	-3.97391700
55.19999689	0.00000000	-5.29035400
55.39999688	0.00000000	-7.38804100
55.59999687	0.00000000	-9.92864100
55.79999686	0.00000000	-12.02018000
55.99999685	0.00000000	-13.29355000
56.19999683	0.00000000	-13.24434000
56.39999682	0.00000000	-11.55881000
56.59999681	-0.17531990	-8.65526600
56.79999680	0.00000000	-5.75172200
56.99999679	0.00000000	-4.02313000
57.19999677	0.00000000	-3.56176100
57.39999676	0.00000000	-4.02313000
57.59999675	0.00000000	-5.75172200
57.79999674	0.00000000	-8.65526600
57.99999673	0.00000000	-11.60802000
58.19999672	0.00000000	-13.70571000
58.39999670	0.00000000	-14.56693000
58.59999669	0.00000000	-13.70571000
58.79999668	0.00000000	-11.55881000
58.99999667	0.00000000	-8.19389700
59.19999666	0.00000000	-4.42913300
59.39999664	0.00000000	-1.92544300
59.59999663	0.00000000	-1.06422200
59.79999662	0.00000000	-2.33759800
59.99999661	0.00000000	-5.24114100
60.19999660	0.00000000	-8.65526600
60.39999658	0.00000000	-12.06939000
60.59999657	0.00000000	-14.97293000
60.79999656	0.00000000	-16.24631000
60.99999655	0.00000000	-15.38509000
61.19999654	0.00000000	-12.88140000
61.39999653	0.00000000	-9.06742000
61.59999651	0.00000000	-5.33956700
61.79999650	0.00000000	-2.74360200
61.99999649	0.00000000	-1.87623000
62.19999648	0.00000000	-2.23917300
62.39999647	0.00000000	-3.56176100
62.59999645	0.00000000	-5.70251000
62.79999644	0.00000000	-8.65526600
62.99999643	0.00000000	-11.55881000
63.19999642	0.00000000	-13.29355000
63.39999641	0.00000000	-13.75492000
63.59999639	0.00000000	-13.34276000
63.79999638	0.00000000	-12.06939000
63.99999637	0.00000000	-10.43922000
64.19999636	0.00000000	-9.11663300
64.39999635	0.00000000	-8.19389700
64.59999634	0.00000000	-6.87746000
64.79999632	0.00000000	-5.24114100
64.99999631	0.00000000	-3.97391700
65.19999630	0.00000000	-3.56176100
65.39999629	0.00000000	-3.97391700
65.59999628	0.00000000	-5.29035400
65.79999626	0.00000000	-7.43725300
65.99999625	0.00000000	-10.39001000
66.19999624	0.00000000	-13.34276000
66.39999623	0.00000000	-15.48351000
66.59999622	0.00000000	-16.75689000
66.79999620	0.00000000	-16.65846000
66.99999619	0.00000000	-14.56693000
67.19999618	0.00000000	-10.75295000
67.39999617	0.00000000	-6.51451700
67.59999616	0.00000000	-2.23917300
67.79999615	-0.17531990	1.07652500
67.99999613	0.00000000	2.34375000
68.19999612	0.00000000	1.02731300
68.39999611	0.00000000	-2.74975400
68.59999610	0.00000000	-8.24311000
68.79999609	0.00000000	-13.75492000
68.99999607	0.00000000	-18.38706000
69.19999606	0.00000000	-20.93381000
69.39999605	0.00000000	-20.48474000
69.59999604	0.00000000	-17.56890000
69.79999603	0.00000000	-12.43233000
69.99999601	0.00000000	-6.56373000
70.19999600	0.00000000	-1.01501000
70.39999599	0.00000000	2.75590500
70.59999598	0.00000000	4.02928100
70.79999597	0.00000000	2.34990100
70.99999596	0.00000000	-1.82701800
71.19999594	0.00000000	-6.92667200
71.39999593	0.00000000	-12.06939000
71.59999592	0.00000000	-16.70768000
71.79999591	0.00000000	-19.61737000
71.99999590	0.00000000	-19.66658000
72.19999588	0.00000000	-17.16904000
72.39999587	0.00000000	-13.34276000
72.59999586	0.00000000	-8.65526600
72.79999585	0.00000000	-4.02313000
72.99999584	0.00000000	-0.60900590
73.19999582	0.00000000	1.07037400
73.39999581	0.00000000	0.66437010
73.59999580	0.00000000	-1.87623000
73.79999579	0.00000000	-5.70251000
73.99999578	0.00000000	-10.34080000
74.19999577	0.00000000	-14.56693000
74.39999575	0.00000000	-17.11983000
74.59999574	0.00000000	-17.98105000
74.79999573	0.00000000	-16.65846000
74.99999572	0.00000000	-13.29355000
75.19999571	0.00000000	-8.65526600
75.39999569	0.00000000	-4.02313000
75.59999568	0.00000000	-0.65821850
75.79999567	0.00000000	0.61515740
75.99999566	0.00000000	-0.65821850
76.19999565	0.00000000	-4.02313000
76.39999563	0.00000000	-8.65526600
76.59999562	0.00000000	-13.29355000
76.79999561	0.00000000	-16.70768000
76.99999560	0.00000000	-18.38706000
77.19999559	0.00000000	-17.93184000
77.39999558	0.00000000	-14.92372000
77.59999556	0.00000000	-9.87942800
77.79999555	0.00000000	-4.02313000
77.99999554	0.00000000	0.61515740
78.19999553	0.00000000	2.75590500
78.39999552	0.00000000	2.34990100
78.59999550	0.00000000	-0.65821850
78.79999549	0.00000000	-5.75172200
78.99999548	0.00000000	-12.06939000
79.19999547	0.00000000	-17.93184000
79.39999546	0.00000000	-21.34596000
79.59999544	0.00000000	-21.75197000
79.79999543	0.00000000	-19.25443000
79.99999542	0.00000000	-14.16708000
80.19999541	0.00000000	-8.19389700
80.39999540	0.00000000	-1.82701800
80.59999539	0.00000000	3.61712600
80.79999537	0.00000000	6.12081600
80.99999536	0.00000000	5.35187000
81.19999535	0.00000000	1.48253000
81.39999534	0.00000000	-4.42913300
81.59999533	0.00000000	-11.65723000
81.79999531	0.00000000	-18.38706000
81.99999530	0.00000000	-23.02534000
82.19999529	0.00000000	-24.34793000
82.39999528	0.00000000	-22.26255000
82.59999527	0.00000000	-18.03026000
82.79999525	0.00000000	-12.02018000
82.99999524	0.00000000	-5.24114100
83.19999523	0.00000000	1.12573800
83.39999522	0.00000000	5.75787400
83.59999521	0.00000000	7.39419200
83.79999520	0.00000000	5.35187000
83.99999518	0.00000000	0.31373030
84.19999517	0.00000000	-5.65329700
84.39999516	0.00000000	-12.06939000
84.59999515	0.00000000	-17.98105000
84.79999514	0.00000000	-21.85039000
84.99999512	0.00000000	-23.53592000
85.19999511	0.00000000	-22.61934000
85.39999510	0.00000000	-18.38706000
85.59999509	0.00000000	-12.06939000
85.79999508	0.00000000	-5.29035400
85.99999506	0.00000000	0.66437010
86.19999505	0.00000000	4.48449800
86.39999504	0.00000000	5.80708600
86.59999503	0.00000000	4.48449800
86.79999502	0.00000000	0.66437010
86.99999501	0.00000000	-5.29035400
87.19999499	0.00000000	-12.02018000
87.39999498	0.00000000	-17.98105000
87.59999497	0.00000000	-21.80118000
87.79999496	0.00000000	-23.12377000
87.99999495	0.00000000	-21.80118000
88.19999493	0.00000000	-17.98105000
88.39999492	0.00000000	-12.02018000
88.59999491	0.00000000	-5.29035400
88.79999490	0.00000000	0.66437010
88.99999489	0.00000000	4.48449800
89.19999487	0.00000000	5.75787400
89.39999486	0.00000000	4.02928100
89.59999485	0.00000000	-0.60900590
89.79999484	0.00000000	-6.92667200
89.99999483	0.00000000	-13.24434000
90.19999482	0.00000000	-17.93184000
90.39999480	0.00000000	-20.12180000
90.59999479	0.00000000	-20.17101000
90.79999478	0.00000000	-18.38706000
90.99999477	0.00000000	-14.56693000
91.19999476	0.00000000	-9.11663300
91.39999474	0.00000000	-4.07234200
91.59999473	0.00000000	-0.65821850
91.79999472	0.00000000	0.66437010
91.99999471	0.00000000	-0.14763780
92.19999470	0.00000000	-2.28838600
92.39999468	0.00000000	-5.65329700
92.59999467	0.00000000	-9.46727400
92.79999466	0.00000000	-12.43233000
92.99999465	0.00000000	-14.56693000
93.19999464	0.00000000	-14.97293000
93.39999463	0.00000000	-13.80413000
93.59999461	0.00000000	-12.11860000
93.79999460	0.00000000	-10.39001000
93.99999459	0.00000000	-8.65526600
94.19999458	0.00000000	-6.97588500
94.39999457	0.00000000	-5.70251000
94.59999455	0.00000000	-5.24114100
94.79999454	0.00000000	-5.29035400
94.99999453	0.00000000	-6.10851300
95.19999452	0.00000000	-7.73868000
95.39999451	0.00000000	-8.60605200
95.59999449	0.00000000	-9.11663300
95.79999448	0.00000000	-9.92864100
95.99999447	0.00000000	-10.34080000
96.19999446	0.00000000	-10.39001000
96.39999445	0.00000000	-10.39001000
96.59999444	0.00000000	-10.39001000
96.79999442	0.00000000	-10.34080000
96.99999441	0.00000000	-9.87942800
97.19999440	0.00000000	-8.65526600
97.39999439	0.00000000	-7.43725300
97.59999438	0.00000000	-6.97588500
97.79999436	0.00000000	-6.92667200
97.99999435	0.00000000	-6.92667200
98.19999434	0.00000000	-6.97588500
98.39999433	0.00000000	-7.38804100
98.59999432	0.00000000	-8.24311000
98.79999430	0.00000000	-9.06742000
98.99999429	0.00000000	-9.97785300
99.19999428	0.00000000	-10.80217000
99.39999427	0.00000000	-11.60802000
99.59999426	0.00000000	-11.60802000
99.79999425	0.00000000	-10.80217000
99.99999423	0.00000000	-9.92864100
100.19999422	0.00000000	-8.65526600
100.39999421	0.00000000	-7.38804100
100.59999420	0.00000000	-6.56373000
100.79999419	0.00000000	-6.11466500
100.99999417	0.00000000	-6.56373000
101.19999416	0.00000000	-7.33882900
101.39999415	0.00000000	-8.24311000
101.59999414	0.00000000	-9.06742000
101.79999413	0.00000000	-9.97785300
101.99999411	0.00000000	-10.75295000
102.19999410	0.00000000	-11.20202000
102.39999409	0.00000000	-10.75295000
102.59999408	0.00000000	-9.92864100
102.79999407	0.00000000	-8.65526600
102.99999406	0.00000000	-7.43725300
103.19999404	0.00000000	-6.97588500
103.39999403	0.00000000	-6.92667200
103.59999402	0.00000000	-6.97588500
103.79999401	0.00000000	-7.38804100
103.99999400	0.00000000	-8.24311000
104.19999398	0.00000000	-9.06742000
104.39999397	0.00000000	-9.92864100
104.59999396	0.00000000	-10.34080000
104.79999395	0.00000000	-10.39001000
104.99999394	0.00000000	-10.34080000
105.19999392	0.00000000	-9.87942800
105.39999391	0.00000000	-8.65526600
105.59999390	0.00000000	-7.43725300
105.79999389	0.00000000	-6.97588500
105.99999388	0.00000000	-6.92667200
106.19999387	0.00000000	-6.97588500
106.39999385	0.00000000	-7.38804100
106.59999384	0.00000000	-8.24311000
106.79999383	0.00000000	-9.06742000
106.99999382	0.00000000	-9.97785300
107.19999381	0.00000000	-10.80217000
107.39999379	0.00000000	-11.60802000
107.59999378	0.00000000	-11.55881000
107.79999377	0.00000000	-10.34080000
107.99999376	0.00000000	-8.65526600
108.19999375	0.00000000	-6.97588500
108.39999374	0.00000000	-5.70251000
108.59999372	0.00000000	-5.29035400
108.79999371	0.00000000	-5.65329700
108.99999370	0.00000000	-6.56373000
109.19999369	0.00000000	-7.84325700
109.39999368	0.00000000	-9.92864100
109.59999366	0.00000000	-11.60802000
109.79999365	0.00000000	-12.48154000
109.99999364	0.00000000	-12.88140000
110.19999363	0.00000000	-11.97096000
110.39999362	0.00000000	-9.97785300
110.59999360	0.00000000	-7.84325700
110.79999359	0.00000000	-6.51451700
110.99999358	0.00000000	-5.19192900
111.19999357	0.00000000	-4.02313000
111.39999356	0.00000000	-4.02313000
111.59999355	0.00000000	-5.29035400
111.79999353	0.00000000	-7.38804100
111.99999352	0.00000000	-9.92864100
112.19999351	0.00000000	-12.02018000
112.39999350	0.00000000	-13.34276000
112.59999349	0.00000000	-13.75492000
112.79999347	0.00000000	-13.29355000
112.99999346	0.00000000	-11.55881000
113.19999345	0.00000000	-8.65526600
113.39999344	0.00000000	-5.75172200
113.59999343	0.00000000	-4.02313000
113.79999341	0.00000000	-3.56176100
113.99999340	0.00000000	-3.97391700
114.19999339	0.00000000	-5.29035400
114.39999338	0.00000000	-7.38804100
114.59999337	0.00000000	-9.92864100
114.79999336	0.00000000	-12.02018000
114.99999334	0.00000000	-13.29355000
115.19999333	0.00000000	-13.29355000
115.39999332	0.00000000	-12.06939000
115.59999331	0.00000000	-10.34080000
115.79999330	0.00000000	-8.19389700
115.99999328	0.00000000	-5.70251000
116.19999327	0.00000000	-4.07234200
116.39999326	0.00000000	-4.02313000
116.59999325	0.00000000	-5.24114100
116.79999324	0.00000000	-6.92667200
116.99999322	0.00000000	-8.65526600
117.19999321	0.00000000	-10.39001000
117.39999320	0.00000000	-12.02018000
117.59999319	0.00000000	-12.83218000
117.79999318	0.00000000	-12.06939000
117.99999317	0.00000000	-10.85138000
118.19999315	0.00000000	-9.92864100
118.39999314	0.00000000	-8.60605200
118.59999313	0.00000000	-6.97588500
118.79999312	0.00000000	-5.75172200
118.99999311	-0.17531990	-5.75172200
119.19999309	0.00000000	-6.92667200
119.39999308	0.00000000	-8.19389700
119.59999307	0.00000000	-9.06742000
119.79999306	0.00000000	-9.92864100
119.99999305	0.00000000	-10.34080000
120.19999303	0.00000000	-10.34080000
120.39999302	0.00000000	-9.92864100
120.59999301	0.00000000	-9.11663300
120.79999300	0.00000000	-8.65526600
120.99999299	0.00000000	-8.19389700
121.19999298	0.00000000	-7.38804100
121.39999296	0.00000000	-7.02509800
121.59999295	0.00000000	-7.38804100
121.79999294	0.00000000	-8.19389700
121.99999293	0.00000000	-8.65526600
122.19999292	0.00000000	-9.11663300
122.39999290	0.00000000	-9.92864100
122.59999289	0.00000000	-10.29158000
122.79999288	0.00000000	-9.92864100
122.99999287	0.00000000	-9.11663300
123.19999286	0.00000000	-8.65526600
123.39999284	0.00000000	-8.19389700
123.59999283	0.00000000	-7.43725300
123.79999282	0.00000000	-7.43725300
123.99999281	0.00000000	-8.19389700
124.19999280	0.00000000	-8.65526600
124.39999279	0.00000000	-9.11663300
124.59999277	0.00000000	-9.92864100
124.79999276	0.00000000	-10.34080000
124.99999275	0.00000000	-10.34080000
125.19999274	0.00000000	-9.92864100
125.39999273	0.00000000	-9.11663300
125.59999271	0.00000000	-8.65526600
125.79999270	0.00000000	-8.19389700
125.99999269	0.00000000	-7.38804100
126.19999268	0.00000000	-6.97588500
126.39999267	0.00000000	-6.97588500
126.59999265	0.00000000	-7.43725300
126.79999264	0.00000000	-8.65526600
126.99999263	0.00000000	-9.87942800
127.19999262	0.00000000	-10.34080000
127.39999261	0.00000000	-10.39001000
127.59999260	0.00000000	-10.34080000
127.79999258	0.00000000	-9.87942800
127.99999257	0.00000000	-8.65526600
128.19999256	0.00000000	-7.43725300
128.39999255	0.00000000	-6.97588500
128.59999254	0.00000000	-6.92667200
128.79999252	0.00000000	-7.02509800
128.99999251	0.00000000	-7.79404500
129.19999250	0.00000000	-9.06126900
129.39999249	0.00000000	-9.47957600
129.59999248	0.00000000	-10.02707000
129.79999246	0.00000000	-10.75295000
129.99999245	0.00000000	-11.20202000
130.19999244	0.00000000	-10.75295000
130.39999243	0.00000000	-9.92864100
130.59999242	0.00000000	-8.65526600
130.79999241	0.00000000	-7.43725300
130.99999239	0.00000000	-6.97588500
131.19999238	0.00000000	-6.97588500
131.39999237	0.00000000	-7.38804100
131.59999236	0.00000000	-8.19389700
131.79999235	0.00000000	-8.65526600
131.99999233	0.00000000	-9.11663300
132.19999232	0.00000000	-9.92864100
132.39999231	0.00000000	-10.29158000
132.59999230	0.00000000	-9.92864100
132.79999229	0.00000000	-9.06742000
132.99999227	0.00000000	-8.24311000
133.19999226	0.00000000	-7.43725300
133.39999225	0.00000000	-7.43725300
133.59999224	0.00000000	-8.19389700
133.79999223	0.00000000	-8.60605200
133.99999222	0.00000000	-8.70447700
134.19999220	0.00000000	-9.11663300
134.39999219	0.00000000	-9.92864100
134.59999218	0.00000000	-10.29158000
134.79999217	0.00000000	-9.92864100
134.99999216	0.00000000	-9.06742000
135.19999214	0.00000000	-8.24311000
135.39999213	0.00000000	-7.38804100
135.59999212	0.00000000	-7.02509800
135.79999211	0.00000000	-7.38804100
135.99999210	0.00000000	-8.24311000
136.19999208	0.00000000	-9.06742000
136.39999207	0.00000000	-9.97785300
136.59999206	0.00000000	-10.80217000
136.79999205	0.00000000	-11.60802000
136.99999204	0.00000000	-11.60802000
137.19999203	0.00000000	-10.80217000
137.39999201	0.00000000	-9.92864100
137.59999200	0.00000000	-8.60605200
137.79999199	0.00000000	-6.97588500
137.99999198	0.00000000	-5.75172200
138.19999197	0.00000000	-5.70251000
138.39999195	0.00000000	-6.51451700
138.59999194	0.00000000	-7.38804100
138.79999193	0.00000000	-8.65526600
138.99999192	0.00000000	-9.92864100
139.19999191	0.00000000	-10.80217000
139.39999189	0.00000000	-11.65723000
139.59999188	0.00000000	-12.02018000
139.79999187	0.00000000	-11.60802000
139.99999186	0.00000000	-10.39001000
140.19999185	0.00000000	-9.11663300
140.39999184	0.00000000	-8.24311000
140.59999182	0.00000000	-7.38804100
140.79999181	0.00000000	-7.02509800
140.99999180	0.00000000	-7.33882900
141.19999179	0.00000000	-7.78789300
141.39999178	0.00000000	-7.84325700
141.59999176	0.00000000	-8.70447700
141.79999175	0.00000000	-9.87942800
141.99999174	0.00000000	-10.39001000
142.19999173	0.00000000	-10.80217000
142.39999172	0.00000000	-11.20202000
142.59999170	0.00000000	-10.80217000
142.79999169	0.00000000	-10.39001000
142.99999168	0.00000000	-9.92864100
143.19999167	0.00000000	-9.06742000
143.39999166	0.00000000	-8.24311000
143.59999165	0.00000000	-7.38804100
143.79999163	0.00000000	-6.97588500
143.99999162	0.00000000	-6.97588500
144.19999161	0.00000000	-7.38804100
144.39999160	0.00000000	-8.19389700
144.59999159	0.00000000	-8.65526600
144.79999157	0.00000000	-9.11663300
144.99999156	0.00000000	-9.92864100
145.19999155	0.00000000	-10.34080000
145.39999154	0.00000000	-10.39001000
145.59999153	0.00000000	-10.39001000
145.79999151	0.00000000	-10.34080000
145.99999150	0.00000000	-9.92864100
146.19999149	0.00000000	-9.06742000
146.39999148	0.00000000	-8.24311000
146.59999147	0.00000000	-7.38804100
146.79999146	0.00000000	-6.97588500
146.99999144	0.00000000	-6.92667200
147.19999143	0.00000000	-6.97588500
147.39999142	0.00000000	-7.43725300
147.59999141	0.00000000	-8.65526600
147.79999140	0.00000000	-9.87942800
147.99999138	0.00000000	-10.34080000
148.19999137	0.00000000	-10.39001000
148.39999136	0.00000000	-10.39001000
148.59999135	0.00000000	-10.34080000
148.79999134	0.00000000	-9.92864100
148.99999132	0.00000000	-9.06742000
149.19999131	0.00000000	-8.24311000
149.39999130	0.00000000	-7.38804100
149.59999129	0.00000000	-6.97588500
149.79999128	0.00000000	-6.97588500
149.99999127	0.00000000	-7.38804100
150.19999125	0.00000000	-8.24311000
150.39999124	0.00000000	-9.06742000
150.59999123	0.00000000	-9.92864100
150.79999122	0.00000000	-10.34080000
150.99999121	0.00000000	-10.39001000
151.19999119	0.00000000	-10.39001000
151.39999118	0.00000000	-10.34080000
151.59999117	0.00000000	-9.92864100
151.79999116	0.00000000	-9.06742000
151.99999115	0.00000000	-8.24311000
152.19999113	0.00000000	-7.43725300
152.39999112	0.00000000	-7.43725300
152.59999111	0.00000000	-8.19389700
152.79999110	0.00000000	-8.60605200
152.99999109	0.00000000	-8.70447700
153.19999108	0.00000000	-9.06742000
153.39999106	0.00000000	-9.46727400
153.59999105	0.00000000	-9.06742000
153.79999104	0.00000000	-8.70447700
153.99999103	0.00000000	-8.65526600
154.19999102	0.00000000	-8.65526600
154.39999100	0.00000000	-8.65526600
154.59999099	0.00000000	-8.65526600
154.79999098	0.00000000	-8.65526600
154.99999097	0.00000000	-8.65526600
155.19999096	0.00000000	-8.65526600
155.39999094	0.00000000	-8.65526600
155.59999093	0.00000000	-8.65526600
155.79999092	0.00000000	-8.65526600
155.99999091	0.00000000	-8.65526600
156.19999090	0.00000000	-8.65526600
156.39999089	0.00000000	-8.65526600
156.59999087	0.00000000	-8.65526600
156.79999086	0.00000000	-8.65526600
156.99999085	0.00000000	-8.70447700
157.19999084	0.00000000	-9.06742000
157.39999083	0.00000000	-9.51648500
157.59999081	0.00000000	-9.47957600
157.79999080	0.00000000	-9.51648500
157.99999079	0.00000000	-9.06742000
158.19999078	0.00000000	-8.65526600
158.39999077	0.00000000	-8.19389700
158.59999075	0.00000000	-7.43725300
158.79999074	0.00000000	-7.43725300
158.99999073	0.00000000	-8.19389700
159.19999072	0.00000000	-8.60605200
159.39999071	0.00000000	-8.70447700
159.59999070	0.00000000	-9.11663300
159.79999068	0.00000000	-9.92864100
159.99999067	0.00000000	-10.34080000
160.19999066	0.00000000	-10.39001000
160.39999065	0.00000000	-10.34080000
160.59999064	0.00000000	-9.92864100
160.79999062	0.00000000	-9.11663300
160.99999061	0.00000000	-8.70447700
161.19999060	0.00000000	-8.65526600
161.39999059	0.00000000	-8.65526600
161.59999058	0.00000000	-8.65526600
161.79999056	0.00000000	-8.65526600
161.99999055	0.00000000	-8.65526600
162.19999054	0.00000000	-8.70447700
162.39999053	0.00000000	-9.11663300
162.59999052	0.00000000	-9.92864100
162.79999051	0.00000000	-10.29158000
162.99999049	0.00000000	-9.92864100
163.19999048	0.00000000	-9.11663300
163.39999047	0.00000000	-8.70447700
163.59999046	0.00000000	-8.65526600
163.79999045	0.00000000	-8.65526600
163.99999043	0.00000000	-8.65526600
164.19999042	0.00000000	-8.65526600
164.39999041	0.00000000	-8.65526600
164.59999040	0.00000000	-8.65526600
164.79999039	0.00000000	-8.65526600
164.99999037	0.00000000	-8.65526600
165.19999036	0.00000000	-8.65526600
165.39999035	0.00000000	-8.65526600
165.59999034	0.00000000	-8.65526600
165.79999033	0.00000000	-8.65526600
165.99999032	0.00000000	-8.65526600
166.19999030	0.00000000	-8.65526600
166.39999029	0.00000000	-8.65526600
166.59999028	0.00000000	-8.65526600
166.79999027	0.00000000	-8.65526600
166.99999026	0.00000000	-8.65526600
167.19999024	0.00000000	-8.65526600
167.39999023	0.00000000	-8.65526600
167.59999022	0.00000000	-8.70447700
167.79999021	0.00000000	-9.06742000
167.99999020	0.00000000	-9.46727400
168.19999018	0.00000000	-9.06742000
168.39999017	0.00000000	-8.70447700
168.59999016	0.00000000	-8.65526600
168.79999015	0.00000000	-8.65526600
168.99999014	0.00000000	-8.65526600
169.19999013	0.00000000	-8.65526600
169.39999011	0.00000000	-8.65526600
169.59999010	0.00000000	-8.65526600
169.79999009	0.00000000	-8.70447700
169.99999008	0.00000000	-9.11663300
170.19999007	0.00000000	-9.92864100
170.39999005	0.00000000	-10.29158000
170.59999004	0.00000000	-9.92864100
170.79999003	0.00000000	-9.11663300
170.99999002	0.00000000	-8.70447700
171.19999001	0.00000000	-8.65526600
171.39998999	0.00000000	-8.60605200
171.59998998	0.00000000	-8.24311000
171.79998997	0.00000000	-7.84325700
171.99998996	0.00000000	-8.24311000
172.19998995	0.00000000	-8.60605200
172.39998994	0.00000000	-8.65526600
172.59998992	0.00000000	-8.70447700
172.79998991	0.00000000	-9.11663300
172.99998990	0.00000000	-9.87942800
173.19998989	0.00000000	-9.87942800
173.39998988	0.00000000	-9.16584600
173.59998986	0.00000000	-9.11663300
173.79998985	0.00000000	-9.46727400
173.99998984	0.00000000	-9.06742000
174.19998983	0.00000000	-8.70447700
174.39998982	0.00000000	-8.65526600
174.59998980	0.00000000	-8.65526600
174.79998979	0.00000000	-8.65526600
174.99998978	0.00000000	-8.70447700
175.19998977	0.00000000	-9.06742000
175.39998976	0.00000000	-9.46727400
175.59998975	0.00000000	-9.11663300
175.79998973	0.00000000	-9.16584600
175.99998972	0.00000000	-9.92864100
176.19998971	0.00000000	-10.29158000
176.39998970	0.00000000	-9.92864100
176.59998969	0.00000000	-9.11663300
176.79998967	0.00000000	-8.70447700
176.99998966	0.00000000	-8.65526600
177.19998965	0.00000000	-8.65526600
177.39998964	0.00000000	-8.65526600
177.59998963	0.00000000	-8.65526600
177.79998961	0.00000000	-8.65526600
177.99998960	0.00000000	-8.70447700
178.19998959	0.00000000	-9.11663300
178.39998958	0.00000000	-9.92864100
178.59998957	0.00000000	-10.34080000
178.79998956	0.00000000	-10.34080000
178.99998954	0.00000000	-9.92864100
179.19998953	0.00000000	-9.11663300
179.39998952	0.00000000	-8.70447700
179.59998951	0.00000000	-8.65526600
179.79998950	0.00000000	-8.65526600
179.99998948	0.00000000	-8.65526600
180.19998947	0.00000000	-8.65526600
180.39998946	0.00000000	-8.65526600
180.59998945	0.00000000	-8.65526600
180.79998944	0.00000000	-8.65526600
180.99998942	0.00000000	-8.65526600
181.19998941	0.00000000	-8.65526600
181.39998940	0.00000000	-8.65526600
181.59998939	0.00000000	-8.70447700
181.79998938	0.00000000	-9.11663300
181.99998937	0.00000000	-9.92864100
182.19998935	0.00000000	-10.29158000
182.39998934	0.00000000	-9.92864100
182.59998933	0.00000000	-9.11663300
182.79998932	0.00000000	-8.70447700
182.99998931	0.00000000	-8.65526600
183.19998929	0.00000000	-8.65526600
183.39998928	0.00000000	-8.65526600
183.59998927	0.00000000	-8.65526600
183.79998926	0.00000000	-8.65526600
183.99998925	0.00000000	-8.65526600
184.19998923	0.00000000	-8.65526600
184.39998922	0.00000000	-8.65526600
184.59998921	0.00000000	-8.70447700
184.79998920	0.00000000	-9.11663300
184.99998919	0.00000000	-9.87942800
185.19998918	0.00000000	-9.87942800
185.39998916	0.00000000	-9.11663300
185.59998915	0.00000000	-8.70447700
185.79998914	0.00000000	-8.65526600
185.99998913	0.00000000	-8.65526600
186.19998912	0.00000000	-8.65526600
186.39998910	0.00000000	-8.65526600
186.59998909	0.00000000	-8.65526600
186.79998908	0.00000000	-8.65526600
186.99998907	0.00000000	-8.65526600
187.19998906	0.00000000	-8.70447700
187.39998904	0.00000000	-9.11663300
187.59998903	0.00000000	-9.92864100
187.79998902	0.00000000	-10.29158000
187.99998901	0.00000000	-9.92864100
188.19998900	0.00000000	-9.11663300
188.39998899	0.00000000	-8.70447700
188.59998897	0.00000000	-8.65526600
188.79998896	0.00000000	-8.65526600
188.99998895	0.00000000	-8.65526600
189.19998894	0.00000000	-8.65526600
189.39998893	-0.17531990	-8.65526600
189.59998891	0.00000000	-8.65526600
189.79998890	0.00000000	-8.65526600
189.99998889	0.00000000	-8.65526600
190.19998888	0.00000000	-8.65526600
190.39998887	0.00000000	-8.70447700
190.59998885	0.00000000	-9.11663300
190.79998884	0.00000000	-9.92864100
190.99998883	0.00000000	-10.34080000
191.19998882	0.00000000	-10.39001000
191.39998881	0.00000000	-10.34080000
191.59998880	0.00000000	-9.92864100
191.79998878	0.00000000	-9.11663300
191.99998877	0.00000000	-8.70447700
192.19998876	0.00000000	-8.65526600
192.39998875	0.00000000	-8.65526600
192.59998874	0.00000000	-8.65526600
192.79998872	0.00000000	-8.65526600
192.99998871	0.00000000	-8.70447700
193.19998870	0.00000000	-9.11663300
193.39998869	0.00000000	-9.92864100
193.59998868	0.00000000	-10.34080000
193.79998866	0.00000000	-10.39001000
193.99998865	0.00000000	-10.34080000
194.19998864	0.00000000	-9.92864100
194.39998863	0.00000000	-9.11663300
194.59998862	0.00000000	-8.70447700
194.79998861	0.00000000	-8.65526600
194.99998859	0.00000000	-8.65526600
195.19998858	0.00000000	-8.65526600
195.39998857	0.00000000	-8.65526600
195.59998856	0.00000000	-8.65526600
195.79998855	0.00000000	-8.70447700
195.99998853	0.00000000	-9.11663300
