Time	Channel A	Channel B	Channel C
(us)	(V)	(mV)	(mV)

-4.59999956	0.00000000	92.12598000	31.57603000
-4.39999957	0.00000000	92.87032000	31.57603000
-4.19999958	0.00000000	93.19635000	31.57603000
-3.99999959	0.00000000	92.91338000	31.57603000
-3.79999960	0.00000000	92.54428000	31.57603000
-3.59999962	0.00000000	92.91338000	31.57603000
-3.39999963	0.00000000	93.24557000	31.57603000
-3.19999964	0.00000000	93.28863000	31.57603000
-2.99999965	0.00000000	93.24557000	31.57603000
-2.79999966	0.00000000	92.91338000	31.61909000
-2.59999968	0.00000000	92.50123000	31.95128000
-2.39999969	0.00000000	92.49507000	32.32037000
-2.19999970	0.00000000	92.08292000	31.95128000
-1.99999971	0.00000000	91.75073000	31.61909000
-1.79999972	0.00000000	91.75073000	31.57603000
-1.59999973	0.00000000	92.08292000	31.57603000
-1.39999975	0.00000000	92.45201000	31.57603000
-1.19999976	0.00000000	92.08292000	31.57603000
-0.99999977	0.00000000	91.79995000	31.57603000
-0.79999978	0.00000000	92.12598000	31.57603000
-0.59999979	0.00000000	92.82111000	31.57603000
-0.39999981	0.15871060	92.87032000	31.57603000
-0.19999982	0.47736220	92.50123000	31.57603000
0.00000017	0.79601380	92.49507000	31.57603000
0.20000016	0.95533960	92.08292000	31.53297000
0.40000015	0.95533960	91.75073000	31.15772000
0.60000013	0.63668800	91.75073000	30.46260000
0.80000012	0.00000000	92.08292000	30.41954000
1.00000011	-0.95533960	92.45201000	30.78248000
1.20000010	-1.91129400	92.08292000	30.79478000
1.40000009	-2.54859700	91.75073000	31.20078000
1.60000008	-2.70792300	91.70767000	31.53297000
1.80000006	-2.07062000	91.75073000	31.57603000
2.00000005	-0.63668800	92.12598000	31.57603000
2.20000004	1.43331700	92.82111000	31.57603000
2.40000003	3.50393700	92.82111000	31.53297000
2.60000002	4.93786900	92.12598000	31.15772000
2.80000000	5.25652100	91.75073000	30.41954000
2.99999999	4.30056600	91.70767000	30.04429000
3.19999998	1.75196900	91.70767000	30.00123000
3.39999997	-1.43331700	91.70767000	30.00123000
3.59999996	-4.77854300	91.70767000	30.04429000
3.79999994	-7.16781500	91.70767000	30.41954000
3.99999993	-7.96444400	91.75073000	31.15772000
4.19999992	-6.69045300	92.08292000	31.53297000
4.39999991	-3.50393700	92.49507000	31.57603000
4.59999990	0.63668800	92.45816000	31.57603000
4.79999989	4.93786900	92.49507000	31.53297000
4.99999987	8.28309500	92.08292000	31.15772000
5.19999986	9.39837600	91.75073000	30.41954000
5.39999985	8.28309500	91.70767000	30.04429000
5.59999984	5.09719500	91.70767000	30.00123000
5.79999983	0.47736220	91.70767000	30.04429000
5.99999981	-4.30056600	91.70767000	30.41954000
6.19999980	-7.80511800	91.70767000	31.15772000
6.39999979	-9.39837600	91.70767000	31.53297000
6.59999978	-8.60174700	91.70767000	31.57603000
6.79999977	-5.89382400	91.75073000	31.61909000
6.99999975	-1.59264300	92.08292000	31.95128000
7.19999974	2.70792300	92.45201000	32.32037000
7.39999973	6.05315000	92.08292000	31.95128000
7.59999972	7.64579200	91.75073000	31.57603000
7.79999971	7.32714100	91.70767000	31.15772000
7.99999970	5.25652100	91.70767000	30.41954000
8.19999968	2.07062000	91.70767000	30.04429000
8.39999967	-1.11466500	91.70767000	30.04429000
8.59999966	-3.66326300	91.70767000	30.41954000
8.79999965	-5.09719500	91.70767000	31.15772000
8.99999964	-4.93786900	91.70767000	31.53297000
9.19999962	-3.82258900	91.70767000	31.57603000
9.39999961	-1.91129400	91.70767000	31.57603000
9.59999960	0.15871060	91.70767000	31.57603000
9.79999959	1.59264300	91.70767000	31.57603000
9.99999958	2.38927200	91.70767000	31.57603000
10.19999956	2.54859700	91.70767000	31.57603000
10.39999955	1.91129400	91.70767000	31.57603000
10.59999954	1.11466500	91.70767000	31.57603000
10.79999953	0.15871060	91.70767000	31.53297000
10.99999952	-0.47736220	91.70767000	31.20078000
11.19999951	-0.79601380	91.70767000	30.83784000
11.39999949	-0.95533960	91.70767000	31.20078000
11.59999948	-0.95533960	91.70767000	31.53297000
11.79999947	-0.63668800	91.70767000	31.57603000
11.99999946	-0.31803640	91.70767000	31.57603000
12.19999945	-0.15871060	91.75073000	31.57603000
12.39999943	-0.15871060	92.08292000	31.57603000
12.59999942	0.00000000	92.45201000	31.57603000
12.79999941	0.00000000	92.08292000	31.57603000
12.99999940	0.00000000	91.79995000	31.57603000
13.19999939	0.00000000	92.08292000	31.53297000
13.39999937	0.00000000	92.45201000	31.20078000
13.59999936	0.00000000	92.08292000	30.83784000
13.79999935	0.00000000	91.75073000	31.20078000
13.99999934	-0.15871060	91.70767000	31.53297000
14.19999933	-0.15871060	91.70767000	31.57603000
14.39999932	-0.15871060	91.70767000	31.57603000
14.59999930	0.00000000	91.70767000	31.57603000
14.79999929	-0.15871060	91.70767000	31.57603000
14.99999928	0.00000000	91.70767000	31.53297000
15.19999927	0.00000000	91.70767000	31.20078000
15.39999926	0.00000000	91.70767000	30.83784000
15.59999924	0.00000000	91.70767000	31.20078000
15.79999923	0.00000000	91.70767000	31.53297000
15.99999922	0.00000000	91.70767000	31.53297000
16.19999921	0.00000000	91.70767000	31.20078000
16.39999920	-0.15871060	91.70767000	30.79478000
16.59999919	0.00000000	91.75073000	30.78248000
16.79999917	-0.15871060	92.12598000	30.37647000
16.99999916	0.00000000	92.87032000	30.09350000
17.19999915	0.00000000	93.24557000	30.37647000
17.39999914	0.00000000	93.28863000	30.73942000
17.59999913	0.00000000	93.28863000	30.37647000
17.79999911	0.00000000	93.24557000	30.04429000
17.99999910	0.00000000	92.82111000	30.04429000
18.19999909	0.00000000	91.66460000	30.37647000
18.39999908	0.00000000	90.12672000	30.73942000
18.59999907	0.00000000	88.58882000	30.41954000
18.79999905	0.00000000	87.43233000	30.41954000
18.99999904	0.00000000	87.05708000	30.73942000
19.19999903	0.00000000	87.47539000	30.37647000
19.39999902	0.00000000	89.05634000	30.09350000
19.59999901	0.00000000	91.79995000	30.37647000
19.79999900	0.00000000	95.28789000	30.73942000
19.99999898	0.00000000	99.15108000	30.37647000
20.19999897	0.00000000	102.17770000	30.04429000
20.39999896	0.00000000	103.29720000	30.00123000
20.59999895	0.00000000	101.71630000	30.04429000
20.79999894	0.00000000	97.39172000	30.41954000
20.99999892	0.00000000	90.77879000	31.11466000
21.19999891	0.00000000	82.68947000	31.11466000
21.39999890	0.00000000	75.42445000	30.41954000
21.59999889	0.00000000	71.19217000	30.04429000
21.79999888	0.00000000	71.23524000	30.00123000
21.99999886	0.00000000	75.97810000	30.04429000
22.19999885	0.00000000	85.28543000	30.37647000
22.39999884	0.00000000	97.65624000	30.73942000
22.59999883	0.00000000	109.99630000	30.37647000
22.79999882	0.00000000	119.62350000	30.09350000
22.99999881	0.00000000	123.76970000	30.41954000
23.19999879	0.00000000	120.60780000	31.15772000
23.39999878	0.00000000	110.13780000	31.57603000
23.59999877	0.00000000	94.27287000	31.99434000
23.79999876	0.00000000	76.49483000	32.73868000
23.99999875	0.00000000	60.67913000	33.06471000
24.19999873	0.00000000	50.71973000	32.68946000
24.39999872	0.00000000	49.64320000	31.57603000
24.59999871	0.00000000	58.58144000	30.41954000
24.79999870	0.00000000	75.97810000	29.58292000
24.99999869	0.00000000	97.98843000	28.37721000
25.19999867	0.00000000	119.58050000	26.88853000
25.39999866	0.00000000	135.40230000	25.77510000
25.59999865	0.00000000	141.59080000	25.81816000
25.79999864	0.00000000	136.89100000	27.34990000
25.99999863	0.00000000	121.76430000	30.08735000
26.19999862	0.00000000	99.01575000	33.62450000
26.39999860	0.00000000	74.31102000	37.85064000
26.59999859	0.00000000	53.41412000	41.61540000
26.79999858	0.00000000	40.71727000	43.14714000
26.99999857	0.00000000	39.59768000	41.99065000
27.19999856	0.00000000	50.76279000	38.45349000
27.39999854	0.00000000	71.14911000	32.56028000
27.59999853	0.00000000	95.47859000	24.84621000
27.79999852	0.00000000	117.95030000	16.80610000
27.99999851	0.00000000	134.23970000	11.09129000
28.19999850	0.00000000	141.17250000	9.55339400
28.39999848	0.00000000	136.93410000	12.70915000
28.59999847	0.00000000	122.69930000	20.47244000
28.79999846	0.00000000	102.26990000	31.66830000
28.99999845	0.00000000	80.59178000	43.65773000
29.19999844	0.00000000	62.38927000	54.02312000
29.39999843	0.00000000	51.13803000	60.19315000
29.59999841	0.00000000	49.13878000	60.11319000
29.79999840	0.00000000	56.02239000	53.92470000
29.99999839	0.00000000	69.56815000	41.85531000
30.19999838	0.00000000	86.96481000	26.46407000
30.39999837	0.00000000	104.36760000	10.99901000
30.59999835	0.00000000	117.95030000	-0.94119090
30.79999834	0.00000000	125.35060000	-6.70521600
30.99999833	0.00000000	125.43680000	-4.70595500
31.19999832	0.00000000	118.87920000	5.37032500
31.39999831	0.00000000	107.66490000	21.54281000
31.59999829	0.00000000	93.70693000	40.08366000
31.79999828	0.00000000	80.21653000	56.71751000
31.99999827	0.00000000	70.07259000	68.28863000
32.19999826	0.00000000	64.99754000	72.13951000
32.39999825	0.00000000	65.37278000	67.08292000
32.59999824	0.00000000	71.19217000	54.39222000
32.79999822	0.00000000	81.19463000	36.60187000
32.99999821	0.00000000	92.77805000	18.05487000
33.19999820	0.00000000	103.20500000	2.17150600
33.39999819	0.00000000	110.18080000	-7.81865100
33.59999818	0.00000000	112.18630000	-9.39345400
33.79999816	0.00000000	109.52880000	-2.47293300
33.99999815	0.00000000	103.34030000	10.99901000
34.19999814	0.00000000	94.82652000	28.04503000
34.39999813	0.00000000	85.98056000	45.01107000
34.59999812	0.00000000	79.05388000	58.57529000
34.79999810	0.00000000	75.93503000	65.50196000
34.99999809	0.00000000	77.00541000	64.79453000
35.19999808	0.00000000	81.23769000	56.66830000
35.39999807	0.00000000	87.43233000	43.19020000
35.59999806	0.00000000	94.31594000	27.39296000
35.79999805	0.00000000	99.66781000	13.12746000
35.99999803	0.00000000	101.67320000	3.83858300
36.19999802	0.00000000	100.55360000	1.10113200
36.39999801	0.00000000	97.10260000	5.32726300
36.59999800	0.00000000	92.12598000	15.27436000
36.79999799	0.00000000	87.47539000	28.00197000
36.99999797	0.00000000	84.03050000	40.31742000
37.19999796	0.00000000	82.45570000	49.56323000
37.39999795	0.00000000	83.60604000	53.00197000
37.59999794	0.00000000	86.26968000	49.98154000
37.79999793	0.00000000	90.21899000	41.61540000
37.99999791	0.00000000	94.77731000	30.88090000
38.19999790	0.00000000	98.59743000	21.25984000
38.39999789	0.00000000	100.17840000	14.70842000
38.59999788	0.00000000	99.43405000	13.21973000
38.79999787	0.00000000	97.10260000	17.40280000
38.99999786	0.00000000	93.24557000	25.81816000
39.19999784	0.00000000	89.05634000	35.75910000
39.39999783	0.00000000	85.89443000	44.17446000
39.59999782	0.00000000	83.93823000	48.35752000
39.79999781	0.00000000	83.15083000	46.86885000
39.99999780	0.00000000	83.93823000	40.36663000
40.19999778	0.00000000	85.89443000	31.11466000
40.39999777	0.00000000	89.01328000	21.12451000
40.59999776	0.00000000	92.82111000	13.13361000
40.79999775	0.00000000	95.93995000	10.10704000
40.99999774	0.00000000	97.93922000	13.13361000
41.19999772	0.00000000	99.10187000	21.16757000
41.39999771	0.00000000	99.05880000	31.53297000
41.59999770	0.00000000	97.52091000	41.52312000
41.79999769	0.00000000	94.82652000	48.44365000
41.99999768	0.00000000	91.70767000	50.44291000
42.19999767	0.00000000	88.58882000	47.74852000
42.39999765	0.00000000	85.89443000	41.19094000
42.59999764	0.00000000	84.35654000	31.95128000
42.79999763	0.00000000	84.31348000	22.79158000
42.99999762	0.00000000	85.42691000	16.19710000
43.19999761	0.00000000	87.00787000	13.82874000
43.39999759	0.00000000	88.96407000	15.31742000
43.59999758	0.00000000	91.28937000	19.96186000
43.79999757	0.00000000	93.19635000	26.88853000
43.99999756	0.00000000	94.40206000	34.14124000
44.19999755	0.00000000	94.82652000	39.57308000
44.39999753	0.00000000	94.86958000	41.94144000
44.59999752	0.00000000	94.86958000	41.61540000
44.79999751	0.00000000	94.86958000	38.92101000
44.99999750	0.00000000	94.86958000	34.73794000
45.19999749	0.00000000	94.77731000	30.46260000
45.39999748	0.00000000	93.94069000	26.97465000
45.59999746	0.00000000	91.61539000	24.65551000
45.79999745	0.00000000	88.54576000	24.23720000
45.99999744	0.00000000	85.42691000	25.30758000
46.19999743	0.00000000	82.68947000	26.88853000
46.39999742	0.00000000	80.81939000	28.88164000
46.59999740	0.00000000	80.49950000	31.53297000
46.79999739	0.00000000	82.86786000	33.85211000
46.99999738	0.00000000	87.47539000	35.02091000
47.19999737	0.00000000	93.33169000	35.43307000
47.39999736	0.00000000	99.52632000	34.64567000
47.59999734	0.00000000	104.87820000	33.11393000
47.79999733	0.00000000	107.52950000	31.15772000
47.99999732	0.00000000	106.36690000	28.83858000
48.19999731	0.00000000	101.71630000	26.93159000
48.39999730	0.00000000	94.31594000	25.77510000
48.59999729	0.00000000	85.42691000	25.77510000
48.79999727	0.00000000	77.00541000	26.93159000
48.99999726	0.00000000	71.65969000	28.88164000
49.19999725	0.00000000	71.23524000	31.62524000
49.39999724	0.00000000	75.47367000	34.64567000
49.59999723	0.00000000	83.19389000	36.92175000
49.79999721	0.00000000	92.87032000	37.34006000
49.99999720	0.00000000	102.09150000	36.17741000
50.19999719	0.00000000	108.64910000	33.80905000
50.39999718	0.00000000	110.55610000	29.95817000
50.59999717	0.00000000	107.52950000	25.77510000
50.79999715	0.00000000	100.59670000	22.65625000
50.99999714	0.00000000	91.70767000	21.12451000
51.19999713	0.00000000	82.81864000	21.54281000
51.39999712	0.00000000	75.93503000	24.23720000
51.59999711	0.00000000	73.24065000	28.51255000
51.79999710	0.00000000	75.51672000	33.48917000
51.99999708	0.00000000	81.61294000	38.03519000
52.19999707	0.00000000	89.65919000	39.94832000
52.39999706	0.00000000	97.01648000	38.92101000
52.59999705	0.00000000	102.09150000	36.22662000
52.79999704	0.00000000	104.36760000	32.73868000
52.99999702	0.00000000	102.78670000	28.83858000
53.19999701	0.00000000	97.47784000	25.39985000
53.39999700	0.00000000	90.59423000	23.12377000
53.59999699	0.00000000	84.44881000	23.12377000
53.79999698	0.00000000	80.54256000	25.35064000
53.99999696	0.00000000	79.79207000	28.42027000
54.19999695	0.00000000	82.03740000	31.48991000
54.39999694	0.00000000	86.68184000	33.80905000
54.59999693	0.00000000	92.03986000	34.55955000
54.79999692	0.00000000	97.05954000	33.85211000
54.99999691	0.00000000	100.08610000	31.90822000
55.19999689	0.00000000	100.13530000	29.66904000
55.39999688	0.00000000	97.47784000	27.76821000
55.59999687	0.00000000	93.24557000	27.43602000
55.79999686	0.00000000	88.58882000	28.88164000
55.99999685	0.00000000	84.39960000	31.20078000
56.19999683	0.00000000	82.12352000	33.48302000
56.39999682	0.00000000	82.81864000	35.38385000
56.59999681	0.00000000	85.47613000	35.71604000
56.79999680	0.00000000	88.96407000	34.18430000
56.99999679	0.00000000	92.82111000	31.06545000
57.19999677	0.00000000	95.89690000	26.88238000
57.39999676	0.00000000	97.43479000	23.07455000
57.59999675	0.00000000	97.05954000	21.16757000
57.79999674	0.00000000	94.77731000	21.54281000
57.99999673	0.00000000	91.75073000	24.28026000
58.19999672	0.00000000	89.01328000	28.93085000
58.39999670	0.00000000	87.10014000	34.73794000
58.59999669	0.00000000	86.31274000	40.45890000
58.79999668	0.00000000	87.05708000	44.21752000
58.99999667	0.00000000	88.54576000	44.21752000
59.19999666	0.00000000	90.12672000	40.40969000
59.39999664	0.00000000	91.66460000	34.22736000
59.59999663	0.00000000	92.77805000	26.88853000
59.79999662	0.00000000	92.82111000	20.01107000
59.99999661	0.00000000	92.08292000	15.77879000
60.19999660	0.00000000	91.33242000	15.36048000
60.39999658	0.00000000	90.50197000	18.47318000
60.59999657	0.00000000	89.79453000	24.65551000
60.79999656	0.00000000	89.43159000	32.73868000
60.99999655	0.00000000	90.21899000	40.40969000
61.19999654	0.00000000	91.66460000	45.79847000
61.39999653	0.00000000	92.87032000	47.28715000
61.59999651	0.00000000	93.62081000	44.26673000
61.79999650	0.00000000	93.98376000	37.71530000
61.99999649	0.00000000	93.19635000	29.62598000
62.19999648	0.00000000	91.66460000	21.49975000
62.39999647	0.00000000	89.70841000	15.36048000
62.59999645	0.00000000	87.43233000	12.66609000
62.79999644	0.00000000	85.93749000	14.20399000
62.99999643	0.00000000	85.89443000	19.54355000
63.19999642	0.00000000	87.05708000	26.88853000
63.39999641	0.00000000	89.01328000	34.60261000
63.59999639	0.00000000	91.70767000	41.14788000
63.79999638	0.00000000	94.35899000	44.63582000
63.99999637	0.00000000	95.93995000	44.68504000
64.19999636	0.00000000	96.31520000	41.61540000
64.39999635	0.00000000	95.52164000	36.22662000
64.59999634	0.00000000	93.19635000	30.04429000
64.79999632	0.00000000	90.12672000	24.23720000
64.99999631	0.00000000	87.05708000	19.96186000
65.19999630	0.00000000	84.77485000	18.01181000
65.39999629	0.00000000	84.35654000	18.38706000
65.59999628	0.00000000	85.47613000	21.08145000
65.79999626	0.00000000	87.43233000	25.26452000
65.99999625	0.00000000	90.12672000	29.53371000
66.19999624	0.00000000	92.77805000	33.11393000
66.39999623	0.00000000	94.31594000	36.22662000
66.59999622	0.00000000	94.35899000	38.54576000
66.79999620	0.00000000	93.19635000	39.29626000
66.99999619	0.00000000	91.28937000	38.54576000
67.19999618	0.00000000	88.96407000	36.22662000
67.39999617	0.00000000	87.10014000	33.15699000
67.59999616	0.00000000	86.31274000	30.00123000
67.79999615	0.00000000	87.14320000	26.88853000
67.99999613	0.00000000	89.38238000	24.14493000
68.19999612	0.00000000	92.45201000	22.19488000
68.39999611	0.00000000	94.73425000	21.03838000
68.59999610	0.00000000	95.93995000	21.08145000
68.79999609	0.00000000	95.80462000	22.65625000
68.99999607	0.00000000	93.52238000	25.77510000
69.19999606	0.00000000	89.33932000	30.04429000
69.39999605	0.00000000	85.51919000	34.69488000
69.59999604	0.00000000	82.73252000	38.92101000
69.79999603	0.00000000	81.28690000	41.56618000
69.99999601	0.00000000	82.08046000	41.56618000
70.19999600	0.00000000	85.56225000	38.92101000
70.39999599	0.00000000	90.54502000	34.64567000
70.59999598	0.00000000	95.93995000	29.58292000
70.79999597	0.00000000	100.17840000	24.19414000
70.99999596	0.00000000	102.09150000	20.01107000
71.19999594	0.00000000	101.34100000	18.43012000
71.39999593	0.00000000	97.81003000	19.54355000
71.59999592	0.00000000	92.45201000	22.61319000
71.79999591	0.00000000	86.22047000	26.88238000
71.99999590	0.00000000	80.86860000	31.48376000
72.19999588	0.00000000	77.38065000	35.38385000
72.39999587	0.00000000	77.00541000	37.71530000
72.59999586	0.00000000	79.65674000	38.45349000
72.79999585	0.00000000	84.31348000	36.96481000
72.99999584	0.00000000	90.12672000	33.95054000
73.19999582	0.00000000	95.93995000	31.25000000
73.39999581	0.00000000	100.55360000	28.88164000
73.59999580	0.00000000	102.82970000	27.39296000
73.79999579	0.00000000	101.71630000	27.34990000
73.99999578	0.00000000	97.89616000	28.42027000
74.19999577	0.00000000	92.91338000	29.58292000
74.39999575	0.00000000	87.85063000	30.32726000
74.59999574	0.00000000	83.98129000	30.69636000
74.79999573	0.00000000	81.61294000	29.90895000
74.99999572	0.00000000	81.23769000	28.42027000
75.19999571	0.00000000	82.77559000	26.88853000
75.39999569	0.00000000	85.85137000	25.81816000
75.59999568	0.00000000	89.65919000	26.23647000
75.79999567	0.00000000	92.73499000	28.51255000
75.99999566	0.00000000	94.35899000	31.57603000
76.19999565	0.00000000	94.77731000	34.68873000
76.39999563	0.00000000	94.40206000	37.38312000
76.59999562	0.00000000	93.24557000	38.87795000
76.79999561	0.00000000	91.75073000	38.45349000
76.99999560	0.00000000	90.59423000	35.71604000
77.19999559	0.00000000	90.16978000	31.11466000
77.39999558	0.00000000	90.12672000	25.72589000
77.59999556	0.00000000	90.08366000	21.12451000
77.79999555	0.00000000	89.75147000	18.38706000
77.99999554	0.00000000	89.33932000	18.05487000
78.19999553	0.00000000	89.29010000	20.38632000
78.39999552	0.00000000	88.50270000	25.39985000
78.59999550	0.00000000	87.43233000	31.53297000
78.79999549	0.00000000	87.05708000	37.34006000
78.99999548	0.00000000	87.43233000	41.56618000
79.19999547	0.00000000	88.63803000	43.10408000
79.39999546	0.00000000	90.54502000	41.61540000
79.59999544	0.00000000	92.87032000	37.75836000
79.79999543	0.00000000	94.73425000	32.73868000
79.99999542	0.00000000	95.52164000	27.30684000
80.19999541	0.00000000	94.73425000	22.65625000
80.39999540	0.00000000	92.82111000	19.54355000
80.59999539	0.00000000	90.12672000	18.38706000
80.79999537	0.00000000	87.43233000	19.54355000
80.99999536	0.00000000	85.47613000	22.61319000
81.19999535	0.00000000	84.31348000	26.83932000
81.39999534	0.00000000	84.35654000	31.11466000
81.59999533	0.00000000	85.89443000	34.64567000
81.79999531	0.00000000	88.54576000	37.34006000
81.99999530	0.00000000	91.24016000	38.54576000
82.19999529	0.00000000	93.19635000	38.17667000
82.39999528	0.00000000	94.40206000	37.01402000
82.59999527	0.00000000	94.73425000	34.64567000
82.79999525	0.00000000	93.98376000	31.57603000
82.99999524	0.00000000	92.03986000	28.42027000
83.19999523	0.00000000	89.79453000	25.30758000
83.39999522	0.00000000	87.85063000	22.61319000
83.59999521	0.00000000	87.05708000	21.08145000
83.79999520	0.00000000	87.00787000	21.08145000
83.99999518	0.00000000	87.38312000	22.65625000
84.19999517	0.00000000	88.17052000	25.77510000
84.39999516	0.00000000	88.92101000	30.00123000
84.59999515	0.00000000	89.70841000	34.27042000
84.79999514	0.00000000	90.08366000	37.75836000
84.99999512	0.00000000	90.12672000	40.03444000
85.19999511	0.00000000	90.12672000	40.03444000
85.39999510	0.00000000	90.12672000	37.75836000
85.59999509	0.00000000	90.16978000	34.27042000
85.79999508	0.00000000	90.54502000	29.95817000
85.99999506	0.00000000	91.28937000	25.35679000
86.19999505	0.00000000	91.66460000	21.49975000
86.39999504	0.00000000	91.66460000	19.59276000
86.59999503	0.00000000	91.24016000	19.96186000
86.79999502	0.00000000	90.08366000	22.65625000
86.99999501	0.00000000	88.54576000	26.88238000
87.19999499	0.00000000	87.05708000	31.53297000
87.39999498	0.00000000	86.26968000	35.80217000
87.59999497	0.00000000	86.63262000	38.82874000
87.79999496	0.00000000	87.38312000	39.61614000
87.99999495	0.00000000	88.58882000	37.71530000
88.19999493	0.00000000	90.12672000	34.27042000
88.39999492	0.00000000	91.66460000	30.00123000
88.59999491	0.00000000	92.82111000	25.77510000
88.79999490	0.00000000	93.19635000	22.70546000
88.99999489	0.00000000	92.77805000	21.54281000
89.19999487	0.00000000	91.24016000	22.70546000
89.39999486	0.00000000	89.01328000	25.77510000
89.59999485	0.00000000	87.47539000	30.00123000
89.79999484	0.00000000	87.00787000	34.18430000
89.99999483	0.00000000	87.00787000	36.87869000
90.19999482	0.00000000	87.43233000	37.29700000
90.39999480	0.00000000	88.54576000	35.75910000
90.59999479	0.00000000	89.70841000	32.64640000
90.79999478	0.00000000	90.50197000	28.46333000
90.99999477	0.00000000	91.28937000	24.65551000
91.19999476	0.00000000	91.66460000	22.69931000
91.39999474	0.00000000	91.70767000	22.69931000
91.59999473	0.00000000	91.66460000	24.61245000
91.79999472	0.00000000	91.28937000	28.08809000
91.99999471	0.00000000	90.54502000	31.90822000
92.19999470	0.00000000	90.12672000	35.38385000
92.39999468	0.00000000	89.75147000	37.24778000
92.59999467	0.00000000	89.33932000	36.92175000
92.79999466	0.00000000	89.33316000	34.55955000
92.99999465	0.00000000	88.87794000	30.73942000
93.19999464	0.00000000	88.17052000	26.14419000
93.39999463	0.00000000	87.38312000	22.70546000
93.59999461	0.00000000	87.05708000	21.16757000
93.79999460	0.00000000	87.38312000	21.91806000
93.99999459	0.00000000	88.21358000	25.02460000
94.19999458	0.00000000	89.38238000	29.21383000
94.39999457	0.00000000	91.33242000	33.80905000
94.59999455	0.00000000	93.19635000	36.82948000
94.79999454	0.00000000	94.40206000	37.29700000
94.99999453	0.00000000	94.73425000	35.75910000
95.19999452	0.00000000	93.94069000	32.68946000
95.39999451	0.00000000	91.61539000	28.83858000
95.59999449	0.00000000	88.58882000	25.35064000
95.79999448	0.00000000	85.85137000	22.70546000
95.99999447	0.00000000	83.89517000	21.96112000
96.19999446	0.00000000	82.73252000	23.86196000
96.39999445	0.00000000	82.77559000	27.25763000
96.59999444	0.00000000	84.31348000	31.11466000
96.79999442	0.00000000	87.05708000	34.18430000
96.99999441	0.00000000	90.54502000	35.75910000
97.19999440	0.00000000	94.40206000	35.75910000
97.39999439	0.00000000	97.43479000	34.22736000
97.59999438	0.00000000	98.64050000	31.53297000
97.79999436	0.00000000	97.85310000	28.51255000
97.99999435	0.00000000	95.52164000	26.19340000
98.19999434	0.00000000	91.66460000	25.39985000
98.39999433	0.00000000	87.43233000	25.72589000
98.59999432	0.00000000	83.93823000	26.88853000
98.79999430	0.00000000	81.61294000	28.42027000
98.99999429	0.00000000	81.19463000	29.95201000
99.19999428	0.00000000	82.35728000	31.11466000
99.39999427	0.00000000	84.68873000	31.53297000
99.59999426	0.00000000	88.17052000	31.53297000
99.79999425	0.00000000	91.66460000	31.15772000
99.99999423	0.00000000	94.77731000	30.41954000
100.19999422	0.00000000	97.05954000	30.09350000
100.39999421	0.00000000	97.43479000	30.41954000
100.59999420	0.00000000	95.93995000	31.15772000
100.79999419	0.00000000	93.28863000	31.48376000
100.99999417	0.00000000	90.50197000	31.15772000
101.19999416	0.00000000	87.75221000	30.37647000
101.39999415	0.00000000	84.68873000	29.58292000
101.59999414	0.00000000	82.81864000	28.37721000
101.79999413	0.00000000	82.73252000	26.88853000
101.99999411	0.00000000	83.84596000	25.77510000
102.19999410	0.00000000	85.47613000	25.81816000
102.39999409	0.00000000	87.80142000	27.34990000
102.59999408	0.00000000	90.82184000	30.00123000
102.79999407	0.00000000	92.77805000	32.69562000
102.99999406	0.00000000	93.62081000	34.60261000
103.19999404	0.00000000	93.98376000	35.43307000
103.39999403	0.00000000	93.19635000	35.02091000
103.59999402	0.00000000	91.70767000	33.85211000
103.79999401	0.00000000	90.12672000	31.48991000
103.99999400	0.00000000	88.54576000	28.46333000
104.19999398	0.00000000	87.00787000	25.77510000
104.39999397	0.00000000	85.85137000	24.23720000
104.59999396	0.00000000	85.47613000	24.19414000
104.79999395	0.00000000	85.85137000	25.39985000
104.99999394	0.00000000	87.00787000	27.67593000
105.19999392	0.00000000	88.54576000	30.73942000
105.39999391	0.00000000	90.08366000	33.02165000
105.59999390	0.00000000	91.24016000	34.22736000
105.79999389	0.00000000	91.61539000	34.22736000
105.99999388	0.00000000	91.24016000	33.06471000
106.19999387	0.00000000	90.08366000	31.15772000
106.39999385	0.00000000	88.58882000	28.88164000
106.59999384	0.00000000	87.43233000	27.30684000
106.79999383	0.00000000	87.05708000	26.51329000
106.99999382	0.00000000	87.43233000	26.14419000
107.19999381	0.00000000	88.54576000	26.97465000
107.39999379	0.00000000	89.70841000	28.83858000
107.59999378	0.00000000	90.50197000	31.11466000
107.79999377	0.00000000	91.24016000	32.60334000
107.99999376	0.00000000	91.19709000	32.64640000
108.19999375	0.00000000	90.08366000	31.53297000
108.39999374	0.00000000	88.58882000	30.00123000
108.59999372	0.00000000	87.38312000	28.46333000
108.79999371	0.00000000	86.63262000	27.30684000
108.99999370	0.00000000	86.22047000	26.93159000
109.19999369	0.00000000	86.63262000	27.25763000
109.39999368	0.00000000	87.38312000	28.08809000
109.59999366	0.00000000	88.58882000	29.25689000
109.79999365	0.00000000	90.08366000	31.15772000
109.99999364	0.00000000	91.28937000	32.64640000
110.19999363	0.00000000	92.03986000	33.06471000
110.39999362	0.00000000	92.40280000	32.68946000
110.59999360	0.00000000	91.57234000	31.53297000
110.79999359	0.00000000	89.75147000	30.00123000
110.99999358	0.00000000	87.80142000	28.42027000
111.19999357	0.00000000	86.63262000	26.88853000
111.39999356	0.00000000	85.85137000	25.77510000
111.59999355	0.00000000	85.89443000	25.77510000
111.79999353	0.00000000	86.96481000	26.83932000
111.99999352	0.00000000	88.12745000	28.00197000
112.19999351	0.00000000	88.92101000	28.83858000
112.39999350	0.00000000	89.75147000	30.00123000
112.59999349	0.00000000	90.45890000	31.11466000
112.79999347	0.00000000	90.87106000	31.48376000
112.99999346	0.00000000	90.45890000	31.15772000
113.19999345	0.00000000	89.75147000	30.37647000
113.39999344	0.00000000	88.92101000	29.62598000
113.59999343	0.00000000	88.21358000	28.83858000
113.79999341	0.00000000	87.75835000	28.46333000
113.99999340	0.00000000	87.79527000	28.42027000
114.19999339	0.00000000	87.75835000	28.42027000
114.39999338	0.00000000	88.17052000	28.42027000
114.59999337	0.00000000	88.54576000	28.42027000
114.79999336	0.00000000	88.96407000	28.42027000
114.99999334	0.00000000	89.70841000	28.42027000
115.19999333	0.00000000	90.08366000	28.42027000
115.39999332	0.00000000	90.12672000	28.42027000
115.59999331	0.00000000	90.08366000	28.42027000
115.79999330	0.00000000	89.70841000	28.46333000
115.99999328	0.00000000	88.96407000	28.88779000
116.19999327	0.00000000	88.54576000	30.00123000
116.39999326	0.00000000	88.12745000	31.11466000
116.59999325	0.00000000	87.38312000	31.53297000
116.79999324	0.00000000	87.05708000	31.53297000
116.99999322	0.00000000	87.38312000	31.15772000
117.19999321	0.00000000	88.17052000	30.37647000
117.39999320	0.00000000	88.92101000	29.62598000
117.59999319	0.00000000	89.75147000	28.83858000
117.79999318	0.00000000	90.50197000	28.42027000
117.99999317	0.00000000	91.28937000	28.04503000
118.19999315	0.00000000	91.61539000	27.67593000
118.39999314	0.00000000	91.24016000	28.08809000
118.59999313	0.00000000	90.08366000	28.79552000
118.79999312	0.00000000	88.58882000	29.62598000
118.99999311	0.00000000	87.38312000	30.37647000
119.19999309	0.00000000	86.58956000	31.11466000
119.39999308	0.00000000	85.85137000	31.15772000
119.59999307	0.00000000	85.85137000	30.79478000
119.79999306	0.00000000	86.58956000	30.78248000
119.99999305	0.00000000	87.38312000	30.37647000
120.19999303	0.00000000	88.58882000	30.04429000
120.39999302	0.00000000	90.08366000	29.95817000
120.59999301	0.00000000	91.24016000	29.58292000
120.79999300	0.00000000	91.66460000	28.83858000
120.99999299	0.00000000	91.66460000	28.46333000
121.19999298	0.00000000	91.24016000	28.42027000
121.39999296	0.00000000	90.08366000	28.37721000
121.59999295	0.00000000	88.58882000	28.04503000
121.79999294	0.00000000	87.38312000	27.67593000
121.99999293	0.00000000	86.58956000	28.08809000
122.19999292	0.00000000	85.85137000	28.79552000
122.39999290	0.00000000	85.85137000	29.62598000
122.59999289	0.00000000	86.58956000	30.37647000
122.79999288	0.00000000	87.38312000	31.15772000
122.99999287	0.00000000	88.54576000	31.53297000
123.19999286	0.00000000	89.65919000	31.53297000
123.39999284	0.00000000	90.12672000	31.11466000
123.59999283	0.00000000	90.50197000	30.00123000
123.79999282	0.00000000	90.87106000	28.88779000
123.99999281	0.00000000	90.45890000	28.42027000
124.19999280	0.00000000	89.75147000	28.00197000
124.39999279	0.00000000	88.96407000	27.30684000
124.59999277	0.00000000	88.54576000	27.30684000
124.79999276	0.00000000	88.12745000	28.00197000
124.99999275	0.00000000	87.38312000	28.42027000
125.19999274	0.00000000	87.00787000	28.83858000
125.39999273	0.00000000	86.96481000	29.58292000
125.59999271	0.00000000	87.00787000	30.00123000
125.79999270	0.00000000	87.38312000	30.37647000
125.99999269	0.00000000	88.17052000	30.73942000
126.19999268	0.00000000	88.92101000	30.37647000
126.39999267	0.00000000	89.70841000	30.09350000
126.59999265	0.00000000	90.08366000	30.32726000
126.79999264	0.00000000	90.12672000	30.32111000
126.99999263	0.00000000	90.08366000	29.21383000
127.19999262	0.00000000	89.65919000	28.51255000
127.39999261	0.00000000	88.54576000	28.42027000
127.59999260	0.00000000	87.43233000	28.42027000
127.79999258	0.00000000	86.96481000	28.42027000
127.99999257	0.00000000	86.58956000	28.42027000
128.19999256	0.00000000	86.22047000	28.46333000
128.39999255	0.00000000	86.63262000	28.83858000
128.59999254	0.00000000	87.38312000	29.58292000
128.79999252	0.00000000	88.54576000	29.95817000
128.99999251	0.00000000	89.70841000	30.00123000
129.19999250	0.00000000	90.45890000	29.95817000
129.39999249	0.00000000	90.82184000	29.58292000
129.59999248	0.00000000	90.03444000	28.83858000
129.79999246	0.00000000	88.58882000	28.46333000
129.99999245	0.00000000	87.38312000	28.42027000
130.19999244	0.00000000	86.58956000	28.42027000
130.39999243	0.00000000	85.85137000	28.46333000
130.59999242	0.00000000	85.89443000	28.83858000
130.79999241	0.00000000	86.96481000	29.58292000
130.99999239	0.00000000	88.12745000	29.95817000
131.19999238	0.00000000	88.92101000	30.00123000
131.39999237	0.00000000	89.70841000	29.95817000
131.59999236	0.00000000	90.08366000	29.58292000
131.79999235	0.00000000	90.08366000	28.79552000
131.99999233	0.00000000	89.70841000	28.04503000
132.19999232	0.00000000	88.92101000	27.25763000
132.39999231	0.00000000	88.17052000	26.93159000
132.59999230	0.00000000	87.38312000	27.25763000
132.79999229	0.00000000	87.05708000	28.04503000
132.99999227	0.00000000	87.34005000	28.79552000
133.19999226	0.00000000	87.75221000	29.62598000
133.39999225	0.00000000	87.75835000	30.37647000
133.59999224	0.00000000	88.17052000	31.15772000
133.79999223	0.00000000	88.54576000	31.48376000
133.99999222	0.00000000	88.92101000	31.15772000
134.19999220	0.00000000	89.29010000	30.37647000
134.39999219	0.00000000	88.92101000	29.62598000
134.59999218	0.00000000	88.58882000	28.79552000
134.79999217	0.00000000	88.54576000	28.04503000
134.99999216	0.00000000	88.54576000	27.25763000
135.19999214	0.00000000	88.54576000	26.93159000
135.39999213	0.00000000	88.54576000	27.25763000
135.59999212	0.00000000	88.54576000	28.04503000
135.79999211	0.00000000	88.54576000	28.79552000
135.99999210	0.00000000	88.50270000	29.58292000
136.19999208	0.00000000	88.12745000	30.00123000
136.39999207	0.00000000	87.38312000	30.41954000
136.59999206	0.00000000	87.00787000	31.11466000
136.79999205	0.00000000	86.96481000	31.11466000
136.99999204	0.00000000	86.96481000	30.37647000
137.19999203	0.00000000	87.00787000	29.62598000
137.39999201	0.00000000	87.38312000	28.83858000
137.59999200	0.00000000	88.17052000	28.46333000
137.79999199	0.00000000	88.92101000	28.42027000
137.99999198	0.00000000	89.70841000	28.42027000
138.19999197	0.00000000	90.08366000	28.42027000
138.39999195	0.00000000	90.08366000	28.42027000
138.59999194	0.00000000	89.65919000	28.42027000
138.79999193	0.00000000	88.54576000	28.42027000
138.99999192	0.00000000	87.43233000	28.46333000
139.19999191	0.00000000	87.00787000	28.88779000
139.39999189	0.00000000	86.96481000	29.95201000
139.59999188	0.00000000	87.00787000	30.73942000
139.79999187	0.00000000	87.38312000	30.74557000
139.99999186	0.00000000	88.12745000	30.78248000
140.19999185	0.00000000	88.54576000	30.32726000
140.39999184	0.00000000	88.92101000	29.62598000
140.59999182	0.00000000	89.29010000	28.79552000
140.79999181	0.00000000	88.92101000	28.04503000
140.99999180	0.00000000	88.54576000	27.25763000
141.19999179	0.00000000	88.12745000	26.88238000
141.39999178	0.00000000	87.38312000	26.88238000
141.59999176	0.00000000	87.00787000	27.25763000
141.79999175	0.00000000	87.00787000	28.04503000
141.99999174	0.00000000	87.38312000	28.83858000
142.19999173	0.00000000	88.12745000	30.00123000
142.39999172	0.00000000	88.50270000	31.11466000
142.59999170	0.00000000	88.50270000	31.48376000
142.79999169	0.00000000	88.17052000	31.15772000
142.99999168	0.00000000	87.80142000	30.37647000
143.19999167	0.00000000	88.17052000	29.62598000
143.39999166	0.00000000	88.45349000	28.79552000
143.59999165	0.00000000	88.12745000	28.04503000
143.79999163	0.00000000	87.38312000	27.25763000
143.99999162	0.00000000	87.05708000	26.93159000
144.19999161	0.00000000	87.38312000	27.25763000
144.39999160	0.00000000	88.12745000	28.04503000
144.59999159	0.00000000	88.50270000	28.79552000
144.79999157	0.00000000	88.54576000	29.58292000
144.99999156	0.00000000	88.54576000	29.95817000
145.19999155	0.00000000	88.54576000	30.00123000
145.39999154	0.00000000	88.54576000	30.00123000
145.59999153	0.00000000	88.50270000	29.95817000
145.79999151	0.00000000	88.12745000	29.58292000
145.99999150	0.00000000	87.38312000	28.83858000
146.19999149	0.00000000	87.00787000	28.46333000
146.39999148	0.00000000	87.00787000	28.42027000
146.59999147	0.00000000	87.38312000	28.42027000
146.79999146	0.00000000	88.12745000	28.42027000
146.99999144	0.00000000	88.50270000	28.42027000
147.19999143	0.00000000	88.54576000	28.42027000
147.39999142	0.00000000	88.54576000	28.46333000
147.59999141	0.00000000	88.54576000	28.83858000
147.79999140	0.00000000	88.50270000	29.58292000
147.99999138	0.00000000	88.12745000	29.95817000
148.19999137	0.00000000	87.43233000	30.00123000
148.39999136	0.00000000	87.38312000	30.00123000
148.59999135	0.00000000	87.70914000	30.00123000
148.79999134	0.00000000	87.38312000	30.00123000
148.99999132	0.00000000	87.43233000	29.95817000
149.19999131	0.00000000	88.12745000	29.58292000
149.39999130	0.00000000	88.50270000	28.83858000
149.59999129	0.00000000	88.54576000	28.46333000
149.79999128	0.00000000	88.54576000	28.42027000
149.99999127	0.00000000	88.54576000	28.42027000
150.19999125	0.00000000	88.54576000	28.46333000
150.39999124	0.00000000	88.50270000	28.79552000
150.59999123	0.00000000	88.12745000	29.20767000
150.79999122	0.00000000	87.38312000	29.21383000
150.99999121	0.00000000	87.00787000	29.62598000
151.19999119	0.00000000	86.96481000	29.95817000
151.39999118	0.00000000	86.96481000	30.00123000
151.59999117	0.00000000	87.00787000	29.95817000
151.79999116	0.00000000	87.38312000	29.58292000
151.99999115	0.00000000	88.12745000	28.83858000
152.19999113	0.00000000	88.50270000	28.46333000
152.39999112	0.00000000	88.54576000	28.42027000
152.59999111	0.00000000	88.54576000	28.42027000
152.79999110	0.00000000	88.54576000	28.42027000
152.99999109	0.00000000	88.54576000	28.42027000
153.19999108	0.00000000	88.54576000	28.42027000
153.39999106	0.00000000	88.50270000	28.46333000
153.59999105	0.00000000	88.12745000	28.83858000
153.79999104	0.00000000	87.38312000	29.53371000
153.99999103	0.00000000	87.00787000	29.58292000
154.19999102	0.00000000	86.96481000	29.25689000
154.39999100	0.00000000	86.96481000	29.58292000
154.59999099	0.00000000	86.96481000	29.53371000
154.79999098	0.00000000	86.96481000	28.83858000
154.99999097	0.00000000	87.00787000	28.46333000
155.19999096	0.00000000	87.38312000	28.42027000
155.39999094	0.00000000	88.12745000	28.42027000
155.59999093	0.00000000	88.50270000	28.42027000
155.79999092	0.00000000	88.54576000	28.37721000
155.99999091	0.00000000	88.54576000	28.04503000
156.19999090	0.00000000	88.54576000	27.67593000
156.39999089	0.00000000	88.50270000	28.04503000
156.59999087	0.00000000	88.12745000	28.37721000
156.79999086	0.00000000	87.38312000	28.46333000
156.99999085	0.00000000	87.00787000	28.83858000
157.19999084	0.00000000	86.96481000	29.58292000
157.39999083	0.00000000	86.96481000	29.95817000
157.59999081	0.00000000	86.96481000	29.95817000
157.79999080	0.00000000	86.96481000	29.58292000
157.99999079	0.00000000	86.96481000	28.83858000
158.19999078	0.00000000	87.00787000	28.46333000
158.39999077	0.00000000	87.38312000	28.37721000
158.59999075	0.00000000	88.12745000	28.00197000
158.79999074	0.00000000	88.50270000	27.30684000
158.99999073	0.00000000	88.54576000	27.30684000
159.19999072	0.00000000	88.50270000	28.04503000
159.39999071	0.00000000	88.12745000	28.79552000
159.59999070	0.00000000	87.38312000	29.58292000
159.79999068	0.00000000	87.05708000	29.95817000
159.99999067	0.00000000	87.34005000	30.00123000
160.19999066	0.00000000	87.70914000	30.00123000
160.39999065	0.00000000	87.34005000	30.00123000
160.59999064	0.00000000	87.00787000	29.95817000
160.79999062	0.00000000	86.96481000	29.58292000
160.99999061	0.00000000	86.96481000	28.83858000
161.19999060	0.00000000	86.96481000	28.46333000
161.39999059	0.00000000	86.96481000	28.42027000
161.59999058	0.00000000	87.00787000	28.42027000
161.79999056	0.00000000	87.38312000	28.42027000
161.99999055	0.00000000	88.12745000	28.42027000
162.19999054	0.00000000	88.50270000	28.42027000
162.39999053	0.00000000	88.54576000	28.42027000
162.59999052	0.00000000	88.50270000	28.46333000
162.79999051	0.00000000	88.12745000	28.83858000
162.99999049	0.00000000	87.38312000	29.58292000
163.19999048	0.00000000	87.00787000	29.90895000
163.39999047	0.00000000	86.96481000	29.58292000
163.59999046	0.00000000	86.96481000	28.83858000
163.79999045	0.00000000	86.96481000	28.46333000
163.99999043	0.00000000	86.96481000	28.42027000
164.19999042	0.00000000	86.96481000	28.42027000
164.39999041	0.00000000	86.96481000	28.42027000
164.59999040	0.00000000	87.00787000	28.42027000
164.79999039	0.00000000	87.38312000	28.42027000
164.99999037	0.00000000	88.07824000	28.42027000
165.19999036	0.00000000	88.12745000	28.42027000
165.39999035	0.00000000	87.80142000	28.42027000
165.59999034	0.00000000	88.17052000	28.42027000
165.79999033	0.00000000	88.45349000	28.42027000
165.99999032	0.00000000	88.12745000	28.42027000
166.19999030	0.00000000	87.38312000	28.42027000
166.39999029	0.00000000	87.00787000	28.42027000
166.59999028	0.00000000	86.96481000	28.42027000
166.79999027	0.00000000	86.96481000	28.42027000
166.99999026	0.00000000	86.96481000	28.42027000
167.19999024	0.00000000	86.96481000	28.42027000
167.39999023	0.00000000	86.96481000	28.42027000
167.59999022	0.00000000	87.00787000	28.42027000
167.79999021	0.00000000	87.38312000	28.42027000
167.99999020	0.00000000	88.12745000	28.42027000
168.19999018	0.00000000	88.45349000	28.42027000
168.39999017	0.00000000	88.12745000	28.42027000
168.59999016	0.00000000	87.38312000	28.42027000
168.79999015	0.00000000	87.00787000	28.42027000
168.99999014	0.00000000	86.96481000	28.42027000
169.19999013	0.00000000	86.96481000	28.42027000
169.39999011	0.00000000	86.96481000	28.42027000
169.59999010	0.00000000	86.96481000	28.42027000
169.79999009	0.00000000	86.96481000	28.42027000
169.99999008	0.00000000	86.96481000	28.42027000
170.19999007	0.00000000	86.96481000	28.42027000
170.39999005	0.00000000	86.96481000	28.42027000
170.59999004	0.00000000	86.96481000	28.42027000
170.79999003	0.00000000	86.96481000	28.42027000
170.99999002	0.00000000	86.96481000	28.42027000
171.19999001	0.00000000	86.96481000	28.42027000
171.39998999	0.00000000	86.96481000	28.42027000
171.59998998	0.00000000	86.96481000	28.42027000
171.79998997	0.00000000	86.96481000	28.42027000
171.99998996	0.00000000	86.96481000	28.42027000
172.19998995	0.00000000	86.96481000	28.42027000
172.39998994	0.00000000	86.96481000	28.42027000
172.59998992	0.00000000	86.96481000	28.42027000
172.79998991	0.00000000	86.96481000	28.42027000
172.99998990	0.00000000	86.96481000	28.42027000
173.19998989	0.00000000	86.96481000	28.42027000
173.39998988	0.00000000	86.96481000	28.42027000
173.59998986	0.00000000	86.96481000	28.42027000
173.79998985	0.00000000	86.96481000	28.42027000
173.99998984	0.00000000	86.96481000	28.42027000
174.19998983	0.00000000	86.96481000	28.37721000
174.39998982	0.00000000	86.96481000	28.04503000
174.59998980	0.00000000	86.96481000	27.67593000
174.79998979	0.00000000	86.96481000	28.04503000
174.99998978	0.00000000	86.96481000	28.37721000
175.19998977	0.00000000	86.92175000	28.42027000
175.39998976	0.00000000	86.58956000	28.42027000
175.59998975	0.00000000	86.22047000	28.42027000
175.79998973	0.00000000	86.58956000	28.42027000
175.99998972	0.00000000	86.92175000	28.42027000
176.19998971	0.00000000	86.96481000	28.42027000
176.39998970	0.00000000	86.96481000	28.42027000
176.59998969	0.00000000	86.96481000	28.42027000
176.79998967	0.00000000	86.96481000	28.42027000
176.99998966	0.00000000	86.96481000	28.42027000
177.19998965	0.00000000	86.96481000	28.42027000
177.39998964	0.00000000	86.96481000	28.42027000
177.59998963	0.00000000	86.96481000	28.42027000
177.79998961	0.00000000	86.96481000	28.42027000
177.99998960	0.00000000	86.96481000	28.42027000
178.19998959	0.00000000	86.96481000	28.42027000
178.39998958	0.00000000	86.96481000	28.42027000
178.59998957	0.00000000	86.96481000	28.42027000
178.79998956	0.00000000	86.96481000	28.42027000
178.99998954	0.00000000	86.96481000	28.42027000
179.19998953	0.00000000	86.96481000	28.46333000
179.39998952	0.00000000	86.96481000	28.75246000
179.59998951	0.00000000	86.96481000	28.74015000
179.79998950	0.00000000	86.96481000	27.72515000
179.99998948	0.00000000	86.96481000	27.76821000
180.19998947	0.00000000	86.96481000	29.11540000
180.39998946	0.00000000	86.96481000	29.49065000
180.59998945	0.00000000	86.96481000	28.83858000
180.79998944	0.00000000	86.96481000	28.46333000
180.99998942	0.00000000	86.96481000	28.42027000
181.19998941	0.00000000	86.96481000	28.42027000
181.39998940	0.00000000	86.96481000	28.42027000
181.59998939	0.00000000	86.96481000	28.42027000
181.79998938	0.00000000	86.96481000	28.42027000
181.99998937	0.00000000	86.96481000	28.42027000
182.19998935	0.00000000	86.96481000	28.42027000
182.39998934	0.00000000	86.96481000	28.42027000
182.59998933	0.00000000	86.96481000	28.42027000
182.79998932	0.00000000	86.96481000	28.42027000
182.99998931	0.00000000	86.96481000	28.42027000
183.19998929	0.00000000	86.96481000	28.42027000
183.39998928	0.00000000	86.96481000	28.42027000
183.59998927	0.00000000	86.96481000	28.42027000
183.79998926	0.00000000	86.96481000	28.42027000
183.99998925	0.00000000	86.96481000	28.42027000
184.19998923	0.00000000	86.96481000	28.42027000
184.39998922	0.00000000	86.96481000	28.42027000
184.59998921	0.00000000	86.96481000	28.46333000
184.79998920	0.00000000	86.96481000	28.83858000
184.99998919	0.00000000	86.96481000	29.58292000
185.19998918	0.00000000	86.96481000	29.90895000
185.39998916	0.00000000	86.96481000	29.58292000
185.59998915	0.00000000	86.96481000	28.83858000
185.79998914	0.00000000	86.96481000	28.46333000
185.99998913	0.00000000	86.96481000	28.37721000
186.19998912	0.00000000	86.96481000	28.04503000
186.39998910	0.00000000	86.96481000	27.63287000
186.59998909	0.00000000	86.96481000	27.62672000
186.79998908	0.00000000	86.96481000	27.25763000
186.99998907	0.00000000	86.96481000	27.30684000
187.19998906	0.00000000	86.96481000	28.00197000
187.39998904	0.00000000	86.96481000	28.37721000
187.59998903	0.00000000	86.96481000	28.46333000
187.79998902	0.00000000	86.96481000	28.79552000
187.99998901	0.00000000	86.96481000	29.20767000
188.19998900	0.00000000	86.96481000	29.17077000
188.39998899	0.00000000	86.96481000	29.20767000
188.59998897	0.00000000	86.96481000	28.79552000
188.79998896	0.00000000	86.96481000	28.42027000
188.99998895	0.00000000	86.96481000	28.00197000
189.19998894	0.00000000	86.96481000	27.30684000
189.39998893	0.00000000	86.96481000	27.25763000
189.59998891	0.00000000	86.96481000	27.58366000
189.79998890	0.00000000	86.96481000	27.21457000
189.99998889	0.00000000	86.96481000	26.88238000
190.19998888	0.00000000	86.96481000	26.88238000
190.39998887	0.00000000	86.96481000	27.25763000
190.59998885	0.00000000	86.96481000	28.00197000
190.79998884	0.00000000	86.92175000	28.37721000
190.99998883	0.00000000	86.58956000	28.42027000
191.19998882	0.00000000	86.22047000	28.42027000
191.39998881	0.00000000	86.58956000	28.42027000
191.59998880	0.00000000	86.96481000	28.42027000
191.79998878	0.00000000	87.34005000	28.37721000
191.99998877	0.00000000	87.70914000	28.04503000
192.19998876	0.00000000	87.34005000	27.67593000
192.39998875	0.00000000	87.00787000	28.00197000
192.59998874	0.00000000	86.96481000	27.95275000
192.79998872	0.00000000	86.92175000	27.25763000
192.99998871	0.00000000	86.58956000	26.93159000
193.19998870	0.00000000	86.17741000	27.25763000
193.39998869	0.00000000	86.17126000	28.00197000
193.59998868	0.00000000	85.75910000	28.37721000
193.79998866	0.00000000	85.47613000	28.42027000
193.99998865	0.00000000	85.80216000	28.42027000
194.19998864	0.00000000	86.54650000	28.37721000
194.39998863	0.00000000	86.96481000	28.04503000
194.59998862	0.00000000	87.34005000	27.67593000
194.79998861	0.00000000	87.70914000	28.08809000
194.99998859	0.00000000	87.34005000	28.75246000
195.19998858	0.00000000	87.00787000	29.11540000
195.39998857	0.00000000	86.96481000	28.42027000
195.59998856	0.00000000	86.96481000	27.72515000
195.79998855	0.00000000	86.96481000	28.00197000
195.99998853	0.00000000	86.92175000	28.00197000
