Time	Channel A	Channel B	Channel C
(us)	(V)	(mV)	(mV)

-4.59999956	0.00000000	11.06668000	9.47342500
-4.39999957	0.00000000	11.06668000	9.47342500
-4.19999958	0.00000000	11.06668000	9.47342500
-3.99999959	0.00000000	11.06668000	9.47342500
-3.79999960	0.00000000	11.06668000	9.47342500
-3.59999962	0.00000000	11.02362000	9.47342500
-3.39999963	0.00000000	10.69144000	9.47342500
-3.19999964	0.00000000	10.32234000	9.47342500
-2.99999965	0.00000000	10.69144000	9.47342500
-2.79999966	0.00000000	11.02362000	9.47342500
-2.59999968	0.00000000	11.06668000	9.47342500
-2.39999969	0.00000000	11.06668000	9.47342500
-2.19999970	0.00000000	11.06668000	9.47342500
-1.99999971	0.00000000	11.06668000	9.47342500
-1.79999972	0.00000000	11.06668000	9.47342500
-1.59999973	0.00000000	11.06668000	9.47342500
-1.39999975	0.00000000	11.02362000	9.47342500
-1.19999976	0.00000000	10.69144000	9.47342500
-0.99999977	0.00000000	10.32234000	9.47342500
-0.79999978	0.00000000	10.69144000	9.47342500
-0.59999979	0.00000000	11.02362000	9.47342500
-0.39999981	0.15871060	11.06668000	9.47342500
-0.19999982	0.63668800	11.06668000	9.47342500
0.00000017	0.79601380	11.06668000	9.47342500
0.20000016	1.11466500	11.06668000	9.47342500
0.40000015	0.95533960	11.06668000	9.47342500
0.60000013	0.47736220	11.02362000	9.47342500
0.80000012	-0.31803640	10.69144000	9.47342500
1.00000011	-1.27399100	10.32234000	9.47342500
1.20000010	-2.22994600	10.69144000	9.47342500
1.40000009	-2.70792300	11.02362000	9.47342500
1.60000008	-2.54859700	11.06668000	9.47342500
1.80000006	-1.59264300	11.06668000	9.47342500
2.00000005	0.00000000	11.06668000	9.47342500
2.20000004	2.22994600	11.06668000	9.47342500
2.40000003	4.14124000	11.06668000	9.47342500
2.60000002	5.25652100	11.06668000	9.47342500
2.80000000	5.09719500	11.06668000	9.47342500
2.99999999	3.50393700	11.06668000	9.47342500
3.19999998	0.79601380	11.06668000	9.47342500
3.39999997	-2.70792300	11.06668000	9.47342500
3.59999996	-5.73449800	11.06668000	9.51648500
3.79999994	-7.80511800	11.06668000	9.84867000
3.99999993	-7.80511800	11.06668000	10.25467000
4.19999992	-5.73449800	11.06668000	10.26698000
4.39999991	-2.22994600	11.02362000	10.62992000
4.59999990	2.22994600	10.69144000	10.58686000
4.79999989	6.37180100	10.32234000	9.89173200
4.99999987	8.92039900	10.69144000	9.47342500
5.19999986	9.39837600	11.02362000	9.05511800
5.39999985	7.32714100	11.02362000	8.31077700
5.59999984	3.50393700	10.69144000	7.98474400
5.79999983	-1.27399100	10.32234000	8.26771600
5.99999981	-5.73449800	10.69144000	8.67987200
6.19999980	-8.60174700	11.02362000	8.68602300
6.39999979	-9.39837600	11.06668000	9.09817800
6.59999978	-7.80511800	11.06668000	9.47342500
6.79999977	-4.30056600	11.06668000	9.84867000
6.99999975	0.00000000	11.06668000	10.21161000
7.19999974	3.98191400	11.06668000	9.84867000
7.39999973	6.84916400	11.06668000	9.51648500
7.59999972	7.80511800	11.06668000	9.47342500
7.79999971	6.69045300	11.06668000	9.43036400
7.99999970	4.14124000	11.06668000	9.09817800
8.19999968	0.95533960	11.06668000	8.72908400
8.39999967	-2.22994600	11.06668000	9.09817800
8.59999966	-4.30056600	11.06668000	9.43036400
8.79999965	-5.25652100	11.06668000	9.47342500
8.99999964	-4.61921700	11.06668000	9.47342500
9.19999962	-3.18590100	11.06668000	9.47342500
9.39999961	-1.11466500	11.06668000	9.47342500
9.59999960	0.63668800	11.06668000	9.47342500
9.79999959	2.07062000	11.06668000	9.47342500
9.99999958	2.54859700	11.06668000	9.47342500
10.19999956	2.38927200	11.06668000	9.47342500
10.39999955	1.59264300	11.06668000	9.47342500
10.59999954	0.79601380	11.06668000	9.47342500
10.79999953	0.00000000	11.06668000	9.47342500
10.99999952	-0.63668800	11.06668000	9.47342500
11.19999951	-0.95533960	11.06668000	9.47342500
11.39999949	-0.95533960	11.06668000	9.47342500
11.59999948	-0.79601380	11.06668000	9.47342500
11.79999947	-0.47736220	11.06668000	9.47342500
11.99999946	-0.15871060	11.06668000	9.47342500
12.19999945	-0.15871060	11.06668000	9.47342500
12.39999943	-0.15871060	11.06668000	9.47342500
12.59999942	0.00000000	11.06668000	9.47342500
12.79999941	0.00000000	11.06668000	9.47342500
12.99999940	0.00000000	11.06668000	9.47342500
13.19999939	0.00000000	11.06668000	9.47342500
13.39999937	0.00000000	11.06668000	9.47342500
13.59999936	0.00000000	11.06668000	9.47342500
13.79999935	0.00000000	11.06668000	9.47342500
13.99999934	-0.15871060	11.06668000	9.47342500
14.19999933	-0.15871060	11.06668000	9.47342500
14.39999932	-0.15871060	11.06668000	9.47342500
14.59999930	-0.15871060	11.06668000	9.47342500
14.79999929	0.00000000	11.06668000	9.47342500
14.99999928	0.00000000	11.06668000	9.47342500
15.19999927	0.00000000	11.06668000	9.47342500
15.39999926	0.00000000	11.06668000	9.47342500
15.59999924	0.00000000	11.06668000	9.47342500
15.79999923	0.00000000	11.06668000	9.47342500
15.99999922	0.00000000	11.06668000	9.47342500
16.19999921	0.00000000	11.06668000	9.47342500
16.39999920	0.00000000	11.06668000	9.47342500
16.59999919	-0.15871060	11.06668000	9.47342500
16.79999917	0.00000000	11.10974000	9.47342500
16.99999916	0.00000000	11.48499000	9.47342500
17.19999915	0.00000000	12.22933000	9.47342500
17.39999914	0.00000000	12.60458000	9.47342500
17.59999913	0.00000000	12.60458000	9.47342500
17.79999911	0.00000000	12.22933000	9.47342500
17.99999910	0.00000000	11.44193000	9.47342500
18.19999909	0.00000000	10.59916000	9.47342500
18.39999908	0.00000000	9.06742000	9.47342500
18.59999907	0.00000000	7.20964500	9.47342500
18.79999905	0.00000000	6.41609200	9.43036400
18.99999904	0.00000000	6.36687900	9.09817800
19.19999903	0.00000000	6.83439900	8.72908400
19.39999902	0.00000000	8.45841400	9.09817800
19.59999901	0.00000000	11.57726000	9.43036400
19.79999900	0.00000000	15.76649000	9.47342500
19.99999898	0.00000000	19.62352000	9.47342500
20.19999897	0.00000000	21.90576000	9.47342500
20.39999896	0.00000000	22.23179000	9.47342500
20.59999895	0.00000000	19.48819000	9.47342500
20.79999894	0.00000000	14.05020000	9.47342500
20.99999892	0.00000000	7.06815900	9.47342500
21.19999891	0.00000000	-0.65206690	9.47342500
21.39999890	0.00000000	-6.74827700	9.47342500
21.59999889	0.00000000	-9.44881800	9.47342500
21.79999888	0.00000000	-7.86786400	9.43036400
21.99999886	0.00000000	-1.91929100	9.09817800
22.19999885	0.00000000	8.18159400	8.72908400
22.39999884	0.00000000	21.25369000	9.09817800
22.59999883	0.00000000	33.12008000	9.43036400
22.79999882	0.00000000	40.52042000	9.47342500
22.99999881	0.00000000	41.96604000	9.47342500
23.19999879	0.00000000	36.47268000	9.47342500
23.39999878	0.00000000	24.00960000	9.51648500
23.59999877	0.00000000	7.06815900	9.89173200
23.79999876	0.00000000	-10.69759000	10.62992000
23.99999875	0.00000000	-24.52633000	11.00517000
24.19999873	0.00000000	-31.08391000	11.00517000
24.39999872	0.00000000	-28.29109000	10.58686000
24.59999871	0.00000000	-16.24631000	9.42421200
24.79999870	0.00000000	3.06348400	7.89247000
24.99999869	0.00000000	25.43676000	6.31151500
25.19999867	0.00000000	45.12795000	4.82283400
25.39999866	0.00000000	57.87401000	4.08464600
25.59999865	0.00000000	60.47613000	4.87204700
25.79999864	0.00000000	51.59325000	6.82209600
25.99999863	0.00000000	33.03395000	9.93479300
26.19999862	0.00000000	9.06742000	13.83489000
26.39999860	0.00000000	-15.21900000	17.64887000
26.59999859	0.00000000	-33.73523000	20.71235000
26.79999858	0.00000000	-41.87992000	21.41363000
26.99999857	0.00000000	-38.43504000	19.46358000
27.19999856	0.00000000	-24.10802000	14.76993000
27.39999854	0.00000000	-2.09768700	7.80019600
27.59999853	0.00000000	22.60704000	0.09227362
27.79999852	0.00000000	44.24212000	-6.82824800
27.99999851	0.00000000	57.78174000	-11.01132000
28.19999850	0.00000000	60.52534000	-10.96826000
28.39999848	0.00000000	52.10384000	-6.27460600
28.59999847	0.00000000	35.16855000	2.63902500
28.79999846	0.00000000	14.27780000	14.25320000
28.99999845	0.00000000	-6.28690900	26.19955000
29.19999844	0.00000000	-22.52707000	35.76525000
29.39999843	0.00000000	-31.03469000	39.95448000
29.59999841	0.00000000	-29.96432000	37.26009000
29.79999840	0.00000000	-20.33710000	28.34030000
29.99999839	0.00000000	-4.92741100	14.76993000
30.19999838	0.00000000	12.88140000	-1.07037400
30.39999837	0.00000000	28.75246000	-15.70497000
30.59999835	0.00000000	40.05290000	-25.69513000
30.79999834	0.00000000	44.75270000	-28.38951000
30.99999833	0.00000000	42.47662000	-22.95768000
31.19999832	0.00000000	34.32578000	-10.54995000
31.39999831	0.00000000	21.57972000	6.82209600
31.59999829	0.00000000	7.34498000	25.31373000
31.79999828	0.00000000	-4.70595500	40.41584000
31.99999827	0.00000000	-12.51845000	49.33562000
32.19999826	0.00000000	-15.26206000	50.40600000
32.39999825	0.00000000	-12.56767000	42.69193000
32.59999824	0.00000000	-5.21653500	27.64517000
32.79999822	0.00000000	5.21038300	9.14739100
32.99999821	0.00000000	16.36934000	-9.06126900
33.19999820	0.00000000	25.30143000	-22.95768000
33.39999819	0.00000000	30.37647000	-29.97047000
33.59999818	0.00000000	31.16388000	-28.76476000
33.79999816	0.00000000	27.30069000	-19.51279000
33.99999815	0.00000000	19.99877000	-4.09079700
34.19999814	0.00000000	11.15896000	13.61343000
34.39999813	0.00000000	3.02042300	29.49680000
34.59999812	0.00000000	-2.38065900	40.37278000
34.79999810	0.00000000	-4.33070900	44.64198000
34.99999809	0.00000000	-2.05462600	41.52928000
35.19999808	0.00000000	3.29724400	31.53912000
35.39999807	0.00000000	9.86097400	17.23056000
35.59999806	0.00000000	16.36934000	1.80241100
35.79999805	0.00000000	20.60162000	-11.66339000
35.99999803	0.00000000	21.44439000	-19.33440000
36.19999802	0.00000000	19.53125000	-19.46973000
36.39999801	0.00000000	15.29897000	-12.96752000
36.59999800	0.00000000	9.95324800	-2.18380900
36.79999799	0.00000000	5.29650500	10.54380000
36.99999797	0.00000000	2.22687000	22.06570000
37.19999796	0.00000000	1.48253000	29.36146000
37.39999795	0.00000000	3.75861200	30.56717000
37.59999794	0.00000000	7.94783400	25.63976000
37.79999793	0.00000000	12.60458000	16.81225000
37.99999791	0.00000000	16.83686000	6.44685000
38.19999790	0.00000000	19.53125000	-2.70054100
38.39999789	0.00000000	19.95571000	-7.30191900
38.59999788	0.00000000	18.41781000	-6.23154500
38.79999787	0.00000000	15.29897000	-0.46751960
38.99999786	0.00000000	11.10974000	8.35998900
39.19999784	0.00000000	7.20964500	17.88263000
39.39999783	0.00000000	4.45989200	24.76009000
39.59999782	0.00000000	2.50984200	26.71629000
39.79999781	0.00000000	2.17765700	23.60359000
39.99999780	0.00000000	3.67249000	15.93258000
40.19999778	0.00000000	6.41609200	5.62253900
40.39999777	0.00000000	9.90403500	-3.53715500
40.59999776	0.00000000	13.76107000	-9.01205700
40.79999775	0.00000000	16.83686000	-9.71948700
40.99999774	0.00000000	18.46087000	-5.48105300
41.19999772	0.00000000	18.83612000	3.33415300
41.39999771	0.00000000	18.08563000	13.65650000
41.59999770	0.00000000	16.14173000	22.57628000
41.79999769	0.00000000	13.81028000	28.34030000
41.99999768	0.00000000	11.06668000	29.45374000
42.19999767	0.00000000	8.37229300	25.22145000
42.39999765	0.00000000	6.41609200	16.85531000
42.59999764	0.00000000	5.25344500	7.24040300
42.79999763	0.00000000	5.25344500	-0.89197830
42.99999762	0.00000000	6.36687900	-6.32381900
43.19999761	0.00000000	7.90477300	-7.81250000
43.39999759	0.00000000	9.48572700	-4.78592500
43.59999758	0.00000000	11.06668000	1.66707700
43.79999757	0.00000000	12.60458000	8.96284400
43.99999756	0.00000000	13.76107000	15.18824000
44.19999755	0.00000000	14.22859000	19.46358000
44.39999753	0.00000000	14.60384000	21.04454000
44.59999752	0.00000000	15.01599000	19.92495000
44.79999751	0.00000000	14.97908000	16.85531000
44.99999750	0.00000000	14.97293000	12.62918000
45.19999749	0.00000000	14.13632000	8.35998900
45.39999748	0.00000000	12.60458000	4.87204700
45.59999746	0.00000000	10.59916000	2.54675200
45.79999745	0.00000000	7.86171200	2.17150600
45.99999744	0.00000000	4.78592500	3.61712600
46.19999743	0.00000000	2.09153500	5.93626900
46.39999742	0.00000000	0.59670270	8.31077700
46.59999740	0.00000000	1.02116100	11.00517000
46.79999739	0.00000000	3.80782500	13.28125000
46.99999738	0.00000000	8.83366100	14.11786000
47.19999737	0.00000000	15.39124000	14.11786000
47.39999736	0.00000000	21.53666000	13.32431000
47.59999734	0.00000000	25.76895000	11.38041000
47.79999733	0.00000000	26.92544000	9.09817800
47.99999732	0.00000000	24.56324000	6.72982200
48.19999731	0.00000000	19.11294000	4.82283400
48.39999730	0.00000000	10.97441000	3.66633800
48.59999729	0.00000000	2.17765700	3.75246000
48.79999727	0.00000000	-4.79207600	5.66560000
48.99999726	0.00000000	-8.24311000	9.09817800
49.19999725	0.00000000	-7.44955700	12.53691000
49.39999724	0.00000000	-2.00541300	15.27436000
49.59999723	0.00000000	6.79133800	16.81225000
49.79999721	0.00000000	16.46161000	16.76919000
49.99999720	0.00000000	24.56324000	14.85605000
50.19999719	0.00000000	29.58292000	11.38041000
50.39999718	0.00000000	29.90895000	7.51722400
50.59999717	0.00000000	25.34449000	3.66633800
50.79999715	0.00000000	17.29823000	1.01501000
50.99999714	0.00000000	8.41535400	0.59670270
51.19999713	0.00000000	0.64591530	2.17765700
51.39999712	0.00000000	-4.70595500	5.61638700
51.59999711	0.00000000	-5.86860200	10.21161000
51.79999710	0.00000000	-2.42987200	14.07480000
51.99999708	0.00000000	4.09079700	16.81225000
52.19999707	0.00000000	12.18012000	17.92569000
52.39999706	0.00000000	19.44513000	16.76919000
52.59999705	0.00000000	23.72047000	13.74262000
52.79999704	0.00000000	24.13878000	9.89173200
52.99999702	0.00000000	21.11220000	6.40378900
53.19999701	0.00000000	15.71727000	3.70939900
53.39999700	0.00000000	9.52879000	2.54675200
53.59999699	0.00000000	3.75861200	3.33415300
53.79999698	0.00000000	-0.00615157	5.61638700
53.99999696	0.00000000	-0.04921259	9.09817800
54.19999695	0.00000000	3.38951800	12.45079000
54.39999694	0.00000000	8.69832600	14.39468000
54.59999693	0.00000000	14.50541000	14.03174000
54.79999692	0.00000000	18.70079000	12.21087000
54.99999691	0.00000000	20.69390000	9.89173200
55.19999689	0.00000000	19.86343000	7.98474400
55.39999688	0.00000000	16.46161000	6.82209600
55.59999687	0.00000000	11.48499000	6.86515700
55.79999686	0.00000000	6.87746000	8.35383800
55.99999685	0.00000000	3.75861200	10.67298000
56.19999683	0.00000000	2.60211600	12.91215000
56.39999682	0.00000000	3.75861200	14.43775000
56.59999681	0.00000000	6.83439900	14.03174000
56.79999680	0.00000000	11.02362000	12.11860000
56.99999679	0.00000000	14.88066000	8.96284400
57.19999677	0.00000000	17.21210000	4.77977300
57.39999676	0.00000000	17.99951000	1.02116100
57.59999675	0.00000000	16.83686000	-0.51673230
57.79999674	0.00000000	14.18553000	0.64591530
57.99999673	0.00000000	11.10974000	4.17691900
58.19999672	0.00000000	8.41535400	9.93479300
58.39999670	0.00000000	6.83439900	16.39395000
58.59999669	0.00000000	6.45915300	21.03838000
58.79999668	0.00000000	7.20964500	22.95152000
58.99999667	0.00000000	9.11048200	21.78272000
59.19999666	0.00000000	11.02362000	17.09523000
59.39999664	0.00000000	12.60458000	10.21161000
59.59999663	0.00000000	13.71801000	2.50369100
59.79999662	0.00000000	13.71801000	-3.58636800
59.99999661	0.00000000	12.60458000	-6.32381900
60.19999660	0.00000000	11.10974000	-5.16117100
60.39999658	0.00000000	9.95324800	-0.55979330
60.59999657	0.00000000	9.57800100	6.44685000
60.79999656	0.00000000	9.90403500	14.53617000
60.99999655	0.00000000	10.69144000	22.15797000
61.19999654	0.00000000	11.48499000	26.38410000
61.39999653	0.00000000	12.64764000	26.06422000
61.59999651	0.00000000	13.71801000	22.20103000
61.79999650	0.00000000	13.71801000	15.23130000
61.99999649	0.00000000	12.60458000	6.77903500
62.19999648	0.00000000	11.02362000	-0.93503930
62.39999647	0.00000000	9.11048200	-6.32381900
62.59999645	0.00000000	7.20964500	-7.85556000
62.79999644	0.00000000	6.45915300	-5.16117100
62.99999643	0.00000000	6.79133800	0.97194880
63.19999642	0.00000000	8.04010800	9.05511800
63.39999641	0.00000000	10.32234000	16.76919000
63.59999639	0.00000000	13.39198000	22.57628000
63.79999638	0.00000000	15.67421000	25.27067000
63.99999637	0.00000000	16.87992000	24.15723000
64.19999636	0.00000000	16.83686000	19.93110000
64.39999635	0.00000000	15.29897000	13.79183000
64.59999634	0.00000000	12.60458000	7.19734200
64.79999632	0.00000000	9.52879000	1.75319900
64.99999631	0.00000000	6.83439900	-2.14074800
65.19999630	0.00000000	5.29650500	-3.62942900
65.39999629	0.00000000	5.29650500	-2.14074800
65.59999628	0.00000000	6.83439900	1.66707700
65.79999626	0.00000000	9.48572700	6.26845500
65.99999625	0.00000000	12.18012000	10.58686000
66.19999624	0.00000000	14.13632000	14.11786000
66.39999623	0.00000000	15.25591000	16.85531000
66.59999622	0.00000000	14.88066000	18.39321000
66.79999620	0.00000000	12.97982000	18.43627000
66.99999619	0.00000000	10.69144000	17.27362000
67.19999618	0.00000000	8.37229300	15.32357000
67.39999617	0.00000000	6.92052100	12.53691000
67.59999616	0.00000000	7.25270600	9.05511800
67.79999615	0.00000000	9.15354300	5.19808000
67.99999613	0.00000000	11.48499000	2.12844500
68.19999612	0.00000000	14.18553000	0.51058070
68.39999611	0.00000000	16.41855000	0.13533460
68.59999610	0.00000000	16.79380000	0.92888770
68.79999609	0.00000000	15.25591000	3.29109200
68.99999607	0.00000000	12.18012000	6.77903500
69.19999606	0.00000000	8.32308000	11.09129000
69.39999605	0.00000000	4.87819900	15.69882000
69.59999604	0.00000000	2.55290300	19.54970000
69.79999603	0.00000000	2.22687000	21.41363000
69.99999601	0.00000000	4.13385800	20.71235000
70.19999600	0.00000000	8.04010800	17.60581000
70.39999599	0.00000000	13.06594000	13.32431000
70.59999598	0.00000000	18.41781000	7.89247000
70.79999597	0.00000000	22.23179000	2.55290300
70.99999596	0.00000000	23.02534000	-0.93503930
71.19999594	0.00000000	21.11220000	-2.09153500
71.39999593	0.00000000	16.83686000	-0.55979330
71.59999592	0.00000000	11.06668000	3.24803100
71.79999591	0.00000000	5.25344500	7.84940900
71.99999590	0.00000000	0.59670270	12.16166000
72.19999588	0.00000000	-2.05462600	15.60654000
72.39999587	0.00000000	-1.67938000	17.55044000
72.59999586	0.00000000	1.80856300	17.18750000
72.79999585	0.00000000	7.16043300	15.27436000
72.99999584	0.00000000	13.39198000	12.21087000
73.19999582	0.00000000	18.74385000	8.82135800
73.39999581	0.00000000	22.27485000	6.86515700
73.59999580	0.00000000	23.02534000	6.40378900
73.79999579	0.00000000	21.16142000	6.77903500
73.99999578	0.00000000	17.25517000	7.93553100
74.19999577	0.00000000	12.27239000	9.42421200
74.39999575	0.00000000	7.25270600	10.53765000
74.59999574	0.00000000	3.75861200	10.49459000
74.79999573	0.00000000	2.17765700	9.00590400
74.99999572	0.00000000	2.55290300	6.77903500
75.19999571	0.00000000	4.87819900	5.24729300
75.39999569	0.00000000	8.28001900	4.87204700
75.59999568	0.00000000	11.81102000	5.66560000
75.79999567	0.00000000	14.51156000	8.02780400
75.99999566	0.00000000	16.46161000	11.46653000
76.19999565	0.00000000	16.83686000	15.27436000
76.39999563	0.00000000	15.76649000	17.92569000
76.59999562	0.00000000	14.22859000	18.35015000
76.79999561	0.00000000	12.64764000	16.76919000
76.99999560	0.00000000	11.10974000	13.28125000
77.19999559	0.00000000	9.99630800	8.26771600
77.39999558	0.00000000	9.95324800	3.24803100
77.59999556	0.00000000	10.64838000	-0.97810030
77.79999555	0.00000000	10.97441000	-3.25418300
77.99999554	0.00000000	10.64838000	-2.46678100
78.19999553	0.00000000	9.90403500	0.97194880
78.39999552	0.00000000	9.48572700	6.40378900
78.59999550	0.00000000	9.11048200	12.58612000
78.79999549	0.00000000	8.79060000	18.35015000
78.99999548	0.00000000	9.57800100	22.15797000
79.19999547	0.00000000	11.06668000	22.57628000
79.39999546	0.00000000	12.64764000	19.97416000
79.59999544	0.00000000	14.22859000	15.69882000
79.79999543	0.00000000	15.71727000	10.62992000
79.99999542	0.00000000	16.46161000	5.19808000
80.19999541	0.00000000	15.67421000	0.59670270
80.39999540	0.00000000	13.76107000	-2.09153500
80.59999539	0.00000000	11.06668000	-2.14074800
80.79999537	0.00000000	8.37229300	0.13533460
80.99999536	0.00000000	6.45915300	3.62327700
81.19999535	0.00000000	5.67175200	7.89247000
81.39999534	0.00000000	6.45915300	12.16166000
81.59999533	0.00000000	8.32308000	15.64960000
81.79999531	0.00000000	10.69144000	18.01796000
81.99999530	0.00000000	13.02288000	18.76845000
82.19999529	0.00000000	15.29897000	18.06102000
82.39999528	0.00000000	16.41855000	16.07406000
82.59999527	0.00000000	15.71727000	13.37352000
82.79999525	0.00000000	14.22859000	9.84867000
82.99999524	0.00000000	12.60458000	6.36072800
83.19999523	0.00000000	10.69144000	3.24803100
83.39999522	0.00000000	8.79060000	0.92888770
83.59999521	0.00000000	8.04010800	0.17839570
83.79999520	0.00000000	8.32308000	0.92888770
83.99999518	0.00000000	9.11048200	3.29109200
84.19999517	0.00000000	9.86097400	6.77903500
84.39999516	0.00000000	10.64838000	11.04823000
84.59999515	0.00000000	11.02362000	15.27436000
84.79999514	0.00000000	11.06668000	18.35015000
84.99999512	0.00000000	11.06668000	19.55585000
85.19999511	0.00000000	11.06668000	18.76845000
85.39999510	0.00000000	11.06668000	16.43701000
85.59999509	0.00000000	11.10974000	12.49385000
85.79999508	0.00000000	11.48499000	7.56028500
85.99999506	0.00000000	12.22933000	2.92199800
86.19999505	0.00000000	12.60458000	0.22145670
86.39999504	0.00000000	12.60458000	-0.60285430
86.59999503	0.00000000	12.18012000	0.59670270
86.79999502	0.00000000	11.02362000	3.66633800
86.99999501	0.00000000	9.52879000	7.93553100
87.19999499	0.00000000	8.37229300	12.53691000
87.39999498	0.00000000	7.99704600	16.39395000
87.59999497	0.00000000	8.37229300	18.35015000
87.79999496	0.00000000	9.52879000	18.30093000
87.99999495	0.00000000	11.06668000	15.97564000
88.19999493	0.00000000	12.64764000	11.42347000
88.39999492	0.00000000	14.18553000	6.82209600
88.59999491	0.00000000	15.29897000	3.29109200
88.79999490	0.00000000	15.29897000	1.01501000
88.99999489	0.00000000	14.13632000	1.01501000
89.19999487	0.00000000	12.22933000	3.29109200
89.39999486	0.00000000	9.95324800	6.77903500
89.59999485	0.00000000	8.41535400	11.00517000
89.79999484	0.00000000	7.99704600	14.81299000
89.99999483	0.00000000	8.32308000	16.76919000
90.19999482	0.00000000	9.11048200	16.76919000
90.39999480	0.00000000	9.90403500	14.81299000
90.59999479	0.00000000	11.06668000	11.00517000
90.79999478	0.00000000	12.18012000	6.77903500
90.99999477	0.00000000	12.60458000	3.33415300
91.19999476	0.00000000	12.69070000	1.43331700
91.39999474	0.00000000	13.02288000	2.22071800
91.59999473	0.00000000	13.34276000	5.24729300
91.79999472	0.00000000	12.60458000	9.47342500
91.99999471	0.00000000	11.53420000	13.69956000
92.19999470	0.00000000	11.10974000	16.76919000
92.39999468	0.00000000	11.06668000	17.92569000
92.59999467	0.00000000	11.06668000	16.76919000
92.79999466	0.00000000	11.02362000	13.69956000
92.99999465	0.00000000	10.59916000	9.43036400
93.19999464	0.00000000	9.52879000	4.87204700
93.39999463	0.00000000	8.79060000	1.43946800
93.59999461	0.00000000	9.11048200	0.68897630
93.79999460	0.00000000	9.48572700	2.54675200
93.99999459	0.00000000	9.95324800	6.40378900
94.19999458	0.00000000	11.15896000	10.95595000
94.39999457	0.00000000	13.02288000	14.85605000
94.59999455	0.00000000	14.97293000	17.13829000
94.79999454	0.00000000	16.09252000	17.50738000
94.99999453	0.00000000	16.46161000	15.18824000
95.19999452	0.00000000	15.25591000	11.04823000
95.39999451	0.00000000	12.64764000	6.82209600
95.59999449	0.00000000	9.90403500	3.70939900
95.79999448	0.00000000	7.52952700	2.17150600
95.99999447	0.00000000	5.21038300	2.54675200
96.19999446	0.00000000	3.75861200	4.87204700
96.39999445	0.00000000	4.13385800	8.26771600
96.59999444	0.00000000	6.45915300	11.74951000
96.79999442	0.00000000	9.90403500	14.07480000
96.99999441	0.00000000	13.76107000	15.23130000
97.19999440	0.00000000	16.87992000	14.85605000
97.39999439	0.00000000	18.83612000	12.95522000
97.59999438	0.00000000	19.58046000	10.62992000
97.79999436	0.00000000	18.37475000	7.93553100
97.99999435	0.00000000	15.34203000	5.66560000
98.19999434	0.00000000	11.48499000	4.87204700
98.39999433	0.00000000	7.94783400	5.24729300
98.59999432	0.00000000	4.83513700	6.72982200
98.79999430	0.00000000	2.60211600	8.63681000
98.99999429	0.00000000	2.60211600	9.79945900
99.19999428	0.00000000	4.83513700	10.62992000
99.39999427	0.00000000	7.94783400	11.00517000
99.59999426	0.00000000	11.44193000	11.00517000
99.79999425	0.00000000	14.92372000	10.62992000
99.99999423	0.00000000	17.25517000	9.93479300
100.19999422	0.00000000	18.46087000	9.93479300
100.39999421	0.00000000	18.41781000	10.67298000
100.59999420	0.00000000	16.87992000	11.38041000
100.79999419	0.00000000	14.18553000	11.74336000
100.99999417	0.00000000	11.06668000	10.91289000
101.19999416	0.00000000	7.99704600	9.14124000
101.39999415	0.00000000	5.67175200	7.52337600
101.59999414	0.00000000	4.87819900	6.72367100
101.79999413	0.00000000	5.21038300	5.57332700
101.99999411	0.00000000	6.41609200	5.29035400
102.19999410	0.00000000	8.37229300	6.36072800
102.39999409	0.00000000	11.06668000	7.93553100
102.59999408	0.00000000	13.76107000	9.93479300
102.79999407	0.00000000	15.67421000	12.58612000
102.99999406	0.00000000	16.46161000	14.85605000
103.19999404	0.00000000	15.76649000	15.60654000
103.39999403	0.00000000	14.60384000	14.85605000
103.59999402	0.00000000	13.39198000	12.53691000
103.79999401	0.00000000	11.44193000	9.47342500
103.99999400	0.00000000	9.57800100	6.40378900
104.19999398	0.00000000	8.32308000	4.08464600
104.39999397	0.00000000	7.57258800	3.29109200
104.59999396	0.00000000	7.20964500	3.66633800
104.79999395	0.00000000	7.99704600	5.24729300
104.99999394	0.00000000	9.48572700	7.93553100
105.19999392	0.00000000	11.06668000	10.96211000
105.39999391	0.00000000	12.60458000	13.28125000
105.59999390	0.00000000	13.71801000	14.07480000
105.79999389	0.00000000	13.71801000	13.74262000
105.99999388	0.00000000	12.64764000	12.53691000
106.19999387	0.00000000	11.48499000	10.62992000
106.39999385	0.00000000	10.69144000	8.31077700
106.59999384	0.00000000	9.90403500	6.44685000
106.79999383	0.00000000	9.57800100	5.66560000
106.99999382	0.00000000	9.95324800	6.40378900
107.19999381	0.00000000	11.06668000	7.89247000
107.39999379	0.00000000	12.22933000	9.47342500
107.59999378	0.00000000	12.97982000	11.00517000
107.79999377	0.00000000	13.39198000	12.11860000
107.99999376	0.00000000	12.97982000	12.11860000
108.19999375	0.00000000	12.22933000	11.00517000
108.39999374	0.00000000	11.02362000	9.47342500
108.59999372	0.00000000	9.52879000	7.93553100
108.79999371	0.00000000	8.41535400	6.77903500
108.99999370	0.00000000	8.41535400	6.40378900
109.19999369	0.00000000	9.48572700	6.77903500
109.39999368	0.00000000	10.69144000	7.93553100
109.59999366	0.00000000	11.86024000	9.47342500
109.79999365	0.00000000	13.39198000	11.00517000
109.99999364	0.00000000	14.13632000	12.16166000
110.19999363	0.00000000	14.18553000	12.53691000
110.39999362	0.00000000	13.76107000	12.16166000
110.59999360	0.00000000	12.60458000	11.00517000
110.79999359	0.00000000	11.06668000	9.51648500
110.99999358	0.00000000	9.52879000	8.31077700
111.19999357	0.00000000	8.37229300	7.51722400
111.39999356	0.00000000	7.99704600	6.77903500
111.59999355	0.00000000	8.37229300	6.77903500
111.79999353	0.00000000	9.52879000	7.51722400
111.99999352	0.00000000	11.02362000	8.31077700
112.19999351	0.00000000	12.22933000	9.47342500
112.39999350	0.00000000	13.02288000	10.58686000
112.59999349	0.00000000	13.76107000	11.00517000
112.79999347	0.00000000	13.76107000	11.04823000
112.99999346	0.00000000	13.02288000	11.04823000
113.19999345	0.00000000	12.27239000	11.00517000
113.39999344	0.00000000	11.44193000	10.62992000
113.59999343	0.00000000	10.69144000	9.89173200
113.79999341	0.00000000	9.90403500	9.51648500
113.99999340	0.00000000	9.57800100	9.47342500
114.19999339	0.00000000	9.90403500	9.47342500
114.39999338	0.00000000	10.64838000	9.43036400
114.59999337	0.00000000	11.06668000	9.05511800
114.79999336	0.00000000	11.48499000	8.31077700
114.99999334	0.00000000	12.22933000	7.93553100
115.19999333	0.00000000	12.60458000	7.89247000
115.39999332	0.00000000	12.60458000	7.89247000
115.59999331	0.00000000	12.22933000	7.93553100
115.79999330	0.00000000	11.48499000	8.31077700
115.99999328	0.00000000	11.10974000	9.09817800
116.19999327	0.00000000	11.02362000	9.84867000
116.39999326	0.00000000	10.64838000	10.62992000
116.59999325	0.00000000	9.90403500	11.00517000
116.79999324	0.00000000	9.52879000	11.04823000
116.99999322	0.00000000	9.57800100	11.00517000
117.19999321	0.00000000	10.32234000	10.58686000
117.39999320	0.00000000	11.85408000	9.47342500
117.59999319	0.00000000	12.97982000	8.35998900
117.79999318	0.00000000	13.81028000	7.93553100
117.99999317	0.00000000	14.18553000	7.89247000
118.19999315	0.00000000	14.18553000	7.89247000
118.39999314	0.00000000	13.76107000	7.93553100
118.59999313	0.00000000	12.60458000	8.31077700
118.79999312	0.00000000	11.10974000	9.09817800
118.99999311	0.00000000	9.90403500	9.84867000
119.19999309	0.00000000	9.11048200	10.62992000
119.39999308	0.00000000	8.37229300	11.00517000
119.59999307	0.00000000	8.41535400	11.04823000
119.79999306	0.00000000	9.52879000	11.04823000
119.99999305	0.00000000	11.06668000	11.00517000
120.19999303	0.00000000	12.64764000	10.62992000
120.39999302	0.00000000	14.13632000	9.89173200
120.59999301	0.00000000	14.92372000	9.47342500
120.79999300	0.00000000	14.60384000	9.05511800
120.99999299	0.00000000	14.22859000	8.31077700
121.19999298	0.00000000	13.76107000	7.93553100
121.39999296	0.00000000	12.60458000	7.89247000
121.59999295	0.00000000	11.06668000	7.89247000
121.79999294	0.00000000	9.52879000	7.93553100
121.99999293	0.00000000	8.41535400	8.31077700
122.19999292	0.00000000	8.37229300	9.09817800
122.39999290	0.00000000	9.11048200	9.84867000
122.59999289	0.00000000	9.86097400	10.62992000
122.79999288	0.00000000	10.69144000	11.00517000
122.99999287	0.00000000	11.48499000	11.04823000
123.19999286	0.00000000	12.64764000	11.04823000
123.39999284	0.00000000	13.76107000	11.00517000
123.59999283	0.00000000	14.13632000	10.58686000
123.79999282	0.00000000	13.81028000	9.47342500
123.99999281	0.00000000	13.02288000	8.35998900
124.19999280	0.00000000	12.27239000	7.93553100
124.39999279	0.00000000	11.44193000	7.89247000
124.59999277	0.00000000	10.69144000	7.93553100
124.79999276	0.00000000	9.90403500	8.31077700
124.99999275	0.00000000	9.52879000	9.05511800
125.19999274	0.00000000	9.48572700	9.47342500
125.39999273	0.00000000	9.52879000	9.89173200
125.59999271	0.00000000	9.90403500	10.62992000
125.79999270	0.00000000	10.69144000	11.00517000
125.99999269	0.00000000	11.44193000	11.00517000
126.19999268	0.00000000	12.27239000	10.62992000
126.39999267	0.00000000	12.97982000	9.89173200
126.59999265	0.00000000	13.39198000	9.51648500
126.79999264	0.00000000	13.02288000	9.47342500
126.99999263	0.00000000	12.64764000	9.43036400
127.19999262	0.00000000	12.18012000	9.09817800
127.39999261	0.00000000	11.02362000	8.72908400
127.59999260	0.00000000	9.57800100	9.09817800
127.79999258	0.00000000	8.79060000	9.43036400
127.99999257	0.00000000	9.15354300	9.47342500
128.19999256	0.00000000	9.86097400	9.47342500
128.39999255	0.00000000	10.69144000	9.47342500
128.59999254	0.00000000	11.48499000	9.47342500
128.79999252	0.00000000	12.64764000	9.47342500
128.99999251	0.00000000	13.76107000	9.47342500
129.19999250	0.00000000	14.13632000	9.47342500
129.39999249	0.00000000	13.76107000	9.47342500
129.59999248	0.00000000	12.64764000	9.47342500
129.79999246	0.00000000	11.48499000	9.47342500
129.99999245	0.00000000	10.69144000	9.47342500
130.19999244	0.00000000	9.90403500	9.47342500
130.39999243	0.00000000	9.52879000	9.47342500
130.59999242	0.00000000	9.52879000	9.51648500
130.79999241	0.00000000	9.95324800	9.89173200
130.99999239	0.00000000	11.06668000	10.58686000
131.19999238	0.00000000	12.18012000	10.58686000
131.39999237	0.00000000	12.60458000	9.89173200
131.59999236	0.00000000	12.64764000	9.47342500
131.79999235	0.00000000	12.64764000	9.05511800
131.99999233	0.00000000	12.60458000	8.31077700
132.19999232	0.00000000	12.18012000	7.93553100
132.39999231	0.00000000	11.02362000	7.89247000
132.59999230	0.00000000	9.62106200	7.93553100
132.79999229	0.00000000	9.20890700	8.35998900
132.99999227	0.00000000	10.27313000	9.47342500
133.19999226	0.00000000	10.97441000	10.58686000
133.39999225	0.00000000	11.10974000	11.00517000
133.59999224	0.00000000	11.44193000	11.04823000
133.79999223	0.00000000	11.85408000	11.04823000
133.99999222	0.00000000	11.81717000	11.00517000
134.19999220	0.00000000	11.85408000	10.58686000
134.39999219	0.00000000	11.44193000	9.47342500
134.59999218	0.00000000	11.06668000	8.35998900
134.79999217	0.00000000	10.73450000	7.93553100
134.99999216	0.00000000	10.69759000	7.89247000
135.19999214	0.00000000	11.47884000	7.89247000
135.39999213	0.00000000	11.81717000	7.93553100
135.59999212	0.00000000	12.27239000	8.31077700
135.79999211	0.00000000	12.55536000	9.09817800
135.99999210	0.00000000	12.22933000	9.84867000
136.19999208	0.00000000	11.48499000	10.62992000
136.39999207	0.00000000	11.06668000	11.00517000
136.59999206	0.00000000	10.64838000	11.00517000
136.79999205	0.00000000	9.95324800	10.62992000
136.99999204	0.00000000	9.95324800	9.89173200
137.19999203	0.00000000	10.64838000	9.47342500
137.39999201	0.00000000	11.06668000	9.05511800
137.59999200	0.00000000	11.48499000	8.31077700
137.79999199	0.00000000	12.22933000	7.93553100
137.99999198	0.00000000	12.60458000	7.89247000
138.19999197	0.00000000	12.64764000	7.89247000
138.39999195	0.00000000	12.60458000	7.89247000
138.59999194	0.00000000	12.22933000	7.93553100
138.79999193	0.00000000	11.44193000	8.31077700
138.99999192	0.00000000	10.69144000	9.09817800
139.19999191	0.00000000	9.90403500	9.84867000
139.39999189	0.00000000	9.57800100	10.62992000
139.59999188	0.00000000	9.90403500	11.00517000
139.79999187	0.00000000	10.69144000	11.04823000
139.99999186	0.00000000	11.44193000	11.00517000
140.19999185	0.00000000	12.22933000	10.62992000
140.39999184	0.00000000	12.60458000	9.84867000
140.59999182	0.00000000	12.64764000	9.09817800
140.79999181	0.00000000	12.60458000	8.31077700
140.99999180	0.00000000	12.22933000	7.93553100
141.19999179	0.00000000	11.48499000	7.89247000
141.39999178	0.00000000	11.10974000	7.93553100
141.59999176	0.00000000	11.06668000	8.31077700
141.79999175	0.00000000	11.06668000	9.09817800
141.99999174	0.00000000	11.06668000	9.84867000
142.19999173	0.00000000	11.10974000	10.62992000
142.39999172	0.00000000	11.48499000	11.00517000
142.59999170	0.00000000	12.22933000	11.04823000
142.79999169	0.00000000	12.60458000	11.00517000
142.99999168	0.00000000	12.60458000	10.58686000
143.19999167	0.00000000	12.22933000	9.47342500
143.39999166	0.00000000	11.48499000	8.31077700
143.59999165	0.00000000	11.10974000	7.56028500
143.79999163	0.00000000	11.06668000	7.14812900
143.99999162	0.00000000	11.06668000	7.56028500
144.19999161	0.00000000	11.10974000	8.26771600
144.39999160	0.00000000	11.48499000	9.09817800
144.59999159	0.00000000	12.22933000	9.84867000
144.79999157	0.00000000	12.60458000	10.62992000
144.99999156	0.00000000	12.64764000	11.00517000
145.19999155	0.00000000	12.60458000	11.04823000
145.39999154	0.00000000	12.22933000	11.00517000
145.59999153	0.00000000	11.48499000	10.62992000
145.79999151	0.00000000	11.10974000	9.89173200
145.99999150	0.00000000	11.06668000	9.47342500
146.19999149	0.00000000	11.06668000	9.05511800
146.39999148	0.00000000	11.06668000	8.35998900
146.59999147	0.00000000	11.10974000	8.35998900
146.79999146	0.00000000	11.48499000	9.05511800
146.99999144	0.00000000	12.22933000	9.43036400
147.19999143	0.00000000	12.60458000	9.47342500
147.39999142	0.00000000	12.64764000	9.47342500
147.59999141	0.00000000	12.60458000	9.47342500
147.79999140	0.00000000	12.22933000	9.47342500
147.99999138	0.00000000	11.48499000	9.47342500
148.19999137	0.00000000	11.10974000	9.47342500
148.39999136	0.00000000	11.06668000	9.47342500
148.59999135	0.00000000	11.06668000	9.47342500
148.79999134	0.00000000	11.10974000	9.47342500
148.99999132	0.00000000	11.48499000	9.47342500
149.19999131	0.00000000	12.22933000	9.47342500
149.39999130	0.00000000	12.60458000	9.47342500
149.59999129	0.00000000	12.64764000	9.47342500
149.79999128	0.00000000	12.64764000	9.47342500
149.99999127	0.00000000	12.64764000	9.47342500
150.19999125	0.00000000	12.60458000	9.47342500
150.39999124	0.00000000	12.22933000	9.47342500
150.59999123	0.00000000	11.48499000	9.47342500
150.79999122	0.00000000	11.10974000	9.51648500
150.99999121	0.00000000	11.06668000	9.89173200
151.19999119	0.00000000	11.06668000	10.58686000
151.39999118	0.00000000	11.06668000	10.58686000
151.59999117	0.00000000	11.06668000	9.89173200
151.79999116	0.00000000	11.10974000	9.51648500
151.99999115	0.00000000	11.48499000	9.47342500
152.19999113	0.00000000	12.22933000	9.47342500
152.39999112	0.00000000	12.60458000	9.47342500
152.59999111	0.00000000	12.64764000	9.47342500
152.79999110	0.00000000	12.64764000	9.47342500
152.99999109	0.00000000	12.64764000	9.47342500
153.19999108	0.00000000	12.60458000	9.47342500
153.39999106	0.00000000	12.22933000	9.47342500
153.59999105	0.00000000	11.48499000	9.47342500
153.79999104	0.00000000	11.10974000	9.47342500
153.99999103	0.00000000	11.06668000	9.47342500
154.19999102	0.00000000	11.06668000	9.47342500
154.39999100	0.00000000	11.06668000	9.47342500
154.59999099	0.00000000	11.06668000	9.47342500
154.79999098	0.00000000	11.06668000	9.47342500
154.99999097	0.00000000	11.10974000	9.47342500
155.19999096	0.00000000	11.48499000	9.47342500
155.39999094	0.00000000	12.22933000	9.47342500
155.59999093	0.00000000	12.60458000	9.47342500
155.79999092	0.00000000	12.64764000	9.47342500
155.99999091	0.00000000	12.60458000	9.47342500
156.19999090	0.00000000	12.22933000	9.47342500
156.39999089	0.00000000	11.48499000	9.51648500
156.59999087	0.00000000	11.10974000	9.89173200
156.79999086	0.00000000	11.06668000	10.62992000
156.99999085	0.00000000	11.06668000	11.00517000
157.19999084	0.00000000	11.06668000	11.04823000
157.39999083	0.00000000	11.06668000	11.04823000
157.59999081	0.00000000	11.06668000	11.04823000
157.79999080	0.00000000	11.06668000	11.00517000
157.99999079	0.00000000	11.06668000	10.62992000
158.19999078	0.00000000	11.06668000	9.84867000
158.39999077	0.00000000	11.10974000	9.09817800
158.59999075	0.00000000	11.48499000	8.31077700
158.79999074	0.00000000	12.22933000	7.98474400
158.99999073	0.00000000	12.60458000	8.31077700
159.19999072	0.00000000	12.60458000	9.05511800
159.39999071	0.00000000	12.22933000	9.47342500
159.59999070	0.00000000	11.48499000	9.89173200
159.79999068	0.00000000	11.10974000	10.62992000
159.99999067	0.00000000	11.06668000	11.00517000
160.19999066	0.00000000	11.06668000	11.00517000
160.39999065	0.00000000	11.06668000	10.67298000
160.59999064	0.00000000	11.06668000	10.26698000
160.79999062	0.00000000	11.06668000	10.25467000
160.99999061	0.00000000	11.06668000	9.84867000
161.19999060	0.00000000	11.06668000	9.51648500
161.39999059	0.00000000	11.10974000	9.47342500
161.59999058	0.00000000	11.48499000	9.47342500
161.79999056	0.00000000	12.22933000	9.47342500
161.99999055	0.00000000	12.60458000	9.47342500
162.19999054	0.00000000	12.64764000	9.47342500
162.39999053	0.00000000	12.64764000	9.51648500
162.59999052	0.00000000	12.64764000	9.89173200
162.79999051	0.00000000	12.60458000	10.58686000
162.99999049	0.00000000	12.22933000	10.58686000
163.19999048	0.00000000	11.48499000	9.89173200
163.39999047	0.00000000	11.10974000	9.51648500
163.59999046	0.00000000	11.06668000	9.51648500
163.79999045	0.00000000	11.06668000	9.84867000
163.99999043	0.00000000	11.06668000	10.21161000
164.19999042	0.00000000	11.06668000	9.84867000
164.39999041	0.00000000	11.06668000	9.51648500
164.59999040	0.00000000	11.10974000	9.47342500
164.79999039	0.00000000	11.48499000	9.47342500
164.99999037	0.00000000	12.22933000	9.47342500
165.19999036	0.00000000	12.60458000	9.47342500
165.39999035	0.00000000	12.64764000	9.47342500
165.59999034	0.00000000	12.64764000	9.47342500
165.79999033	0.00000000	12.60458000	9.47342500
165.99999032	0.00000000	12.22933000	9.47342500
166.19999030	0.00000000	11.48499000	9.47342500
166.39999029	0.00000000	11.10974000	9.47342500
166.59999028	0.00000000	11.06668000	9.47342500
166.79999027	0.00000000	11.06668000	9.47342500
166.99999026	0.00000000	11.06668000	9.47342500
167.19999024	0.00000000	11.06668000	9.47342500
167.39999023	0.00000000	11.10974000	9.47342500
167.59999022	0.00000000	11.48499000	9.47342500
167.79999021	0.00000000	12.22933000	9.47342500
167.99999020	0.00000000	12.60458000	9.47342500
168.19999018	0.00000000	12.64764000	9.47342500
168.39999017	0.00000000	12.64764000	9.47342500
168.59999016	0.00000000	12.64764000	9.47342500
168.79999015	0.00000000	12.60458000	9.47342500
168.99999014	0.00000000	12.22933000	9.47342500
169.19999013	0.00000000	11.48499000	9.47342500
169.39999011	0.00000000	11.10974000	9.47342500
169.59999010	0.00000000	11.06668000	9.47342500
169.79999009	0.00000000	11.06668000	9.47342500
169.99999008	0.00000000	11.06668000	9.47342500
170.19999007	0.00000000	11.06668000	9.47342500
170.39999005	0.00000000	11.10974000	9.47342500
170.59999004	0.00000000	11.48499000	9.47342500
170.79999003	0.00000000	12.18012000	9.47342500
170.99999002	0.00000000	12.22933000	9.47342500
171.19999001	0.00000000	11.90330000	9.47342500
171.39998999	0.00000000	12.27239000	9.47342500
171.59998998	0.00000000	12.60458000	9.47342500
171.79998997	0.00000000	12.64764000	9.47342500
171.99998996	0.00000000	12.64764000	9.51648500
172.19998995	0.00000000	12.60458000	9.84867000
172.39998994	0.00000000	12.27239000	10.21161000
172.59998992	0.00000000	11.90330000	9.89173200
172.79998991	0.00000000	12.22933000	9.93479300
172.99998990	0.00000000	12.22933000	10.62992000
173.19998989	0.00000000	11.90330000	10.95595000
173.39998988	0.00000000	12.27239000	10.67298000
173.59998986	0.00000000	12.60458000	10.31004000
173.79998985	0.00000000	12.64764000	10.67298000
173.99998984	0.00000000	12.64764000	11.00517000
174.19998983	0.00000000	12.64764000	11.00517000
174.39998982	0.00000000	12.64764000	10.62992000
174.59998980	0.00000000	12.64764000	9.89173200
174.79998979	0.00000000	12.64764000	9.51648500
174.99998978	0.00000000	12.64764000	9.47342500
175.19998977	0.00000000	12.64764000	9.47342500
175.39998976	0.00000000	12.64764000	9.51648500
175.59998975	0.00000000	12.64764000	9.89173200
175.79998973	0.00000000	12.64764000	10.62992000
175.99998972	0.00000000	12.64764000	11.00517000
176.19998971	0.00000000	12.64764000	11.04823000
176.39998970	0.00000000	12.64764000	11.04823000
176.59998969	0.00000000	12.64764000	11.04823000
176.79998967	0.00000000	12.64764000	11.04823000
176.99998966	0.00000000	12.64764000	11.00517000
177.19998965	0.00000000	12.64764000	10.62992000
177.39998964	0.00000000	12.64764000	9.89173200
177.59998963	0.00000000	12.64764000	9.51648500
177.79998961	0.00000000	12.60458000	9.47342500
177.99998960	0.00000000	12.22933000	9.47342500
178.19998959	0.00000000	11.53420000	9.51648500
178.39998958	0.00000000	11.53420000	9.89173200
178.59998957	0.00000000	12.22933000	10.62992000
178.79998956	0.00000000	12.60458000	11.00517000
178.99998954	0.00000000	12.64764000	11.04823000
179.19998953	0.00000000	12.64764000	11.04823000
179.39998952	0.00000000	12.64764000	11.00517000
179.59998951	0.00000000	12.64764000	10.67298000
179.79998950	0.00000000	12.64764000	10.26698000
179.99998948	0.00000000	12.64764000	10.25467000
180.19998947	0.00000000	12.64764000	9.84867000
180.39998946	0.00000000	12.64764000	9.51648500
180.59998945	0.00000000	12.64764000	9.47342500
180.79998944	0.00000000	12.64764000	9.47342500
180.99998942	0.00000000	12.64764000	9.47342500
181.19998941	0.00000000	12.64764000	9.51648500
181.39998940	0.00000000	12.64764000	9.89173200
181.59998939	0.00000000	12.64764000	10.62992000
181.79998938	0.00000000	12.64764000	11.00517000
181.99998937	0.00000000	12.64764000	11.04823000
182.19998935	0.00000000	12.64764000	11.04823000
182.39998934	0.00000000	12.64764000	11.04823000
182.59998933	0.00000000	12.64764000	11.00517000
182.79998932	0.00000000	12.64764000	10.62992000
182.99998931	0.00000000	12.64764000	9.89173200
183.19998929	0.00000000	12.64764000	9.51648500
183.39998928	0.00000000	12.64764000	9.47342500
183.59998927	0.00000000	12.64764000	9.47342500
183.79998926	0.00000000	12.64764000	9.47342500
183.99998925	0.00000000	12.64764000	9.51648500
184.19998923	0.00000000	12.64764000	9.89173200
184.39998922	0.00000000	12.64764000	10.62992000
184.59998921	0.00000000	12.64764000	11.00517000
184.79998920	0.00000000	12.64764000	11.04823000
184.99998919	0.00000000	12.64764000	11.04823000
185.19998918	0.00000000	12.64764000	11.04823000
185.39998916	0.00000000	12.64764000	11.04823000
185.59998915	0.00000000	12.64764000	11.04823000
185.79998914	0.00000000	12.64764000	11.00517000
185.99998913	0.00000000	12.64764000	10.62992000
186.19998912	0.00000000	12.64764000	9.89173200
186.39998910	0.00000000	12.64764000	9.51648500
186.59998909	0.00000000	12.64764000	9.47342500
186.79998908	0.00000000	12.64764000	9.51648500
186.99998907	0.00000000	12.64764000	9.89173200
187.19998906	0.00000000	12.64764000	10.62992000
187.39998904	0.00000000	12.64764000	11.00517000
187.59998903	0.00000000	12.64764000	11.09129000
187.79998902	0.00000000	12.64764000	11.42347000
187.99998901	0.00000000	12.64764000	11.79257000
188.19998900	0.00000000	12.64764000	11.42347000
188.39998899	0.00000000	12.64764000	11.09129000
188.59998897	0.00000000	12.69070000	11.04823000
188.79998896	0.00000000	13.06594000	11.04823000
188.99998895	0.00000000	13.76107000	11.00517000
189.19998894	0.00000000	13.81028000	10.67298000
189.39998893	0.00000000	13.48425000	10.26698000
189.59998891	0.00000000	13.85334000	10.30389000
189.79998890	0.00000000	14.13632000	10.26698000
189.99998889	0.00000000	13.85334000	10.67298000
190.19998888	0.00000000	13.48425000	11.00517000
190.39998887	0.00000000	13.81028000	11.04823000
190.59998885	0.00000000	13.76107000	11.04823000
190.79998884	0.00000000	13.06594000	11.04823000
190.99998883	0.00000000	12.73991000	11.04823000
191.19998882	0.00000000	13.06594000	11.04823000
191.39998881	0.00000000	13.76107000	11.04823000
191.59998880	0.00000000	13.81028000	11.04823000
191.79998878	0.00000000	13.48425000	11.04823000
191.99998877	0.00000000	13.85334000	11.04823000
192.19998876	0.00000000	14.13632000	11.04823000
192.39998875	0.00000000	13.81028000	11.00517000
192.59998874	0.00000000	13.06594000	10.67298000
192.79998872	0.00000000	12.69070000	10.31004000
192.99998871	0.00000000	12.64764000	10.67298000
193.19998870	0.00000000	12.64764000	11.00517000
193.39998869	0.00000000	12.64764000	11.04823000
193.59998868	0.00000000	12.64764000	11.04823000
193.79998866	0.00000000	12.64764000	11.04823000
193.99998865	0.00000000	12.64764000	11.04823000
194.19998864	0.00000000	12.69070000	11.04823000
194.39998863	0.00000000	13.06594000	11.04823000
194.59998862	0.00000000	13.81028000	11.04823000
194.79998861	0.00000000	14.18553000	11.04823000
194.99998859	0.00000000	14.18553000	11.04823000
195.19998858	0.00000000	13.81028000	11.04823000
195.39998857	0.00000000	13.06594000	11.04823000
195.59998856	0.00000000	12.69070000	11.00517000
195.79998855	0.00000000	12.64764000	10.62992000
195.99998853	0.00000000	12.64764000	9.93479300
