Time	Channel A	Channel B	Channel C
(us)	(V)	(mV)	(mV)

-4.59999956	0.00000000	20.50935000	0.00000000
-4.39999957	0.00000000	20.17716000	0.00000000
-4.19999958	0.00000000	19.80807000	0.00000000
-3.99999959	0.00000000	20.17716000	0.00000000
-3.79999960	0.00000000	20.50935000	0.00000000
-3.59999962	0.00000000	20.55241000	0.00000000
-3.39999963	0.00000000	20.55241000	0.00000000
-3.19999964	0.00000000	20.55241000	0.00000000
-2.99999965	0.00000000	20.55241000	0.00000000
-2.79999966	0.00000000	20.55241000	0.00000000
-2.59999968	0.00000000	20.55241000	0.00000000
-2.39999969	0.00000000	20.55241000	0.00000000
-2.19999970	0.00000000	20.55241000	0.00000000
-1.99999971	0.00000000	20.50935000	0.00000000
-1.79999972	0.00000000	20.17716000	0.00000000
-1.59999973	0.00000000	19.80807000	0.00000000
-1.39999975	0.00000000	20.17716000	0.00000000
-1.19999976	0.00000000	20.46014000	0.00000000
-0.99999977	0.00000000	20.17716000	0.00000000
-0.79999978	0.00000000	19.80807000	0.00000000
-0.59999979	0.00000000	20.17716000	0.00000000
-0.39999981	0.00000000	20.50935000	0.00000000
-0.19999982	0.47736220	20.55241000	0.00000000
0.00000017	0.79601380	20.55241000	0.00000000
0.20000016	0.95533960	20.55241000	0.00000000
0.40000015	0.95533960	20.55241000	0.00000000
0.60000013	0.79601380	20.55241000	0.00000000
0.80000012	0.15871060	20.55241000	0.00000000
1.00000011	-0.79601380	20.55241000	0.00000000
1.20000010	-1.75196900	20.50935000	0.00000000
1.40000009	-2.54859700	20.17716000	0.00000000
1.60000008	-2.70792300	19.80807000	0.00000000
1.80000006	-2.22994600	20.17716000	0.00000000
2.00000005	-0.79601380	20.50935000	0.00000000
2.20000004	1.27399100	20.55241000	0.00000000
2.40000003	3.34522600	20.50935000	0.00000000
2.60000002	4.93786900	20.13410000	0.00000000
2.80000000	5.41584600	19.38976000	0.00000000
2.99999999	4.45989200	19.06373000	0.00000000
3.19999998	2.07062000	19.34670000	0.00000000
3.39999997	-1.27399100	19.75886000	0.00000000
3.59999996	-4.45989200	19.76501000	0.00000000
3.79999994	-7.16781500	20.17716000	0.00000000
3.99999993	-7.96444400	20.50935000	0.04306102
4.19999992	-6.84916400	20.55241000	0.41830710
4.39999991	-3.82258900	20.55241000	1.11343500
4.59999990	0.31803640	20.55241000	1.11343500
4.79999989	4.77854300	20.55241000	0.41830710
4.99999987	7.96444400	20.55241000	0.04306102
5.19999986	9.55770200	20.50935000	-0.04306102
5.39999985	8.44242100	20.13410000	-0.41830710
5.59999984	5.41584600	19.38976000	-1.11343500
5.79999983	0.95533960	19.01451000	-1.15649600
5.99999981	-3.82258900	19.01451000	-0.79355310
6.19999980	-7.64579200	19.38976000	-0.78124990
6.39999979	-9.39837600	20.13410000	-0.37524600
6.59999978	-8.76107300	20.50935000	0.00000000
6.79999977	-6.05315000	20.55241000	0.37524600
6.99999975	-2.07062000	20.50935000	0.73818890
7.19999974	2.38927200	20.17716000	0.37524600
7.39999973	5.89382400	19.76501000	0.04306102
7.59999972	7.64579200	19.80192000	0.00000000
7.79999971	7.48646600	19.76501000	0.00000000
7.99999970	5.57517200	20.13410000	0.00000000
8.19999968	2.38927200	20.13410000	0.00000000
8.39999967	-0.95533960	19.76501000	0.00000000
8.59999966	-3.50393700	19.80192000	0.00000000
8.79999965	-4.93786900	19.72195000	0.00000000
8.99999964	-5.09719500	19.80192000	0.00000000
9.19999962	-3.82258900	19.76501000	0.00000000
9.39999961	-2.07062000	20.17716000	0.00000000
9.59999960	0.00000000	20.46014000	0.00000000
9.79999959	1.59264300	20.17716000	0.00000000
9.99999958	2.38927200	19.76501000	0.00000000
10.19999956	2.54859700	19.80192000	0.00000000
10.39999955	1.91129400	19.72195000	0.00000000
10.59999954	1.11466500	19.80192000	0.00000000
10.79999953	0.31803640	19.72195000	0.00000000
10.99999952	-0.47736220	19.75886000	0.00000000
11.19999951	-0.79601380	19.34670000	0.00000000
11.39999949	-0.95533960	19.06373000	0.04306102
11.59999948	-0.79601380	19.38976000	0.37524600
11.79999947	-0.63668800	20.13410000	0.73818890
11.99999946	-0.31803640	20.50935000	0.37524600
12.19999945	-0.15871060	20.55241000	0.04306102
12.39999943	-0.15871060	20.55241000	0.00000000
12.59999942	0.00000000	20.50935000	0.00000000
12.79999941	0.00000000	20.17716000	0.00000000
12.99999940	0.00000000	19.76501000	0.00000000
13.19999939	0.15871060	19.80192000	0.00000000
13.39999937	0.00000000	19.72195000	0.00000000
13.59999936	0.00000000	19.80192000	0.00000000
13.79999935	0.00000000	19.72195000	0.00000000
13.99999934	0.00000000	19.80192000	0.00000000
14.19999933	-0.15871060	19.76501000	0.00000000
14.39999932	-0.15871060	20.17716000	0.00000000
14.59999930	0.00000000	20.46014000	0.00000000
14.79999929	0.00000000	20.13410000	0.00000000
14.99999928	0.00000000	19.38976000	0.00000000
15.19999927	0.00000000	19.01451000	0.00000000
15.39999926	0.00000000	18.97145000	0.00000000
15.59999924	0.00000000	18.97145000	0.00000000
15.79999923	0.00000000	18.97145000	0.00000000
15.99999922	0.00000000	18.97145000	0.00000000
16.19999921	0.00000000	18.97145000	0.00000000
16.39999920	0.00000000	19.01451000	0.00000000
16.59999919	-0.15871060	19.38976000	0.00000000
16.79999917	0.00000000	20.13410000	0.00000000
16.99999916	0.00000000	20.55241000	0.00000000
17.19999915	0.00000000	20.97072000	0.00000000
17.39999914	0.00000000	21.71506000	0.00000000
17.59999913	0.00000000	22.04109000	0.00000000
17.79999911	0.00000000	21.71506000	0.00000000
17.99999910	0.00000000	20.92766000	0.00000000
18.19999909	0.00000000	20.13410000	0.00000000
18.39999908	0.00000000	18.92839000	0.00000000
18.59999907	0.00000000	17.39050000	0.00000000
18.79999905	0.00000000	15.85261000	0.00000000
18.99999904	0.00000000	14.73917000	0.00000000
19.19999903	0.00000000	14.78223000	0.00000000
19.39999902	0.00000000	16.36319000	0.00000000
19.59999901	0.00000000	19.43897000	0.00000000
19.79999900	0.00000000	23.29601000	0.00000000
19.99999898	0.00000000	26.78395000	0.00000000
20.19999897	0.00000000	29.52756000	0.00000000
20.39999896	0.00000000	30.97318000	0.00000000
20.59999895	0.00000000	30.08735000	0.00000000
20.79999894	0.00000000	25.81201000	0.00000000
20.99999892	0.00000000	18.87918000	0.00000000
21.19999891	0.00000000	11.15896000	0.00000000
21.39999890	0.00000000	4.18307100	0.00000000
21.59999889	0.00000000	-0.38139760	0.00000000
21.79999888	0.00000000	-1.07652500	0.00000000
21.99999886	0.00000000	3.24188000	0.00000000
22.19999885	0.00000000	12.17397000	0.00000000
22.39999884	0.00000000	24.18184000	0.00000000
22.59999883	0.00000000	36.88484000	0.00000000
22.79999882	0.00000000	46.88730000	0.00000000
22.99999881	0.00000000	51.45177000	0.00000000
23.19999879	0.00000000	49.07726000	0.04306102
23.39999878	0.00000000	39.30856000	0.41830710
23.59999877	0.00000000	23.85581000	1.15649600
23.79999876	0.00000000	5.71481200	1.53174200
23.99999875	0.00000000	-10.42692000	1.57480300
24.19999873	0.00000000	-20.47859000	1.53174200
24.39999872	0.00000000	-21.96727000	1.15649600
24.59999871	0.00000000	-14.15477000	0.37524600
24.79999870	0.00000000	2.12844500	-0.46136810
24.99999869	0.00000000	23.71432000	-2.04232300
25.19999867	0.00000000	45.34940000	-4.26919300
25.39999866	0.00000000	61.92175000	-5.75787400
25.59999865	0.00000000	69.59277000	-5.75787400
25.79999864	0.00000000	65.64345000	-4.22613100
25.99999863	0.00000000	50.65821000	-1.48868100
26.19999862	0.00000000	28.23573000	1.99311000
26.39999860	0.00000000	3.89394600	5.89320800
26.59999859	0.00000000	-17.35974000	9.33809000
26.79999858	0.00000000	-30.43799000	11.56496000
26.99999857	0.00000000	-32.01895000	11.10359000
27.19999856	0.00000000	-22.01649000	7.24655500
27.39999854	0.00000000	-3.03272600	1.07037400
27.59999853	0.00000000	20.88459000	-6.31766700
27.79999852	0.00000000	44.42052000	-13.61343000
27.99999851	0.00000000	61.45423000	-19.00221000
28.19999850	0.00000000	68.89763000	-20.85999000
28.39999848	0.00000000	65.77879000	-18.49163000
28.59999847	0.00000000	52.65748000	-11.42962000
28.79999846	0.00000000	32.60334000	-0.64591530
28.99999845	0.00000000	10.59301000	11.70029000
29.19999844	0.00000000	-8.38459600	22.44094000
29.39999843	0.00000000	-20.38632000	29.02928000
29.59999841	0.00000000	-23.17298000	29.68750000
29.79999840	0.00000000	-16.70768000	23.87426000
29.99999839	0.00000000	-3.58636800	11.85408000
30.19999838	0.00000000	13.06594000	-3.53100400
30.39999837	0.00000000	30.13656000	-19.04527000
30.59999835	0.00000000	44.05143000	-31.31767000
30.79999834	0.00000000	52.23917000	-37.49385000
30.99999833	0.00000000	53.03272000	-35.50074000
31.19999832	0.00000000	46.93036000	-25.87352000
31.39999831	0.00000000	35.72219000	-10.36540000
31.59999829	0.00000000	22.18258000	7.75713500
31.79999828	0.00000000	8.96899500	24.76009000
31.99999827	0.00000000	-1.45177200	36.70644000
32.19999826	0.00000000	-6.88976300	40.97564000
32.39999825	0.00000000	-6.19463500	36.70644000
32.59999824	0.00000000	-0.42445860	24.71703000
32.79999822	0.00000000	8.87672100	7.33882900
32.99999821	0.00000000	20.08489000	-11.52190000
33.19999820	0.00000000	30.51181000	-27.41142000
33.39999819	0.00000000	37.86294000	-37.12475000
33.59999818	0.00000000	40.60654000	-39.44390000
33.79999816	0.00000000	38.33046000	-33.63681000
33.99999815	0.00000000	32.18504000	-20.90305000
34.19999814	0.00000000	23.71432000	-4.26919300
34.39999813	0.00000000	15.20054000	13.10285000
34.59999812	0.00000000	8.59375000	27.36835000
34.79999810	0.00000000	4.73671200	35.08243000
34.99999809	0.00000000	4.77977300	34.75024000
35.19999808	0.00000000	8.92593500	26.71629000
35.39999807	0.00000000	15.43430000	13.61343000
35.59999806	0.00000000	21.99803000	-1.48868100
35.79999805	0.00000000	27.39296000	-15.74803000
35.99999803	0.00000000	30.08735000	-25.78740000
36.19999802	0.00000000	29.34916000	-29.31840000
36.39999801	0.00000000	25.94734000	-26.20571000
36.59999800	0.00000000	20.92766000	-17.00295000
36.79999799	0.00000000	15.94488000	-3.94931100
36.99999797	0.00000000	12.08784000	8.69832600
37.19999796	0.00000000	10.54995000	18.02411000
37.39999795	0.00000000	11.66339000	21.84424000
37.59999794	0.00000000	14.73917000	19.60507000
37.79999793	0.00000000	18.97145000	11.94021000
37.99999791	0.00000000	23.20374000	1.62401600
38.19999790	0.00000000	26.32259000	-8.36614100
38.39999789	0.00000000	27.86048000	-15.28666000
38.59999788	0.00000000	27.48524000	-17.19365000
38.79999787	0.00000000	25.15994000	-13.74877000
38.99999786	0.00000000	21.71506000	-5.71481200
39.19999784	0.00000000	17.80881000	4.18307100
39.39999783	0.00000000	14.36393000	12.59227000
39.59999782	0.00000000	11.99557000	16.81841000
39.79999781	0.00000000	11.24508000	15.70497000
39.99999780	0.00000000	11.99557000	9.94094400
40.19999778	0.00000000	14.32087000	1.06422200
40.39999777	0.00000000	17.39050000	-8.87672100
40.59999776	0.00000000	20.55241000	-16.86762000
40.79999775	0.00000000	23.67126000	-19.93110000
40.99999774	0.00000000	26.32259000	-17.28592000
41.19999772	0.00000000	27.48524000	-9.99015700
41.39999771	0.00000000	26.78395000	0.00000000
41.59999770	0.00000000	25.25221000	9.99015700
41.79999769	0.00000000	23.24680000	17.28592000
41.99999768	0.00000000	20.50935000	20.02337000
42.19999767	0.00000000	17.43356000	17.70423000
42.39999765	0.00000000	14.73917000	11.18971000
42.59999764	0.00000000	13.15822000	1.95004900
42.79999763	0.00000000	12.73991000	-7.25270600
42.99999762	0.00000000	13.15822000	-14.21629000
43.19999761	0.00000000	14.69611000	-17.28592000
43.39999759	0.00000000	16.97219000	-15.84030000
43.59999758	0.00000000	18.92839000	-10.86983000
43.79999757	0.00000000	20.55241000	-4.31840500
43.99999756	0.00000000	22.09030000	2.64517700
44.19999755	0.00000000	23.24680000	8.40920300
44.39999753	0.00000000	23.67126000	11.52190000
44.59999752	0.00000000	23.71432000	11.56496000
44.79999751	0.00000000	23.71432000	8.91978400
44.99999750	0.00000000	23.67126000	4.69365100
45.19999749	0.00000000	23.24680000	0.09227362
45.39999748	0.00000000	22.04109000	-3.80782500
45.59999746	0.00000000	20.08489000	-6.13312000
45.79999745	0.00000000	17.34744000	-6.96358300
45.99999744	0.00000000	14.22859000	-6.22539300
46.19999743	0.00000000	11.15896000	-4.68750000
46.39999742	0.00000000	8.87672100	-2.69439000
46.59999740	0.00000000	8.55068800	0.00000000
46.79999739	0.00000000	10.50689000	2.64517700
46.99999738	0.00000000	14.82529000	4.22613100
47.19999737	0.00000000	20.97072000	4.64443900
47.39999736	0.00000000	27.52830000	4.22613100
47.59999734	0.00000000	32.56028000	2.69439000
47.79999733	0.00000000	35.25467000	0.37524600
47.99999732	0.00000000	34.79330000	-1.95004900
48.19999731	0.00000000	30.51181000	-4.26919300
48.39999730	0.00000000	23.16068000	-5.75787400
48.59999729	0.00000000	14.32087000	-5.75787400
48.79999727	0.00000000	6.22539300	-4.22613100
48.99999726	0.00000000	1.19955700	-1.53174200
49.19999725	0.00000000	0.03690945	1.53174200
49.39999724	0.00000000	3.19881900	4.26919300
49.59999723	0.00000000	10.50689000	6.17618100
49.79999721	0.00000000	20.13410000	6.92052100
49.99999720	0.00000000	29.39837000	5.75787400
50.19999719	0.00000000	36.33120000	3.06348400
50.39999718	0.00000000	39.02559000	-0.41830710
50.59999717	0.00000000	36.70644000	-4.26919300
50.79999715	0.00000000	30.17962000	-7.33882900
50.99999714	0.00000000	20.92766000	-8.87672100
51.19999713	0.00000000	11.75566000	-8.45226300
51.39999712	0.00000000	5.11195900	-5.75787400
51.59999711	0.00000000	2.40526600	-1.53174200
51.79999710	0.00000000	3.57406500	3.06963600
51.99999708	0.00000000	8.96899500	6.92052100
52.19999707	0.00000000	16.97219000	8.82750900
52.39999706	0.00000000	24.69857000	8.50147600
52.59999705	0.00000000	30.51181000	6.17618100
52.79999704	0.00000000	33.16314000	2.73745100
52.99999702	0.00000000	31.67446000	-1.15649600
53.19999701	0.00000000	26.69783000	-4.60137700
53.39999700	0.00000000	20.17716000	-6.92052100
53.59999699	0.00000000	13.61959000	-7.29576700
53.79999698	0.00000000	9.06126900	-5.80093500
53.99999696	0.00000000	7.85556000	-3.11269700
54.19999695	0.00000000	10.13164000	-0.04306102
54.39999694	0.00000000	14.73917000	2.60211600
54.59999693	0.00000000	20.46014000	3.76476400
54.79999692	0.00000000	25.47982000	3.02042300
54.99999691	0.00000000	28.18651000	1.15649600
55.19999689	0.00000000	28.59867000	-1.11343500
55.39999688	0.00000000	26.27953000	-2.64517700
55.59999687	0.00000000	22.09030000	-3.02042300
55.79999686	0.00000000	17.43356000	-2.22687000
55.99999685	0.00000000	13.24434000	0.04306102
56.19999683	0.00000000	10.92520000	2.69439000
56.39999682	0.00000000	11.29429000	4.60137700
56.59999681	0.00000000	13.57652000	5.33956700
56.79999680	0.00000000	17.43356000	4.13385800
56.99999679	0.00000000	21.62278000	1.07037400
57.19999677	0.00000000	24.74163000	-3.15575800
57.39999676	0.00000000	26.27953000	-7.33882900
57.59999675	0.00000000	25.90428000	-9.98400600
57.79999674	0.00000000	23.62205000	-9.98400600
57.99999673	0.00000000	20.59547000	-7.24655500
58.19999672	0.00000000	17.85802000	-2.27608300
58.39999670	0.00000000	15.90182000	3.90009800
58.59999669	0.00000000	14.73917000	9.25196800
58.79999668	0.00000000	14.78223000	12.72761000
58.99999667	0.00000000	16.22785000	13.05364000
59.19999666	0.00000000	18.13484000	9.99015700
59.39999664	0.00000000	19.34670000	4.18307100
59.59999663	0.00000000	20.50935000	-3.11269700
59.79999662	0.00000000	21.20448000	-10.03322000
59.99999661	0.00000000	20.50935000	-14.63459000
60.19999660	0.00000000	19.38976000	-15.79109000
60.39999658	0.00000000	18.59621000	-13.05364000
60.59999657	0.00000000	17.80881000	-6.92052100
60.79999656	0.00000000	17.48277000	1.20570900
60.99999655	0.00000000	17.85802000	9.24581600
61.19999654	0.00000000	19.01451000	15.37894000
61.39999653	0.00000000	20.50935000	17.28592000
61.59999651	0.00000000	21.66585000	14.63459000
61.79999650	0.00000000	22.04109000	8.45226300
61.99999649	0.00000000	21.62278000	0.00000000
62.19999648	0.00000000	20.08489000	-8.45226300
62.39999647	0.00000000	17.80881000	-14.63459000
62.59999645	0.00000000	15.85261000	-17.37205000
62.79999644	0.00000000	14.32087000	-16.21555000
62.99999643	0.00000000	13.61959000	-11.56496000
63.19999642	0.00000000	14.73917000	-4.26919300
63.39999641	0.00000000	17.01525000	3.80782500
63.59999639	0.00000000	19.38976000	10.35925000
63.79999638	0.00000000	22.09030000	14.25935000
63.99999637	0.00000000	24.36639000	14.67766000
64.19999636	0.00000000	25.11688000	11.98327000
64.39999635	0.00000000	24.36639000	6.96358300
64.59999634	0.00000000	22.04109000	0.41830710
64.79999632	0.00000000	19.01451000	-5.75787400
64.99999631	0.00000000	16.27707000	-10.40846000
65.19999630	0.00000000	14.36393000	-12.77067000
65.39999629	0.00000000	13.57652000	-12.40157000
65.59999628	0.00000000	14.36393000	-10.07628000
65.79999626	0.00000000	16.22785000	-5.85014700
65.99999625	0.00000000	18.59621000	-0.87967510
66.19999624	0.00000000	20.88459000	3.06348400
66.39999623	0.00000000	22.78543000	6.22539300
66.59999622	0.00000000	23.16068000	8.50147600
66.79999620	0.00000000	22.04109000	8.91978400
66.99999619	0.00000000	20.13410000	7.80019600
67.19999618	0.00000000	17.80881000	5.85014700
67.39999617	0.00000000	15.94488000	3.11269700
67.59999616	0.00000000	15.15748000	0.00000000
67.79999615	0.00000000	15.94488000	-3.11269700
67.99999613	0.00000000	17.85802000	-5.89320800
68.19999612	0.00000000	20.55241000	-8.21850300
68.39999611	0.00000000	23.20374000	-10.11934000
68.59999610	0.00000000	24.69857000	-10.45152000
68.79999609	0.00000000	24.27411000	-8.91978400
68.99999607	0.00000000	21.62278000	-5.75787400
69.19999606	0.00000000	17.76575000	-1.15649600
69.39999605	0.00000000	13.94562000	3.85703700
69.59999604	0.00000000	10.83292000	7.75713500
69.79999603	0.00000000	9.71333600	10.45152000
69.99999601	0.00000000	10.50689000	11.14665000
70.19999600	0.00000000	13.61959000	8.87672100
70.39999599	0.00000000	18.59621000	4.64443900
70.59999598	0.00000000	23.62205000	-0.37524600
70.79999597	0.00000000	27.90354000	-5.43184000
70.99999596	0.00000000	30.55487000	-9.24581600
71.19999594	0.00000000	30.51181000	-11.23893000
71.39999593	0.00000000	27.39296000	-10.82677000
71.59999592	0.00000000	21.66585000	-8.50147600
71.79999591	0.00000000	15.15748000	-4.22613100
71.99999590	0.00000000	10.08243000	1.06422200
72.19999588	0.00000000	6.92052100	5.29650500
72.39999587	0.00000000	5.85014700	7.29576700
72.59999586	0.00000000	7.80634800	7.33882900
72.79999585	0.00000000	12.78297000	5.80093500
72.99999584	0.00000000	18.92839000	3.11269700
73.19999582	0.00000000	24.74163000	0.09227362
73.39999581	0.00000000	29.01698000	-2.22687000
73.59999580	0.00000000	30.93012000	-3.02042300
73.79999579	0.00000000	30.17962000	-2.68823800
73.99999578	0.00000000	26.69783000	-1.57480300
74.19999577	0.00000000	21.75812000	-0.41830710
74.39999575	0.00000000	16.69537000	0.32603340
74.59999574	0.00000000	12.82603000	0.64591530
74.79999573	0.00000000	10.45768000	-0.46751960
74.99999572	0.00000000	10.08243000	-2.31914400
75.19999571	0.00000000	11.57726000	-3.48794300
75.39999569	0.00000000	14.32087000	-4.26919300
75.59999568	0.00000000	17.76575000	-4.18307100
75.79999567	0.00000000	21.20448000	-2.64517700
75.99999566	0.00000000	23.16068000	0.09227362
76.19999565	0.00000000	23.62205000	3.53100400
76.39999563	0.00000000	23.24680000	6.96358300
76.59999562	0.00000000	22.09030000	8.82750900
76.79999561	0.00000000	20.59547000	8.45226300
76.99999560	0.00000000	19.38976000	5.71481200
77.19999559	0.00000000	18.59621000	1.11343500
77.39999558	0.00000000	17.85802000	-4.27534400
77.59999556	0.00000000	17.85802000	-8.91978400
77.79999555	0.00000000	18.50394000	-11.98942000
77.99999554	0.00000000	18.50394000	-12.72761000
78.19999553	0.00000000	17.76575000	-10.40846000
78.39999552	0.00000000	17.01525000	-5.80093500
78.59999550	0.00000000	16.22785000	0.00000000
78.79999549	0.00000000	15.90182000	5.80093500
78.99999548	0.00000000	16.27707000	10.40846000
79.19999547	0.00000000	17.48277000	12.72761000
79.39999546	0.00000000	19.38976000	11.94021000
79.59999544	0.00000000	21.66585000	8.50147600
79.79999543	0.00000000	23.20374000	3.11269700
79.99999542	0.00000000	23.62205000	-2.64517700
80.19999541	0.00000000	23.24680000	-7.33882900
80.39999540	0.00000000	22.04109000	-10.45152000
80.59999539	0.00000000	20.08489000	-11.60802000
80.79999537	0.00000000	17.39050000	-10.49459000
80.99999536	0.00000000	14.73917000	-7.80019600
81.19999535	0.00000000	13.20128000	-4.26919300
81.39999534	0.00000000	13.20128000	0.00000000
81.59999533	0.00000000	14.73917000	4.22613100
81.79999531	0.00000000	17.39050000	7.33882900
81.99999530	0.00000000	20.08489000	8.91978400
82.19999529	0.00000000	22.04109000	8.91978400
82.39999528	0.00000000	23.24680000	7.38188900
82.59999527	0.00000000	23.57899000	4.68750000
82.79999525	0.00000000	22.82849000	1.58095500
82.99999524	0.00000000	20.92766000	-1.58095500
83.19999523	0.00000000	19.01451000	-4.68750000
83.39999522	0.00000000	17.43356000	-7.38188900
83.59999521	0.00000000	16.27707000	-8.91978400
83.79999520	0.00000000	15.90182000	-8.91978400
83.99999518	0.00000000	16.22785000	-7.33882900
84.19999517	0.00000000	16.97219000	-4.22613100
84.39999516	0.00000000	17.39050000	0.00000000
84.59999515	0.00000000	17.80881000	4.22613100
84.79999514	0.00000000	18.55315000	7.33882900
84.99999512	0.00000000	18.92839000	8.91978400
85.19999511	0.00000000	18.97145000	8.91978400
85.39999510	0.00000000	18.97145000	7.33882900
85.59999509	0.00000000	19.01451000	4.18307100
85.79999508	0.00000000	19.38976000	-0.41830710
85.99999506	0.00000000	20.13410000	-5.38262700
86.19999505	0.00000000	20.50935000	-8.87057000
86.39999504	0.00000000	20.50935000	-10.45152000
86.59999503	0.00000000	20.08489000	-10.07628000
86.79999502	0.00000000	18.92839000	-7.71407400
86.99999501	0.00000000	17.39050000	-3.85703700
87.19999499	0.00000000	15.85261000	1.15649600
87.39999498	0.00000000	14.73917000	5.71481200
87.59999497	0.00000000	14.73917000	8.45226300
87.79999496	0.00000000	15.85261000	8.87672100
87.99999495	0.00000000	17.43356000	7.33882900
88.19999493	0.00000000	19.34670000	4.22613100
88.39999492	0.00000000	21.24754000	-0.04306102
88.59999491	0.00000000	22.04109000	-4.60137700
88.79999490	0.00000000	22.09030000	-8.08316900
88.99999489	0.00000000	21.66585000	-9.20275500
89.19999487	0.00000000	20.46014000	-8.08316900
89.39999486	0.00000000	18.59621000	-4.60137700
89.59999485	0.00000000	16.69537000	-0.04306102
89.79999484	0.00000000	15.90182000	4.18307100
89.99999483	0.00000000	15.80955000	6.87746000
90.19999482	0.00000000	15.90182000	7.29576700
90.39999480	0.00000000	16.64616000	5.75787400
90.59999479	0.00000000	18.17790000	2.64517700
90.79999478	0.00000000	19.30364000	-1.57480300
90.99999477	0.00000000	20.13410000	-5.75787400
91.19999476	0.00000000	20.50935000	-8.45226300
91.39999474	0.00000000	20.50935000	-8.82750900
91.59999473	0.00000000	20.13410000	-6.92052100
91.79999472	0.00000000	19.38976000	-3.06963600
91.99999471	0.00000000	19.01451000	1.48868100
92.19999470	0.00000000	18.97145000	5.33956700
92.39999468	0.00000000	18.97145000	7.24655500
92.59999467	0.00000000	18.92839000	6.92052100
92.79999466	0.00000000	18.55315000	4.55831700
92.99999465	0.00000000	17.76575000	0.73818890
93.19999464	0.00000000	17.01525000	-3.85703700
93.39999463	0.00000000	16.22785000	-7.29576700
93.59999461	0.00000000	15.90182000	-8.87672100
93.79999460	0.00000000	16.22785000	-8.45226300
93.99999459	0.00000000	17.05832000	-5.75787400
94.19999458	0.00000000	18.22711000	-1.53174200
94.39999457	0.00000000	20.17716000	3.02042300
94.59999455	0.00000000	22.04109000	6.45300100
94.79999454	0.00000000	23.24680000	7.24655500
94.99999453	0.00000000	23.62205000	5.80093500
95.19999452	0.00000000	23.20374000	3.02042300
95.39999451	0.00000000	21.62278000	-0.79355310
95.59999449	0.00000000	18.92839000	-5.01353300
95.79999448	0.00000000	15.85261000	-7.62180000
95.99999447	0.00000000	13.15822000	-8.07701800
96.19999446	0.00000000	11.62032000	-6.17618100
96.39999445	0.00000000	11.62032000	-3.15575800
96.59999444	0.00000000	13.15822000	0.00000000
96.79999442	0.00000000	15.90182000	3.06348400
96.99999441	0.00000000	19.38976000	5.33956700
97.19999440	0.00000000	23.24680000	5.71481200
97.39999439	0.00000000	26.27953000	4.22613100
97.59999438	0.00000000	27.48524000	1.58095500
97.79999436	0.00000000	26.69783000	-1.11343500
97.99999435	0.00000000	24.40945000	-3.06348400
98.19999434	0.00000000	20.88459000	-4.26919300
98.39999433	0.00000000	17.01525000	-4.60137700
98.59999432	0.00000000	13.15822000	-3.85088600
98.79999430	0.00000000	10.50689000	-1.95004900
98.99999429	0.00000000	10.03937000	-0.09227362
99.19999428	0.00000000	11.20202000	1.11343500
99.39999427	0.00000000	13.53346000	1.53174200
99.59999426	0.00000000	17.01525000	1.53174200
99.79999425	0.00000000	20.46014000	1.15649600
99.99999423	0.00000000	23.24680000	0.41830710
100.19999422	0.00000000	25.15994000	0.09227362
100.39999421	0.00000000	25.94734000	0.41830710
100.59999420	0.00000000	25.15994000	1.15649600
100.79999419	0.00000000	23.24680000	1.53174200
100.99999417	0.00000000	20.46014000	1.53174200
101.19999416	0.00000000	17.05832000	1.11343500
101.39999415	0.00000000	13.95177000	-0.04306102
101.59999414	0.00000000	12.40773000	-1.57480300
101.79999413	0.00000000	11.95251000	-3.11269700
101.99999411	0.00000000	12.78297000	-4.22613100
102.19999410	0.00000000	14.64690000	-4.22613100
102.39999409	0.00000000	17.01525000	-3.06348400
102.59999408	0.00000000	19.34670000	-1.11343500
102.79999407	0.00000000	21.66585000	1.58095500
102.99999406	0.00000000	23.20374000	4.22613100
103.19999404	0.00000000	23.62205000	5.71481200
103.39999403	0.00000000	23.20374000	5.38262700
103.59999402	0.00000000	21.66585000	3.43873000
103.79999401	0.00000000	19.38976000	0.78124990
103.99999400	0.00000000	17.43356000	-2.31914400
104.19999398	0.00000000	15.80955000	-4.60137700
104.39999397	0.00000000	14.36393000	-5.85014700
104.59999396	0.00000000	13.95177000	-6.17618100
104.79999395	0.00000000	15.10212000	-5.38262700
104.99999394	0.00000000	16.56004000	-3.06348400
105.19999392	0.00000000	18.17790000	-0.04306102
105.39999391	0.00000000	19.30364000	2.64517700
105.59999390	0.00000000	20.13410000	4.18307100
105.79999389	0.00000000	20.46014000	4.22613100
105.99999388	0.00000000	20.08489000	3.06348400
106.19999387	0.00000000	18.97145000	1.15649600
106.39999385	0.00000000	17.80881000	-1.15649600
106.59999384	0.00000000	17.05832000	-3.06348400
106.79999383	0.00000000	16.64616000	-4.22613100
106.99999382	0.00000000	17.05832000	-4.22613100
107.19999381	0.00000000	17.76575000	-3.06348400
107.39999379	0.00000000	18.59621000	-1.20570900
107.59999378	0.00000000	19.34670000	0.73818890
107.79999377	0.00000000	20.13410000	1.85777500
107.99999376	0.00000000	20.46014000	2.26993100
108.19999375	0.00000000	20.04183000	1.48868100
108.39999374	0.00000000	18.55315000	0.00000000
108.59999372	0.00000000	16.69537000	-1.53174200
108.79999371	0.00000000	15.90182000	-2.68823800
108.99999370	0.00000000	15.80955000	-3.11269700
109.19999369	0.00000000	15.85261000	-3.06348400
109.39999368	0.00000000	16.32013000	-2.31914400
109.59999366	0.00000000	17.80881000	-0.79355310
109.79999365	0.00000000	19.71580000	0.37524600
109.99999364	0.00000000	20.88459000	1.57480300
110.19999363	0.00000000	21.66585000	2.64517700
110.39999362	0.00000000	21.62278000	2.64517700
110.59999360	0.00000000	20.50935000	1.53174200
110.79999359	0.00000000	18.97145000	0.00000000
110.99999358	0.00000000	17.39050000	-1.53174200
111.19999357	0.00000000	15.90182000	-2.68823800
111.39999356	0.00000000	15.11442000	-3.11269700
111.59999355	0.00000000	15.47736000	-3.11269700
111.79999353	0.00000000	16.22785000	-2.68823800
111.99999352	0.00000000	17.43356000	-1.57480300
112.19999351	0.00000000	18.92839000	-0.41830710
112.39999350	0.00000000	20.08489000	0.37524600
112.59999349	0.00000000	20.50935000	1.15649600
112.79999347	0.00000000	20.50935000	1.48253000
112.99999346	0.00000000	20.13410000	1.15649600
113.19999345	0.00000000	19.34670000	0.41830710
113.39999344	0.00000000	18.59621000	0.04306102
113.59999343	0.00000000	17.80881000	-0.04306102
113.79999341	0.00000000	17.43356000	-0.41830710
113.99999340	0.00000000	17.39050000	-1.15649600
114.19999339	0.00000000	17.39050000	-1.53174200
114.39999338	0.00000000	17.43356000	-1.57480300
114.59999337	0.00000000	17.80881000	-1.57480300
114.79999336	0.00000000	18.55315000	-1.57480300
114.99999334	0.00000000	18.92839000	-1.57480300
115.19999333	0.00000000	18.97145000	-1.57480300
115.39999332	0.00000000	18.97145000	-1.57480300
115.59999331	0.00000000	18.97145000	-1.57480300
115.79999330	0.00000000	18.92839000	-1.53174200
115.99999328	0.00000000	18.55315000	-1.15649600
116.19999327	0.00000000	17.80881000	-0.37524600
116.39999326	0.00000000	17.43356000	0.37524600
116.59999325	0.00000000	17.39050000	1.15649600
116.79999324	0.00000000	17.39050000	1.48253000
116.99999322	0.00000000	17.39050000	1.15649600
117.19999321	0.00000000	17.43356000	0.37524600
117.39999320	0.00000000	17.85802000	-0.37524600
117.59999319	0.00000000	18.97145000	-1.15649600
117.79999318	0.00000000	20.08489000	-1.57480300
117.99999317	0.00000000	20.50935000	-1.99311000
118.19999315	0.00000000	20.50935000	-2.68823800
118.39999314	0.00000000	20.13410000	-2.68823800
118.59999313	0.00000000	19.34670000	-1.95004900
118.79999312	0.00000000	18.55315000	-1.19955700
118.99999311	0.00000000	17.39050000	-0.41830710
119.19999309	0.00000000	16.22785000	0.00000000
119.39999308	0.00000000	15.47736000	0.37524600
119.59999307	0.00000000	15.11442000	0.78124990
119.79999306	0.00000000	15.90182000	0.74434050
119.99999305	0.00000000	17.39050000	0.78124990
120.19999303	0.00000000	18.92839000	0.37524600
120.39999302	0.00000000	20.13410000	0.04306102
120.59999301	0.00000000	20.92766000	-0.04306102
120.79999300	0.00000000	21.66585000	-0.41830710
120.99999299	0.00000000	21.62278000	-1.15649600
121.19999298	0.00000000	20.50935000	-1.53174200
121.39999296	0.00000000	19.01451000	-1.57480300
121.59999295	0.00000000	17.80881000	-1.57480300
121.79999294	0.00000000	17.01525000	-1.57480300
121.99999293	0.00000000	16.22785000	-1.53174200
122.19999292	0.00000000	15.85261000	-1.15649600
122.39999290	0.00000000	15.85261000	-0.37524600
122.59999289	0.00000000	16.22785000	0.37524600
122.79999288	0.00000000	17.01525000	1.15649600
122.99999287	0.00000000	17.80881000	1.53174200
123.19999286	0.00000000	18.97145000	1.53174200
123.39999284	0.00000000	20.08489000	1.15649600
123.59999283	0.00000000	20.50935000	0.37524600
123.79999282	0.00000000	20.50935000	-0.37524600
123.99999281	0.00000000	20.13410000	-1.15649600
124.19999280	0.00000000	19.38976000	-1.53174200
124.39999279	0.00000000	18.97145000	-1.57480300
124.59999277	0.00000000	18.50394000	-1.57480300
124.79999276	0.00000000	17.39050000	-1.53174200
124.99999275	0.00000000	16.27707000	-1.15649600
125.19999274	0.00000000	15.85261000	-0.41830710
125.39999273	0.00000000	15.85261000	-0.04306102
125.59999271	0.00000000	16.22785000	0.00000000
125.79999270	0.00000000	17.01525000	0.00000000
125.99999269	0.00000000	17.76575000	0.00000000
126.19999268	0.00000000	18.59621000	0.00000000
126.39999267	0.00000000	19.34670000	0.00000000
126.59999265	0.00000000	20.13410000	0.00000000
126.79999264	0.00000000	20.46014000	-0.04306102
126.99999263	0.00000000	20.08489000	-0.41830710
127.19999262	0.00000000	19.01451000	-1.15649600
127.39999261	0.00000000	18.18405000	-1.53174200
127.59999260	0.00000000	17.75960000	-1.57480300
127.79999258	0.00000000	16.60310000	-1.53174200
127.99999257	0.00000000	15.90182000	-1.15649600
128.19999256	0.00000000	15.85261000	-0.41830710
128.39999255	0.00000000	16.27707000	-0.04306102
128.59999254	0.00000000	17.39050000	0.00000000
128.79999252	0.00000000	18.55315000	0.00000000
128.99999251	0.00000000	19.34670000	0.00000000
129.19999250	0.00000000	20.08489000	0.00000000
129.39999249	0.00000000	20.08489000	0.00000000
129.59999248	0.00000000	19.34670000	-0.04306102
129.79999246	0.00000000	18.55315000	-0.41830710
129.99999245	0.00000000	17.39050000	-1.15649600
130.19999244	0.00000000	16.27707000	-1.48253000
130.39999243	0.00000000	15.85261000	-1.15649600
130.59999242	0.00000000	15.85261000	-0.41830710
130.79999241	0.00000000	16.27707000	-0.04306102
130.99999239	0.00000000	17.39050000	0.00000000
131.19999238	0.00000000	18.55315000	0.00000000
131.39999237	0.00000000	19.34670000	0.00000000
131.59999236	0.00000000	20.08489000	0.00000000
131.79999235	0.00000000	20.08489000	-0.04306102
131.99999233	0.00000000	19.34670000	-0.41830710
132.19999232	0.00000000	18.59621000	-1.15649600
132.39999231	0.00000000	17.80881000	-1.53174200
132.59999230	0.00000000	17.43356000	-1.57480300
132.79999229	0.00000000	17.34744000	-1.53174200
132.99999227	0.00000000	17.01525000	-1.15649600
133.19999226	0.00000000	16.64616000	-0.41830710
133.39999225	0.00000000	17.05832000	0.00000000
133.59999224	0.00000000	17.76575000	0.41830710
133.79999223	0.00000000	18.55315000	1.11343500
133.99999222	0.00000000	18.92839000	1.11343500
134.19999220	0.00000000	18.92839000	0.37524600
134.39999219	0.00000000	18.55315000	-0.37524600
134.59999218	0.00000000	17.80881000	-1.19955700
134.79999217	0.00000000	17.43356000	-1.95004900
134.99999216	0.00000000	17.43356000	-2.73745100
135.19999214	0.00000000	17.80881000	-3.06348400
135.39999213	0.00000000	18.55315000	-2.73745100
135.59999212	0.00000000	18.92839000	-1.95004900
135.79999211	0.00000000	18.97145000	-1.19955700
135.99999210	0.00000000	18.92839000	-0.41830710
136.19999208	0.00000000	18.55315000	0.00000000
136.39999207	0.00000000	17.80881000	0.37524600
136.59999206	0.00000000	17.39050000	0.73818890
136.79999205	0.00000000	17.01525000	0.37524600
136.99999204	0.00000000	16.64616000	0.00000000
137.19999203	0.00000000	17.05832000	-0.41830710
137.39999201	0.00000000	17.76575000	-1.15649600
137.59999200	0.00000000	18.55315000	-1.53174200
137.79999199	0.00000000	18.92839000	-1.57480300
137.99999198	0.00000000	18.97145000	-1.61786400
138.19999197	0.00000000	18.97145000	-1.95004900
138.39999195	0.00000000	18.92839000	-2.31914400
138.59999194	0.00000000	18.55315000	-1.95004900
138.79999193	0.00000000	17.76575000	-1.61786400
138.99999192	0.00000000	17.01525000	-1.53174200
139.19999191	0.00000000	16.22785000	-1.15649600
139.39999189	0.00000000	15.85261000	-0.37524600
139.59999188	0.00000000	15.85261000	0.37524600
139.79999187	0.00000000	16.27707000	1.15649600
139.99999186	0.00000000	17.34744000	1.48253000
140.19999185	0.00000000	18.13484000	1.15649600
140.39999184	0.00000000	18.18405000	0.37524600
140.59999182	0.00000000	18.59621000	-0.41830710
140.79999181	0.00000000	18.87918000	-1.57480300
140.99999180	0.00000000	18.55315000	-2.68823800
141.19999179	0.00000000	17.80881000	-3.11269700
141.39999178	0.00000000	17.43356000	-3.11269700
141.59999176	0.00000000	17.39050000	-2.68823800
141.79999175	0.00000000	17.39050000	-1.57480300
141.99999174	0.00000000	17.39050000	-0.41830710
142.19999173	0.00000000	17.43356000	0.37524600
142.39999172	0.00000000	17.80881000	1.15649600
142.59999170	0.00000000	18.55315000	1.53174200
142.79999169	0.00000000	18.92839000	1.53174200
142.99999168	0.00000000	18.92839000	1.11343500
143.19999167	0.00000000	18.55315000	0.00000000
143.39999166	0.00000000	17.80881000	-1.15649600
143.59999165	0.00000000	17.43356000	-1.95004900
143.79999163	0.00000000	17.39050000	-2.73745100
143.99999162	0.00000000	17.39050000	-3.06348400
144.19999161	0.00000000	17.43356000	-2.68823800
144.39999160	0.00000000	17.76575000	-1.57480300
144.59999159	0.00000000	18.17790000	-0.41830710
144.79999157	0.00000000	18.18405000	0.37524600
144.99999156	0.00000000	18.59621000	1.11343500
145.19999155	0.00000000	18.87918000	1.11343500
145.39999154	0.00000000	18.55315000	0.37524600
145.59999153	0.00000000	17.80881000	-0.37524600
145.79999151	0.00000000	17.43356000	-1.15649600
145.99999150	0.00000000	17.39050000	-1.53174200
146.19999149	0.00000000	17.39050000	-1.57480300
146.39999148	0.00000000	17.39050000	-1.57480300
146.59999147	0.00000000	17.43356000	-1.57480300
146.79999146	0.00000000	17.80881000	-1.57480300
146.99999144	0.00000000	18.55315000	-1.53174200
147.19999143	0.00000000	18.87918000	-1.19955700
147.39999142	0.00000000	18.59621000	-0.79355310
147.59999141	0.00000000	18.18405000	-0.78124990
147.79999140	0.00000000	18.17790000	-0.37524600
147.99999138	0.00000000	17.76575000	-0.04306102
148.19999137	0.00000000	17.43356000	0.00000000
148.39999136	0.00000000	17.34744000	0.00000000
148.59999135	0.00000000	17.01525000	0.00000000
148.79999134	0.00000000	16.64616000	0.00000000
148.99999132	0.00000000	17.01525000	-0.04306102
149.19999131	0.00000000	17.39050000	-0.41830710
149.39999130	0.00000000	17.80881000	-1.15649600
149.59999129	0.00000000	18.55315000	-1.53174200
149.79999128	0.00000000	18.92839000	-1.57480300
149.99999127	0.00000000	18.97145000	-1.57480300
150.19999125	0.00000000	18.97145000	-1.53174200
150.39999124	0.00000000	18.92839000	-1.15649600
150.59999123	0.00000000	18.55315000	-0.41830710
150.79999122	0.00000000	17.80881000	-0.04306102
150.99999121	0.00000000	17.43356000	0.00000000
151.19999119	0.00000000	17.39050000	0.00000000
151.39999118	0.00000000	17.39050000	0.00000000
151.59999117	0.00000000	17.39050000	-0.04306102
151.79999116	0.00000000	17.39050000	-0.41830710
151.99999115	0.00000000	17.39050000	-1.15649600
152.19999113	0.00000000	17.43356000	-1.53174200
152.39999112	0.00000000	17.80881000	-1.57480300
152.59999111	0.00000000	18.50394000	-1.57480300
152.79999110	0.00000000	18.50394000	-1.53174200
152.99999109	0.00000000	17.80881000	-1.19955700
153.19999108	0.00000000	17.48277000	-0.79355310
153.39999106	0.00000000	17.76575000	-0.78124990
153.59999105	0.00000000	18.13484000	-0.37524600
153.79999104	0.00000000	17.76575000	-0.04306102
153.99999103	0.00000000	17.39050000	0.00000000
154.19999102	0.00000000	17.01525000	0.00000000
154.39999100	0.00000000	16.60310000	-0.04306102
154.59999099	0.00000000	16.64001000	-0.37524600
154.79999098	0.00000000	16.60310000	-0.73818890
154.99999097	0.00000000	17.01525000	-0.37524600
155.19999096	0.00000000	17.39050000	-0.04306102
155.39999094	0.00000000	17.80881000	-0.04306102
155.59999093	0.00000000	18.55315000	-0.41830710
155.79999092	0.00000000	18.92839000	-1.15649600
155.99999091	0.00000000	18.97145000	-1.53174200
156.19999090	0.00000000	18.92839000	-1.57480300
156.39999089	0.00000000	18.55315000	-1.53174200
156.59999087	0.00000000	17.80881000	-1.15649600
156.79999086	0.00000000	17.43356000	-0.41830710
156.99999085	0.00000000	17.34744000	-0.04306102
157.19999084	0.00000000	16.97219000	0.00000000
157.39999083	0.00000000	16.27707000	0.00000000
157.59999081	0.00000000	16.27707000	0.00000000
157.79999080	0.00000000	16.97219000	0.00000000
157.99999079	0.00000000	17.34744000	-0.04306102
158.19999078	0.00000000	17.39050000	-0.41830710
158.39999077	0.00000000	17.43356000	-1.15649600
158.59999075	0.00000000	17.80881000	-1.53174200
158.79999074	0.00000000	18.50394000	-1.57480300
158.99999073	0.00000000	18.50394000	-1.57480300
159.19999072	0.00000000	17.80881000	-1.57480300
159.39999071	0.00000000	17.48277000	-1.53174200
159.59999070	0.00000000	17.76575000	-1.15649600
159.79999068	0.00000000	18.08563000	-0.41830710
159.99999067	0.00000000	17.39050000	-0.04306102
160.19999066	0.00000000	16.69537000	0.00000000
160.39999065	0.00000000	17.01525000	0.00000000
160.59999064	0.00000000	17.34744000	0.00000000
160.79999062	0.00000000	17.39050000	-0.04306102
160.99999061	0.00000000	17.39050000	-0.41830710
161.19999060	0.00000000	17.39050000	-1.15649600
161.39999059	0.00000000	17.39050000	-1.53174200
161.59999058	0.00000000	17.39050000	-1.57480300
161.79999056	0.00000000	17.43356000	-1.57480300
161.99999055	0.00000000	17.76575000	-1.57480300
162.19999054	0.00000000	18.13484000	-1.53174200
162.39999053	0.00000000	17.76575000	-1.15649600
162.59999052	0.00000000	17.43356000	-0.41830710
162.79999051	0.00000000	17.39050000	-0.04306102
162.99999049	0.00000000	17.34744000	0.00000000
163.19999048	0.00000000	16.97219000	0.00000000
163.39999047	0.00000000	16.27707000	-0.04306102
163.59999046	0.00000000	16.27707000	-0.37524600
163.79999045	0.00000000	16.92298000	-0.78124990
163.99999043	0.00000000	16.92298000	-0.79355310
164.19999042	0.00000000	16.27707000	-1.19955700
164.39999041	0.00000000	16.27707000	-1.53174200
164.59999040	0.00000000	16.97219000	-1.57480300
164.79999039	0.00000000	17.34744000	-1.57480300
164.99999037	0.00000000	17.43356000	-1.57480300
165.19999036	0.00000000	17.76575000	-1.57480300
165.39999035	0.00000000	18.13484000	-1.57480300
165.59999034	0.00000000	17.76575000	-1.53174200
165.79999033	0.00000000	17.43356000	-1.15649600
165.99999032	0.00000000	17.39050000	-0.41830710
166.19999030	0.00000000	17.34744000	-0.04306102
166.39999029	0.00000000	16.97219000	0.00000000
166.59999028	0.00000000	16.22785000	-0.04306102
166.79999027	0.00000000	15.90182000	-0.37524600
166.99999026	0.00000000	16.22785000	-0.73818890
167.19999024	0.00000000	16.97219000	-0.41830710
167.39999023	0.00000000	17.34744000	-0.46136810
167.59999022	0.00000000	17.39050000	-1.15649600
167.79999021	0.00000000	17.39050000	-1.53174200
167.99999020	0.00000000	17.39050000	-1.57480300
168.19999018	0.00000000	17.43356000	-1.57480300
168.39999017	0.00000000	17.76575000	-1.57480300
168.59999016	0.00000000	18.13484000	-1.57480300
168.79999015	0.00000000	17.76575000	-1.53174200
168.99999014	0.00000000	17.43356000	-1.15649600
169.19999013	0.00000000	17.39050000	-0.46136810
169.39999011	0.00000000	17.39050000	-0.46136810
169.59999010	0.00000000	17.39050000	-1.15649600
169.79999009	0.00000000	17.39050000	-1.48253000
169.99999008	0.00000000	17.39050000	-1.19955700
170.19999007	0.00000000	17.39050000	-0.79355310
170.39999005	0.00000000	17.39050000	-0.83046260
170.59999004	0.00000000	17.39050000	-0.79355310
170.79999003	0.00000000	17.39050000	-1.15649600
170.99999002	0.00000000	17.39050000	-1.15649600
171.19999001	0.00000000	17.39050000	-0.83661410
171.39998999	0.00000000	17.39050000	-1.19955700
171.59998998	0.00000000	17.39050000	-1.53174200
171.79998997	0.00000000	17.39050000	-1.57480300
171.99998996	0.00000000	17.39050000	-1.57480300
172.19998995	0.00000000	17.39050000	-1.57480300
172.39998994	0.00000000	17.39050000	-1.53174200
172.59998992	0.00000000	17.39050000	-1.19955700
172.79998991	0.00000000	17.39050000	-0.79355310
172.99998990	0.00000000	17.39050000	-0.78124990
173.19998989	0.00000000	17.39050000	-0.37524600
173.39998988	0.00000000	17.39050000	-0.04306102
173.59998986	0.00000000	17.39050000	0.00000000
173.79998985	0.00000000	17.39050000	-0.04306102
173.99998984	0.00000000	17.39050000	-0.41830710
174.19998983	0.00000000	17.39050000	-1.11343500
174.39998982	0.00000000	17.39050000	-1.15649600
174.59998980	0.00000000	17.39050000	-0.83661410
174.79998979	0.00000000	17.39050000	-1.19955700
174.99998978	0.00000000	17.39050000	-1.53174200
175.19998977	0.00000000	17.39050000	-1.57480300
175.39998976	0.00000000	17.39050000	-1.57480300
175.59998975	0.00000000	17.39050000	-1.57480300
175.79998973	0.00000000	17.39050000	-1.53174200
175.99998972	0.00000000	17.39050000	-1.15649600
176.19998971	0.00000000	17.39050000	-0.41830710
176.39998970	0.00000000	17.39050000	-0.09227362
176.59998969	0.00000000	17.39050000	-0.37524600
176.79998967	0.00000000	17.39050000	-0.78124990
176.99998966	0.00000000	17.39050000	-0.79355310
177.19998965	0.00000000	17.39050000	-1.19955700
177.39998964	0.00000000	17.39050000	-1.53174200
177.59998963	0.00000000	17.39050000	-1.57480300
177.79998961	0.00000000	17.39050000	-1.57480300
177.99998960	0.00000000	17.39050000	-1.57480300
178.19998959	0.00000000	17.39050000	-1.57480300
178.39998958	0.00000000	17.39050000	-1.57480300
178.59998957	0.00000000	17.39050000	-1.53174200
178.79998956	0.00000000	17.39050000	-1.15649600
178.99998954	0.00000000	17.39050000	-0.41830710
179.19998953	0.00000000	17.39050000	-0.04306102
179.39998952	0.00000000	17.39050000	-0.04306102
179.59998951	0.00000000	17.39050000	-0.41830710
179.79998950	0.00000000	17.39050000	-1.15649600
179.99998948	0.00000000	17.39050000	-1.53174200
180.19998947	0.00000000	17.39050000	-1.57480300
180.39998946	0.00000000	17.39050000	-1.57480300
180.59998945	0.00000000	17.39050000	-1.57480300
180.79998944	0.00000000	17.39050000	-1.57480300
180.99998942	0.00000000	17.39050000	-1.57480300
181.19998941	0.00000000	17.39050000	-1.53174200
181.39998940	0.00000000	17.39050000	-1.15649600
181.59998939	0.00000000	17.39050000	-0.41830710
181.79998938	0.00000000	17.39050000	-0.04306102
181.99998937	0.00000000	17.39050000	0.00000000
182.19998935	0.00000000	17.39050000	0.00000000
182.39998934	0.00000000	17.39050000	0.00000000
182.59998933	0.00000000	17.39050000	0.00000000
182.79998932	0.00000000	17.39050000	-0.04306102
182.99998931	0.00000000	17.39050000	-0.41830710
183.19998929	0.00000000	17.39050000	-1.15649600
183.39998928	0.00000000	17.39050000	-1.53174200
183.59998927	0.00000000	17.39050000	-1.57480300
183.79998926	0.00000000	17.39050000	-1.57480300
183.99998925	0.00000000	17.39050000	-1.57480300
184.19998923	0.00000000	17.39050000	-1.57480300
184.39998922	0.00000000	17.39050000	-1.53174200
184.59998921	0.00000000	17.39050000	-1.15649600
184.79998920	0.00000000	17.34744000	-0.41830710
184.99998919	0.00000000	17.01525000	-0.04306102
185.19998918	0.00000000	16.64616000	0.00000000
185.39998916	0.00000000	17.01525000	0.00000000
185.59998915	0.00000000	17.34744000	-0.04306102
185.79998914	0.00000000	17.39050000	-0.41830710
185.99998913	0.00000000	17.39050000	-1.15649600
186.19998912	0.00000000	17.39050000	-1.53174200
186.39998910	0.00000000	17.39050000	-1.57480300
186.59998909	0.00000000	17.39050000	-1.57480300
186.79998908	0.00000000	17.39050000	-1.57480300
186.99998907	0.00000000	17.39050000	-1.57480300
187.19998906	0.00000000	17.39050000	-1.53174200
187.39998904	0.00000000	17.39050000	-1.15649600
187.59998903	0.00000000	17.39050000	-0.41830710
187.79998902	0.00000000	17.39050000	-0.04306102
187.99998901	0.00000000	17.39050000	0.00000000
188.19998900	0.00000000	17.39050000	0.00000000
188.39998899	0.00000000	17.39050000	-0.04306102
188.59998897	0.00000000	17.39050000	-0.41830710
188.79998896	0.00000000	17.39050000	-1.15649600
188.99998895	0.00000000	17.39050000	-1.53174200
189.19998894	0.00000000	17.39050000	-1.57480300
189.39998893	0.00000000	17.39050000	-1.57480300
189.59998891	0.00000000	17.39050000	-1.57480300
189.79998890	0.00000000	17.39050000	-1.57480300
189.99998889	0.00000000	17.39050000	-1.57480300
190.19998888	0.00000000	17.39050000	-1.53174200
190.39998887	0.00000000	17.39050000	-1.15649600
190.59998885	0.00000000	17.39050000	-0.41830710
190.79998884	0.00000000	17.39050000	-0.04306102
190.99998883	0.00000000	17.39050000	0.00000000
191.19998882	0.00000000	17.34744000	-0.04306102
191.39998881	0.00000000	16.97219000	-0.41830710
191.59998880	0.00000000	16.27707000	-1.15649600
191.79998878	0.00000000	16.27707000	-1.53174200
191.99998877	0.00000000	16.97219000	-1.57480300
192.19998876	0.00000000	17.34744000	-1.57480300
192.39998875	0.00000000	17.39050000	-1.57480300
192.59998874	0.00000000	17.39050000	-1.57480300
192.79998872	0.00000000	17.39050000	-1.57480300
192.99998871	0.00000000	17.39050000	-1.57480300
193.19998870	0.00000000	17.34744000	-1.57480300
193.39998869	0.00000000	16.97219000	-1.57480300
193.59998868	0.00000000	16.22785000	-1.53174200
193.79998866	0.00000000	15.90182000	-1.15649600
193.99998865	0.00000000	16.22785000	-0.41830710
194.19998864	0.00000000	16.97219000	-0.04306102
194.39998863	0.00000000	17.34744000	0.00000000
194.59998862	0.00000000	17.39050000	0.00000000
194.79998861	0.00000000	17.39050000	0.00000000
194.99998859	0.00000000	17.39050000	-0.04306102
195.19998858	0.00000000	17.39050000	-0.41830710
195.39998857	0.00000000	17.39050000	-1.15649600
195.59998856	0.00000000	17.39050000	-1.53174200
195.79998855	0.00000000	17.34744000	-1.57480300
195.99998853	0.00000000	16.97219000	-1.57480300
