Time	Channel A	Channel B	Channel C
(us)	(V)	(mV)	(mV)

-4.59999956	0.00000000	101.19960000	38.64419000
-4.39999957	0.00000000	101.19960000	38.72416000
-4.19999958	0.00000000	101.19960000	38.64419000
-3.99999959	0.00000000	101.19960000	38.72416000
-3.79999960	0.00000000	101.19960000	38.64419000
-3.59999962	0.00000000	101.19960000	38.68110000
-3.39999963	0.00000000	101.19960000	38.26894000
-3.19999964	0.00000000	101.19960000	37.93676000
-2.99999965	0.00000000	101.19960000	37.89370000
-2.79999966	0.00000000	101.19960000	37.89370000
-2.59999968	0.00000000	101.19960000	37.89370000
-2.39999969	0.00000000	101.19960000	37.89370000
-2.19999970	0.00000000	101.19960000	37.89370000
-1.99999971	0.00000000	101.19960000	37.89370000
-1.79999972	0.00000000	101.19960000	37.89370000
-1.59999973	0.00000000	101.19960000	37.89370000
-1.39999975	0.00000000	101.19960000	37.89370000
-1.19999976	0.00000000	101.19960000	37.89370000
-0.99999977	0.00000000	101.19960000	37.89370000
-0.79999978	0.00000000	101.19960000	37.89370000
-0.59999979	0.00000000	101.19960000	37.89370000
-0.39999981	0.00000000	101.19960000	37.93676000
-0.19999982	0.31803640	101.19960000	38.31200000
0.00000017	0.79601380	101.19960000	39.00713000
0.20000016	0.95533960	101.19960000	39.00713000
0.40000015	0.95533960	101.19960000	38.31200000
0.60000013	0.79601380	101.19960000	37.98597000
0.80000012	0.15871060	101.19960000	38.26894000
1.00000011	-0.63668800	101.19960000	38.63804000
1.20000010	-1.59264300	101.19960000	38.31200000
1.40000009	-2.38927200	101.19960000	38.36122000
1.60000008	-2.70792300	101.19960000	39.05635000
1.80000006	-2.38927200	101.24260000	39.43159000
2.00000005	-0.95533960	101.57480000	39.47465000
2.20000004	0.79601380	101.94390000	39.47465000
2.40000003	3.02657500	101.57480000	39.47465000
2.60000002	4.61921700	101.24260000	39.47465000
2.80000000	5.41584600	101.19960000	39.43159000
2.99999999	4.61921700	101.19960000	39.05635000
3.19999998	2.54859700	101.19960000	38.31200000
3.39999997	-0.63668800	101.19960000	37.93676000
3.59999996	-3.98191400	101.24260000	37.93676000
3.79999994	-6.69045300	101.61790000	38.31200000
3.99999993	-7.96444400	102.31300000	39.05635000
4.19999992	-7.16781500	102.36220000	39.47465000
4.39999991	-4.45989200	102.03620000	39.84990000
4.59999990	-0.47736220	102.40530000	40.21899000
4.79999989	3.98191400	102.68820000	39.84990000
4.99999987	7.64579200	102.36220000	39.47465000
5.19999986	9.39837600	101.61790000	39.05635000
5.39999985	8.92039900	101.24260000	38.31200000
5.59999984	6.21247500	101.19960000	37.93676000
5.79999983	1.75196900	101.19960000	37.89370000
5.99999981	-3.02657500	101.19960000	37.93676000
6.19999980	-7.16781500	101.24260000	38.31200000
6.39999979	-9.23905000	101.57480000	39.05635000
6.59999978	-9.07972400	101.98700000	39.43159000
6.79999977	-6.69045300	101.95000000	39.47465000
6.99999975	-2.70792300	102.03000000	39.47465000
7.19999974	1.59264300	101.95000000	39.47465000
7.39999973	5.25652100	101.98700000	39.47465000
7.59999972	7.48646600	101.57480000	39.43159000
7.79999971	7.64579200	101.24260000	39.05635000
7.99999970	5.89382400	101.19960000	38.31200000
8.19999968	2.86724900	101.19960000	37.93676000
8.39999967	-0.31803640	101.19960000	37.93676000
8.59999966	-3.18590100	101.19960000	38.31200000
8.79999965	-4.77854300	101.19960000	39.05635000
8.99999964	-5.09719500	101.19960000	39.43159000
9.19999962	-4.14124000	101.19960000	39.43159000
9.39999961	-2.38927200	101.24260000	39.05635000
9.59999960	-0.31803640	101.57480000	38.36122000
9.79999959	1.27399100	101.94390000	38.31200000
9.99999958	2.38927200	101.57480000	38.63804000
10.19999956	2.54859700	101.24260000	38.31200000
10.39999955	2.07062000	101.19960000	38.31200000
10.59999954	1.27399100	101.19960000	38.63804000
10.79999953	0.47736220	101.19960000	38.31200000
10.99999952	-0.31803640	101.19960000	38.31200000
11.19999951	-0.79601380	101.19960000	38.63804000
11.39999949	-0.95533960	101.19960000	38.26894000
11.59999948	-0.95533960	101.19960000	37.93676000
11.79999947	-0.63668800	101.19960000	37.89370000
11.99999946	-0.31803640	101.19960000	37.89370000
12.19999945	-0.15871060	101.19960000	37.89370000
12.39999943	-0.15871060	101.19960000	37.93676000
12.59999942	0.00000000	101.19960000	38.31200000
12.79999941	0.00000000	101.19960000	39.00713000
12.99999940	0.00000000	101.19960000	39.00713000
13.19999939	0.15871060	101.19960000	38.31200000
13.39999937	0.00000000	101.19960000	37.93676000
13.59999936	0.00000000	101.19960000	37.93676000
13.79999935	0.00000000	101.19960000	38.26894000
13.99999934	0.00000000	101.19960000	38.63804000
14.19999933	-0.15871060	101.19960000	38.31200000
14.39999932	-0.15871060	101.19960000	38.31200000
14.59999930	-0.15871060	101.19960000	38.68110000
14.79999929	0.00000000	101.19960000	38.64419000
14.99999928	0.00000000	101.19960000	38.68110000
15.19999927	0.00000000	101.19960000	38.26894000
15.39999926	0.00000000	101.19960000	37.93676000
15.59999924	0.00000000	101.19960000	37.93676000
15.79999923	0.00000000	101.19960000	38.26894000
15.99999922	0.00000000	101.19960000	38.68110000
16.19999921	0.00000000	101.19960000	38.64419000
16.39999920	0.00000000	101.19960000	38.68110000
16.59999919	-0.15871060	101.24260000	38.31200000
16.79999917	0.00000000	101.61790000	38.36122000
16.99999916	0.00000000	102.36220000	39.05635000
17.19999915	0.00000000	102.78050000	39.43159000
17.39999914	0.00000000	103.19880000	39.47465000
17.59999913	0.00000000	103.89390000	39.47465000
17.79999911	0.00000000	103.89390000	39.47465000
17.99999910	0.00000000	103.11270000	39.47465000
18.19999909	0.00000000	101.98700000	39.47465000
18.39999908	0.00000000	100.36290000	39.47465000
18.59999907	0.00000000	98.86195000	39.47465000
18.79999905	0.00000000	97.28715000	39.47465000
18.99999904	0.00000000	96.58587000	39.47465000
19.19999903	0.00000000	96.91805000	39.47465000
19.39999902	0.00000000	98.16682000	39.47465000
19.59999901	0.00000000	100.49830000	39.47465000
19.79999900	0.00000000	104.02930000	39.47465000
19.99999898	0.00000000	107.85560000	39.47465000
20.19999897	0.00000000	111.33730000	39.47465000
20.39999896	0.00000000	113.15820000	39.47465000
20.59999895	0.00000000	112.36470000	39.47465000
20.79999894	0.00000000	108.45840000	39.47465000
20.99999892	0.00000000	102.26990000	39.47465000
21.19999891	0.00000000	94.86958000	39.47465000
21.39999890	0.00000000	87.56152000	39.47465000
21.59999889	0.00000000	82.21579000	39.47465000
21.79999888	0.00000000	80.77017000	39.47465000
21.99999886	0.00000000	84.30733000	39.47465000
22.19999885	0.00000000	92.82111000	39.47465000
22.39999884	0.00000000	104.44760000	39.43159000
22.59999883	0.00000000	116.83070000	39.09941000
22.79999882	0.00000000	127.57750000	38.73031000
22.99999881	0.00000000	133.29850000	39.09941000
23.19999879	0.00000000	132.09280000	39.43159000
23.39999878	0.00000000	123.85580000	39.51771000
23.59999877	0.00000000	109.15350000	39.89296000
23.79999876	0.00000000	91.01255000	40.63730000
23.99999875	0.00000000	74.07111000	40.96333000
24.19999873	0.00000000	62.11245000	40.63730000
24.39999872	0.00000000	58.75984000	39.84990000
24.59999871	0.00000000	65.32356000	39.05635000
24.79999870	0.00000000	80.85629000	37.85064000
24.99999869	0.00000000	102.07920000	36.31274000
25.19999867	0.00000000	124.45870000	34.78100000
25.39999866	0.00000000	142.18750000	33.62450000
25.59999865	0.00000000	151.07650000	33.29232000
25.79999864	0.00000000	149.07730000	34.08588000
25.99999863	0.00000000	135.90670000	36.44808000
26.19999862	0.00000000	114.32090000	39.93602000
26.39999860	0.00000000	89.56693000	44.16830000
26.59999859	0.00000000	67.18134000	47.97613000
26.79999858	0.00000000	52.15305000	49.88312000
26.99999857	0.00000000	48.66510000	49.50787000
27.19999856	0.00000000	57.08661000	46.67815000
27.39999854	0.00000000	74.90772000	41.24015000
27.59999853	0.00000000	98.44980000	33.53223000
27.79999852	0.00000000	122.41020000	25.86122000
27.99999851	0.00000000	140.93870000	20.05413000
28.19999850	0.00000000	150.28300000	17.40280000
28.39999848	0.00000000	148.37600000	19.02682000
28.59999847	0.00000000	136.46650000	25.30143000
28.79999846	0.00000000	117.52580000	35.70989000
28.99999845	0.00000000	95.89074000	48.06840000
29.19999844	0.00000000	76.53174000	59.22121000
29.39999843	0.00000000	63.32431000	66.92913000
29.59999841	0.00000000	58.62450000	68.79305000
29.79999840	0.00000000	62.85679000	64.14861000
29.99999839	0.00000000	74.81544000	53.60482000
30.19999838	0.00000000	91.79995000	38.54576000
30.39999837	0.00000000	109.57180000	22.01033000
30.59999835	0.00000000	124.32330000	8.53223400
30.79999834	0.00000000	133.30460000	1.19340500
30.99999833	0.00000000	135.30390000	1.61171300
31.19999832	0.00000000	130.69020000	10.15625000
31.39999831	0.00000000	120.59550000	25.20915000
31.59999829	0.00000000	107.10510000	43.74385000
31.79999828	0.00000000	93.19020000	61.49729000
31.99999827	0.00000000	82.30192000	74.64935000
32.19999826	0.00000000	76.07037000	80.40723000
32.39999825	0.00000000	75.28297000	77.33759000
32.59999824	0.00000000	80.25959000	66.14788000
32.79999822	0.00000000	89.14246000	49.55708000
32.99999821	0.00000000	99.98769000	30.97318000
33.19999820	0.00000000	110.82680000	14.33932000
33.39999819	0.00000000	118.92840000	2.72514700
33.59999818	0.00000000	122.82850000	-1.50098400
33.79999816	0.00000000	121.67200000	2.76820900
33.99999815	0.00000000	115.94490000	14.70842000
34.19999814	0.00000000	107.47420000	31.66830000
34.39999813	0.00000000	98.58513000	49.42175000
34.59999812	0.00000000	91.23400000	64.14861000
34.79999810	0.00000000	87.00172000	73.06840000
34.99999809	0.00000000	86.95866000	74.60629000
35.19999808	0.00000000	90.77263000	68.42396000
35.39999807	0.00000000	96.91805000	55.73941000
35.59999806	0.00000000	103.85090000	39.98523000
35.79999805	0.00000000	109.62110000	25.30143000
35.99999803	0.00000000	112.73990000	14.80069000
36.19999802	0.00000000	112.73990000	10.15625000
36.39999801	0.00000000	109.66410000	12.10630000
36.59999800	0.00000000	104.36150000	20.56471000
36.79999799	0.00000000	98.96038000	33.20005000
36.99999797	0.00000000	95.09718000	46.25984000
37.19999796	0.00000000	93.10408000	56.29306000
37.39999795	0.00000000	93.51624000	60.94365000
37.59999794	0.00000000	95.84153000	59.45497000
37.79999793	0.00000000	100.08000000	52.57751000
37.99999791	0.00000000	105.05660000	42.63041000
38.19999790	0.00000000	108.87670000	32.64025000
38.39999789	0.00000000	110.86980000	25.34449000
38.59999788	0.00000000	110.50690000	22.65010000
38.79999787	0.00000000	108.59370000	25.34449000
38.99999786	0.00000000	105.43180000	32.59719000
39.19999784	0.00000000	101.19960000	42.16289000
39.39999783	0.00000000	97.00417000	50.95349000
39.59999782	0.00000000	94.26057000	56.29306000
39.79999781	0.00000000	93.42396000	56.29306000
39.99999780	0.00000000	93.79920000	50.90428000
40.19999778	0.00000000	95.42323000	41.70152000
40.39999777	0.00000000	98.49901000	30.97318000
40.59999776	0.00000000	102.36220000	22.18873000
40.79999775	0.00000000	105.85010000	17.95645000
40.99999774	0.00000000	108.55070000	19.49434000
41.19999772	0.00000000	109.75640000	26.37180000
41.39999771	0.00000000	109.38730000	36.36196000
41.59999770	0.00000000	108.21850000	46.72736000
41.79999769	0.00000000	105.85010000	54.81053000
41.99999768	0.00000000	102.78050000	58.29847000
42.19999767	0.00000000	99.66166000	56.80363000
42.39999765	0.00000000	96.96111000	50.99655000
42.59999764	0.00000000	95.38016000	42.16289000
42.79999763	0.00000000	94.96185000	32.54798000
42.99999762	0.00000000	95.38016000	24.88312000
43.19999761	0.00000000	96.91805000	20.98302000
43.39999759	0.00000000	99.19414000	21.72736000
43.59999758	0.00000000	101.15030000	26.27953000
43.79999757	0.00000000	102.73740000	33.20620000
43.99999756	0.00000000	103.94320000	40.50196000
44.19999755	0.00000000	104.73670000	46.30905000
44.39999753	0.00000000	105.52410000	49.46481000
44.59999752	0.00000000	105.89940000	49.84006000
44.79999751	0.00000000	105.94240000	47.60088000
44.99999750	0.00000000	105.89940000	43.38090000
45.19999749	0.00000000	105.47490000	39.14247000
45.39999748	0.00000000	104.31840000	35.24852000
45.59999746	0.00000000	102.68820000	32.54798000
45.79999745	0.00000000	100.31370000	31.71137000
45.99999744	0.00000000	96.82578000	32.08661000
46.19999743	0.00000000	93.42396000	33.66756000
46.39999742	0.00000000	91.09867000	36.31274000
46.59999740	0.00000000	90.72342000	39.00713000
46.79999739	0.00000000	92.30437000	41.00639000
46.99999738	0.00000000	95.89074000	42.58735000
47.19999737	0.00000000	101.71010000	43.65773000
47.39999736	0.00000000	108.59370000	43.28247000
47.59999734	0.00000000	114.36390000	41.43085000
47.79999733	0.00000000	117.48280000	39.47465000
47.99999732	0.00000000	117.43360000	37.47539000
48.19999731	0.00000000	113.89640000	35.19931000
48.39999730	0.00000000	106.92050000	33.66756000
48.59999729	0.00000000	98.12376000	33.29232000
48.79999727	0.00000000	89.98523000	34.08588000
48.99999726	0.00000000	84.58415000	36.40502000
49.19999725	0.00000000	82.67715000	39.47465000
49.39999724	0.00000000	85.42076000	42.58735000
49.59999723	0.00000000	92.35358000	45.23868000
49.79999721	0.00000000	101.57480000	46.39517000
49.99999720	0.00000000	110.86980000	45.61392000
50.19999719	0.00000000	117.80880000	43.28247000
50.39999718	0.00000000	121.29670000	39.43159000
50.59999717	0.00000000	120.09100000	35.19931000
50.79999715	0.00000000	114.36390000	31.75443000
50.99999714	0.00000000	105.89320000	29.85974000
51.19999713	0.00000000	97.00417000	30.59793000
51.39999712	0.00000000	89.65305000	33.24926000
51.59999711	0.00000000	85.46382000	36.78026000
51.79999710	0.00000000	85.83907000	41.05561000
51.99999708	0.00000000	90.81570000	45.23868000
52.19999707	0.00000000	98.44980000	47.88385000
52.39999706	0.00000000	106.54530000	47.93307000
52.59999705	0.00000000	112.69070000	45.65698000
52.79999704	0.00000000	115.43430000	42.16904000
52.99999702	0.00000000	114.32090000	37.93676000
53.19999701	0.00000000	110.08860000	34.12894000
53.39999700	0.00000000	103.94320000	32.17273000
53.59999699	0.00000000	97.37943000	32.12967000
53.79999698	0.00000000	92.39665000	33.66756000
53.99999696	0.00000000	90.07751000	36.36196000
54.19999695	0.00000000	91.28321000	39.38238000
54.39999694	0.00000000	95.79847000	41.70152000
54.59999693	0.00000000	101.89470000	42.49508000
54.79999692	0.00000000	106.92670000	42.11983000
54.99999691	0.00000000	110.03940000	40.58809000
55.19999689	0.00000000	110.82680000	38.31200000
55.39999688	0.00000000	108.87670000	36.44808000
55.59999687	0.00000000	105.05660000	35.66683000
55.79999686	0.00000000	100.03080000	36.44808000
55.99999685	0.00000000	95.51550000	38.31200000
56.19999683	0.00000000	93.14714000	40.63730000
56.39999682	0.00000000	93.46702000	42.54429000
56.59999681	0.00000000	95.38016000	43.61467000
56.79999680	0.00000000	98.54208000	42.82111000
56.99999679	0.00000000	102.73130000	39.75763000
57.19999677	0.00000000	106.55140000	35.93750000
57.39999676	0.00000000	108.50760000	32.04355000
57.59999675	0.00000000	108.55070000	29.06004000
57.79999674	0.00000000	106.96970000	28.32185000
57.99999673	0.00000000	103.94320000	30.64099000
58.19999672	0.00000000	100.49830000	35.24852000
58.39999670	0.00000000	98.16682000	41.05561000
58.59999669	0.00000000	96.96111000	46.81348000
58.79999668	0.00000000	97.00417000	50.99655000
58.99999667	0.00000000	98.49901000	52.10999000
59.19999666	0.00000000	100.78120000	49.42175000
59.39999664	0.00000000	102.68820000	43.65773000
59.59999663	0.00000000	103.85090000	36.31274000
59.79999662	0.00000000	103.89390000	29.01698000
59.99999661	0.00000000	103.15570000	23.67741000
60.19999660	0.00000000	102.40530000	22.14567000
60.39999658	0.00000000	101.57480000	24.79084000
60.59999657	0.00000000	100.82430000	30.59793000
60.79999656	0.00000000	100.08000000	38.31200000
60.99999655	0.00000000	100.12300000	46.39517000
61.19999654	0.00000000	101.24260000	52.53445000
61.39999653	0.00000000	102.73740000	55.22883000
61.59999651	0.00000000	103.89390000	53.69094000
61.79999650	0.00000000	104.26920000	48.30832000
61.99999649	0.00000000	103.89390000	40.58809000
62.19999648	0.00000000	102.68820000	32.12967000
62.39999647	0.00000000	100.78120000	25.20915000
62.59999645	0.00000000	98.49901000	21.72736000
62.79999644	0.00000000	96.96111000	22.09646000
62.99999643	0.00000000	96.58587000	26.32874000
63.19999642	0.00000000	97.33636000	33.24926000
63.39999641	0.00000000	99.32948000	40.96333000
63.59999639	0.00000000	101.99310000	47.93307000
63.79999638	0.00000000	105.10580000	52.57751000
63.99999637	0.00000000	107.34500000	54.10925000
64.19999636	0.00000000	108.17540000	52.20226000
64.39999635	0.00000000	107.38800000	47.18872000
64.59999634	0.00000000	105.47490000	40.68036000
64.79999632	0.00000000	102.73130000	34.08588000
64.99999631	0.00000000	99.66166000	29.06619000
65.19999630	0.00000000	97.00417000	26.32874000
65.39999629	0.00000000	95.84153000	26.27953000
65.59999628	0.00000000	96.58587000	28.55561000
65.79999626	0.00000000	98.49901000	32.08661000
65.99999625	0.00000000	101.19960000	36.73105000
66.19999624	0.00000000	103.89390000	41.70152000
66.39999623	0.00000000	105.80710000	45.23868000
66.59999622	0.00000000	106.59450000	47.23179000
66.79999620	0.00000000	105.80710000	48.01919000
66.99999619	0.00000000	103.89390000	47.28100000
67.19999618	0.00000000	101.19960000	45.70005000
67.39999617	0.00000000	98.58513000	43.37475000
67.59999616	0.00000000	97.42249000	40.22515000
67.79999615	0.00000000	98.20988000	37.10014000
67.99999613	0.00000000	100.45520000	33.57529000
68.19999612	0.00000000	103.51870000	30.55487000
68.39999611	0.00000000	105.80710000	28.97392000
68.59999610	0.00000000	107.01280000	28.97392000
68.79999609	0.00000000	106.92670000	30.55487000
68.99999607	0.00000000	105.01350000	33.66756000
69.19999606	0.00000000	101.52560000	37.93676000
69.39999605	0.00000000	97.70545000	42.58735000
69.59999604	0.00000000	94.21751000	46.81348000
69.79999603	0.00000000	92.35358000	49.50787000
69.99999601	0.00000000	92.72884000	49.93233000
70.19999600	0.00000000	95.46628000	48.35138000
70.39999599	0.00000000	100.08000000	44.86343000
70.59999598	0.00000000	105.52410000	39.84990000
70.79999597	0.00000000	110.45770000	34.83022000
70.99999596	0.00000000	113.52730000	30.55487000
71.19999594	0.00000000	113.15820000	27.90354000
71.39999593	0.00000000	110.13160000	27.86048000
71.59999592	0.00000000	105.43180000	30.13656000
71.79999591	0.00000000	99.61245000	33.62450000
71.99999590	0.00000000	93.84227000	37.89370000
72.19999588	0.00000000	89.60999000	42.07677000
72.39999587	0.00000000	88.07209000	44.82037000
72.59999586	0.00000000	89.60999000	45.61392000
72.79999585	0.00000000	93.84227000	44.86343000
72.99999584	0.00000000	99.66166000	42.54429000
73.19999582	0.00000000	105.80710000	39.51771000
73.39999581	0.00000000	110.82680000	36.82332000
73.59999580	0.00000000	113.15820000	35.29158000
73.79999579	0.00000000	112.82600000	35.24852000
73.99999578	0.00000000	110.08860000	36.31274000
74.19999577	0.00000000	105.52410000	37.47539000
74.39999575	0.00000000	100.45520000	38.22588000
74.59999574	0.00000000	96.21062000	38.58883000
74.79999573	0.00000000	93.10408000	37.80142000
74.99999572	0.00000000	92.35358000	36.31274000
75.19999571	0.00000000	93.79920000	34.78100000
75.39999569	0.00000000	96.54281000	33.66756000
75.59999568	0.00000000	99.98769000	33.71063000
75.79999567	0.00000000	103.47560000	35.29158000
75.99999566	0.00000000	105.80710000	38.36122000
76.19999565	0.00000000	107.01280000	42.21210000
76.39999563	0.00000000	107.01280000	45.65698000
76.59999562	0.00000000	105.89940000	47.93307000
76.79999561	0.00000000	104.36150000	47.88385000
76.99999560	0.00000000	102.82360000	45.19562000
77.19999559	0.00000000	101.66710000	40.58809000
77.39999558	0.00000000	101.24260000	35.20546000
77.59999556	0.00000000	101.19960000	30.55487000
77.79999555	0.00000000	101.19960000	27.44217000
77.99999554	0.00000000	101.15650000	26.37180000
78.19999553	0.00000000	100.78120000	28.32185000
78.39999552	0.00000000	99.98769000	33.29232000
78.59999550	0.00000000	99.28026000	39.43159000
78.79999549	0.00000000	98.86810000	45.23868000
78.99999548	0.00000000	99.32948000	49.50787000
79.19999547	0.00000000	100.45520000	51.46407000
79.39999546	0.00000000	102.40530000	51.03962000
79.59999544	0.00000000	104.31840000	47.97613000
79.79999543	0.00000000	105.89940000	42.96260000
79.99999542	0.00000000	107.01280000	37.56152000
80.19999541	0.00000000	107.01280000	32.50492000
80.39999540	0.00000000	105.85010000	29.01698000
80.59999539	0.00000000	103.89390000	27.43602000
80.79999537	0.00000000	101.19960000	27.86048000
80.99999536	0.00000000	98.49901000	30.55487000
81.19999535	0.00000000	96.58587000	34.73794000
81.39999534	0.00000000	95.84153000	39.00713000
81.59999533	0.00000000	97.00417000	42.58735000
81.79999531	0.00000000	99.66166000	45.65698000
81.99999530	0.00000000	102.73130000	47.60088000
82.19999529	0.00000000	105.43180000	47.60704000
82.39999528	0.00000000	106.96970000	46.48745000
82.59999527	0.00000000	107.01280000	44.11909000
82.79999525	0.00000000	105.89940000	41.05561000
82.99999524	0.00000000	104.31840000	37.85064000
83.19999523	0.00000000	102.40530000	34.36269000
83.39999522	0.00000000	100.45520000	30.93012000
83.59999521	0.00000000	99.32948000	29.01698000
83.79999520	0.00000000	98.86810000	28.97392000
83.99999518	0.00000000	99.28026000	30.51181000
84.19999517	0.00000000	99.98769000	33.24926000
84.39999516	0.00000000	100.78120000	36.78026000
84.59999515	0.00000000	101.19960000	41.00639000
84.79999514	0.00000000	101.61790000	44.86343000
84.99999512	0.00000000	102.36220000	47.18872000
85.19999511	0.00000000	102.73740000	47.97613000
85.39999510	0.00000000	102.78050000	46.77042000
85.59999509	0.00000000	102.78050000	43.70079000
85.79999508	0.00000000	102.82360000	39.43159000
85.99999506	0.00000000	103.19880000	34.78100000
86.19999505	0.00000000	103.89390000	30.55487000
86.39999504	0.00000000	103.89390000	27.90354000
86.59999503	0.00000000	103.15570000	27.86048000
86.79999502	0.00000000	102.36220000	30.17962000
86.99999501	0.00000000	101.15030000	34.04282000
87.19999499	0.00000000	99.66166000	39.05635000
87.39999498	0.00000000	98.49901000	43.65773000
87.59999497	0.00000000	98.12376000	46.77042000
87.79999496	0.00000000	98.49901000	47.92691000
87.99999495	0.00000000	99.70472000	46.77042000
88.19999493	0.00000000	101.61790000	43.65773000
88.39999492	0.00000000	103.89390000	39.05635000
88.59999491	0.00000000	105.38880000	34.08588000
88.79999490	0.00000000	105.43180000	30.64099000
88.99999489	0.00000000	104.31840000	29.44143000
89.19999487	0.00000000	102.78050000	30.59793000
89.39999486	0.00000000	101.19960000	33.66756000
89.59999485	0.00000000	99.66166000	37.89370000
89.79999484	0.00000000	98.49901000	42.11983000
89.99999483	0.00000000	98.12376000	45.18947000
90.19999482	0.00000000	98.49901000	46.35211000
90.39999480	0.00000000	99.61245000	45.18947000
90.59999479	0.00000000	100.82430000	42.16904000
90.79999478	0.00000000	101.99310000	38.26894000
90.99999477	0.00000000	103.52480000	34.45497000
91.19999476	0.00000000	104.22610000	31.39149000
91.39999474	0.00000000	103.94320000	30.64099000
91.59999473	0.00000000	103.15570000	32.12967000
91.79999472	0.00000000	102.44830000	35.24852000
91.99999471	0.00000000	102.03620000	39.47465000
92.19999470	0.00000000	102.36220000	43.65773000
92.39999468	0.00000000	102.31300000	46.30290000
92.59999467	0.00000000	101.61790000	46.35211000
92.79999466	0.00000000	101.19960000	44.07603000
92.99999465	0.00000000	100.78120000	40.58809000
93.19999464	0.00000000	99.98769000	36.36196000
93.39999463	0.00000000	99.28026000	32.54798000
93.59999461	0.00000000	98.86810000	30.59793000
93.79999460	0.00000000	99.28026000	30.59793000
93.99999459	0.00000000	100.03080000	32.54798000
94.19999458	0.00000000	101.24260000	36.40502000
94.39999457	0.00000000	102.78050000	40.96333000
94.59999455	0.00000000	104.36150000	44.77116000
94.79999454	0.00000000	105.85010000	46.30905000
94.99999453	0.00000000	106.59450000	45.23868000
95.19999452	0.00000000	105.80710000	42.54429000
95.39999451	0.00000000	103.94320000	39.05635000
95.59999449	0.00000000	101.57480000	35.19931000
95.79999448	0.00000000	99.23720000	32.17888000
95.99999447	0.00000000	96.86884000	31.01624000
96.19999446	0.00000000	95.00492000	32.12967000
96.39999445	0.00000000	94.26057000	34.82406000
96.59999444	0.00000000	95.46628000	38.26894000
96.79999442	0.00000000	98.49901000	41.75073000
96.99999441	0.00000000	102.36220000	44.03297000
97.19999440	0.00000000	105.85010000	44.82037000
97.39999439	0.00000000	108.59370000	43.65773000
97.59999438	0.00000000	110.13160000	41.05561000
97.79999436	0.00000000	110.08860000	38.36122000
97.99999435	0.00000000	108.17540000	36.40502000
98.19999434	0.00000000	104.69360000	35.19931000
98.39999433	0.00000000	100.82430000	34.83022000
98.59999432	0.00000000	96.96111000	35.24852000
98.79999430	0.00000000	94.26057000	36.73105000
98.99999429	0.00000000	93.46702000	38.63804000
99.19999428	0.00000000	94.21751000	39.75763000
99.39999427	0.00000000	96.54281000	40.21899000
99.59999426	0.00000000	99.66166000	39.84990000
99.79999425	0.00000000	103.15570000	39.51771000
99.99999423	0.00000000	106.63750000	39.47465000
100.19999422	0.00000000	108.92590000	39.47465000
100.39999421	0.00000000	109.75640000	39.51771000
100.59999420	0.00000000	108.96900000	39.89296000
100.79999419	0.00000000	107.01280000	40.58809000
100.99999417	0.00000000	103.94320000	40.58809000
101.19999416	0.00000000	100.45520000	39.80684000
101.39999415	0.00000000	97.74852000	38.63804000
101.59999414	0.00000000	95.75541000	36.73105000
101.79999413	0.00000000	95.04797000	35.19931000
101.99999411	0.00000000	95.75541000	34.40575000
102.19999410	0.00000000	97.69931000	34.08588000
102.39999409	0.00000000	99.98769000	35.29158000
102.59999408	0.00000000	102.36220000	37.89370000
102.79999407	0.00000000	104.31840000	40.58809000
102.99999406	0.00000000	105.85010000	42.54429000
103.19999404	0.00000000	106.63750000	43.70079000
103.39999403	0.00000000	106.27460000	43.65773000
103.59999402	0.00000000	105.47490000	42.11983000
103.79999401	0.00000000	103.89390000	39.47465000
103.99999400	0.00000000	101.61790000	36.73105000
104.19999398	0.00000000	99.66166000	34.40575000
104.39999397	0.00000000	98.12376000	32.50492000
104.59999396	0.00000000	97.37943000	32.12967000
104.79999395	0.00000000	98.12376000	33.24926000
104.99999394	0.00000000	99.61245000	35.19931000
105.19999392	0.00000000	101.19960000	37.89370000
105.39999391	0.00000000	102.73740000	40.58809000
105.59999390	0.00000000	103.89390000	42.49508000
105.79999389	0.00000000	104.26920000	43.23941000
105.99999388	0.00000000	103.89390000	42.11983000
106.19999387	0.00000000	102.78050000	39.89296000
106.39999385	0.00000000	101.61790000	37.93676000
106.59999384	0.00000000	100.82430000	36.36196000
106.79999383	0.00000000	100.03080000	35.19931000
106.99999382	0.00000000	99.70472000	34.87328000
107.19999381	0.00000000	100.08000000	35.61762000
107.39999379	0.00000000	101.24260000	37.51845000
107.59999378	0.00000000	102.73740000	39.38238000
107.79999377	0.00000000	103.85090000	40.58809000
107.99999376	0.00000000	103.85090000	40.96333000
108.19999375	0.00000000	102.78050000	40.58809000
108.39999374	0.00000000	101.61790000	39.43159000
108.59999372	0.00000000	100.78120000	37.89370000
108.79999371	0.00000000	99.61245000	36.36196000
108.99999370	0.00000000	98.54208000	35.24852000
109.19999369	0.00000000	98.54208000	35.24852000
109.39999368	0.00000000	99.66166000	36.36196000
109.59999366	0.00000000	101.19960000	37.89370000
109.79999365	0.00000000	102.78050000	39.47465000
109.99999364	0.00000000	104.31840000	41.00639000
110.19999363	0.00000000	105.43180000	42.11983000
110.39999362	0.00000000	105.43180000	42.11983000
110.59999360	0.00000000	104.31840000	41.00639000
110.79999359	0.00000000	102.78050000	39.47465000
110.99999358	0.00000000	101.24260000	37.89370000
111.19999357	0.00000000	100.03080000	36.40502000
111.39999356	0.00000000	99.28026000	35.61762000
111.59999355	0.00000000	98.91731000	35.98671000
111.79999353	0.00000000	99.66166000	36.68799000
111.99999352	0.00000000	100.78120000	37.51845000
112.19999351	0.00000000	101.57480000	38.31200000
112.39999350	0.00000000	102.40530000	39.47465000
112.59999349	0.00000000	103.15570000	40.58809000
112.79999347	0.00000000	103.89390000	40.96333000
112.99999346	0.00000000	103.89390000	40.63730000
113.19999345	0.00000000	103.15570000	39.84990000
113.39999344	0.00000000	102.40530000	39.09941000
113.59999343	0.00000000	101.57480000	38.31200000
113.79999341	0.00000000	100.86740000	37.93676000
113.99999340	0.00000000	100.45520000	37.89370000
114.19999339	0.00000000	100.82430000	37.89370000
114.39999338	0.00000000	101.19960000	37.89370000
114.59999337	0.00000000	101.61790000	37.89370000
114.79999336	0.00000000	102.36220000	37.89370000
114.99999334	0.00000000	102.73740000	37.85064000
115.19999333	0.00000000	102.78050000	37.51845000
115.39999332	0.00000000	102.78050000	37.14936000
115.59999331	0.00000000	102.78050000	37.51845000
115.79999330	0.00000000	102.73740000	37.89370000
115.99999328	0.00000000	102.36220000	38.31200000
116.19999327	0.00000000	101.61790000	39.05635000
116.39999326	0.00000000	101.19960000	39.43159000
116.59999325	0.00000000	100.82430000	39.51771000
116.79999324	0.00000000	100.45520000	39.84990000
116.99999322	0.00000000	100.82430000	40.16978000
117.19999321	0.00000000	101.19960000	39.43159000
117.39999320	0.00000000	101.61790000	38.31200000
117.59999319	0.00000000	102.40530000	37.51845000
117.79999318	0.00000000	103.15570000	36.73105000
117.99999317	0.00000000	103.94320000	36.35580000
118.19999315	0.00000000	104.26920000	36.31274000
118.39999314	0.00000000	103.89390000	36.35580000
118.59999313	0.00000000	102.78050000	36.73105000
118.79999312	0.00000000	101.61790000	37.51845000
118.99999311	0.00000000	100.78120000	38.26894000
119.19999309	0.00000000	99.61245000	39.05635000
119.39999308	0.00000000	98.49901000	39.43159000
119.59999307	0.00000000	98.12376000	39.47465000
119.79999306	0.00000000	98.49901000	39.43159000
119.99999305	0.00000000	99.66166000	39.05635000
120.19999303	0.00000000	101.19960000	38.31200000
120.39999302	0.00000000	102.73740000	37.93676000
120.59999301	0.00000000	103.89390000	37.89370000
120.79999300	0.00000000	104.31840000	37.85064000
120.99999299	0.00000000	104.31840000	37.47539000
121.19999298	0.00000000	103.89390000	36.73105000
121.39999296	0.00000000	102.73740000	36.35580000
121.59999295	0.00000000	101.19960000	36.31274000
121.79999294	0.00000000	99.66166000	36.35580000
121.99999293	0.00000000	98.49901000	36.73105000
122.19999292	0.00000000	98.07455000	37.51845000
122.39999290	0.00000000	98.12376000	38.26894000
122.59999289	0.00000000	98.87426000	39.05635000
122.79999288	0.00000000	100.40600000	39.47465000
122.99999287	0.00000000	101.53170000	39.84990000
123.19999286	0.00000000	102.40530000	40.21899000
123.39999284	0.00000000	103.15570000	39.84990000
123.59999283	0.00000000	103.94320000	39.47465000
123.79999282	0.00000000	104.26920000	39.05635000
123.99999281	0.00000000	103.94320000	38.31200000
124.19999280	0.00000000	103.15570000	37.93676000
124.39999279	0.00000000	102.40530000	37.89370000
124.59999277	0.00000000	101.61790000	37.89370000
124.79999276	0.00000000	101.19960000	37.89370000
124.99999275	0.00000000	100.78120000	37.93676000
125.19999274	0.00000000	100.03080000	38.36122000
125.39999273	0.00000000	99.70472000	39.43159000
125.59999271	0.00000000	100.03080000	40.16978000
125.79999270	0.00000000	100.82430000	39.89296000
125.99999269	0.00000000	101.57480000	39.89296000
126.19999268	0.00000000	102.40530000	40.21899000
126.39999267	0.00000000	103.15570000	39.84990000
126.59999265	0.00000000	103.94320000	39.51771000
126.79999264	0.00000000	104.26920000	39.47465000
126.99999263	0.00000000	103.89390000	39.43159000
127.19999262	0.00000000	102.78050000	39.05635000
127.39999261	0.00000000	101.61790000	38.31200000
127.59999260	0.00000000	100.82430000	37.93676000
127.79999258	0.00000000	100.03080000	37.89370000
127.99999257	0.00000000	99.70472000	37.89370000
128.19999256	0.00000000	99.98769000	37.89370000
128.39999255	0.00000000	100.44910000	37.93676000
128.59999254	0.00000000	100.83050000	38.31200000
128.79999252	0.00000000	102.03000000	39.05635000
128.99999251	0.00000000	103.11270000	39.43159000
129.19999250	0.00000000	103.89390000	39.43159000
129.39999249	0.00000000	103.89390000	39.05635000
129.59999248	0.00000000	103.15570000	38.31200000
129.79999246	0.00000000	102.40530000	37.93676000
129.99999245	0.00000000	101.57480000	37.89370000
130.19999244	0.00000000	100.82430000	37.89370000
130.39999243	0.00000000	100.03080000	37.89370000
130.59999242	0.00000000	99.70472000	37.93676000
130.79999241	0.00000000	100.03080000	38.31200000
130.99999239	0.00000000	100.82430000	39.05635000
131.19999238	0.00000000	101.57480000	39.38238000
131.39999237	0.00000000	102.40530000	39.05635000
131.59999236	0.00000000	103.11270000	38.31200000
131.79999235	0.00000000	103.52480000	37.89370000
131.99999233	0.00000000	103.11270000	37.47539000
132.19999232	0.00000000	102.40530000	36.73105000
132.39999231	0.00000000	101.57480000	36.35580000
132.59999230	0.00000000	100.82430000	36.35580000
132.79999229	0.00000000	100.08000000	36.73105000
132.99999227	0.00000000	100.08000000	37.51845000
133.19999226	0.00000000	100.78120000	38.26894000
133.39999225	0.00000000	101.19960000	39.05635000
133.59999224	0.00000000	101.57480000	39.43159000
133.79999223	0.00000000	101.98700000	39.47465000
133.99999222	0.00000000	101.99310000	39.47465000
134.19999220	0.00000000	102.36220000	39.43159000
134.39999219	0.00000000	102.31300000	39.00713000
134.59999218	0.00000000	101.61790000	37.89370000
134.79999217	0.00000000	101.24260000	36.78026000
134.99999216	0.00000000	101.24260000	36.35580000
135.19999214	0.00000000	101.61790000	36.31274000
135.39999213	0.00000000	102.36220000	36.35580000
135.59999212	0.00000000	102.68820000	36.73105000
135.79999211	0.00000000	102.40530000	37.51845000
135.99999210	0.00000000	101.99310000	38.26894000
136.19999208	0.00000000	101.98700000	39.05635000
136.39999207	0.00000000	101.53170000	39.43159000
136.59999206	0.00000000	100.82430000	39.47465000
136.79999205	0.00000000	100.03080000	39.47465000
136.99999204	0.00000000	99.70472000	39.43159000
137.19999203	0.00000000	100.03080000	39.05635000
137.39999201	0.00000000	100.82430000	38.31200000
137.59999200	0.00000000	101.57480000	37.89370000
137.79999199	0.00000000	102.36220000	37.47539000
137.99999198	0.00000000	102.73740000	36.73105000
138.19999197	0.00000000	102.78050000	36.35580000
138.39999195	0.00000000	102.78050000	36.35580000
138.59999194	0.00000000	102.73740000	36.73105000
138.79999193	0.00000000	102.31300000	37.47539000
138.99999192	0.00000000	101.19960000	37.89370000
139.19999191	0.00000000	100.08000000	38.31200000
139.39999189	0.00000000	99.70472000	39.05635000
139.59999188	0.00000000	100.03080000	39.43159000
139.79999187	0.00000000	100.78120000	39.47465000
139.99999186	0.00000000	101.19960000	39.47465000
140.19999185	0.00000000	101.61790000	39.47465000
140.39999184	0.00000000	102.36220000	39.43159000
140.59999182	0.00000000	102.73740000	39.00713000
140.79999181	0.00000000	102.78050000	37.89370000
140.99999180	0.00000000	102.73740000	36.78026000
141.19999179	0.00000000	102.36220000	36.35580000
141.39999178	0.00000000	101.61790000	36.35580000
141.59999176	0.00000000	101.24260000	36.78026000
141.79999175	0.00000000	101.19960000	37.89370000
141.99999174	0.00000000	101.19960000	39.05635000
142.19999173	0.00000000	101.24260000	39.84990000
142.39999172	0.00000000	101.61790000	40.63730000
142.59999170	0.00000000	102.36220000	41.01255000
142.79999169	0.00000000	102.73740000	41.01255000
142.99999168	0.00000000	102.78050000	40.58809000
143.19999167	0.00000000	102.73740000	39.47465000
143.39999166	0.00000000	102.36220000	38.31200000
143.59999165	0.00000000	101.61790000	37.51845000
143.79999163	0.00000000	101.24260000	36.73105000
143.99999162	0.00000000	101.19960000	36.40502000
144.19999161	0.00000000	101.24260000	36.73105000
144.39999160	0.00000000	101.61790000	37.51845000
144.59999159	0.00000000	102.36220000	38.26894000
144.79999157	0.00000000	102.73740000	39.05635000
144.99999156	0.00000000	102.78050000	39.47465000
145.19999155	0.00000000	102.78050000	39.84990000
145.39999154	0.00000000	102.78050000	40.21899000
145.59999153	0.00000000	102.73740000	39.80684000
145.79999151	0.00000000	102.36220000	39.09941000
145.99999150	0.00000000	101.61790000	38.31200000
146.19999149	0.00000000	101.24260000	37.93676000
146.39999148	0.00000000	101.19960000	37.89370000
146.59999147	0.00000000	101.24260000	37.89370000
146.79999146	0.00000000	101.61790000	37.89370000
146.99999144	0.00000000	102.36220000	37.89370000
147.19999143	0.00000000	102.68820000	37.89370000
147.39999142	0.00000000	102.40530000	37.89370000
147.59999141	0.00000000	101.99310000	37.89370000
147.79999140	0.00000000	101.98700000	37.93676000
147.99999138	0.00000000	101.57480000	38.31200000
148.19999137	0.00000000	101.24260000	39.05635000
148.39999136	0.00000000	101.15650000	39.38238000
148.59999135	0.00000000	100.82430000	39.05635000
148.79999134	0.00000000	100.45520000	38.31200000
148.99999132	0.00000000	100.82430000	37.93676000
149.19999131	0.00000000	101.19960000	37.89370000
149.39999130	0.00000000	101.61790000	37.89370000
149.59999129	0.00000000	102.36220000	37.89370000
149.79999128	0.00000000	102.73740000	37.89370000
149.99999127	0.00000000	102.78050000	37.89370000
150.19999125	0.00000000	102.78050000	37.89370000
150.39999124	0.00000000	102.73740000	37.93676000
150.59999123	0.00000000	102.36220000	38.26894000
150.79999122	0.00000000	101.61790000	38.68110000
150.99999121	0.00000000	101.24260000	38.64419000
151.19999119	0.00000000	101.19960000	38.72416000
151.39999118	0.00000000	101.19960000	38.64419000
151.59999117	0.00000000	101.19960000	38.68110000
151.79999116	0.00000000	101.19960000	38.26894000
151.99999115	0.00000000	101.19960000	37.93676000
152.19999113	0.00000000	101.24260000	37.89370000
152.39999112	0.00000000	101.61790000	37.89370000
152.59999111	0.00000000	102.36220000	37.89370000
152.79999110	0.00000000	102.73740000	37.89370000
152.99999109	0.00000000	102.78050000	37.89370000
153.19999108	0.00000000	102.78050000	37.89370000
153.39999106	0.00000000	102.73740000	37.89370000
153.59999105	0.00000000	102.36220000	37.89370000
153.79999104	0.00000000	101.61790000	37.93676000
153.99999103	0.00000000	101.24260000	38.26894000
154.19999102	0.00000000	101.19960000	38.68110000
154.39999100	0.00000000	101.19960000	38.68725000
154.59999099	0.00000000	101.19960000	39.09941000
154.79999098	0.00000000	101.19960000	39.38238000
154.99999097	0.00000000	101.19960000	39.05635000
155.19999096	0.00000000	101.24260000	38.31200000
155.39999094	0.00000000	101.61790000	37.93676000
155.59999093	0.00000000	102.36220000	37.89370000
155.79999092	0.00000000	102.73740000	37.89370000
155.99999091	0.00000000	102.78050000	37.89370000
156.19999090	0.00000000	102.78050000	37.89370000
156.39999089	0.00000000	102.73740000	37.89370000
156.59999087	0.00000000	102.36220000	37.93676000
156.79999086	0.00000000	101.61790000	38.31200000
156.99999085	0.00000000	101.24260000	39.05635000
157.19999084	0.00000000	101.19960000	39.43159000
157.39999083	0.00000000	101.19960000	39.47465000
157.59999081	0.00000000	101.19960000	39.47465000
157.79999080	0.00000000	101.19960000	39.47465000
157.99999079	0.00000000	101.19960000	39.43159000
158.19999078	0.00000000	101.24260000	39.05635000
158.39999077	0.00000000	101.61790000	38.31200000
158.59999075	0.00000000	102.36220000	37.93676000
158.79999074	0.00000000	102.68820000	37.89370000
158.99999073	0.00000000	102.40530000	37.85064000
159.19999072	0.00000000	102.03620000	37.56152000
159.39999071	0.00000000	102.40530000	37.57381000
159.59999070	0.00000000	102.68820000	38.68110000
159.79999068	0.00000000	102.36220000	39.38238000
159.99999067	0.00000000	101.61790000	39.47465000
160.19999066	0.00000000	101.24260000	39.47465000
160.39999065	0.00000000	101.19960000	39.47465000
160.59999064	0.00000000	101.19960000	39.43159000
160.79999062	0.00000000	101.19960000	39.05635000
160.99999061	0.00000000	101.19960000	38.31200000
161.19999060	0.00000000	101.19960000	37.93676000
161.39999059	0.00000000	101.24260000	37.89370000
161.59999058	0.00000000	101.61790000	37.89370000
161.79999056	0.00000000	102.36220000	37.89370000
161.99999055	0.00000000	102.73740000	37.89370000
162.19999054	0.00000000	102.78050000	37.89370000
162.39999053	0.00000000	102.78050000	37.89370000
162.59999052	0.00000000	102.78050000	37.93676000
162.79999051	0.00000000	102.78050000	38.26894000
162.99999049	0.00000000	102.73740000	38.63804000
163.19999048	0.00000000	102.36220000	38.31200000
163.39999047	0.00000000	101.61790000	38.31200000
163.59999046	0.00000000	101.24260000	38.63804000
163.79999045	0.00000000	101.19960000	38.26894000
163.99999043	0.00000000	101.19960000	37.93676000
164.19999042	0.00000000	101.19960000	37.89370000
164.39999041	0.00000000	101.19960000	37.89370000
164.59999040	0.00000000	101.24260000	37.89370000
164.79999039	0.00000000	101.61790000	37.89370000
164.99999037	0.00000000	102.36220000	37.89370000
165.19999036	0.00000000	102.73740000	37.89370000
165.39999035	0.00000000	102.78050000	37.89370000
165.59999034	0.00000000	102.73740000	37.89370000
165.79999033	0.00000000	102.36220000	37.89370000
165.99999032	0.00000000	101.61790000	37.89370000
166.19999030	0.00000000	101.24260000	37.89370000
166.39999029	0.00000000	101.19960000	37.89370000
166.59999028	0.00000000	101.19960000	37.89370000
166.79999027	0.00000000	101.19960000	37.89370000
166.99999026	0.00000000	101.19960000	37.89370000
167.19999024	0.00000000	101.19960000	37.89370000
167.39999023	0.00000000	101.19960000	37.89370000
167.59999022	0.00000000	101.19960000	37.89370000
167.79999021	0.00000000	101.24260000	37.89370000
167.99999020	0.00000000	101.61790000	37.89370000
168.19999018	0.00000000	102.36220000	37.89370000
168.39999017	0.00000000	102.73740000	37.89370000
168.59999016	0.00000000	102.78050000	37.89370000
168.79999015	0.00000000	102.73740000	37.89370000
168.99999014	0.00000000	102.36220000	37.89370000
169.19999013	0.00000000	101.61790000	37.89370000
169.39999011	0.00000000	101.24260000	37.89370000
169.59999010	0.00000000	101.19960000	37.89370000
169.79999009	0.00000000	101.19960000	37.89370000
169.99999008	0.00000000	101.19960000	37.89370000
170.19999007	0.00000000	101.19960000	37.85064000
170.39999005	0.00000000	101.19960000	37.51845000
170.59999004	0.00000000	101.24260000	37.14936000
170.79999003	0.00000000	101.57480000	37.51845000
170.99999002	0.00000000	101.98700000	37.85064000
171.19999001	0.00000000	101.99310000	37.89370000
171.39998999	0.00000000	102.40530000	37.89370000
171.59998998	0.00000000	102.68820000	37.89370000
171.79998997	0.00000000	102.36220000	37.89370000
171.99998996	0.00000000	101.61790000	37.89370000
172.19998995	0.00000000	101.24260000	37.89370000
172.39998994	0.00000000	101.19960000	37.89370000
172.59998992	0.00000000	101.19960000	37.89370000
172.79998991	0.00000000	101.19960000	37.89370000
172.99998990	0.00000000	101.19960000	37.89370000
173.19998989	0.00000000	101.24260000	37.93676000
173.39998988	0.00000000	101.61790000	38.31200000
173.59998986	0.00000000	102.36220000	39.05635000
173.79998985	0.00000000	102.73740000	39.43159000
173.99998984	0.00000000	102.78050000	39.47465000
174.19998983	0.00000000	102.73740000	39.43159000
174.39998982	0.00000000	102.40530000	39.05635000
174.59998980	0.00000000	102.03620000	38.31200000
174.79998979	0.00000000	102.40530000	37.98597000
174.99998978	0.00000000	102.73740000	38.31200000
175.19998977	0.00000000	102.78050000	39.00713000
175.39998976	0.00000000	102.73740000	39.00713000
175.59998975	0.00000000	102.36220000	38.36122000
175.79998973	0.00000000	101.66710000	38.36122000
175.99998972	0.00000000	101.66710000	39.05635000
176.19998971	0.00000000	102.36220000	39.43159000
176.39998970	0.00000000	102.73740000	39.47465000
176.59998969	0.00000000	102.78050000	39.47465000
176.79998967	0.00000000	102.78050000	39.47465000
176.99998966	0.00000000	102.78050000	39.47465000
177.19998965	0.00000000	102.73740000	39.43159000
177.39998964	0.00000000	102.40530000	39.05635000
177.59998963	0.00000000	101.99310000	38.31200000
177.79998961	0.00000000	101.98700000	37.93676000
177.99998960	0.00000000	101.57480000	37.89370000
178.19998959	0.00000000	101.24260000	37.89370000
178.39998958	0.00000000	101.19960000	37.89370000
178.59998957	0.00000000	101.19960000	37.89370000
178.79998956	0.00000000	101.19960000	37.89370000
178.99998954	0.00000000	101.24260000	37.89370000
179.19998953	0.00000000	101.61790000	37.89370000
179.39998952	0.00000000	102.31300000	37.89370000
179.59998951	0.00000000	102.31300000	37.89370000
179.79998950	0.00000000	101.66710000	37.89370000
179.99998948	0.00000000	101.61790000	37.85064000
180.19998947	0.00000000	101.94390000	37.47539000
180.39998946	0.00000000	101.57480000	36.73105000
180.59998945	0.00000000	101.24260000	36.35580000
180.79998944	0.00000000	101.19960000	36.35580000
180.99998942	0.00000000	101.19960000	36.73105000
181.19998941	0.00000000	101.19960000	37.47539000
181.39998940	0.00000000	101.24260000	37.85064000
181.59998939	0.00000000	101.57480000	37.89370000
181.79998938	0.00000000	101.94390000	37.89370000
181.99998937	0.00000000	101.57480000	37.89370000
182.19998935	0.00000000	101.24260000	37.89370000
182.39998934	0.00000000	101.24260000	37.89370000
182.59998933	0.00000000	101.57480000	37.89370000
182.79998932	0.00000000	101.94390000	37.89370000
182.99998931	0.00000000	101.61790000	37.89370000
183.19998929	0.00000000	101.61790000	37.85064000
183.39998928	0.00000000	101.98700000	37.51845000
183.59998927	0.00000000	101.95000000	37.10630000
183.79998926	0.00000000	101.98700000	37.14321000
183.99998925	0.00000000	101.57480000	37.10630000
184.19998923	0.00000000	101.24260000	37.51845000
184.39998922	0.00000000	101.19960000	37.89370000
184.59998921	0.00000000	101.19960000	38.31200000
184.79998920	0.00000000	101.19960000	39.05635000
184.99998919	0.00000000	101.19960000	39.43159000
185.19998918	0.00000000	101.19960000	39.47465000
185.39998916	0.00000000	101.24260000	39.43159000
185.59998915	0.00000000	101.61790000	39.05635000
185.79998914	0.00000000	102.36220000	38.31200000
185.99998913	0.00000000	102.73740000	37.93676000
186.19998912	0.00000000	102.78050000	37.89370000
186.39998910	0.00000000	102.78050000	37.89370000
186.59998909	0.00000000	102.73740000	37.89370000
186.79998908	0.00000000	102.36220000	37.89370000
186.99998907	0.00000000	101.61790000	37.89370000
187.19998906	0.00000000	101.24260000	37.93676000
187.39998904	0.00000000	101.19960000	38.31200000
187.59998903	0.00000000	101.19960000	39.05635000
187.79998902	0.00000000	101.24260000	39.43159000
187.99998901	0.00000000	101.57480000	39.47465000
188.19998900	0.00000000	101.98700000	39.47465000
188.39998899	0.00000000	101.99310000	39.47465000
188.59998897	0.00000000	102.40530000	39.43159000
188.79998896	0.00000000	102.73740000	39.05635000
188.99998895	0.00000000	102.78050000	38.31200000
189.19998894	0.00000000	102.78050000	37.93676000
189.39998893	0.00000000	102.78050000	37.89370000
189.59998891	0.00000000	102.78050000	37.89370000
189.79998890	0.00000000	102.78050000	37.89370000
189.99998889	0.00000000	102.73740000	37.89370000
190.19998888	0.00000000	102.36220000	37.89370000
190.39998887	0.00000000	101.61790000	37.93676000
190.59998885	0.00000000	101.24260000	38.31200000
190.79998884	0.00000000	101.19960000	39.05635000
190.99998883	0.00000000	101.24260000	39.43159000
191.19998882	0.00000000	101.57480000	39.43159000
191.39998881	0.00000000	101.98700000	39.05635000
191.59998880	0.00000000	101.99310000	38.31200000
191.79998878	0.00000000	102.40530000	37.93676000
191.99998877	0.00000000	102.73740000	37.89370000
192.19998876	0.00000000	102.78050000	37.89370000
192.39998875	0.00000000	102.73740000	37.89370000
192.59998874	0.00000000	102.36220000	37.89370000
192.79998872	0.00000000	101.61790000	37.89370000
192.99998871	0.00000000	101.24260000	37.89370000
193.19998870	0.00000000	101.19960000	37.89370000
193.39998869	0.00000000	101.19960000	37.89370000
193.59998868	0.00000000	101.19960000	37.89370000
193.79998866	0.00000000	101.19960000	37.89370000
193.99998865	0.00000000	101.19960000	37.89370000
194.19998864	0.00000000	101.24260000	37.89370000
194.39998863	0.00000000	101.57480000	37.89370000
194.59998862	0.00000000	101.98700000	37.89370000
194.79998861	0.00000000	101.95000000	37.89370000
194.99998859	0.00000000	102.03000000	37.89370000
195.19998858	0.00000000	101.95000000	37.89370000
195.39998857	0.00000000	101.98700000	37.89370000
195.59998856	0.00000000	101.57480000	37.89370000
195.79998855	0.00000000	101.24260000	37.89370000
195.99998853	0.00000000	101.19960000	37.89370000
