Time	Channel A	Channel B	Channel C
(us)	(V)	(mV)	(mV)

-4.49999956	0.00000000	25.29527000	7.89247000
-4.29999957	0.00000000	25.29527000	7.89247000
-4.09999958	0.00000000	25.29527000	7.89247000
-3.89999959	0.00000000	25.29527000	7.84940900
-3.69999960	0.00000000	25.25221000	7.51722400
-3.49999962	0.00000000	24.92003000	7.14812900
-3.29999963	0.00000000	24.55093000	7.51722400
-3.09999964	0.00000000	24.92003000	7.84940900
-2.89999965	0.00000000	25.25221000	7.89247000
-2.69999966	0.00000000	25.29527000	7.89247000
-2.49999968	0.00000000	25.29527000	7.89247000
-2.29999969	0.00000000	25.25221000	7.89247000
-2.09999970	0.00000000	24.92003000	7.89247000
-1.89999971	0.00000000	24.55093000	7.89247000
-1.69999972	0.00000000	24.92003000	7.89247000
-1.49999973	0.00000000	25.20300000	7.89247000
-1.29999975	0.00000000	24.92003000	7.89247000
-1.09999976	0.00000000	24.55093000	7.89247000
-0.89999977	0.00000000	24.87697000	7.89247000
-0.69999978	0.00000000	24.87697000	7.89247000
-0.49999979	0.00000000	24.55093000	7.89247000
-0.29999981	0.31803640	24.92003000	7.89247000
-0.09999982	0.63668800	25.25221000	7.89247000
0.10000017	0.95533960	25.29527000	7.89247000
0.30000016	0.95533960	25.29527000	7.89247000
0.50000015	0.79601380	25.29527000	7.89247000
0.70000013	0.15871060	25.29527000	7.89247000
0.90000012	-0.47736220	25.29527000	7.89247000
1.10000011	-1.59264300	25.29527000	7.89247000
1.30000010	-2.38927200	25.29527000	7.89247000
1.50000009	-2.86724900	25.29527000	7.89247000
1.70000008	-2.38927200	25.29527000	7.93553100
1.90000006	-1.27399100	25.25221000	8.26771600
2.10000005	0.63668800	24.87697000	8.63681000
2.30000004	2.70792300	24.18184000	8.26771600
2.50000003	4.45989200	24.13263000	7.93553100
2.70000002	5.41584600	24.50172000	7.89247000
2.90000000	4.77854300	24.50787000	7.89247000
3.09999999	2.86724900	24.92003000	7.89247000
3.29999998	-0.15871060	25.25221000	7.89247000
3.49999997	-3.66326300	25.29527000	7.89247000
3.69999996	-6.53112700	25.29527000	7.89247000
3.89999994	-7.96444400	25.29527000	7.89247000
4.09999993	-7.48646600	25.29527000	7.89247000
4.29999992	-4.93786900	25.29527000	7.89247000
4.49999991	-0.95533960	25.25221000	7.89247000
4.69999990	3.50393700	24.92003000	7.89247000
4.89999989	7.32714100	24.55093000	7.89247000
5.09999987	9.23905000	24.87697000	7.89247000
5.29999986	9.07972400	24.82775000	7.84940900
5.49999985	6.37180100	24.13263000	7.47416300
5.69999984	2.07062000	23.75738000	6.77903500
5.89999983	-2.54859700	23.75738000	6.77903500
6.09999981	-6.69045300	24.08957000	7.47416300
6.29999980	-9.07972400	24.50172000	7.84940900
6.49999979	-9.23905000	24.50787000	7.89247000
6.69999978	-7.00848900	24.92003000	7.89247000
6.89999977	-3.18590100	25.25221000	7.89247000
7.09999975	1.11466500	25.29527000	7.89247000
7.29999974	4.93786900	25.25221000	7.89247000
7.49999973	7.32714100	24.87697000	7.89247000
7.69999972	7.64579200	24.13263000	7.89247000
7.89999971	6.05315000	23.80659000	7.89247000
8.09999970	3.34522600	24.08957000	7.89247000
8.29999968	0.00000000	24.45866000	7.89247000
8.49999967	-2.86724900	24.13263000	7.89247000
8.69999966	-4.77854300	24.18184000	7.89247000
8.89999965	-5.09719500	24.82775000	7.89247000
9.09999964	-4.30056600	24.87697000	7.89247000
9.29999962	-2.70792300	24.50787000	7.89247000
9.49999961	-0.63668800	24.54478000	7.89247000
9.69999960	1.11466500	24.50787000	7.89247000
9.89999959	2.22994600	24.92003000	7.89247000
10.09999958	2.54859700	25.25221000	7.89247000
10.29999956	2.22994600	25.29527000	7.89247000
10.49999955	1.43331700	25.29527000	7.89247000
10.69999954	0.47736220	25.29527000	7.89247000
10.89999953	-0.31803640	25.29527000	7.89247000
11.09999952	-0.79601380	25.25221000	7.89247000
11.29999951	-0.95533960	24.92003000	7.93553100
11.49999949	-0.95533960	24.50787000	8.26771600
11.69999948	-0.79601380	24.50172000	8.63681000
11.89999947	-0.47736220	24.08957000	8.26771600
12.09999946	-0.15871060	23.75738000	7.93553100
12.29999945	-0.15871060	23.71432000	7.89247000
12.49999943	-0.15871060	23.75738000	7.89247000
12.69999942	0.00000000	24.08957000	7.89247000
12.89999941	0.00000000	24.45866000	7.89247000
13.09999940	0.00000000	24.13263000	7.89247000
13.29999939	0.00000000	24.18184000	7.89247000
13.49999937	0.00000000	24.87697000	7.89247000
13.69999936	0.00000000	25.20300000	7.89247000
13.89999935	-0.15871060	24.87697000	7.89247000
14.09999934	-0.15871060	24.13263000	7.89247000
14.29999933	-0.15871060	23.80659000	7.89247000
14.49999932	-0.15871060	24.13263000	7.89247000
14.69999930	0.00000000	24.87697000	7.89247000
14.89999929	0.00000000	25.25221000	7.89247000
15.09999928	0.00000000	25.25221000	7.89247000
15.29999927	0.00000000	24.87697000	7.89247000
15.49999926	0.00000000	24.13263000	7.89247000
15.69999924	0.00000000	23.75738000	7.89247000
15.89999923	0.00000000	23.71432000	7.89247000
16.09999922	0.00000000	23.71432000	7.89247000
16.29999921	0.00000000	23.75738000	7.89247000
16.49999920	-0.15871060	24.13263000	7.89247000
16.69999919	-0.15871060	24.87697000	7.89247000
16.89999917	0.00000000	25.25221000	7.89247000
17.09999916	0.00000000	25.33834000	7.89247000
17.29999915	0.00000000	25.71358000	7.89247000
17.49999914	0.00000000	26.45792000	7.89247000
17.69999913	0.00000000	26.78395000	7.89247000
17.89999911	0.00000000	26.36565000	7.89247000
18.09999910	0.00000000	24.87697000	7.89247000
18.29999909	0.00000000	22.96998000	7.89247000
18.49999908	0.00000000	21.75812000	7.89247000
18.69999907	0.00000000	20.55241000	7.89247000
18.89999905	0.00000000	19.43897000	7.89247000
19.09999904	0.00000000	19.10679000	7.89247000
19.29999903	0.00000000	19.90034000	7.89247000
19.49999902	0.00000000	22.26870000	7.89247000
19.69999901	0.00000000	25.71358000	7.89247000
19.89999900	0.00000000	29.61983000	7.89247000
20.09999898	0.00000000	33.06471000	7.89247000
20.29999897	0.00000000	35.34695000	7.84940900
20.49999896	0.00000000	35.25467000	7.51722400
20.69999895	0.00000000	32.13582000	7.14812900
20.89999894	0.00000000	26.32259000	7.51722400
21.09999892	0.00000000	18.97145000	7.84940900
21.29999891	0.00000000	11.62032000	7.89247000
21.49999890	0.00000000	5.85014700	7.89247000
21.69999889	0.00000000	3.24188000	7.89247000
21.89999888	0.00000000	5.29035400	7.89247000
22.09999886	0.00000000	12.64149000	7.89247000
22.29999885	0.00000000	23.84965000	7.89247000
22.49999884	0.00000000	36.23277000	7.89247000
22.69999883	0.00000000	47.44094000	7.89247000
22.89999882	0.00000000	54.65674000	7.89247000
23.09999881	0.00000000	55.35186000	7.89247000
23.29999879	0.00000000	48.33292000	7.93553100
23.49999878	0.00000000	34.79330000	8.31077700
23.69999877	0.00000000	17.39050000	9.05511800
23.89999876	0.00000000	0.03690945	9.43036400
24.09999875	0.00000000	-13.03519000	9.43036400
24.29999873	0.00000000	-18.38706000	9.00590400
24.49999872	0.00000000	-14.06250000	7.84940900
24.69999871	0.00000000	-0.47982280	6.31151500
24.89999870	0.00000000	19.99262000	4.73671200
25.09999869	0.00000000	42.74114000	3.19881900
25.29999867	0.00000000	62.00787000	2.08538400
25.49999866	0.00000000	73.22219000	2.08538400
25.69999865	0.00000000	73.54823000	3.24803100
25.89999864	0.00000000	62.70300000	5.24729300
26.09999863	0.00000000	42.56274000	8.40305000
26.29999862	0.00000000	17.43971000	12.62918000
26.49999860	0.00000000	-7.17888700	16.81225000
26.69999859	0.00000000	-24.90157000	19.46358000
26.89999858	0.00000000	-30.72096000	19.46358000
27.09999857	0.00000000	-24.24951000	16.72613000
27.29999856	0.00000000	-7.22194800	11.61417000
27.49999854	0.00000000	16.36319000	4.26919300
27.69999853	0.00000000	41.49237000	-3.80782500
27.89999852	0.00000000	62.70300000	-10.31619000
28.09999851	0.00000000	74.66781000	-13.74877000
28.29999850	0.00000000	74.75394000	-12.50000000
28.49999848	0.00000000	63.63803000	-6.32381900
28.69999847	0.00000000	44.69734000	3.75246000
28.89999846	0.00000000	22.18258000	15.74188000
29.09999845	0.00000000	0.21530510	27.31299000
29.29999844	0.00000000	-15.96334000	35.72219000
29.49999843	0.00000000	-21.88115000	38.37352000
29.69999841	0.00000000	-17.73499000	34.09818000
29.89999840	0.00000000	-5.35802100	23.64665000
30.09999839	0.00000000	12.78297000	8.91978400
30.29999838	0.00000000	32.09276000	-7.29576700
30.49999837	0.00000000	48.41904000	-21.51206000
30.69999835	0.00000000	58.88902000	-29.97047000
30.89999834	0.00000000	61.58956000	-30.34572000
31.09999833	0.00000000	55.86245000	-22.58243000
31.29999832	0.00000000	43.53469000	-7.90477300
31.49999831	0.00000000	28.08194000	10.62992000
31.69999829	0.00000000	12.59842000	28.75861000
31.89999828	0.00000000	0.59055110	42.69193000
32.09999827	0.00000000	-5.64099400	49.24950000
32.29999826	0.00000000	-5.26574800	47.33637000
32.49999825	0.00000000	1.66092500	37.26009000
32.69999824	0.00000000	13.15822000	21.03838000
32.89999822	0.00000000	25.90428000	2.08538400
33.09999821	0.00000000	36.74950000	-15.66191000
33.29999820	0.00000000	43.76845000	-28.38951000
33.49999819	0.00000000	45.72466000	-33.03395000
33.69999818	0.00000000	42.65502000	-28.85088000
33.89999816	0.00000000	35.34695000	-17.28592000
34.09999815	0.00000000	25.76279000	-1.07037400
34.29999814	0.00000000	16.87377000	16.35089000
34.49999813	0.00000000	10.68528000	31.40379000
34.69999812	0.00000000	8.31692900	41.06791000
34.89999810	0.00000000	10.21776000	43.02411000
35.09999809	0.00000000	15.20054000	37.30315000
35.29999808	0.00000000	22.13336000	25.68897000
35.49999807	0.00000000	29.02313000	10.62992000
35.69999806	0.00000000	33.67372000	-4.74286400
35.89999805	0.00000000	35.26082000	-16.31397000
36.09999803	0.00000000	33.72293000	-21.37672000
36.29999802	0.00000000	29.48450000	-19.51279000
36.49999801	0.00000000	23.75738000	-11.42962000
36.69999800	0.00000000	18.36245000	0.46751960
36.89999799	0.00000000	14.91757000	13.19513000
37.09999797	0.00000000	14.08710000	23.55438000
37.29999796	0.00000000	16.03715000	28.94316000
37.49999795	0.00000000	19.85728000	27.82972000
37.69999794	0.00000000	24.92003000	20.99532000
37.89999793	0.00000000	29.85974000	11.04823000
38.09999791	0.00000000	33.29847000	1.06422200
38.29999790	0.00000000	33.72293000	-6.23154500
38.49999789	0.00000000	31.48376000	-8.92593500
38.69999788	0.00000000	28.03888000	-6.27460600
38.89999787	0.00000000	24.13263000	0.64591530
39.09999786	0.00000000	20.59547000	9.80561000
39.29999784	0.00000000	17.52584000	18.62697000
39.49999783	0.00000000	15.57579000	23.92962000
39.69999782	0.00000000	15.56963000	24.34178000
39.89999781	0.00000000	16.69537000	19.32825000
40.09999780	0.00000000	19.06373000	10.54380000
40.29999778	0.00000000	22.13336000	0.55364170
40.49999777	0.00000000	25.25221000	-7.85556000
40.69999776	0.00000000	27.98966000	-12.08169000
40.89999775	0.00000000	29.94586000	-10.92520000
41.09999774	0.00000000	31.10851000	-4.74286400
41.29999772	0.00000000	31.10851000	5.20423200
41.49999771	0.00000000	29.94586000	15.93258000
41.69999770	0.00000000	27.98966000	24.02190000
41.89999769	0.00000000	25.29527000	27.92200000
42.09999768	0.00000000	22.60088000	26.71629000
42.29999767	0.00000000	20.59547000	20.62008000
42.49999765	0.00000000	19.01451000	11.42347000
42.69999764	0.00000000	17.85802000	2.17765700
42.89999763	0.00000000	17.52584000	-5.16117100
43.09999762	0.00000000	18.27633000	-9.01205700
43.29999761	0.00000000	20.22022000	-8.27386800
43.49999759	0.00000000	22.50861000	-3.72170300
43.69999758	0.00000000	24.87697000	3.15575800
43.89999757	0.00000000	26.78395000	10.11934000
44.09999756	0.00000000	27.98966000	15.56348000
44.29999755	0.00000000	28.41412000	19.04527000
44.49999753	0.00000000	28.45718000	19.42052000
44.69999752	0.00000000	28.41412000	16.81225000
44.89999751	0.00000000	28.03888000	12.58612000
45.09999750	0.00000000	27.20841000	7.93553100
45.29999749	0.00000000	25.99040000	3.66633800
45.49999748	0.00000000	23.67126000	0.59670270
45.69999746	0.00000000	20.97072000	-0.60285430
45.89999745	0.00000000	18.55315000	0.13533460
46.09999744	0.00000000	15.85261000	2.04232300
46.29999743	0.00000000	13.61959000	4.77977300
46.49999742	0.00000000	13.29355000	7.84940900
46.69999740	0.00000000	15.20054000	10.58686000
46.89999739	0.00000000	19.14985000	12.49385000
47.09999738	0.00000000	24.55093000	13.28125000
47.29999737	0.00000000	30.78248000	12.49385000
47.49999736	0.00000000	36.14050000	10.62992000
47.69999734	0.00000000	39.62844000	8.26771600
47.89999733	0.00000000	39.91141000	5.93626900
48.09999732	0.00000000	36.41732000	3.61712600
48.29999731	0.00000000	29.44143000	2.12844500
48.49999730	0.00000000	20.59547000	2.08538400
48.69999729	0.00000000	12.08784000	3.29109200
48.89999727	0.00000000	5.94242000	5.61638700
49.09999726	0.00000000	3.61712600	9.05511800
49.29999725	0.00000000	5.98548200	12.11860000
49.49999724	0.00000000	12.54921000	14.11786000
49.69999723	0.00000000	22.22564000	15.23130000
49.89999721	0.00000000	32.56028000	14.76993000
50.09999720	0.00000000	40.64960000	12.07554000
50.29999719	0.00000000	44.14370000	7.89247000
50.49999718	0.00000000	42.65502000	3.66633800
50.69999717	0.00000000	36.83563000	0.55364170
50.89999715	0.00000000	27.94660000	-1.02116100
51.09999714	0.00000000	17.98720000	-0.97810030
51.29999713	0.00000000	9.89788300	0.97194880
51.49999712	0.00000000	5.98548200	4.82898600
51.69999711	0.00000000	6.36072800	9.38115100
51.89999710	0.00000000	11.01747000	13.23819000
52.09999708	0.00000000	19.06373000	15.18824000
52.29999707	0.00000000	27.86048000	15.23130000
52.49999706	0.00000000	34.79330000	13.69956000
52.69999705	0.00000000	37.91216000	10.96211000
52.89999704	0.00000000	36.79257000	7.47416300
53.09999702	0.00000000	32.18504000	3.66633800
53.29999701	0.00000000	25.25221000	1.01501000
53.49999700	0.00000000	17.98720000	0.59670270
53.69999699	0.00000000	12.64149000	2.08538400
53.89999698	0.00000000	11.06053000	4.77977300
54.09999696	0.00000000	13.33661000	7.84940900
54.29999695	0.00000000	18.31939000	10.49459000
54.49999694	0.00000000	24.82775000	11.65723000
54.69999693	0.00000000	30.55487000	10.96211000
54.89999692	0.00000000	33.67372000	9.42421200
55.09999691	0.00000000	33.67372000	7.47416300
55.29999689	0.00000000	30.60408000	5.24729300
55.49999688	0.00000000	25.25221000	4.12770700
55.69999687	0.00000000	19.48204000	4.87204700
55.89999686	0.00000000	14.87451000	6.77903500
56.09999685	0.00000000	12.54921000	9.47342500
56.29999683	0.00000000	13.33661000	12.07554000
56.49999682	0.00000000	16.78149000	13.23819000
56.69999681	0.00000000	22.17643000	12.45079000
56.89999680	0.00000000	27.90354000	10.11934000
57.09999679	0.00000000	32.13582000	6.26845500
57.29999677	0.00000000	33.71678000	2.08538400
57.49999676	0.00000000	32.60334000	-0.93503930
57.69999675	0.00000000	29.48450000	-1.71628900
57.89999674	0.00000000	24.87697000	0.22760820
58.09999673	0.00000000	19.90034000	4.08464600
58.29999672	0.00000000	16.45546000	9.51648500
58.49999670	0.00000000	15.20054000	15.23130000
58.69999669	0.00000000	15.98794000	19.42052000
58.89999668	0.00000000	18.27633000	20.53395000
59.09999667	0.00000000	21.75812000	17.88263000
59.29999666	0.00000000	25.20300000	12.49385000
59.49999664	0.00000000	27.94660000	5.94242000
59.69999663	0.00000000	29.44143000	-0.64591530
59.89999662	0.00000000	29.06619000	-5.57947800
60.09999661	0.00000000	26.78395000	-7.48031400
60.29999660	0.00000000	23.75738000	-5.16117100
60.49999658	0.00000000	21.06299000	0.55364170
60.69999657	0.00000000	19.52510000	7.89247000
60.89999656	0.00000000	19.48204000	15.23130000
61.09999655	0.00000000	20.64468000	20.99532000
61.29999654	0.00000000	22.55167000	23.64665000
61.49999653	0.00000000	24.82775000	22.10876000
61.69999651	0.00000000	26.36565000	16.72613000
61.89999650	0.00000000	26.78395000	9.05511800
62.09999649	0.00000000	26.40871000	0.92888770
62.29999648	0.00000000	25.20300000	-5.57947800
62.49999647	0.00000000	23.24680000	-9.10433000
62.69999645	0.00000000	20.59547000	-8.69217500
62.89999644	0.00000000	18.41166000	-4.83513700
63.09999643	0.00000000	18.31939000	2.08538400
63.29999642	0.00000000	19.80192000	10.11934000
63.49999641	0.00000000	21.38902000	16.71998000
63.69999639	0.00000000	23.75738000	20.99532000
63.89999638	0.00000000	26.36565000	22.10876000
64.09999637	0.00000000	27.90354000	19.46358000
64.29999636	0.00000000	27.94660000	14.11786000
64.49999635	0.00000000	26.78395000	7.93553100
64.69999634	0.00000000	24.87697000	2.12844500
64.89999632	0.00000000	22.55167000	-2.14074800
65.09999631	0.00000000	20.64468000	-4.09079700
65.29999630	0.00000000	19.48204000	-3.76476400
65.49999629	0.00000000	19.48204000	-1.44562000
65.69999628	0.00000000	20.64468000	1.99311000
65.89999626	0.00000000	22.50861000	5.89320800
66.09999625	0.00000000	24.45866000	9.38115100
66.29999624	0.00000000	25.57825000	12.16781000
66.49999623	0.00000000	25.99040000	14.11786000
66.69999622	0.00000000	25.15994000	15.27436000
66.89999620	0.00000000	23.33907000	15.27436000
67.09999619	0.00000000	21.43824000	14.16092000
67.29999618	0.00000000	20.64468000	12.58612000
67.49999617	0.00000000	20.59547000	10.53765000
67.69999616	0.00000000	21.06299000	7.42495000
67.89999615	0.00000000	22.64394000	3.57406500
68.09999613	0.00000000	25.29527000	0.09227362
68.29999612	0.00000000	27.90354000	-2.60211600
68.49999611	0.00000000	29.06619000	-3.71555100
68.69999610	0.00000000	28.27879000	-2.55905500
68.89999609	0.00000000	25.94734000	0.51058070
69.09999607	0.00000000	22.09030000	4.82898600
69.29999606	0.00000000	17.85802000	9.89173200
69.49999605	0.00000000	14.40699000	15.28051000
69.69999604	0.00000000	12.50615000	19.46358000
69.89999603	0.00000000	13.33661000	20.99532000
70.09999601	0.00000000	16.78149000	19.46358000
70.29999600	0.00000000	22.17643000	15.18824000
70.49999599	0.00000000	27.94660000	9.05511800
70.69999598	0.00000000	32.60334000	2.50369100
70.89999597	0.00000000	35.34695000	-2.46678100
71.09999596	0.00000000	35.63607000	-4.87819900
71.29999594	0.00000000	32.92938000	-4.50910400
71.49999593	0.00000000	27.16535000	-2.18380900
71.69999592	0.00000000	20.64468000	2.12844500
71.89999591	0.00000000	14.73917000	7.84940900
72.09999590	0.00000000	10.17470000	13.18898000
72.29999588	0.00000000	8.27386800	16.30167000
72.49999587	0.00000000	10.21776000	16.76919000
72.69999586	0.00000000	15.15748000	15.23130000
72.89999585	0.00000000	21.75812000	12.16166000
73.09999584	0.00000000	28.32185000	8.35998900
73.29999582	0.00000000	33.72293000	5.29035400
73.49999581	0.00000000	36.41732000	3.70939900
73.69999580	0.00000000	35.67913000	3.66633800
73.89999579	0.00000000	32.22810000	4.77977300
74.09999578	0.00000000	26.78395000	6.31151500
74.29999577	0.00000000	20.64468000	7.80019600
74.49999575	0.00000000	15.24975000	8.54453700
74.69999574	0.00000000	12.13091000	7.80019600
74.89999573	0.00000000	11.71260000	6.31151500
75.09999572	0.00000000	13.61959000	4.73671200
75.29999571	0.00000000	17.48277000	3.24803100
75.49999569	0.00000000	22.09030000	2.54675200
75.69999568	0.00000000	26.32259000	3.75246000
75.89999567	0.00000000	29.06619000	6.77903500
76.09999566	0.00000000	29.85974000	10.62992000
76.29999565	0.00000000	29.15231000	14.07480000
76.49999563	0.00000000	27.20841000	16.35089000
76.69999562	0.00000000	24.92003000	16.30167000
76.89999561	0.00000000	22.60088000	13.61343000
77.09999560	0.00000000	21.06299000	8.96284400
77.29999559	0.00000000	20.64468000	3.20497000
77.49999558	0.00000000	20.97072000	-2.14074800
77.69999556	0.00000000	21.71506000	-5.20423200
77.89999555	0.00000000	22.09030000	-5.24729300
78.09999554	0.00000000	22.13336000	-2.55905500
78.29999553	0.00000000	22.09030000	2.08538400
78.49999552	0.00000000	21.71506000	7.89247000
78.69999550	0.00000000	20.97072000	13.65650000
78.89999549	0.00000000	20.64468000	17.93184000
79.09999548	0.00000000	21.01993000	19.83883000
79.29999547	0.00000000	22.22564000	19.04527000
79.49999546	0.00000000	24.08957000	15.23130000
79.69999544	0.00000000	26.03961000	9.84867000
79.89999543	0.00000000	27.15920000	4.41067900
80.09999542	0.00000000	27.52830000	-0.60285430
80.29999541	0.00000000	26.32259000	-3.67249000
80.49999540	0.00000000	23.71432000	-4.09079700
80.69999539	0.00000000	21.01993000	-2.22687000
80.89999537	0.00000000	19.01451000	1.24877000
81.09999536	0.00000000	17.48277000	5.11195900
81.29999535	0.00000000	16.78149000	9.00590400
81.49999534	0.00000000	17.94414000	12.07554000
81.69999533	0.00000000	20.59547000	13.69956000
81.89999531	0.00000000	23.62205000	14.11786000
82.09999530	0.00000000	25.99040000	13.74262000
82.29999529	0.00000000	27.15920000	12.58612000
82.49999528	0.00000000	27.57136000	11.00517000
82.69999527	0.00000000	26.78395000	9.00590400
82.89999525	0.00000000	25.25221000	6.31151500
83.09999524	0.00000000	23.29601000	3.61712600
83.29999523	0.00000000	21.01993000	1.62401600
83.49999522	0.00000000	19.48204000	0.09227362
83.69999521	0.00000000	19.06373000	-0.65206690
83.89999520	0.00000000	19.43897000	0.13533460
84.09999518	0.00000000	20.55241000	2.08538400
84.29999517	0.00000000	21.71506000	5.19808000
84.49999516	0.00000000	22.50861000	9.05511800
84.69999515	0.00000000	23.29601000	12.53691000
84.89999514	0.00000000	23.67126000	15.23130000
85.09999512	0.00000000	23.67126000	16.34473000
85.29999511	0.00000000	23.33907000	15.18824000
85.49999510	0.00000000	22.96998000	12.11860000
85.69999509	0.00000000	23.38214000	7.80019600
85.89999508	0.00000000	24.13263000	2.87278500
86.09999506	0.00000000	25.20300000	-1.34719500
86.29999505	0.00000000	25.57210000	-2.88508800
86.49999504	0.00000000	24.46481000	-2.22687000
86.69999503	0.00000000	23.33907000	0.17839570
86.89999502	0.00000000	22.09030000	3.99237200
87.09999501	0.00000000	20.59547000	8.63681000
87.29999499	0.00000000	19.43897000	12.49385000
87.49999498	0.00000000	19.06373000	15.18824000
87.69999497	0.00000000	19.48204000	15.92642000
87.89999496	0.00000000	21.01993000	14.03174000
88.09999495	0.00000000	23.29601000	10.58686000
88.29999493	0.00000000	25.20300000	6.31151500
88.49999492	0.00000000	26.40871000	2.12844500
88.69999491	0.00000000	26.78395000	-0.55979330
88.89999490	0.00000000	26.36565000	-0.97810030
89.09999489	0.00000000	24.82775000	0.55364170
89.29999487	0.00000000	22.55167000	3.66633800
89.49999486	0.00000000	20.64468000	7.89247000
89.69999485	0.00000000	19.43897000	12.07554000
89.89999484	0.00000000	19.06373000	14.72072000
90.09999483	0.00000000	19.43897000	14.76993000
90.29999482	0.00000000	20.59547000	12.49385000
90.49999480	0.00000000	22.13336000	9.00590400
90.69999479	0.00000000	23.67126000	4.77977300
90.89999478	0.00000000	24.82775000	0.97194880
91.09999477	0.00000000	25.20300000	-0.93503930
91.29999476	0.00000000	24.87697000	-0.60285430
91.49999474	0.00000000	24.08957000	1.75935000
91.69999473	0.00000000	23.33907000	5.57332700
91.89999472	0.00000000	22.55167000	10.21161000
92.09999471	0.00000000	22.17643000	13.98253000
92.29999470	0.00000000	22.13336000	15.92642000
92.49999468	0.00000000	22.13336000	15.14518000
92.69999467	0.00000000	22.13336000	12.11860000
92.89999466	0.00000000	22.09030000	7.84940900
93.09999465	0.00000000	21.71506000	3.24803100
93.29999464	0.00000000	20.92766000	-0.55979330
93.49999463	0.00000000	20.22022000	-2.09153500
93.69999461	0.00000000	19.80807000	-0.97810030
93.89999460	0.00000000	20.26944000	2.08538400
94.09999459	0.00000000	21.38902000	6.35457700
94.29999458	0.00000000	23.33907000	10.91289000
94.49999457	0.00000000	25.25221000	14.39468000
94.69999455	0.00000000	26.83317000	15.51427000
94.89999454	0.00000000	27.94660000	14.39468000
95.09999453	0.00000000	27.90354000	10.91289000
95.29999452	0.00000000	26.36565000	6.35457700
95.49999451	0.00000000	23.67126000	2.12844500
95.69999449	0.00000000	20.59547000	-0.55979330
95.89999448	0.00000000	17.85802000	-0.97810030
96.09999447	0.00000000	15.94488000	0.55364170
96.29999446	0.00000000	15.15748000	3.62327700
96.49999445	0.00000000	15.98794000	7.42495000
96.69999444	0.00000000	18.31939000	10.53765000
96.89999442	0.00000000	22.17643000	12.49385000
97.09999441	0.00000000	26.36565000	13.23819000
97.29999440	0.00000000	29.48450000	12.07554000
97.49999439	0.00000000	31.06545000	9.47342500
97.69999438	0.00000000	31.02239000	6.77903500
97.89999436	0.00000000	29.06619000	4.77977300
98.09999435	0.00000000	25.25221000	3.24803100
98.29999434	0.00000000	21.01993000	2.50369100
98.49999433	0.00000000	17.48277000	3.24803100
98.69999432	0.00000000	14.78223000	4.73671200
98.89999430	0.00000000	13.61959000	6.26845500
99.09999429	0.00000000	14.40699000	7.42495000
99.29999428	0.00000000	16.69537000	7.84940900
99.49999427	0.00000000	20.22022000	7.89247000
99.69999426	0.00000000	24.04650000	7.89247000
99.89999425	0.00000000	27.57136000	7.89247000
100.09999423	0.00000000	29.85974000	7.89247000
100.29999422	0.00000000	30.64714000	7.93553100
100.49999421	0.00000000	29.48450000	8.31077700
100.69999420	0.00000000	26.83317000	9.00590400
100.89999419	0.00000000	23.71432000	8.96284400
101.09999417	0.00000000	20.59547000	7.84940900
101.29999416	0.00000000	17.90108000	6.31151500
101.49999415	0.00000000	16.32013000	4.77977300
101.69999414	0.00000000	15.90182000	3.62327700
101.89999413	0.00000000	16.32013000	3.24803100
102.09999411	0.00000000	17.90108000	3.66633800
102.29999410	0.00000000	20.55241000	5.19808000
102.49999409	0.00000000	23.24680000	7.51722400
102.69999408	0.00000000	25.20300000	9.84867000
102.89999407	0.00000000	26.40871000	12.11860000
103.09999406	0.00000000	26.83317000	13.23819000
103.29999404	0.00000000	26.78395000	12.49385000
103.49999403	0.00000000	25.99040000	10.58686000
103.69999402	0.00000000	24.08957000	7.84940900
103.89999401	0.00000000	22.13336000	4.77977300
104.09999400	0.00000000	20.22022000	2.08538400
104.29999398	0.00000000	18.65157000	0.55364170
104.49999397	0.00000000	18.26402000	0.55364170
104.69999396	0.00000000	18.27633000	2.08538400
104.89999395	0.00000000	19.43897000	4.77977300
105.09999394	0.00000000	21.29675000	7.84940900
105.29999392	0.00000000	22.50861000	10.53765000
105.49999391	0.00000000	23.67126000	12.07554000
105.69999390	0.00000000	24.40945000	12.07554000
105.89999389	0.00000000	24.04650000	10.58686000
106.09999388	0.00000000	23.33907000	8.31077700
106.29999387	0.00000000	22.50861000	6.36072800
106.49999385	0.00000000	21.75812000	4.77977300
106.69999384	0.00000000	20.97072000	3.66633800
106.89999383	0.00000000	20.64468000	3.66633800
107.09999382	0.00000000	20.97072000	4.77977300
107.29999381	0.00000000	21.75812000	6.31151500
107.49999379	0.00000000	22.50861000	7.84940900
107.69999378	0.00000000	23.29601000	9.00590400
107.89999377	0.00000000	23.62205000	9.38115100
108.09999376	0.00000000	23.24680000	9.00590400
108.29999375	0.00000000	22.13336000	7.84940900
108.49999374	0.00000000	21.01993000	6.36072800
108.69999372	0.00000000	20.55241000	5.15501900
108.89999371	0.00000000	20.17716000	4.40452700
109.09999370	0.00000000	19.85728000	4.04158400
109.29999369	0.00000000	20.59547000	4.82283400
109.49999368	0.00000000	21.71506000	6.31151500
109.69999366	0.00000000	22.55167000	7.84940900
109.89999365	0.00000000	23.71432000	9.00590400
110.09999364	0.00000000	24.78469000	9.43036400
110.29999363	0.00000000	24.78469000	9.43036400
110.49999362	0.00000000	23.71432000	9.00590400
110.69999360	0.00000000	22.55167000	7.84940900
110.89999359	0.00000000	21.71506000	6.31151500
111.09999358	0.00000000	20.55241000	4.77977300
111.29999357	0.00000000	19.48204000	3.66633800
111.49999356	0.00000000	19.48204000	3.62327700
111.69999355	0.00000000	20.55241000	4.36146600
111.89999353	0.00000000	21.71506000	5.15501900
112.09999352	0.00000000	22.50861000	6.31151500
112.29999351	0.00000000	23.29601000	7.47416300
112.49999350	0.00000000	23.67126000	8.22465500
112.69999349	0.00000000	23.67126000	8.63681000
112.89999347	0.00000000	23.29601000	8.26771600
113.09999346	0.00000000	22.50861000	7.93553100
113.29999345	0.00000000	21.80118000	7.89247000
113.49999344	0.00000000	21.34596000	7.84940900
113.69999343	0.00000000	21.33981000	7.47416300
113.89999341	0.00000000	20.97072000	6.72982200
114.09999340	0.00000000	21.01993000	6.35457700
114.29999339	0.00000000	21.71506000	6.26845500
114.49999338	0.00000000	22.09030000	5.89320800
114.69999337	0.00000000	22.13336000	5.15501900
114.89999336	0.00000000	22.13336000	4.77977300
115.09999334	0.00000000	22.13336000	4.73671200
115.29999333	0.00000000	22.13336000	4.77977300
115.49999332	0.00000000	22.13336000	5.11195900
115.69999331	0.00000000	22.13336000	5.56717500
115.89999330	0.00000000	22.09030000	5.94857300
116.09999328	0.00000000	21.71506000	7.14197800
116.29999327	0.00000000	20.97072000	8.17544300
116.49999326	0.00000000	20.59547000	8.63681000
116.69999325	0.00000000	20.59547000	8.31077700
116.89999324	0.00000000	20.97072000	8.26771600
117.09999322	0.00000000	21.71506000	8.21235200
117.29999321	0.00000000	22.13336000	7.06200700
117.49999320	0.00000000	22.55167000	5.93626900
117.69999319	0.00000000	23.29601000	4.77977300
117.89999318	0.00000000	23.71432000	4.04158400
118.09999317	0.00000000	24.04650000	4.40452700
118.29999315	0.00000000	24.03420000	5.11195900
118.49999314	0.00000000	22.88386000	5.93626900
118.69999313	0.00000000	21.75812000	6.68676100
118.89999312	0.00000000	20.55241000	7.47416300
119.09999311	0.00000000	19.43897000	7.84940900
119.29999309	0.00000000	19.06373000	7.89247000
119.49999308	0.00000000	19.38976000	7.89247000
119.69999307	0.00000000	20.17716000	7.89247000
119.89999306	0.00000000	20.97072000	7.84940900
120.09999305	0.00000000	22.13336000	7.47416300
120.29999303	0.00000000	23.29601000	6.72982200
120.49999302	0.00000000	24.08957000	6.35457700
120.69999301	0.00000000	24.82775000	6.26845500
120.89999300	0.00000000	24.82775000	5.93626900
121.09999299	0.00000000	24.08957000	5.57332700
121.29999298	0.00000000	23.29601000	5.93626900
121.49999296	0.00000000	22.13336000	6.26845500
121.69999295	0.00000000	20.97072000	6.31151500
121.89999294	0.00000000	20.22022000	6.35457700
122.09999293	0.00000000	19.76501000	6.72982200
122.29999292	0.00000000	19.80192000	7.47416300
122.49999290	0.00000000	19.76501000	7.84940900
122.69999289	0.00000000	20.22022000	7.89247000
122.89999288	0.00000000	20.92766000	7.89247000
123.09999287	0.00000000	21.75812000	7.89247000
123.29999286	0.00000000	22.50861000	7.84940900
123.49999284	0.00000000	23.29601000	7.47416300
123.69999283	0.00000000	23.67126000	6.72982200
123.89999282	0.00000000	23.71432000	6.35457700
124.09999281	0.00000000	23.67126000	6.31151500
124.29999280	0.00000000	23.29601000	6.31151500
124.49999279	0.00000000	22.50861000	6.31151500
124.69999277	0.00000000	21.75812000	6.31151500
124.89999276	0.00000000	20.97072000	6.31151500
125.09999275	0.00000000	20.55241000	6.31151500
125.29999274	0.00000000	20.17716000	6.31151500
125.49999273	0.00000000	19.80807000	6.35457700
125.69999271	0.00000000	20.22022000	6.72982200
125.89999270	0.00000000	20.92766000	7.47416300
126.09999269	0.00000000	21.75812000	7.84940900
126.29999268	0.00000000	22.50861000	7.89247000
126.49999267	0.00000000	23.29601000	7.84940900
126.69999265	0.00000000	23.67126000	7.51722400
126.89999264	0.00000000	23.67126000	7.10506800
127.09999263	0.00000000	23.24680000	7.09891700
127.29999262	0.00000000	22.13336000	6.64370100
127.49999261	0.00000000	20.97072000	5.98548200
127.69999260	0.00000000	20.17716000	5.57332700
127.89999258	0.00000000	19.38976000	5.93626900
128.09999257	0.00000000	19.06373000	6.26845500
128.29999256	0.00000000	19.43897000	6.31151500
128.49999255	0.00000000	20.59547000	6.35457700
128.69999254	0.00000000	22.09030000	6.68676100
128.89999252	0.00000000	23.24680000	7.05585600
129.09999251	0.00000000	23.67126000	6.68676100
129.29999250	0.00000000	23.67126000	6.35457700
129.49999249	0.00000000	23.24680000	6.31151500
129.69999248	0.00000000	22.13336000	6.31151500
129.89999246	0.00000000	20.97072000	6.31151500
130.09999245	0.00000000	20.17716000	6.31151500
130.29999244	0.00000000	19.43897000	6.31151500
130.49999243	0.00000000	19.43897000	6.35457700
130.69999242	0.00000000	20.17716000	6.68676100
130.89999241	0.00000000	20.92766000	7.05585600
131.09999239	0.00000000	21.75812000	6.68676100
131.29999238	0.00000000	22.50861000	6.35457700
131.49999237	0.00000000	23.29601000	6.31151500
131.69999236	0.00000000	23.62205000	6.26845500
131.89999235	0.00000000	23.29601000	5.89320800
132.09999233	0.00000000	22.50861000	5.15501900
132.29999232	0.00000000	21.75812000	4.82898600
132.49999231	0.00000000	20.97072000	5.15501900
132.69999230	0.00000000	20.59547000	5.89320800
132.89999229	0.00000000	20.55241000	6.31151500
133.09999227	0.00000000	20.59547000	6.72982200
133.29999226	0.00000000	20.97072000	7.47416300
133.49999225	0.00000000	21.71506000	7.84940900
133.69999224	0.00000000	22.09030000	7.84940900
133.89999223	0.00000000	22.13336000	7.51722400
134.09999222	0.00000000	22.13336000	7.10506800
134.29999220	0.00000000	22.09030000	7.05585600
134.49999219	0.00000000	21.75812000	6.26845500
134.69999218	0.00000000	21.38902000	5.19808000
134.89999217	0.00000000	21.75812000	4.77977300
135.09999216	0.00000000	22.09030000	4.77977300
135.29999214	0.00000000	22.13336000	5.15501900
135.49999213	0.00000000	22.13336000	5.89320800
135.69999212	0.00000000	22.13336000	6.31151500
135.89999211	0.00000000	22.09030000	6.72982200
136.09999210	0.00000000	21.71506000	7.47416300
136.29999208	0.00000000	20.97072000	7.84940900
136.49999207	0.00000000	20.59547000	7.89247000
136.69999206	0.00000000	20.55241000	7.84940900
136.89999205	0.00000000	20.55241000	7.47416300
137.09999204	0.00000000	20.59547000	6.72982200
137.29999203	0.00000000	20.97072000	6.35457700
137.49999201	0.00000000	21.71506000	6.31151500
137.69999200	0.00000000	22.13336000	6.26845500
137.89999199	0.00000000	22.50861000	5.93626900
138.09999198	0.00000000	22.87770000	5.53026500
138.29999197	0.00000000	22.46555000	5.56717500
138.49999195	0.00000000	21.75812000	5.53026500
138.69999194	0.00000000	20.97072000	5.93626900
138.89999193	0.00000000	20.59547000	6.26845500
139.09999192	0.00000000	20.55241000	6.35457700
139.29999191	0.00000000	20.55241000	6.72982200
139.49999189	0.00000000	20.55241000	7.47416300
139.69999188	0.00000000	20.59547000	7.84940900
139.89999187	0.00000000	20.97072000	7.89247000
140.09999186	0.00000000	21.71506000	7.84940900
140.29999185	0.00000000	22.09030000	7.47416300
140.49999184	0.00000000	22.13336000	6.68676100
140.69999182	0.00000000	22.09030000	5.93626900
140.89999181	0.00000000	21.71506000	5.15501900
141.09999180	0.00000000	20.97072000	4.77977300
141.29999179	0.00000000	20.59547000	4.77977300
141.49999178	0.00000000	20.55241000	5.15501900
141.69999176	0.00000000	20.55241000	5.93626900
141.89999175	0.00000000	20.59547000	6.68676100
142.09999174	0.00000000	20.97072000	7.51722400
142.29999173	0.00000000	21.71506000	8.22465500
142.49999172	0.00000000	22.09030000	8.63681000
142.69999170	0.00000000	22.13336000	8.22465500
142.89999169	0.00000000	22.13336000	7.51722400
143.09999168	0.00000000	22.09030000	6.68676100
143.29999167	0.00000000	21.71506000	5.93626900
143.49999166	0.00000000	20.97072000	5.15501900
143.69999165	0.00000000	20.59547000	4.77977300
143.89999163	0.00000000	20.55241000	4.77977300
144.09999162	0.00000000	20.59547000	5.15501900
144.29999161	0.00000000	20.97072000	5.93626900
144.49999160	0.00000000	21.71506000	6.68676100
144.69999159	0.00000000	22.09030000	7.47416300
144.89999157	0.00000000	22.13336000	7.84940900
145.09999156	0.00000000	22.09030000	7.89247000
145.29999155	0.00000000	21.71506000	7.84940900
145.49999154	0.00000000	20.97072000	7.47416300
145.69999153	0.00000000	20.59547000	6.72982200
145.89999151	0.00000000	20.55241000	6.31151500
146.09999150	0.00000000	20.55241000	5.89320800
146.29999149	0.00000000	20.55241000	5.15501900
146.49999148	0.00000000	20.59547000	4.77977300
146.69999147	0.00000000	20.97072000	4.73671200
146.89999146	0.00000000	21.71506000	4.77977300
147.09999144	0.00000000	22.09030000	5.15501900
147.29999143	0.00000000	22.13336000	5.89320800
147.49999142	0.00000000	22.13336000	6.31151500
147.69999141	0.00000000	22.09030000	6.72982200
147.89999140	0.00000000	21.71506000	7.42495000
148.09999138	0.00000000	20.97072000	7.42495000
148.29999137	0.00000000	20.59547000	6.72982200
148.49999136	0.00000000	20.55241000	6.35457700
148.69999135	0.00000000	20.55241000	6.31151500
148.89999134	0.00000000	20.55241000	6.31151500
149.09999132	0.00000000	20.59547000	6.26845500
149.29999131	0.00000000	20.97072000	5.93626900
149.49999130	0.00000000	21.71506000	5.57332700
149.69999129	0.00000000	22.09030000	5.93626900
149.89999128	0.00000000	22.13336000	6.31151500
150.09999127	0.00000000	22.09030000	6.68676100
150.29999125	0.00000000	21.75812000	7.09891700
150.49999124	0.00000000	21.34596000	7.10506800
150.69999123	0.00000000	21.33981000	7.51722400
150.89999122	0.00000000	20.92766000	7.84940900
151.09999121	0.00000000	20.59547000	7.84940900
151.29999119	0.00000000	20.55241000	7.47416300
151.49999118	0.00000000	20.55241000	6.72982200
151.69999117	0.00000000	20.55241000	6.35457700
151.89999116	0.00000000	20.59547000	6.31151500
152.09999115	0.00000000	20.97072000	6.31151500
152.29999113	0.00000000	21.71506000	6.26845500
152.49999112	0.00000000	22.09030000	5.93626900
152.69999111	0.00000000	22.13336000	5.57332700
152.89999110	0.00000000	22.13336000	5.93626900
153.09999109	0.00000000	22.09030000	6.26845500
153.29999108	0.00000000	21.71506000	6.35457700
153.49999106	0.00000000	20.97072000	6.68676100
153.69999105	0.00000000	20.59547000	7.09891700
153.89999104	0.00000000	20.55241000	7.06200700
154.09999103	0.00000000	20.55241000	7.09891700
154.29999102	0.00000000	20.55241000	6.68676100
154.49999100	0.00000000	20.55241000	6.35457700
154.69999099	0.00000000	20.55241000	6.31151500
154.89999098	0.00000000	20.59547000	6.31151500
155.09999097	0.00000000	20.97072000	6.31151500
155.29999096	0.00000000	21.71506000	6.31151500
155.49999094	0.00000000	22.09030000	6.31151500
155.69999093	0.00000000	22.13336000	6.31151500
155.89999092	0.00000000	22.13336000	6.31151500
156.09999091	0.00000000	22.09030000	6.31151500
156.29999090	0.00000000	21.71506000	6.35457700
156.49999089	0.00000000	20.97072000	6.72982200
156.69999087	0.00000000	20.55241000	7.42495000
156.89999086	0.00000000	20.17716000	7.47416300
157.09999085	0.00000000	19.80807000	7.14812900
157.29999084	0.00000000	20.17716000	7.51722400
157.49999083	0.00000000	20.50935000	7.80019600
157.69999081	0.00000000	20.55241000	7.47416300
157.89999080	0.00000000	20.59547000	6.72982200
158.09999079	0.00000000	20.97072000	6.31151500
158.29999078	0.00000000	21.71506000	5.89320800
158.49999077	0.00000000	22.09030000	5.19808000
158.69999075	0.00000000	22.13336000	5.15501900
158.89999074	0.00000000	22.13336000	5.51796200
159.09999073	0.00000000	22.13336000	5.57332700
159.29999072	0.00000000	22.09030000	6.36072800
159.49999071	0.00000000	21.71506000	7.42495000
159.69999070	0.00000000	20.97072000	7.84940900
159.89999068	0.00000000	20.59547000	7.93553100
160.09999067	0.00000000	20.55241000	8.26771600
160.29999066	0.00000000	20.55241000	8.63681000
160.49999065	0.00000000	20.55241000	8.22465500
160.69999064	0.00000000	20.55241000	7.51722400
160.89999062	0.00000000	20.55241000	6.68676100
161.09999061	0.00000000	20.55241000	5.98548200
161.29999060	0.00000000	20.55241000	5.53026500
161.49999059	0.00000000	20.55241000	5.51796200
161.69999058	0.00000000	20.55241000	5.15501900
161.89999056	0.00000000	20.55241000	5.19808000
162.09999055	0.00000000	20.55241000	5.89320800
162.29999054	0.00000000	20.59547000	6.26845500
162.49999053	0.00000000	20.92766000	6.31151500
162.69999052	0.00000000	21.29675000	6.35457700
162.89999051	0.00000000	20.92766000	6.68676100
163.09999049	0.00000000	20.59547000	7.05585600
163.29999048	0.00000000	20.55241000	6.68676100
163.49999047	0.00000000	20.55241000	6.35457700
163.69999046	0.00000000	20.55241000	6.31151500
163.89999045	0.00000000	20.55241000	6.31151500
164.09999043	0.00000000	20.55241000	6.31151500
164.29999042	0.00000000	20.55241000	6.31151500
164.49999041	0.00000000	20.55241000	6.26845500
164.69999040	0.00000000	20.59547000	5.93626900
164.89999039	0.00000000	20.97072000	5.57332700
165.09999037	0.00000000	21.71506000	5.93626900
165.29999036	0.00000000	22.09030000	6.26845500
165.49999035	0.00000000	22.09030000	6.31151500
165.69999034	0.00000000	21.71506000	6.31151500
165.89999033	0.00000000	20.97072000	6.31151500
166.09999032	0.00000000	20.59547000	6.31151500
166.29999030	0.00000000	20.55241000	6.31151500
166.49999029	0.00000000	20.55241000	6.31151500
166.69999028	0.00000000	20.55241000	6.31151500
166.89999027	0.00000000	20.55241000	6.31151500
167.09999026	0.00000000	20.55241000	6.31151500
167.29999024	0.00000000	20.55241000	6.31151500
167.49999023	0.00000000	20.55241000	6.31151500
167.69999022	0.00000000	20.59547000	6.31151500
167.89999021	0.00000000	20.92766000	6.31151500
168.09999020	0.00000000	21.29675000	6.31151500
168.29999018	0.00000000	20.92766000	6.31151500
168.49999017	0.00000000	20.64468000	6.31151500
168.69999016	0.00000000	20.92766000	6.31151500
168.89999015	0.00000000	21.29675000	6.31151500
169.09999014	0.00000000	20.92766000	6.31151500
169.29999013	0.00000000	20.59547000	6.31151500
169.49999011	0.00000000	20.55241000	6.31151500
169.69999010	0.00000000	20.55241000	6.31151500
169.89999009	0.00000000	20.55241000	6.31151500
170.09999008	0.00000000	20.55241000	6.31151500
170.29999007	0.00000000	20.55241000	6.31151500
170.49999005	0.00000000	20.55241000	6.31151500
170.69999004	0.00000000	20.55241000	6.31151500
170.89999003	0.00000000	20.55241000	6.31151500
171.09999002	0.00000000	20.55241000	6.31151500
171.29999001	0.00000000	20.55241000	6.31151500
171.49998999	0.00000000	20.55241000	6.31151500
171.69998998	0.00000000	20.55241000	6.31151500
171.89998997	0.00000000	20.55241000	6.31151500
172.09998996	0.00000000	20.55241000	6.31151500
172.29998995	0.00000000	20.55241000	6.31151500
172.49998994	0.00000000	20.55241000	6.31151500
172.69998992	0.00000000	20.55241000	6.31151500
172.89998991	0.00000000	20.55241000	6.31151500
173.09998990	0.00000000	20.55241000	6.31151500
173.29998989	0.00000000	20.55241000	6.31151500
173.49998988	0.00000000	20.55241000	6.31151500
173.69998986	0.00000000	20.55241000	6.31151500
173.89998985	0.00000000	20.55241000	6.31151500
174.09998984	0.00000000	20.55241000	6.31151500
174.29998983	0.00000000	20.55241000	6.31151500
174.49998982	0.00000000	20.55241000	6.31151500
174.69998980	0.00000000	20.55241000	6.31151500
174.89998979	0.00000000	20.55241000	6.31151500
175.09998978	0.00000000	20.55241000	6.31151500
175.29998977	0.00000000	20.55241000	6.31151500
175.49998976	0.00000000	20.55241000	6.31151500
175.69998975	0.00000000	20.55241000	6.31151500
175.89998973	0.00000000	20.55241000	6.31151500
176.09998972	0.00000000	20.55241000	6.31151500
176.29998971	0.00000000	20.55241000	6.31151500
176.49998970	0.00000000	20.55241000	6.31151500
176.69998969	0.00000000	20.55241000	6.31151500
176.89998967	0.00000000	20.55241000	6.31151500
177.09998966	0.00000000	20.55241000	6.31151500
177.29998965	0.00000000	20.55241000	6.31151500
177.49998964	0.00000000	20.55241000	6.31151500
177.69998963	0.00000000	20.55241000	6.31151500
177.89998961	0.00000000	20.55241000	6.31151500
178.09998960	0.00000000	20.55241000	6.31151500
178.29998959	0.00000000	20.55241000	6.31151500
178.49998958	0.00000000	20.55241000	6.31151500
178.69998957	0.00000000	20.55241000	6.31151500
178.89998956	0.00000000	20.55241000	6.31151500
179.09998954	0.00000000	20.55241000	6.31151500
179.29998953	0.00000000	20.55241000	6.31151500
179.49998952	0.00000000	20.55241000	6.31151500
179.69998951	0.00000000	20.55241000	6.31151500
179.89998950	0.00000000	20.55241000	6.31151500
180.09998948	0.00000000	20.55241000	6.31151500
180.29998947	0.00000000	20.55241000	6.31151500
180.49998946	0.00000000	20.55241000	6.26845500
180.69998945	0.00000000	20.55241000	5.93626900
180.89998944	0.00000000	20.55241000	5.57332700
181.09998942	0.00000000	20.55241000	5.93626900
181.29998941	0.00000000	20.55241000	6.26845500
181.49998940	0.00000000	20.55241000	6.31151500
181.69998939	0.00000000	20.55241000	6.31151500
181.89998938	0.00000000	20.55241000	6.31151500
182.09998937	0.00000000	20.55241000	6.31151500
182.29998935	0.00000000	20.59547000	6.31151500
182.49998934	0.00000000	20.92766000	6.31151500
182.69998933	0.00000000	21.33981000	6.31151500
182.89998932	0.00000000	21.30290000	6.31151500
183.09998931	0.00000000	21.33981000	6.26845500
183.29998929	0.00000000	20.92766000	5.89320800
183.49998928	0.00000000	20.59547000	5.15501900
183.69998927	0.00000000	20.55241000	4.82898600
183.89998926	0.00000000	20.55241000	5.15501900
184.09998925	0.00000000	20.55241000	5.89320800
184.29998923	0.00000000	20.55241000	6.26845500
184.49998922	0.00000000	20.55241000	6.31151500
184.69998921	0.00000000	20.55241000	6.35457700
184.89998920	0.00000000	20.55241000	6.68676100
185.09998919	0.00000000	20.55241000	7.05585600
185.29998918	0.00000000	20.55241000	6.68676100
185.49998916	0.00000000	20.55241000	6.35457700
185.69998915	0.00000000	20.55241000	6.26845500
185.89998914	0.00000000	20.55241000	5.89320800
186.09998913	0.00000000	20.55241000	5.15501900
186.29998912	0.00000000	20.55241000	4.77977300
186.49998910	0.00000000	20.55241000	4.77977300
186.69998909	0.00000000	20.55241000	5.15501900
186.89998908	0.00000000	20.55241000	5.89320800
187.09998907	0.00000000	20.55241000	6.26845500
187.29998906	0.00000000	20.55241000	6.31151500
187.49998904	0.00000000	20.55241000	6.35457700
187.69998903	0.00000000	20.55241000	6.68676100
187.89998902	0.00000000	20.55241000	7.05585600
188.09998901	0.00000000	20.55241000	6.68676100
188.29998900	0.00000000	20.55241000	6.35457700
188.49998899	0.00000000	20.55241000	6.31151500
188.69998897	0.00000000	20.55241000	6.31151500
188.89998896	0.00000000	20.55241000	6.26845500
189.09998895	0.00000000	20.55241000	5.89320800
189.29998894	0.00000000	20.55241000	5.15501900
189.49998893	0.00000000	20.55241000	4.77977300
189.69998891	0.00000000	20.55241000	4.77977300
189.89998890	0.00000000	20.55241000	5.15501900
190.09998889	0.00000000	20.55241000	5.89320800
190.29998888	0.00000000	20.55241000	6.26845500
190.49998887	0.00000000	20.55241000	6.31151500
190.69998885	0.00000000	20.55241000	6.35457700
190.89998884	0.00000000	20.59547000	6.68676100
191.09998883	0.00000000	20.88459000	7.05585600
191.29998882	0.00000000	20.92150000	6.68676100
191.49998881	0.00000000	20.18332000	6.35457700
191.69998880	0.00000000	20.22022000	6.31151500
191.89998878	0.00000000	20.50935000	6.31151500
192.09998877	0.00000000	20.55241000	6.26845500
192.29998876	0.00000000	20.55241000	5.93626900
192.49998875	0.00000000	20.55241000	5.57332700
192.69998874	0.00000000	20.55241000	5.93626900
192.89998872	0.00000000	20.50935000	6.26845500
193.09998871	0.00000000	20.17716000	6.31151500
193.29998870	0.00000000	19.80807000	6.31151500
193.49998869	0.00000000	20.17716000	6.31151500
193.69998868	0.00000000	20.50935000	6.31151500
193.89998866	0.00000000	20.55241000	6.31151500
194.09998865	0.00000000	20.55241000	6.31151500
194.29998864	0.00000000	20.55241000	6.31151500
194.49998863	0.00000000	20.55241000	6.31151500
194.69998862	0.00000000	20.55241000	6.31151500
194.89998861	0.00000000	20.55241000	6.31151500
195.09998859	0.00000000	20.59547000	6.26845500
195.29998858	0.00000000	20.92766000	5.89320800
195.49998857	0.00000000	21.29675000	5.19808000
195.69998856	0.00000000	20.92766000	5.19808000
195.89998855	0.00000000	20.55241000	5.89320800
196.09998853	0.00000000	20.17716000	6.21924200
