Time	Channel A	Channel B	Channel C
(us)	(V)	(mV)	(mV)

-4.59999956	0.00000000	43.89763000	23.68356000
-4.39999957	0.00000000	44.22982000	23.68356000
-4.19999958	0.00000000	44.27288000	23.68356000
-3.99999959	0.00000000	44.27288000	23.68356000
-3.79999960	0.00000000	44.27288000	23.68356000
-3.59999962	0.00000000	44.27288000	23.68356000
-3.39999963	0.00000000	44.27288000	23.68356000
-3.19999964	0.00000000	44.27288000	23.68356000
-2.99999965	0.00000000	44.27288000	23.68356000
-2.79999966	0.00000000	44.27288000	23.68356000
-2.59999968	0.00000000	44.27288000	23.68356000
-2.39999969	0.00000000	44.27288000	23.68356000
-2.19999970	0.00000000	44.27288000	23.68356000
-1.99999971	0.00000000	44.27288000	23.68356000
-1.79999972	0.00000000	44.27288000	23.64050000
-1.59999973	0.00000000	44.27288000	23.30832000
-1.39999975	0.00000000	44.27288000	22.93922000
-1.19999976	0.00000000	44.27288000	23.30832000
-0.99999977	0.00000000	44.27288000	23.64050000
-0.79999978	0.00000000	44.27288000	23.68356000
-0.59999979	0.00000000	44.27288000	23.64050000
-0.39999981	0.00000000	44.27288000	23.30832000
-0.19999982	0.47736220	44.27288000	22.93922000
0.00000017	0.79601380	44.27288000	23.26525000
0.20000016	0.95533960	44.27288000	23.21604000
0.40000015	0.95533960	44.27288000	22.52091000
0.60000013	0.63668800	44.27288000	22.19488000
0.80000012	0.00000000	44.27288000	22.52091000
1.00000011	-0.95533960	44.27288000	23.26525000
1.20000010	-1.75196900	44.27288000	23.64050000
1.40000009	-2.54859700	44.27288000	23.68356000
1.60000008	-2.70792300	44.27288000	23.68356000
1.80000006	-2.22994600	44.27288000	23.68356000
2.00000005	-0.63668800	44.27288000	23.68356000
2.20000004	1.27399100	44.27288000	23.68356000
2.40000003	3.34522600	44.27288000	23.68356000
2.60000002	4.93786900	44.27288000	23.64050000
2.80000000	5.25652100	44.27288000	23.26525000
2.99999999	4.30056600	44.27288000	22.52091000
3.19999998	1.91129400	44.27288000	22.19488000
3.39999997	-1.27399100	44.27288000	22.52091000
3.59999996	-4.61921700	44.27288000	23.26525000
3.79999994	-7.16781500	44.27288000	23.68356000
3.99999993	-7.96444400	44.27288000	24.10187000
4.19999992	-6.84916400	44.27288000	24.84621000
4.39999991	-3.82258900	44.27288000	25.22145000
4.59999990	0.47736220	44.27288000	25.22145000
4.79999989	4.77854300	44.27288000	24.84621000
4.99999987	8.12377000	44.27288000	24.10187000
5.19999986	9.55770200	44.27288000	23.68356000
5.39999985	8.44242100	44.27288000	23.26525000
5.59999984	5.25652100	44.27288000	22.57013000
5.79999983	0.63668800	44.27288000	22.57013000
5.99999981	-3.98191400	44.27288000	23.26525000
6.19999980	-7.80511800	44.27288000	23.68356000
6.39999979	-9.39837600	44.27288000	24.10187000
6.59999978	-8.76107300	44.27288000	24.84621000
6.79999977	-5.89382400	44.27288000	25.22145000
6.99999975	-1.75196900	44.31594000	25.26452000
7.19999974	2.54859700	44.64813000	25.22145000
7.39999973	5.89382400	45.01722000	24.84621000
7.59999972	7.64579200	44.64813000	24.10187000
7.79999971	7.32714100	44.31594000	23.72662000
7.99999970	5.25652100	44.27288000	23.68356000
8.19999968	2.22994600	44.27288000	23.68356000
8.39999967	-0.95533960	44.27288000	23.68356000
8.59999966	-3.66326300	44.27288000	23.68356000
8.79999965	-5.09719500	44.27288000	23.68356000
8.99999964	-5.09719500	44.27288000	23.68356000
9.19999962	-3.82258900	44.27288000	23.68356000
9.39999961	-2.07062000	44.27288000	23.68356000
9.59999960	0.00000000	44.27288000	23.68356000
9.79999959	1.59264300	44.27288000	23.68356000
9.99999958	2.38927200	44.27288000	23.68356000
10.19999956	2.54859700	44.27288000	23.68356000
10.39999955	2.07062000	44.27288000	23.68356000
10.59999954	1.11466500	44.31594000	23.72662000
10.79999953	0.31803640	44.64813000	24.05881000
10.99999952	-0.47736220	44.96801000	24.42790000
11.19999951	-0.79601380	44.31594000	24.05881000
11.39999949	-0.95533960	43.95300000	23.72662000
11.59999948	-0.95533960	44.64198000	23.68356000
11.79999947	-0.63668800	44.60506000	23.68356000
11.99999946	-0.31803640	44.31594000	23.68356000
12.19999945	-0.15871060	44.27288000	23.68356000
12.39999943	-0.15871060	44.27288000	23.68356000
12.59999942	0.00000000	44.27288000	23.68356000
12.79999941	0.00000000	44.27288000	23.68356000
12.99999940	0.00000000	44.27288000	23.68356000
13.19999939	0.15871060	44.27288000	23.68356000
13.39999937	0.00000000	44.27288000	23.68356000
13.59999936	0.00000000	44.27288000	23.68356000
13.79999935	0.00000000	44.27288000	23.68356000
13.99999934	0.00000000	44.27288000	23.68356000
14.19999933	-0.15871060	44.27288000	23.68356000
14.39999932	-0.15871060	44.27288000	23.68356000
14.59999930	-0.15871060	44.27288000	23.68356000
14.79999929	0.00000000	44.27288000	23.68356000
14.99999928	0.00000000	44.27288000	23.68356000
15.19999927	0.00000000	44.27288000	23.68356000
15.39999926	0.00000000	44.27288000	23.68356000
15.59999924	0.00000000	44.27288000	23.68356000
15.79999923	0.00000000	44.27288000	23.68356000
15.99999922	0.00000000	44.27288000	23.68356000
16.19999921	0.00000000	44.27288000	23.68356000
16.39999920	-0.15871060	44.31594000	23.68356000
16.59999919	-0.15871060	44.69119000	23.68356000
16.79999917	-0.15871060	45.43553000	23.68356000
16.99999916	0.00000000	45.81078000	23.68356000
17.19999915	0.00000000	45.89690000	23.68356000
17.39999914	0.00000000	46.22908000	23.68356000
17.59999913	0.00000000	46.59818000	23.68356000
17.79999911	0.00000000	46.22908000	23.68356000
17.99999910	0.00000000	45.85384000	23.68356000
18.19999909	0.00000000	45.38631000	23.68356000
18.39999908	0.00000000	44.22982000	23.68356000
18.59999907	0.00000000	42.69193000	23.68356000
18.79999905	0.00000000	41.15403000	23.68356000
18.99999904	0.00000000	40.04060000	23.72662000
19.19999903	0.00000000	40.08366000	24.05881000
19.39999902	0.00000000	41.66461000	24.47096000
19.59999901	0.00000000	44.78346000	24.47712000
19.79999900	0.00000000	49.01575000	24.84621000
19.99999898	0.00000000	53.24803000	24.79700000
20.19999897	0.00000000	56.27460000	24.10187000
20.39999896	0.00000000	57.01894000	23.72662000
20.59999895	0.00000000	54.69365000	23.68356000
20.79999894	0.00000000	50.04306000	23.68356000
20.99999892	0.00000000	43.76230000	23.68356000
21.19999891	0.00000000	36.41117000	23.68356000
21.39999890	0.00000000	29.52141000	23.68356000
21.59999889	0.00000000	25.33218000	23.68356000
21.79999888	0.00000000	25.37524000	23.68356000
21.99999886	0.00000000	30.07505000	23.68356000
22.19999885	0.00000000	39.05635000	23.68356000
22.39999884	0.00000000	51.06422000	23.68356000
22.59999883	0.00000000	63.76107000	23.68356000
22.79999882	0.00000000	73.72047000	23.72662000
22.99999881	0.00000000	77.86663000	24.10187000
23.19999879	0.00000000	74.37254000	24.84621000
23.39999878	0.00000000	63.49040000	25.22145000
23.59999877	0.00000000	47.61934000	25.30758000
23.79999876	0.00000000	29.47835000	25.68282000
23.99999875	0.00000000	13.70571000	26.37795000
24.19999873	0.00000000	4.44143700	26.32874000
24.39999872	0.00000000	3.74630900	25.21530000
24.59999871	0.00000000	12.72146000	23.68356000
24.79999870	0.00000000	30.12426000	22.10261000
24.99999869	0.00000000	52.13459000	20.57087000
25.19999867	0.00000000	73.72047000	19.41437000
25.39999866	0.00000000	89.54231000	19.03912000
25.59999865	0.00000000	95.68774000	19.45743000
25.79999864	0.00000000	90.61269000	21.03838000
25.99999863	0.00000000	74.74778000	23.77584000
26.19999862	0.00000000	51.58095000	27.25763000
26.39999860	0.00000000	26.49483000	31.11466000
26.59999859	0.00000000	5.28420300	34.13509000
26.79999858	0.00000000	-6.67445900	35.29773000
26.99999857	0.00000000	-6.71751900	34.04897000
27.19999856	0.00000000	4.86589500	30.14272000
27.39999854	0.00000000	25.33218000	23.54823000
27.59999853	0.00000000	50.08612000	15.87721000
27.79999852	0.00000000	73.63435000	8.90747900
27.99999851	0.00000000	90.61269000	4.30610200
28.19999850	0.00000000	96.85039000	3.23572800
28.39999848	0.00000000	91.49852000	6.77288300
28.59999847	0.00000000	76.46407000	14.94217000
28.79999846	0.00000000	55.20423000	26.14419000
28.99999845	0.00000000	32.81865000	38.45964000
29.19999844	0.00000000	14.21629000	48.44980000
29.39999843	0.00000000	3.32800200	53.46948000
29.59999841	0.00000000	1.74704700	52.63287000
29.79999840	0.00000000	9.42421200	45.24483000
29.99999839	0.00000000	24.45251000	32.51107000
30.19999838	0.00000000	42.59965000	17.40895000
30.39999837	0.00000000	60.08858000	2.73129900
30.59999835	0.00000000	73.63435000	-8.41535400
30.79999834	0.00000000	80.65329000	-13.01673000
30.99999833	0.00000000	79.91510000	-9.86097400
31.19999832	0.00000000	72.18872000	0.96579720
31.39999831	0.00000000	59.06742000	17.54429000
31.59999829	0.00000000	43.66388000	35.67298000
31.79999828	0.00000000	30.07505000	51.55635000
31.99999827	0.00000000	20.72466000	61.97096000
32.19999826	0.00000000	16.86762000	64.66535000
32.39999825	0.00000000	19.56201000	58.85826000
32.59999824	0.00000000	27.98966000	45.70620000
32.79999822	0.00000000	39.53002000	27.95891000
32.99999821	0.00000000	51.15649000	9.41806000
33.19999820	0.00000000	60.46383000	-5.63484200
33.39999819	0.00000000	65.90797000	-14.17938000
33.59999818	0.00000000	66.32628000	-14.59769000
33.79999816	0.00000000	62.09399000	-7.25885800
33.99999815	0.00000000	54.41068000	6.26230300
34.19999814	0.00000000	45.15871000	23.26525000
34.39999813	0.00000000	37.05708000	39.85605000
34.59999812	0.00000000	31.61294000	52.63287000
34.79999810	0.00000000	30.07505000	58.81520000
34.99999809	0.00000000	32.73252000	57.32037000
35.19999808	0.00000000	38.50270000	48.81889000
35.39999807	0.00000000	45.76156000	35.34079000
35.59999806	0.00000000	52.31914000	19.91880000
35.79999805	0.00000000	56.18848000	6.44069800
35.99999803	0.00000000	57.01894000	-2.10383800
36.19999802	0.00000000	54.69365000	-4.05388800
36.39999801	0.00000000	50.12918000	0.54749010
36.59999800	0.00000000	44.69119000	10.53765000
36.79999799	0.00000000	39.70842000	23.22219000
36.99999797	0.00000000	36.26968000	35.16240000
37.19999796	0.00000000	35.89444000	43.62082000
37.39999795	0.00000000	38.50270000	46.31520000
37.59999794	0.00000000	42.78420000	42.55044000
37.79999793	0.00000000	47.81004000	34.14124000
37.99999791	0.00000000	52.78666000	23.77584000
38.19999790	0.00000000	55.85630000	14.20399000
38.39999789	0.00000000	56.32381000	8.43996000
38.59999788	0.00000000	54.74286000	8.06471300
38.79999787	0.00000000	51.24877000	12.99213000
38.99999786	0.00000000	46.27214000	21.77042000
39.19999784	0.00000000	41.66461000	30.97933000
39.39999783	0.00000000	38.50270000	38.27509000
39.59999782	0.00000000	36.92175000	41.71383000
39.79999781	0.00000000	36.92175000	39.76993000
39.99999780	0.00000000	38.50270000	33.25541000
40.19999778	0.00000000	41.57849000	23.64050000
40.39999777	0.00000000	45.47859000	13.73647000
40.59999776	0.00000000	49.34793000	6.81594400
40.79999775	0.00000000	52.82972000	4.90895600
40.99999774	0.00000000	54.78592000	8.34768700
41.19999772	0.00000000	55.20423000	16.38164000
41.39999771	0.00000000	54.41068000	26.37180000
41.59999770	0.00000000	52.04232000	35.62377000
41.79999769	0.00000000	48.59744000	42.17519000
41.99999768	0.00000000	44.74040000	44.03912000
42.19999767	0.00000000	41.62155000	40.64345000
42.39999765	0.00000000	39.62229000	32.97859000
42.59999764	0.00000000	38.50270000	23.81890000
42.79999763	0.00000000	38.87795000	15.64960000
42.99999762	0.00000000	40.77879000	10.24852000
43.19999761	0.00000000	43.11023000	8.26156400
43.39999759	0.00000000	45.81078000	10.20546000
43.59999758	0.00000000	48.08686000	15.13902000
43.79999757	0.00000000	48.97269000	21.72736000
43.99999756	0.00000000	49.43405000	28.24188000
44.19999755	0.00000000	50.17839000	33.29847000
44.39999753	0.00000000	50.50443000	35.58071000
44.59999752	0.00000000	50.17839000	34.87328000
44.79999751	0.00000000	49.43405000	31.44069000
44.99999750	0.00000000	49.01575000	26.88238000
45.19999749	0.00000000	48.54823000	22.61319000
45.39999748	0.00000000	47.39173000	19.45743000
45.59999746	0.00000000	45.81078000	17.50123000
45.79999745	0.00000000	43.80536000	16.75689000
45.99999744	0.00000000	41.11097000	17.91953000
46.19999743	0.00000000	38.45964000	20.57087000
46.39999742	0.00000000	36.92175000	23.64050000
46.59999740	0.00000000	36.96481000	26.32874000
46.79999739	0.00000000	38.97022000	27.90969000
46.99999738	0.00000000	43.24557000	28.37721000
47.19999737	0.00000000	49.05881000	28.32800000
47.39999736	0.00000000	55.20423000	27.54060000
47.59999734	0.00000000	60.18085000	25.59055000
47.79999733	0.00000000	62.08784000	23.30832000
47.99999732	0.00000000	60.50689000	20.94611000
48.19999731	0.00000000	55.43799000	19.08218000
48.39999730	0.00000000	47.34252000	18.29478000
48.59999729	0.00000000	38.50270000	19.08218000
48.79999727	0.00000000	31.19464000	20.98917000
48.99999726	0.00000000	27.33145000	23.72662000
49.19999725	0.00000000	28.07579000	26.79626000
49.39999724	0.00000000	32.73252000	29.53371000
49.59999723	0.00000000	40.50196000	31.39763000
49.79999721	0.00000000	50.12918000	31.76673000
49.99999720	0.00000000	58.97515000	29.82283000
50.19999719	0.00000000	64.74532000	26.37795000
50.39999718	0.00000000	65.90797000	22.14567000
50.59999717	0.00000000	62.04478000	18.33784000
50.79999715	0.00000000	54.36761000	16.33858000
50.99999714	0.00000000	44.74040000	15.96334000
51.19999713	0.00000000	35.93750000	17.18135000
51.39999712	0.00000000	30.49951000	20.66314000
51.59999711	0.00000000	29.69980000	25.22145000
51.79999710	0.00000000	33.10162000	29.49065000
51.99999708	0.00000000	39.70842000	32.56028000
52.19999707	0.00000000	47.76698000	33.71678000
52.39999706	0.00000000	55.43799000	32.60334000
52.59999705	0.00000000	60.04552000	29.90895000
52.79999704	0.00000000	60.50689000	26.42101000
52.99999702	0.00000000	57.43725000	22.57013000
53.19999701	0.00000000	51.66707000	19.54355000
53.39999700	0.00000000	44.74040000	18.33784000
53.59999699	0.00000000	38.58883000	19.08218000
53.79999698	0.00000000	34.77485000	20.98917000
53.99999696	0.00000000	34.77485000	23.68356000
54.19999695	0.00000000	38.58883000	26.32874000
54.39999694	0.00000000	44.69119000	27.86663000
54.59999693	0.00000000	51.20571000	27.90969000
54.79999692	0.00000000	55.81324000	26.79626000
54.99999691	0.00000000	57.39419000	25.26452000
55.19999689	0.00000000	55.89936000	23.72662000
55.39999688	0.00000000	52.04232000	22.61319000
55.59999687	0.00000000	47.05954000	22.61319000
55.79999686	0.00000000	42.03986000	23.77584000
55.99999685	0.00000000	38.59498000	25.68282000
56.19999683	0.00000000	37.38927000	27.95891000
56.39999682	0.00000000	38.59498000	29.44759000
56.59999681	0.00000000	42.03986000	29.44759000
56.79999680	0.00000000	47.01648000	27.86663000
56.99999679	0.00000000	51.58095000	24.75394000
57.19999677	0.00000000	54.36761000	20.57087000
57.39999676	0.00000000	55.16117000	16.76304000
57.59999675	0.00000000	54.36761000	14.89911000
57.79999674	0.00000000	51.66707000	15.64960000
57.99999673	0.00000000	47.85310000	19.12524000
58.19999672	0.00000000	44.40821000	24.10187000
58.39999670	0.00000000	42.03986000	29.53371000
58.59999669	0.00000000	41.28937000	34.14124000
58.79999668	0.00000000	41.99680000	36.78642000
58.99999667	0.00000000	43.94069000	36.36811000
59.19999666	0.00000000	46.18602000	32.51107000
59.39999664	0.00000000	48.17913000	26.37795000
59.59999663	0.00000000	49.29871000	19.40822000
59.79999662	0.00000000	49.76009000	13.27510000
59.99999661	0.00000000	49.34793000	9.46727400
60.19999660	0.00000000	48.59744000	9.51033400
60.39999658	0.00000000	47.43479000	13.69340000
60.59999657	0.00000000	46.32135000	20.61393000
60.79999656	0.00000000	45.94611000	28.32800000
60.99999655	0.00000000	46.27214000	35.29773000
61.19999654	0.00000000	47.01648000	39.85605000
61.39999653	0.00000000	47.43479000	40.64345000
61.59999651	0.00000000	47.81004000	37.16166000
61.79999650	0.00000000	48.17913000	30.64714000
61.99999649	0.00000000	47.76698000	22.52091000
62.19999648	0.00000000	47.01648000	14.84990000
62.39999647	0.00000000	45.85384000	9.41806000
62.59999645	0.00000000	44.69119000	7.51107200
62.79999644	0.00000000	43.94069000	9.46727400
62.99999643	0.00000000	43.57775000	15.22515000
63.19999642	0.00000000	44.40821000	23.26525000
63.39999641	0.00000000	46.27214000	30.97933000
63.59999639	0.00000000	48.54823000	36.78642000
63.79999638	0.00000000	50.08612000	39.53002000
63.99999637	0.00000000	50.55364000	38.78568000
64.19999636	0.00000000	50.55364000	35.29773000
64.39999635	0.00000000	50.08612000	29.49065000
64.59999634	0.00000000	48.54823000	22.61319000
64.79999632	0.00000000	46.27214000	16.80610000
64.99999631	0.00000000	44.36515000	13.26895000
65.19999630	0.00000000	43.20251000	12.11245000
65.39999629	0.00000000	43.20251000	13.64419000
65.59999628	0.00000000	44.31594000	17.45817000
65.79999626	0.00000000	45.89690000	22.05955000
65.99999625	0.00000000	47.81004000	26.37795000
66.19999624	0.00000000	49.66781000	29.86589000
66.39999623	0.00000000	50.04306000	32.22810000
66.59999622	0.00000000	48.97269000	33.06471000
66.79999620	0.00000000	47.43479000	33.06471000
66.99999619	0.00000000	45.89690000	32.27731000
67.19999618	0.00000000	44.74040000	30.32726000
67.39999617	0.00000000	44.40821000	28.00197000
67.59999616	0.00000000	45.15871000	25.21530000
67.79999615	0.00000000	47.10260000	22.15182000
67.99999613	0.00000000	49.39099000	19.40822000
68.19999612	0.00000000	51.71013000	17.45817000
68.39999611	0.00000000	53.16190000	16.29552000
68.59999610	0.00000000	52.78666000	16.38164000
68.79999609	0.00000000	50.50443000	18.33784000
68.99999607	0.00000000	47.39173000	22.19488000
69.19999606	0.00000000	43.89763000	26.79626000
69.39999605	0.00000000	40.45890000	31.11466000
69.59999604	0.00000000	38.54576000	34.55955000
69.79999603	0.00000000	38.54576000	36.50344000
69.99999601	0.00000000	40.55118000	36.04207000
70.19999600	0.00000000	44.82652000	33.34153000
70.39999599	0.00000000	50.55364000	28.32800000
70.59999598	0.00000000	55.94857000	22.61319000
70.79999597	0.00000000	59.39345000	17.91953000
70.99999596	0.00000000	60.18085000	14.80684000
71.19999594	0.00000000	57.85556000	13.69340000
71.39999593	0.00000000	53.24803000	15.22515000
71.59999592	0.00000000	47.39173000	19.03912000
71.79999591	0.00000000	41.24631000	23.68356000
71.99999590	0.00000000	36.22662000	28.32800000
72.19999588	0.00000000	33.93824000	32.14198000
72.39999587	0.00000000	34.68873000	33.67372000
72.59999586	0.00000000	38.54576000	32.60334000
72.79999585	0.00000000	44.31594000	29.95201000
72.99999584	0.00000000	50.50443000	26.83932000
73.19999582	0.00000000	55.94857000	23.77584000
73.39999581	0.00000000	59.39345000	21.45669000
73.59999580	0.00000000	60.18085000	20.66314000
73.79999579	0.00000000	57.85556000	20.98917000
73.99999578	0.00000000	53.29109000	22.15182000
74.19999577	0.00000000	47.85310000	23.64050000
74.39999575	0.00000000	42.82726000	24.79700000
74.59999574	0.00000000	38.97022000	25.12918000
74.79999573	0.00000000	37.43233000	24.42790000
74.99999572	0.00000000	38.50270000	22.85310000
75.19999571	0.00000000	41.20325000	21.40133000
75.39999569	0.00000000	44.69119000	20.29404000
75.59999568	0.00000000	48.54823000	21.12451000
75.79999567	0.00000000	51.62401000	23.72662000
75.99999566	0.00000000	53.20496000	26.83932000
76.19999565	0.00000000	53.24803000	29.90895000
76.39999563	0.00000000	52.08538000	32.22810000
76.59999562	0.00000000	50.17839000	32.93553000
76.79999561	0.00000000	47.90231000	31.76673000
76.99999560	0.00000000	46.36442000	28.24188000
77.19999559	0.00000000	45.89690000	23.26525000
77.39999558	0.00000000	45.89690000	17.87647000
77.59999556	0.00000000	46.27214000	13.69340000
77.79999555	0.00000000	47.01648000	12.15551000
77.99999554	0.00000000	47.34252000	13.64419000
78.19999553	0.00000000	47.01648000	17.50123000
78.39999552	0.00000000	46.27214000	22.57013000
78.59999550	0.00000000	45.89690000	28.37721000
78.79999549	0.00000000	45.89690000	33.71678000
78.99999548	0.00000000	46.32135000	36.78642000
79.19999547	0.00000000	47.47785000	36.82948000
79.39999546	0.00000000	49.01575000	34.18430000
79.59999544	0.00000000	50.55364000	29.90895000
79.79999543	0.00000000	51.71013000	24.88927000
79.99999542	0.00000000	52.08538000	19.82652000
80.19999541	0.00000000	51.66707000	16.01255000
80.39999540	0.00000000	50.08612000	14.06865000
80.59999539	0.00000000	47.43479000	14.80684000
80.79999537	0.00000000	44.74040000	17.45817000
80.99999536	0.00000000	42.82726000	20.94611000
81.19999535	0.00000000	42.03986000	24.84621000
81.39999534	0.00000000	42.82726000	28.32800000
81.59999533	0.00000000	44.74040000	31.06545000
81.79999531	0.00000000	47.43479000	32.64640000
81.99999530	0.00000000	50.12918000	33.02165000
82.19999529	0.00000000	52.08538000	32.27731000
82.39999528	0.00000000	53.24803000	30.32726000
82.59999527	0.00000000	53.20496000	28.00197000
82.79999525	0.00000000	51.66707000	25.21530000
82.99999524	0.00000000	49.01575000	22.15182000
83.19999523	0.00000000	46.36442000	19.45743000
83.39999522	0.00000000	44.78346000	17.87647000
83.59999521	0.00000000	44.36515000	17.45817000
83.79999520	0.00000000	44.74040000	17.91953000
83.99999518	0.00000000	45.85384000	19.87574000
84.19999517	0.00000000	47.01648000	23.35138000
84.39999516	0.00000000	47.81004000	27.17150000
84.59999515	0.00000000	48.59744000	30.69636000
84.79999514	0.00000000	48.97269000	33.02165000
84.99999512	0.00000000	49.01575000	34.18430000
85.19999511	0.00000000	49.01575000	33.71678000
85.39999510	0.00000000	49.01575000	31.02239000
85.59999509	0.00000000	49.01575000	26.79626000
85.79999508	0.00000000	49.01575000	22.14567000
85.99999506	0.00000000	49.01575000	17.91953000
86.19999505	0.00000000	49.01575000	15.22515000
86.39999504	0.00000000	48.97269000	14.84990000
86.59999503	0.00000000	48.54823000	16.76304000
86.79999502	0.00000000	47.43479000	20.61393000
86.99999501	0.00000000	46.27214000	25.26452000
87.19999499	0.00000000	45.52165000	29.90895000
87.39999498	0.00000000	45.10950000	33.71678000
87.59999497	0.00000000	45.52165000	35.25467000
87.79999496	0.00000000	46.32135000	34.13509000
87.99999495	0.00000000	47.85310000	31.02239000
88.19999493	0.00000000	49.76009000	26.42101000
88.39999492	0.00000000	50.87967000	21.40748000
88.59999491	0.00000000	51.34104000	17.59350000
88.79999490	0.00000000	50.87967000	15.64345000
88.99999489	0.00000000	49.80315000	16.43085000
89.19999487	0.00000000	48.22834000	19.45743000
89.39999486	0.00000000	47.05954000	23.72662000
89.59999485	0.00000000	45.85384000	28.32800000
89.79999484	0.00000000	44.78346000	32.14198000
89.99999483	0.00000000	44.78346000	33.67372000
90.19999482	0.00000000	45.89690000	32.56028000
90.39999480	0.00000000	47.39173000	29.49065000
90.59999479	0.00000000	48.59744000	25.22145000
90.79999478	0.00000000	49.39099000	20.61393000
90.99999477	0.00000000	50.12918000	16.80610000
91.19999476	0.00000000	50.12918000	15.31742000
91.39999474	0.00000000	49.39099000	16.76304000
91.59999473	0.00000000	48.68356000	20.23868000
91.79999472	0.00000000	48.27140000	24.47712000
91.99999471	0.00000000	48.64050000	29.11540000
92.19999470	0.00000000	48.97269000	32.51722000
92.39999468	0.00000000	48.97269000	33.67372000
92.59999467	0.00000000	48.59744000	32.14198000
92.79999466	0.00000000	47.85310000	28.37721000
92.99999465	0.00000000	47.43479000	24.10187000
93.19999464	0.00000000	47.01648000	20.23868000
93.39999463	0.00000000	46.27214000	17.18135000
93.59999461	0.00000000	45.89690000	16.47392000
93.79999460	0.00000000	45.89690000	18.33784000
93.99999459	0.00000000	46.36442000	22.14567000
94.19999458	0.00000000	47.90231000	26.37795000
94.39999457	0.00000000	50.17839000	29.86589000
94.59999455	0.00000000	52.08538000	32.18504000
94.79999454	0.00000000	53.29109000	32.51107000
94.99999453	0.00000000	53.62328000	30.64714000
95.19999452	0.00000000	52.82972000	27.17150000
95.39999451	0.00000000	50.50443000	23.35138000
95.59999449	0.00000000	47.47785000	19.87574000
95.79999448	0.00000000	44.74040000	18.01181000
95.99999447	0.00000000	42.78420000	18.33784000
96.19999446	0.00000000	41.62155000	20.66314000
96.39999445	0.00000000	41.70767000	24.05881000
96.59999444	0.00000000	43.62082000	27.54060000
96.79999442	0.00000000	47.05954000	29.82283000
96.99999441	0.00000000	50.55364000	30.64714000
97.19999440	0.00000000	53.71555000	29.90895000
97.39999439	0.00000000	56.36687000	28.37721000
97.59999438	0.00000000	57.48031000	26.42101000
97.79999436	0.00000000	56.32381000	24.10187000
97.99999435	0.00000000	53.24803000	22.23794000
98.19999434	0.00000000	49.01575000	21.45669000
98.39999433	0.00000000	44.78346000	22.19488000
98.59999432	0.00000000	41.66461000	23.64050000
98.79999430	0.00000000	40.08366000	24.84621000
98.99999429	0.00000000	40.08366000	25.63976000
99.19999428	0.00000000	41.66461000	26.42101000
99.39999427	0.00000000	44.78346000	26.79626000
99.59999426	0.00000000	48.97269000	26.83932000
99.79999425	0.00000000	52.82972000	26.83932000
99.99999423	0.00000000	55.20423000	26.88238000
100.19999422	0.00000000	56.40993000	27.25763000
100.39999421	0.00000000	56.36687000	28.00197000
100.59999420	0.00000000	54.82898000	28.32800000
100.79999419	0.00000000	52.13459000	28.00197000
100.99999417	0.00000000	49.05881000	27.17150000
101.19999416	0.00000000	46.32135000	26.00270000
101.39999415	0.00000000	44.36515000	24.05881000
101.59999414	0.00000000	43.20251000	22.19488000
101.79999413	0.00000000	43.20251000	21.03838000
101.99999411	0.00000000	44.36515000	21.03838000
102.19999410	0.00000000	46.27214000	22.19488000
102.39999409	0.00000000	48.64050000	24.14493000
102.59999408	0.00000000	50.92888000	26.88853000
102.79999407	0.00000000	52.87278000	29.90895000
102.99999406	0.00000000	53.62328000	32.18504000
103.19999404	0.00000000	53.34030000	32.56028000
103.39999403	0.00000000	52.50984000	31.06545000
103.59999402	0.00000000	51.34104000	28.37721000
103.79999401	0.00000000	49.39099000	25.30758000
103.99999400	0.00000000	47.52707000	22.57013000
104.19999398	0.00000000	46.27214000	20.61393000
104.39999397	0.00000000	45.52165000	19.50049000
104.59999396	0.00000000	45.15871000	19.91880000
104.79999395	0.00000000	45.94611000	22.19488000
104.99999394	0.00000000	47.43479000	25.21530000
105.19999392	0.00000000	49.01575000	27.95891000
105.39999391	0.00000000	50.50443000	29.86589000
105.59999390	0.00000000	51.29183000	30.64714000
105.79999389	0.00000000	50.97194000	29.86589000
105.99999388	0.00000000	50.59670000	28.00197000
106.19999387	0.00000000	50.12918000	25.68282000
106.39999385	0.00000000	49.01575000	23.72662000
106.59999384	0.00000000	47.90231000	22.15182000
106.79999383	0.00000000	47.52707000	21.08145000
106.99999382	0.00000000	47.81004000	21.45669000
107.19999381	0.00000000	48.26525000	23.30832000
107.39999379	0.00000000	48.64665000	25.17224000
107.59999378	0.00000000	49.80315000	26.37795000
107.79999377	0.00000000	50.50443000	26.79626000
107.99999376	0.00000000	50.55364000	26.79626000
108.19999375	0.00000000	50.12918000	26.37795000
108.39999374	0.00000000	48.97269000	25.21530000
108.59999372	0.00000000	47.47785000	23.72662000
108.79999371	0.00000000	46.32135000	22.57013000
108.99999370	0.00000000	45.94611000	22.19488000
109.19999369	0.00000000	46.27214000	22.57013000
109.39999368	0.00000000	47.10260000	23.72662000
109.59999366	0.00000000	48.22834000	25.26452000
109.79999365	0.00000000	49.80315000	26.79626000
109.99999364	0.00000000	50.92888000	27.95275000
110.19999363	0.00000000	51.71013000	28.32800000
110.39999362	0.00000000	51.66707000	27.95275000
110.59999360	0.00000000	50.55364000	26.79626000
110.79999359	0.00000000	49.05881000	25.30758000
110.99999358	0.00000000	47.90231000	24.10187000
111.19999357	0.00000000	47.43479000	23.30832000
111.39999356	0.00000000	47.05954000	22.57013000
111.59999355	0.00000000	46.73966000	22.57013000
111.79999353	0.00000000	47.47785000	23.30832000
111.99999352	0.00000000	48.59744000	24.10187000
112.19999351	0.00000000	49.39099000	25.26452000
112.39999350	0.00000000	50.17839000	26.42101000
112.59999349	0.00000000	50.55364000	27.17150000
112.79999347	0.00000000	50.59670000	27.58366000
112.99999346	0.00000000	50.59670000	27.21457000
113.19999345	0.00000000	50.55364000	26.88238000
113.39999344	0.00000000	50.17839000	26.83932000
113.59999343	0.00000000	49.43405000	26.79626000
113.79999341	0.00000000	49.05881000	26.42101000
113.99999340	0.00000000	49.01575000	25.68282000
114.19999339	0.00000000	49.01575000	25.30758000
114.39999338	0.00000000	49.01575000	25.26452000
114.59999337	0.00000000	49.05881000	25.26452000
114.79999336	0.00000000	49.43405000	25.26452000
114.99999334	0.00000000	50.17839000	25.26452000
115.19999333	0.00000000	50.55364000	25.26452000
115.39999332	0.00000000	50.59670000	25.26452000
115.59999331	0.00000000	50.59670000	25.30758000
115.79999330	0.00000000	50.55364000	25.68282000
115.99999328	0.00000000	50.17839000	26.46407000
116.19999327	0.00000000	49.43405000	27.21457000
116.39999326	0.00000000	49.05881000	28.00197000
116.59999325	0.00000000	49.01575000	28.32800000
116.79999324	0.00000000	49.01575000	28.00197000
116.99999322	0.00000000	49.05881000	27.21457000
117.19999321	0.00000000	49.43405000	26.42101000
117.39999320	0.00000000	50.17839000	25.26452000
117.59999319	0.00000000	50.59670000	24.15108000
117.79999318	0.00000000	51.01501000	23.72662000
117.99999317	0.00000000	51.71013000	23.68356000
118.19999315	0.00000000	51.71013000	23.72662000
118.39999314	0.00000000	50.97194000	24.10187000
118.59999313	0.00000000	50.22145000	24.88927000
118.79999312	0.00000000	49.39099000	25.63976000
118.99999311	0.00000000	48.64050000	26.42101000
119.19999309	0.00000000	47.85310000	26.79626000
119.39999308	0.00000000	47.47785000	26.83932000
119.59999307	0.00000000	47.47785000	26.83932000
119.79999306	0.00000000	47.85310000	26.79626000
119.99999305	0.00000000	48.64050000	26.42101000
120.19999303	0.00000000	49.43405000	25.68282000
120.39999302	0.00000000	50.59670000	25.30758000
120.59999301	0.00000000	51.71013000	25.22145000
120.79999300	0.00000000	52.13459000	24.84621000
120.99999299	0.00000000	52.13459000	24.10187000
121.19999298	0.00000000	51.71013000	23.72662000
121.39999296	0.00000000	50.55364000	23.68356000
121.59999295	0.00000000	49.01575000	23.72662000
121.79999294	0.00000000	47.47785000	24.10187000
121.99999293	0.00000000	46.36442000	24.84621000
122.19999292	0.00000000	46.32135000	25.26452000
122.39999290	0.00000000	47.05954000	25.68282000
122.59999289	0.00000000	47.85310000	26.42101000
122.79999288	0.00000000	49.01575000	26.79626000
122.99999287	0.00000000	50.17839000	26.83932000
123.19999286	0.00000000	50.97194000	26.79626000
123.39999284	0.00000000	51.75935000	26.42101000
123.59999283	0.00000000	52.13459000	25.68282000
123.79999282	0.00000000	52.13459000	25.30758000
123.99999281	0.00000000	51.75935000	25.22145000
124.19999280	0.00000000	50.97194000	24.84621000
124.39999279	0.00000000	50.22145000	24.10187000
124.59999277	0.00000000	49.39099000	23.77584000
124.79999276	0.00000000	48.64050000	24.10187000
124.99999275	0.00000000	47.85310000	24.84621000
125.19999274	0.00000000	47.47785000	25.26452000
125.39999273	0.00000000	47.47785000	25.68282000
125.59999271	0.00000000	47.85310000	26.42101000
125.79999270	0.00000000	48.64050000	26.83932000
125.99999269	0.00000000	49.43405000	27.21457000
126.19999268	0.00000000	50.59670000	27.58366000
126.39999267	0.00000000	51.71013000	27.21457000
126.59999265	0.00000000	52.13459000	26.83932000
126.79999264	0.00000000	52.13459000	26.42101000
126.99999263	0.00000000	51.71013000	25.68282000
127.19999262	0.00000000	50.59670000	25.30758000
127.39999261	0.00000000	49.43405000	25.26452000
127.59999260	0.00000000	48.64050000	25.26452000
127.79999258	0.00000000	47.85310000	25.26452000
127.99999257	0.00000000	47.52707000	25.30758000
128.19999256	0.00000000	47.90231000	25.68282000
128.39999255	0.00000000	49.01575000	26.42101000
128.59999254	0.00000000	50.17839000	26.79626000
128.79999252	0.00000000	50.97194000	26.83932000
128.99999251	0.00000000	51.75935000	26.83932000
129.19999250	0.00000000	52.13459000	26.83932000
129.39999249	0.00000000	52.13459000	26.79626000
129.59999248	0.00000000	51.71013000	26.42101000
129.79999246	0.00000000	50.55364000	25.68282000
129.99999245	0.00000000	49.05881000	25.30758000
130.19999244	0.00000000	47.90231000	25.30758000
130.39999243	0.00000000	47.52707000	25.68282000
130.59999242	0.00000000	47.90231000	26.42101000
130.79999241	0.00000000	49.01575000	26.79626000
130.99999239	0.00000000	50.17839000	26.83932000
131.19999238	0.00000000	50.97194000	26.83932000
131.39999237	0.00000000	51.75935000	26.79626000
131.59999236	0.00000000	52.13459000	26.42101000
131.79999235	0.00000000	52.13459000	25.68282000
131.99999233	0.00000000	51.75935000	25.26452000
132.19999232	0.00000000	50.97194000	24.88927000
132.39999231	0.00000000	50.22145000	24.52018000
132.59999230	0.00000000	49.43405000	24.93233000
132.79999229	0.00000000	49.05881000	25.63976000
132.99999227	0.00000000	49.05881000	26.42101000
133.19999226	0.00000000	49.43405000	26.83932000
133.39999225	0.00000000	50.17839000	27.25763000
133.59999224	0.00000000	50.55364000	27.95275000
133.79999223	0.00000000	50.59670000	27.95275000
133.99999222	0.00000000	50.59670000	27.21457000
134.19999220	0.00000000	50.59670000	26.46407000
134.39999219	0.00000000	50.59670000	25.63976000
134.59999218	0.00000000	50.59670000	24.93233000
134.79999217	0.00000000	50.59670000	24.47712000
134.99999216	0.00000000	50.59670000	24.51402000
135.19999214	0.00000000	50.59670000	24.47712000
135.39999213	0.00000000	50.59670000	24.88927000
135.59999212	0.00000000	50.59670000	25.26452000
135.79999211	0.00000000	50.59670000	25.68282000
135.99999210	0.00000000	50.55364000	26.42101000
136.19999208	0.00000000	50.17839000	26.79626000
136.39999207	0.00000000	49.43405000	26.83932000
136.59999206	0.00000000	49.05881000	26.83932000
136.79999205	0.00000000	49.01575000	26.79626000
136.99999204	0.00000000	49.05881000	26.42101000
137.19999203	0.00000000	49.43405000	25.68282000
137.39999201	0.00000000	50.17839000	25.30758000
137.59999200	0.00000000	50.59670000	25.26452000
137.79999199	0.00000000	51.01501000	25.22145000
137.99999198	0.00000000	51.71013000	24.84621000
138.19999197	0.00000000	51.71013000	24.15108000
138.39999195	0.00000000	50.97194000	24.15108000
138.59999194	0.00000000	50.22145000	24.84621000
138.79999193	0.00000000	49.48326000	25.26452000
138.99999192	0.00000000	49.43405000	25.68282000
139.19999191	0.00000000	49.76009000	26.42101000
139.39999189	0.00000000	49.43405000	26.79626000
139.59999188	0.00000000	49.48326000	26.83932000
139.79999187	0.00000000	50.17839000	26.83932000
139.99999186	0.00000000	50.59670000	26.83932000
140.19999185	0.00000000	51.01501000	26.79626000
140.39999184	0.00000000	51.75935000	26.42101000
140.59999182	0.00000000	52.08538000	25.63976000
140.79999181	0.00000000	51.75935000	24.88927000
140.99999180	0.00000000	50.97194000	24.10187000
141.19999179	0.00000000	50.22145000	23.77584000
141.39999178	0.00000000	49.48326000	24.10187000
141.59999176	0.00000000	49.48326000	24.88927000
141.79999175	0.00000000	50.17839000	25.68282000
141.99999174	0.00000000	50.55364000	26.83932000
142.19999173	0.00000000	50.68897000	27.90969000
142.39999172	0.00000000	51.34719000	28.00197000
142.59999170	0.00000000	52.12229000	27.63287000
142.79999169	0.00000000	51.76550000	27.62672000
142.99999168	0.00000000	51.80241000	27.17150000
143.19999167	0.00000000	51.71013000	26.46407000
143.39999166	0.00000000	51.01501000	25.63976000
143.59999165	0.00000000	50.63976000	24.93233000
143.79999163	0.00000000	50.59670000	24.52018000
143.99999162	0.00000000	50.59670000	24.88927000
144.19999161	0.00000000	50.63976000	25.26452000
144.39999160	0.00000000	51.01501000	25.72589000
144.59999159	0.00000000	51.75935000	26.83932000
144.79999157	0.00000000	52.13459000	27.95275000
144.99999156	0.00000000	52.13459000	28.37721000
145.19999155	0.00000000	51.75935000	28.37721000
145.39999154	0.00000000	51.01501000	28.00197000
145.59999153	0.00000000	50.63976000	27.21457000
145.79999151	0.00000000	50.59670000	26.46407000
145.99999150	0.00000000	50.59670000	25.68282000
146.19999149	0.00000000	50.59670000	25.30758000
146.39999148	0.00000000	50.59670000	25.26452000
146.59999147	0.00000000	50.59670000	25.26452000
146.79999146	0.00000000	50.63976000	25.30758000
146.99999144	0.00000000	51.01501000	25.68282000
147.19999143	0.00000000	51.75935000	26.42101000
147.39999142	0.00000000	52.13459000	26.79626000
147.59999141	0.00000000	52.13459000	26.83932000
147.79999140	0.00000000	51.75935000	26.83932000
147.99999138	0.00000000	51.01501000	26.83932000
148.19999137	0.00000000	50.63976000	26.83932000
148.39999136	0.00000000	50.59670000	26.83932000
148.59999135	0.00000000	50.59670000	26.79626000
148.79999134	0.00000000	50.59670000	26.42101000
148.99999132	0.00000000	50.59670000	25.68282000
149.19999131	0.00000000	50.59670000	25.30758000
149.39999130	0.00000000	50.63976000	25.26452000
149.59999129	0.00000000	50.97194000	25.26452000
149.79999128	0.00000000	51.38410000	25.30758000
149.99999127	0.00000000	51.39025000	25.68282000
150.19999125	0.00000000	51.75935000	26.42101000
150.39999124	0.00000000	51.71013000	26.79626000
150.59999123	0.00000000	51.01501000	26.83932000
150.79999122	0.00000000	50.63976000	26.83932000
150.99999121	0.00000000	50.59670000	26.83932000
151.19999119	0.00000000	50.59670000	26.83932000
151.39999118	0.00000000	50.59670000	26.83932000
151.59999117	0.00000000	50.59670000	26.79626000
151.79999116	0.00000000	50.59670000	26.42101000
151.99999115	0.00000000	50.63976000	25.68282000
152.19999113	0.00000000	51.01501000	25.30758000
152.39999112	0.00000000	51.75935000	25.26452000
152.59999111	0.00000000	52.13459000	25.30758000
152.79999110	0.00000000	52.17765000	25.63976000
152.99999109	0.00000000	52.13459000	26.04577000
153.19999108	0.00000000	51.75935000	26.05807000
153.39999106	0.00000000	51.01501000	26.46407000
153.59999105	0.00000000	50.63976000	26.79626000
153.79999104	0.00000000	50.59670000	26.83932000
153.99999103	0.00000000	50.59670000	26.83932000
154.19999102	0.00000000	50.59670000	26.83932000
154.39999100	0.00000000	50.59670000	26.83932000
154.59999099	0.00000000	50.59670000	26.83932000
154.79999098	0.00000000	50.63976000	26.83932000
154.99999097	0.00000000	51.01501000	26.79626000
155.19999096	0.00000000	51.75935000	26.42101000
155.39999094	0.00000000	52.13459000	25.68282000
155.59999093	0.00000000	52.17765000	25.30758000
155.79999092	0.00000000	52.17765000	25.26452000
155.99999091	0.00000000	52.17765000	25.26452000
156.19999090	0.00000000	52.13459000	25.30758000
156.39999089	0.00000000	51.75935000	25.68282000
156.59999087	0.00000000	51.01501000	26.42101000
156.79999086	0.00000000	50.63976000	26.79626000
156.99999085	0.00000000	50.59670000	26.83932000
157.19999084	0.00000000	50.59670000	26.83932000
157.39999083	0.00000000	50.59670000	26.83932000
157.59999081	0.00000000	50.59670000	26.83932000
157.79999080	0.00000000	50.63976000	26.83932000
157.99999079	0.00000000	51.01501000	26.79626000
158.19999078	0.00000000	51.75935000	26.42101000
158.39999077	0.00000000	52.13459000	25.68282000
158.59999075	0.00000000	52.17765000	25.35679000
158.79999074	0.00000000	52.13459000	25.68282000
158.99999073	0.00000000	51.80241000	26.42101000
159.19999072	0.00000000	51.43332000	26.83932000
159.39999071	0.00000000	51.80241000	27.25763000
159.59999070	0.00000000	52.08538000	28.00197000
159.79999068	0.00000000	51.75935000	28.37721000
159.99999067	0.00000000	51.01501000	28.42027000
160.19999066	0.00000000	50.68897000	28.37721000
160.39999065	0.00000000	50.97194000	28.00197000
160.59999064	0.00000000	51.38410000	27.25763000
160.79999062	0.00000000	51.39025000	26.88238000
160.99999061	0.00000000	51.80241000	26.83932000
161.19999060	0.00000000	52.13459000	26.83932000
161.39999059	0.00000000	52.17765000	26.83932000
161.59999058	0.00000000	52.17765000	26.83932000
161.79999056	0.00000000	52.17765000	26.83932000
161.99999055	0.00000000	52.17765000	26.88238000
162.19999054	0.00000000	52.22071000	27.25763000
162.39999053	0.00000000	52.55290000	28.00197000
162.59999052	0.00000000	52.92200000	28.37721000
162.79999051	0.00000000	52.55290000	28.37721000
162.99999049	0.00000000	52.17765000	28.00197000
163.19999048	0.00000000	51.75935000	27.25763000
163.39999047	0.00000000	51.01501000	26.88238000
163.59999046	0.00000000	50.68897000	26.83932000
163.79999045	0.00000000	50.97194000	26.83932000
163.99999043	0.00000000	51.34104000	26.83932000
164.19999042	0.00000000	51.01501000	26.83932000
164.39999041	0.00000000	51.06422000	26.83932000
164.59999040	0.00000000	51.75935000	26.83932000
164.79999039	0.00000000	52.13459000	26.83932000
164.99999037	0.00000000	52.17765000	26.79626000
165.19999036	0.00000000	52.17765000	26.46407000
165.39999035	0.00000000	52.17765000	26.05807000
165.59999034	0.00000000	52.17765000	26.09498000
165.79999033	0.00000000	52.13459000	26.00886000
165.99999032	0.00000000	51.75935000	26.04577000
166.19999030	0.00000000	51.01501000	25.68282000
166.39999029	0.00000000	50.63976000	25.68282000
166.59999028	0.00000000	50.63976000	26.00270000
166.79999027	0.00000000	50.97194000	25.63976000
166.99999026	0.00000000	51.38410000	25.30758000
167.19999024	0.00000000	51.39025000	25.26452000
167.39999023	0.00000000	51.80241000	25.26452000
167.59999022	0.00000000	52.13459000	25.26452000
167.79999021	0.00000000	52.17765000	25.26452000
167.99999020	0.00000000	52.17765000	25.26452000
168.19999018	0.00000000	52.17765000	25.26452000
168.39999017	0.00000000	52.17765000	25.26452000
168.59999016	0.00000000	52.17765000	25.30758000
168.79999015	0.00000000	52.17765000	25.68282000
168.99999014	0.00000000	52.13459000	26.37795000
169.19999013	0.00000000	51.75935000	26.42101000
169.39999011	0.00000000	51.01501000	26.10113000
169.59999010	0.00000000	50.63976000	26.42101000
169.79999009	0.00000000	50.59670000	26.42101000
169.99999008	0.00000000	50.63976000	26.10113000
170.19999007	0.00000000	51.01501000	26.46407000
170.39999005	0.00000000	51.75935000	26.79626000
170.59999004	0.00000000	52.13459000	26.83932000
170.79999003	0.00000000	52.17765000	26.79626000
170.99999002	0.00000000	52.17765000	26.46407000
171.19999001	0.00000000	52.17765000	26.10113000
171.39998999	0.00000000	52.17765000	26.46407000
171.59998998	0.00000000	52.17765000	26.79626000
171.79998997	0.00000000	52.17765000	26.79626000
171.99998996	0.00000000	52.17765000	26.46407000
172.19998995	0.00000000	52.17765000	26.10113000
172.39998994	0.00000000	52.17765000	26.46407000
172.59998992	0.00000000	52.17765000	26.79626000
172.79998991	0.00000000	52.17765000	26.83932000
172.99998990	0.00000000	52.17765000	26.83932000
173.19998989	0.00000000	52.17765000	26.83932000
173.39998988	0.00000000	52.17765000	26.83932000
173.59998986	0.00000000	52.17765000	26.83932000
173.79998985	0.00000000	52.17765000	26.83932000
173.99998984	0.00000000	52.17765000	26.83932000
174.19998983	0.00000000	52.17765000	26.83932000
174.39998982	0.00000000	52.17765000	26.83932000
174.59998980	0.00000000	52.17765000	26.83932000
174.79998979	0.00000000	52.17765000	26.83932000
174.99998978	0.00000000	52.17765000	26.83932000
175.19998977	0.00000000	52.17765000	26.83932000
175.39998976	0.00000000	52.17765000	26.83932000
175.59998975	0.00000000	52.17765000	26.83932000
175.79998973	0.00000000	52.17765000	26.83932000
175.99998972	0.00000000	52.17765000	26.83932000
176.19998971	0.00000000	52.17765000	26.83932000
176.39998970	0.00000000	52.17765000	26.83932000
176.59998969	0.00000000	52.17765000	26.83932000
176.79998967	0.00000000	52.17765000	26.83932000
176.99998966	0.00000000	52.17765000	26.83932000
177.19998965	0.00000000	52.17765000	26.83932000
177.39998964	0.00000000	52.17765000	26.83932000
177.59998963	0.00000000	52.17765000	26.83932000
177.79998961	0.00000000	52.17765000	26.83932000
177.99998960	0.00000000	52.17765000	26.83932000
178.19998959	0.00000000	52.17765000	26.83932000
178.39998958	0.00000000	52.17765000	26.83932000
178.59998957	0.00000000	52.17765000	26.83932000
178.79998956	0.00000000	52.17765000	26.83932000
178.99998954	0.00000000	52.17765000	26.83932000
179.19998953	0.00000000	52.17765000	26.83932000
179.39998952	0.00000000	52.17765000	26.83932000
179.59998951	0.00000000	52.22071000	26.83932000
179.79998950	0.00000000	52.59596000	26.83932000
179.99998948	0.00000000	53.29109000	26.83932000
180.19998947	0.00000000	53.29109000	26.79626000
180.39998946	0.00000000	52.59596000	26.46407000
180.59998945	0.00000000	52.22071000	26.10113000
180.79998944	0.00000000	52.17765000	26.46407000
180.99998942	0.00000000	52.17765000	26.79626000
181.19998941	0.00000000	52.17765000	26.83932000
181.39998940	0.00000000	52.17765000	26.83932000
181.59998939	0.00000000	52.17765000	26.83932000
181.79998938	0.00000000	52.17765000	26.83932000
181.99998937	0.00000000	52.17765000	26.83932000
182.19998935	0.00000000	52.17765000	26.83932000
182.39998934	0.00000000	52.17765000	26.83932000
182.59998933	0.00000000	52.17765000	26.83932000
182.79998932	0.00000000	52.17765000	26.79626000
182.99998931	0.00000000	52.17765000	26.42101000
183.19998929	0.00000000	52.17765000	25.68282000
183.39998928	0.00000000	52.17765000	25.35679000
183.59998927	0.00000000	52.17765000	25.68282000
183.79998926	0.00000000	52.17765000	26.42101000
183.99998925	0.00000000	52.17765000	26.79626000
184.19998923	0.00000000	52.17765000	26.83932000
184.39998922	0.00000000	52.17765000	26.83932000
184.59998921	0.00000000	52.17765000	26.83932000
184.79998920	0.00000000	52.17765000	26.83932000
184.99998919	0.00000000	52.17765000	26.83932000
185.19998918	0.00000000	52.22071000	26.83932000
185.39998916	0.00000000	52.59596000	26.83932000
185.59998915	0.00000000	53.29109000	26.79626000
185.79998914	0.00000000	53.34030000	26.42101000
185.99998913	0.00000000	52.97121000	25.68282000
186.19998912	0.00000000	52.96506000	25.30758000
186.39998910	0.00000000	52.55290000	25.30758000
186.59998909	0.00000000	52.22071000	25.68282000
186.79998908	0.00000000	52.17765000	26.42101000
186.99998907	0.00000000	52.17765000	26.79626000
187.19998906	0.00000000	52.17765000	26.83932000
187.39998904	0.00000000	52.17765000	26.83932000
187.59998903	0.00000000	52.17765000	26.83932000
187.79998902	0.00000000	52.17765000	26.83932000
187.99998901	0.00000000	52.22071000	26.88238000
188.19998900	0.00000000	52.55290000	27.21457000
188.39998899	0.00000000	52.92200000	27.58366000
188.59998897	0.00000000	52.59596000	27.21457000
188.79998896	0.00000000	52.64517000	26.88238000
188.99998895	0.00000000	53.34030000	26.83932000
189.19998894	0.00000000	53.71555000	26.83932000
189.39998893	0.00000000	53.75861000	26.83932000
189.59998891	0.00000000	53.71555000	26.83932000
189.79998890	0.00000000	53.38336000	26.83932000
189.99998889	0.00000000	52.97121000	26.83932000
190.19998888	0.00000000	52.96506000	26.88238000
190.39998887	0.00000000	52.55290000	27.25763000
190.59998885	0.00000000	52.22071000	28.00197000
190.79998884	0.00000000	52.22071000	28.37721000
190.99998883	0.00000000	52.59596000	28.37721000
191.19998882	0.00000000	53.34030000	28.00197000
191.39998881	0.00000000	53.71555000	27.25763000
191.59998880	0.00000000	53.75861000	26.88238000
191.79998878	0.00000000	53.75861000	26.83932000
191.99998877	0.00000000	53.75861000	26.79626000
192.19998876	0.00000000	53.75861000	26.46407000
192.39998875	0.00000000	53.75861000	26.10113000
192.59998874	0.00000000	53.71555000	26.46407000
192.79998872	0.00000000	53.34030000	26.79626000
192.99998871	0.00000000	52.59596000	26.83932000
193.19998870	0.00000000	52.22071000	26.83932000
193.39998869	0.00000000	52.17765000	26.88238000
193.59998868	0.00000000	52.17765000	27.21457000
193.79998866	0.00000000	52.22071000	27.62672000
193.99998865	0.00000000	52.59596000	27.58981000
194.19998864	0.00000000	53.34030000	27.62672000
194.39998863	0.00000000	53.71555000	27.21457000
194.59998862	0.00000000	53.75861000	26.88238000
194.79998861	0.00000000	53.75861000	26.83932000
194.99998859	0.00000000	53.75861000	26.83932000
195.19998858	0.00000000	53.75861000	26.83932000
195.39998857	0.00000000	53.71555000	26.83932000
195.59998856	0.00000000	53.34030000	26.83932000
195.79998855	0.00000000	52.64517000	26.83932000
195.99998853	0.00000000	52.59596000	26.83932000
