Time	Channel A	Channel B	Channel C
(us)	(V)	(mV)	(mV)

-4.59999956	0.00000000	63.24434000	31.57603000
-4.39999957	0.00000000	63.24434000	31.57603000
-4.19999958	0.00000000	63.24434000	31.57603000
-3.99999959	0.00000000	63.24434000	31.57603000
-3.79999960	0.00000000	63.24434000	31.57603000
-3.59999962	0.00000000	63.24434000	31.57603000
-3.39999963	0.00000000	63.24434000	31.57603000
-3.19999964	0.00000000	63.24434000	31.57603000
-2.99999965	0.00000000	63.24434000	31.57603000
-2.79999966	0.00000000	63.24434000	31.57603000
-2.59999968	0.00000000	63.24434000	31.57603000
-2.39999969	0.00000000	63.24434000	31.57603000
-2.19999970	0.00000000	63.28740000	31.57603000
-1.99999971	0.00000000	63.61958000	31.57603000
-1.79999972	0.00000000	63.98867000	31.57603000
-1.59999973	0.00000000	63.61958000	31.57603000
-1.39999975	0.00000000	63.28740000	31.57603000
-1.19999976	0.00000000	63.24434000	31.57603000
-0.99999977	0.00000000	63.24434000	31.57603000
-0.79999978	0.00000000	63.24434000	31.57603000
-0.59999979	0.00000000	63.24434000	31.57603000
-0.39999981	0.00000000	63.24434000	31.57603000
-0.19999982	0.47736220	63.24434000	31.57603000
0.00000017	0.79601380	63.24434000	31.57603000
0.20000016	0.95533960	63.24434000	31.57603000
0.40000015	0.95533960	63.24434000	31.57603000
0.60000013	0.63668800	63.24434000	31.57603000
0.80000012	0.00000000	63.24434000	31.57603000
1.00000011	-0.79601380	63.24434000	31.57603000
1.20000010	-1.91129400	63.24434000	31.57603000
1.40000009	-2.54859700	63.24434000	31.57603000
1.60000008	-2.70792300	63.24434000	31.57603000
1.80000006	-2.07062000	63.24434000	31.57603000
2.00000005	-0.63668800	63.24434000	31.57603000
2.20000004	1.27399100	63.24434000	31.57603000
2.40000003	3.34522600	63.24434000	31.53297000
2.60000002	4.93786900	63.24434000	31.15772000
2.80000000	5.41584600	63.24434000	30.41954000
2.99999999	4.30056600	63.24434000	30.04429000
3.19999998	1.91129400	63.24434000	30.00123000
3.39999997	-1.43331700	63.24434000	30.00123000
3.59999996	-4.61921700	63.24434000	30.04429000
3.79999994	-7.16781500	63.24434000	30.41954000
3.99999993	-7.96444400	63.24434000	31.15772000
4.19999992	-6.84916400	63.24434000	31.53297000
4.39999991	-3.66326300	63.28740000	31.57603000
4.59999990	0.47736220	63.61958000	31.57603000
4.79999989	4.93786900	63.98867000	31.53297000
4.99999987	8.12377000	63.66264000	31.20078000
5.19999986	9.55770200	63.66264000	30.79478000
5.39999985	8.44242100	63.98867000	30.78248000
5.59999984	5.09719500	63.61958000	30.37647000
5.79999983	0.63668800	63.28740000	30.04429000
5.99999981	-4.14124000	63.24434000	30.04429000
6.19999980	-7.80511800	63.24434000	30.41954000
6.39999979	-9.39837600	63.24434000	31.15772000
6.59999978	-8.76107300	63.24434000	31.53297000
6.79999977	-5.89382400	63.24434000	31.57603000
6.99999975	-1.75196900	63.24434000	31.57603000
7.19999974	2.54859700	63.24434000	31.57603000
7.39999973	5.89382400	63.24434000	31.57603000
7.59999972	7.64579200	63.24434000	31.53297000
7.79999971	7.32714100	63.24434000	31.20078000
7.99999970	5.25652100	63.24434000	30.83784000
8.19999968	2.22994600	63.24434000	31.15772000
8.39999967	-0.95533960	63.24434000	31.15772000
8.59999966	-3.66326300	63.24434000	30.83784000
8.79999965	-5.09719500	63.24434000	31.20078000
8.99999964	-4.93786900	63.28740000	31.53297000
9.19999962	-3.82258900	63.61958000	31.57603000
9.39999961	-1.91129400	63.98867000	31.57603000
9.59999960	0.00000000	63.66264000	31.57603000
9.79999959	1.59264300	63.66264000	31.57603000
9.99999958	2.38927200	63.98867000	31.57603000
10.19999956	2.54859700	63.61958000	31.57603000
10.39999955	1.91129400	63.33661000	31.57603000
10.59999954	1.11466500	63.61958000	31.57603000
10.79999953	0.15871060	63.98867000	31.57603000
10.99999952	-0.47736220	63.66264000	31.57603000
11.19999951	-0.79601380	63.71186000	31.57603000
11.39999949	-0.95533960	64.35777000	31.57603000
11.59999948	-0.95533960	64.35777000	31.57603000
11.79999947	-0.63668800	63.71186000	31.57603000
11.99999946	-0.31803640	63.66264000	31.57603000
12.19999945	-0.15871060	63.98867000	31.57603000
12.39999943	-0.15871060	63.66264000	31.57603000
12.59999942	0.00000000	63.71186000	31.57603000
12.79999941	0.00000000	64.40699000	31.57603000
12.99999940	0.00000000	64.78223000	31.57603000
13.19999939	0.15871060	64.82529000	31.57603000
13.39999937	0.00000000	64.82529000	31.57603000
13.59999936	0.00000000	64.82529000	31.57603000
13.79999935	0.00000000	64.78223000	31.57603000
13.99999934	0.00000000	64.45004000	31.57603000
14.19999933	-0.15871060	64.08095000	31.57603000
14.39999932	-0.15871060	64.45004000	31.57603000
14.59999930	-0.15871060	64.78223000	31.57603000
14.79999929	0.00000000	64.78223000	31.53297000
14.99999928	0.00000000	64.45004000	31.20078000
15.19999927	0.00000000	64.08095000	30.83784000
15.39999926	0.00000000	64.40699000	31.20078000
15.59999924	0.00000000	64.40699000	31.53297000
15.79999923	0.00000000	64.03790000	31.57603000
15.99999922	0.00000000	64.07480000	31.57603000
16.19999921	0.00000000	64.03790000	31.57603000
16.39999920	0.00000000	64.45004000	31.57603000
16.59999919	-0.15871060	64.78223000	31.57603000
16.79999917	0.00000000	64.82529000	31.57603000
16.99999916	0.00000000	64.82529000	31.57603000
17.19999915	0.00000000	64.86835000	31.57603000
17.39999914	0.00000000	65.24360000	31.57603000
17.59999913	0.00000000	65.93873000	31.57603000
17.79999911	0.00000000	65.93873000	31.57603000
17.99999910	0.00000000	65.20053000	31.57603000
18.19999909	0.00000000	64.40699000	31.57603000
18.39999908	0.00000000	63.20127000	31.57603000
18.59999907	0.00000000	61.66338000	31.57603000
18.79999905	0.00000000	60.12549000	31.57603000
18.99999904	0.00000000	59.01205000	31.57603000
19.19999903	0.00000000	59.09818000	31.57603000
19.39999902	0.00000000	61.01131000	31.57603000
19.59999901	0.00000000	64.49925000	31.57603000
19.79999900	0.00000000	68.36859000	31.57603000
19.99999898	0.00000000	72.26870000	31.57603000
20.19999897	0.00000000	75.25220000	31.57603000
20.39999896	0.00000000	76.03960000	31.57603000
20.59999895	0.00000000	74.04650000	31.57603000
20.79999894	0.00000000	69.75885000	31.57603000
20.99999892	0.00000000	63.10900000	31.57603000
21.19999891	0.00000000	55.43184000	31.53297000
21.39999890	0.00000000	48.49901000	31.20078000
21.59999889	0.00000000	44.30979000	30.83784000
21.79999888	0.00000000	44.35285000	31.20078000
21.99999886	0.00000000	49.09572000	31.53297000
22.19999885	0.00000000	58.40305000	31.53297000
22.39999884	0.00000000	70.73695000	31.15772000
22.59999883	0.00000000	82.73868000	30.46260000
22.79999882	0.00000000	91.95374000	30.46260000
22.99999881	0.00000000	96.08759000	31.20078000
23.19999879	0.00000000	92.51353000	31.95128000
23.39999878	0.00000000	81.71751000	32.73868000
23.59999877	0.00000000	65.80955000	33.11393000
23.79999876	0.00000000	48.08071000	33.15699000
23.99999875	0.00000000	32.63410000	33.15699000
24.19999873	0.00000000	23.41289000	33.11393000
24.39999872	0.00000000	22.71777000	32.68946000
24.59999871	0.00000000	31.74212000	31.53297000
24.79999870	0.00000000	49.47096000	30.00123000
24.99999869	0.00000000	71.85040000	28.46333000
25.19999867	0.00000000	93.11638000	27.30684000
25.39999866	0.00000000	108.93820000	26.93159000
25.59999865	0.00000000	115.40350000	27.34990000
25.79999864	0.00000000	109.96550000	28.93085000
25.99999863	0.00000000	93.76845000	31.66830000
26.19999862	0.00000000	70.60162000	35.15625000
26.39999860	0.00000000	45.84769000	39.00713000
26.59999859	0.00000000	25.00000000	42.03371000
26.79999858	0.00000000	12.67224000	43.19020000
26.99999857	0.00000000	12.29700000	41.99065000
27.19999856	0.00000000	23.88041000	38.41043000
27.39999854	0.00000000	44.72810000	32.22810000
27.59999853	0.00000000	70.17716000	24.52018000
27.79999852	0.00000000	93.72539000	17.59350000
27.99999851	0.00000000	110.05170000	12.62303000
28.19999850	0.00000000	116.24630000	11.55266000
28.39999848	0.00000000	111.21430000	15.45275000
28.59999847	0.00000000	95.81692000	23.58514000
28.79999846	0.00000000	74.22490000	34.82406000
28.99999845	0.00000000	51.79626000	46.77042000
29.19999844	0.00000000	33.18774000	56.76057000
29.39999843	0.00000000	22.34252000	62.10630000
29.59999841	0.00000000	21.09375000	60.90059000
29.79999840	0.00000000	29.18307000	53.18652000
29.99999839	0.00000000	44.21752000	40.36663000
30.19999838	0.00000000	62.78297000	24.93233000
30.39999837	0.00000000	80.55487000	9.88558000
30.59999835	0.00000000	93.76845000	-0.89812980
30.79999834	0.00000000	100.04920000	-5.12426100
30.99999833	0.00000000	98.93577000	-1.59325800
31.19999832	0.00000000	91.20939000	9.60260800
31.39999831	0.00000000	78.41412000	25.81816000
31.59999829	0.00000000	63.37967000	43.61467000
31.79999828	0.00000000	49.47096000	59.45497000
31.99999827	0.00000000	40.16978000	69.82037000
32.19999826	0.00000000	36.95866000	72.13951000
32.39999825	0.00000000	39.65920000	65.63730000
32.59999824	0.00000000	47.38558000	52.48523000
32.79999822	0.00000000	58.59375000	35.43307000
32.99999821	0.00000000	70.50935000	17.26747000
33.19999820	0.00000000	80.18578000	2.25762800
33.39999819	0.00000000	85.30388000	-6.28690900
33.59999818	0.00000000	85.72219000	-6.70521600
33.79999816	0.00000000	81.80979000	0.59055110
33.99999815	0.00000000	73.76353000	13.78568000
34.19999814	0.00000000	64.17323000	30.37647000
34.39999813	0.00000000	56.02854000	46.96112000
34.59999812	0.00000000	50.59055000	59.31963000
34.79999810	0.00000000	49.05265000	65.16978000
34.99999809	0.00000000	51.70398000	63.63803000
35.19999808	0.00000000	57.43110000	55.13656000
35.39999807	0.00000000	64.36392000	41.65846000
35.59999806	0.00000000	70.55241000	26.23647000
35.79999805	0.00000000	74.79084000	12.75836000
35.99999803	0.00000000	75.94734000	4.25688900
36.19999802	0.00000000	73.67126000	2.67593500
36.39999801	0.00000000	69.06373000	7.97244000
36.59999800	0.00000000	63.29355000	18.01181000
36.79999799	0.00000000	57.94168000	30.32726000
36.99999797	0.00000000	54.86589000	42.26747000
37.19999796	0.00000000	54.82283000	50.35679000
37.39999795	0.00000000	57.51722000	53.09424000
37.59999794	0.00000000	62.13090000	49.98154000
37.79999793	0.00000000	67.52583000	41.61540000
37.99999791	0.00000000	72.18258000	30.93012000
38.19999790	0.00000000	75.25220000	21.72736000
38.39999789	0.00000000	75.99655000	16.28937000
38.59999788	0.00000000	73.72047000	15.91412000
38.79999787	0.00000000	69.57431000	20.52165000
38.99999786	0.00000000	65.24360000	28.93085000
39.19999784	0.00000000	61.33120000	38.50270000
39.39999783	0.00000000	57.84941000	46.12450000
39.59999782	0.00000000	55.93627000	49.55708000
39.79999781	0.00000000	55.89320000	47.28715000
39.99999780	0.00000000	57.47416000	40.40969000
40.19999778	0.00000000	60.54995000	31.20694000
40.39999777	0.00000000	64.45004000	21.96112000
40.59999776	0.00000000	68.31938000	15.49582000
40.79999775	0.00000000	71.85040000	13.55192000
40.99999774	0.00000000	74.13878000	17.02756000
41.19999772	0.00000000	74.92618000	24.69857000
41.39999771	0.00000000	73.76353000	34.69488000
41.59999770	0.00000000	71.11221000	44.26673000
41.79999769	0.00000000	67.94415000	50.39985000
41.99999768	0.00000000	64.45004000	51.60556000
42.19999767	0.00000000	60.96825000	47.79773000
42.39999765	0.00000000	58.63681000	40.50196000
42.59999764	0.00000000	57.43110000	31.62524000
42.79999763	0.00000000	57.47416000	23.16683000
42.99999762	0.00000000	59.01205000	17.40280000
43.19999761	0.00000000	61.70644000	15.82800000
43.39999759	0.00000000	64.73917000	18.43012000
43.59999758	0.00000000	67.10752000	23.81890000
43.79999757	0.00000000	68.32554000	30.37647000
43.99999756	0.00000000	69.15600000	36.92175000
44.19999755	0.00000000	69.53124000	41.52312000
44.39999753	0.00000000	69.53124000	43.14714000
44.59999752	0.00000000	69.15600000	42.03371000
44.79999751	0.00000000	68.41166000	38.96407000
44.99999750	0.00000000	67.99335000	34.73794000
45.19999749	0.00000000	67.52583000	30.51181000
45.39999748	0.00000000	66.36318000	27.34990000
45.59999746	0.00000000	64.78223000	25.39985000
45.79999745	0.00000000	62.77681000	24.65551000
45.99999744	0.00000000	60.08243000	25.81816000
46.19999743	0.00000000	57.43110000	28.46333000
46.39999742	0.00000000	55.89320000	31.53297000
46.59999740	0.00000000	55.93627000	34.27042000
46.79999739	0.00000000	57.98474000	36.22662000
46.99999738	0.00000000	62.64148000	37.38312000
47.19999737	0.00000000	69.15600000	37.34006000
47.39999736	0.00000000	75.30142000	35.80217000
47.59999734	0.00000000	79.57676000	33.15699000
47.79999733	0.00000000	81.11466000	30.46260000
47.99999732	0.00000000	79.48450000	28.46333000
48.19999731	0.00000000	74.41560000	26.93159000
48.39999730	0.00000000	66.32012000	26.19340000
48.59999729	0.00000000	57.47416000	26.97465000
48.79999727	0.00000000	50.12303000	28.88164000
48.99999726	0.00000000	45.93381000	31.62524000
49.19999725	0.00000000	46.35826000	34.68873000
49.39999724	0.00000000	51.70398000	37.38312000
49.59999723	0.00000000	60.17470000	38.92101000
49.79999721	0.00000000	69.48203000	38.87795000
49.99999720	0.00000000	77.99581000	36.96481000
50.19999719	0.00000000	83.72293000	33.48917000
50.39999718	0.00000000	84.87943000	29.62598000
50.59999717	0.00000000	81.02238000	25.77510000
50.79999715	0.00000000	73.33907000	23.12377000
50.99999714	0.00000000	63.71186000	22.69931000
51.19999713	0.00000000	54.86589000	24.23720000
51.39999712	0.00000000	49.09572000	27.34990000
51.59999711	0.00000000	47.93922000	31.57603000
51.79999710	0.00000000	51.75319000	35.80217000
51.99999708	0.00000000	59.01205000	38.92101000
52.19999707	0.00000000	67.48277000	40.45890000
52.39999706	0.00000000	74.79084000	40.03444000
52.59999705	0.00000000	79.06618000	37.34006000
52.79999704	0.00000000	79.44143000	33.15699000
52.99999702	0.00000000	75.99655000	28.97392000
53.19999701	0.00000000	69.48203000	26.23647000
53.39999700	0.00000000	62.21702000	25.39985000
53.59999699	0.00000000	56.40379000	25.77510000
53.79999698	0.00000000	53.33415000	27.34990000
53.99999696	0.00000000	53.70940000	30.04429000
54.19999695	0.00000000	57.51722000	33.06471000
54.39999694	0.00000000	63.29355000	35.34079000
54.59999693	0.00000000	69.43897000	35.75910000
54.79999692	0.00000000	74.41560000	34.64567000
54.99999691	0.00000000	76.32258000	32.78174000
55.19999689	0.00000000	74.87697000	30.88090000
55.39999688	0.00000000	71.01993000	30.09350000
55.59999687	0.00000000	65.98794000	30.09350000
55.79999686	0.00000000	60.63607000	30.93012000
55.99999685	0.00000000	56.82209000	33.20005000
56.19999683	0.00000000	55.98548000	35.80217000
56.39999682	0.00000000	57.51722000	37.34006000
56.59999681	0.00000000	61.01131000	37.34006000
56.79999680	0.00000000	65.98794000	35.75910000
56.99999679	0.00000000	70.55241000	32.64640000
57.19999677	0.00000000	73.34522000	28.46333000
57.39999676	0.00000000	74.13878000	24.65551000
57.59999675	0.00000000	73.34522000	22.79158000
57.79999674	0.00000000	70.64468000	23.54207000
57.99999673	0.00000000	66.82455000	27.01772000
58.19999672	0.00000000	63.37967000	32.04355000
58.39999670	0.00000000	61.01131000	37.80142000
58.59999669	0.00000000	60.21776000	42.77190000
58.79999668	0.00000000	60.59301000	45.06028000
58.99999667	0.00000000	62.17396000	44.30979000
59.19999666	0.00000000	64.82529000	40.40969000
59.39999664	0.00000000	67.48277000	34.27042000
59.59999663	0.00000000	69.02066000	27.30684000
59.79999662	0.00000000	69.10678000	21.21678000
59.99999661	0.00000000	68.41166000	17.73499000
60.19999660	0.00000000	67.95029000	18.09793000
60.39999658	0.00000000	67.15059000	21.58587000
60.59999657	0.00000000	65.66806000	27.81127000
60.79999656	0.00000000	64.91756000	35.85138000
60.99999655	0.00000000	64.86835000	43.14714000
61.19999654	0.00000000	65.29281000	47.74852000
61.39999653	0.00000000	66.36318000	48.49286000
61.59999651	0.00000000	67.10752000	44.68504000
61.79999650	0.00000000	66.78149000	37.80758000
61.99999649	0.00000000	66.40624000	30.04429000
62.19999648	0.00000000	65.93873000	22.69931000
62.39999647	0.00000000	64.78223000	17.35974000
62.59999645	0.00000000	63.33661000	15.77879000
62.79999644	0.00000000	62.59227000	18.09793000
62.99999643	0.00000000	63.28740000	23.49286000
63.19999642	0.00000000	64.45004000	31.20078000
63.39999641	0.00000000	65.66806000	38.87795000
63.59999639	0.00000000	67.57505000	44.68504000
63.79999638	0.00000000	69.06373000	47.37327000
63.99999637	0.00000000	69.53124000	46.25984000
64.19999636	0.00000000	69.53124000	42.07677000
64.39999635	0.00000000	69.06373000	36.26968000
64.59999634	0.00000000	67.52583000	30.04429000
64.79999632	0.00000000	65.24360000	24.28026000
64.99999631	0.00000000	63.33661000	20.42938000
65.19999630	0.00000000	62.17396000	19.59276000
65.39999629	0.00000000	62.17396000	21.08145000
65.59999628	0.00000000	63.28740000	24.19414000
65.79999626	0.00000000	64.82529000	28.42027000
65.99999625	0.00000000	66.36318000	32.68946000
66.19999624	0.00000000	67.52583000	36.22662000
66.39999623	0.00000000	67.90108000	38.96407000
66.59999622	0.00000000	67.52583000	40.50196000
66.79999620	0.00000000	66.32012000	40.54502000
66.99999619	0.00000000	64.45004000	39.38238000
67.19999618	0.00000000	62.59227000	37.43233000
67.39999617	0.00000000	62.21702000	34.68873000
67.59999616	0.00000000	63.33661000	31.57603000
67.79999615	0.00000000	65.29281000	28.46333000
67.99999613	0.00000000	67.99335000	25.72589000
68.19999612	0.00000000	70.64468000	23.77584000
68.39999611	0.00000000	72.13951000	22.65625000
68.59999610	0.00000000	71.80733000	23.07455000
68.79999609	0.00000000	69.81422000	25.39985000
68.99999607	0.00000000	66.73228000	28.93085000
69.19999606	0.00000000	62.45694000	33.57529000
69.39999605	0.00000000	58.67987000	38.54576000
69.59999604	0.00000000	56.36073000	42.03371000
69.79999603	0.00000000	56.40379000	43.61467000
69.99999601	0.00000000	59.09818000	43.14714000
70.19999600	0.00000000	63.71186000	40.08366000
70.39999599	0.00000000	69.15600000	35.07013000
70.59999598	0.00000000	74.13878000	29.66904000
70.79999597	0.00000000	77.62057000	24.65551000
70.99999596	0.00000000	78.37106000	21.54281000
71.19999594	0.00000000	76.45792000	20.79847000
71.39999593	0.00000000	72.13335000	22.33637000
71.59999592	0.00000000	65.98794000	26.55635000
71.79999591	0.00000000	59.43036000	31.53297000
71.99999590	0.00000000	54.44759000	36.22662000
72.19999588	0.00000000	52.12844000	40.03444000
72.39999587	0.00000000	53.28493000	41.57234000
72.59999586	0.00000000	57.47416000	40.50196000
72.79999585	0.00000000	63.29355000	37.85064000
72.99999584	0.00000000	69.48203000	34.78100000
73.19999582	0.00000000	74.92618000	32.04355000
73.39999581	0.00000000	78.37106000	30.08735000
73.59999580	0.00000000	79.15845000	28.97392000
73.79999579	0.00000000	76.83316000	29.34916000
73.99999578	0.00000000	72.26870000	31.20078000
74.19999577	0.00000000	66.82455000	33.06471000
74.39999575	0.00000000	61.79872000	34.22736000
74.59999574	0.00000000	57.94168000	34.22736000
74.79999573	0.00000000	56.40379000	33.06471000
74.99999572	0.00000000	57.47416000	31.20078000
75.19999571	0.00000000	60.17470000	29.29995000
75.39999569	0.00000000	63.66264000	28.59867000
75.59999568	0.00000000	67.52583000	29.34916000
75.79999567	0.00000000	70.60162000	31.66830000
75.99999566	0.00000000	72.18258000	34.73794000
76.19999565	0.00000000	72.22563000	37.85064000
76.39999563	0.00000000	71.06299000	40.45275000
76.59999562	0.00000000	69.15600000	41.19709000
76.79999561	0.00000000	66.87376000	39.29626000
76.99999560	0.00000000	65.33588000	35.80217000
77.19999559	0.00000000	64.86835000	31.15772000
77.39999558	0.00000000	64.86835000	26.19340000
77.59999556	0.00000000	65.24360000	22.70546000
77.79999555	0.00000000	65.98794000	21.12451000
77.99999554	0.00000000	66.31397000	21.59203000
78.19999553	0.00000000	65.98794000	24.70472000
78.39999552	0.00000000	65.20053000	30.08735000
78.59999550	0.00000000	64.49311000	36.22662000
78.79999549	0.00000000	64.08095000	41.61540000
78.99999548	0.00000000	64.54232000	44.72810000
79.19999547	0.00000000	65.66806000	45.06028000
79.39999546	0.00000000	67.66117000	42.39665000
79.59999544	0.00000000	69.85728000	37.06324000
79.79999543	0.00000000	71.43208000	31.66830000
79.99999542	0.00000000	71.43823000	26.93159000
80.19999541	0.00000000	70.64468000	23.07455000
80.39999540	0.00000000	68.68848000	21.16757000
80.59999539	0.00000000	65.61884000	21.54281000
80.79999537	0.00000000	62.96136000	24.19414000
80.99999536	0.00000000	60.96825000	28.04503000
81.19999535	0.00000000	60.26082000	31.90822000
81.39999534	0.00000000	61.01131000	35.43307000
81.59999533	0.00000000	63.33661000	37.80142000
81.79999531	0.00000000	66.36318000	39.38238000
81.99999530	0.00000000	69.10678000	40.12672000
82.19999529	0.00000000	71.01993000	39.33932000
82.39999528	0.00000000	71.80733000	37.43233000
82.59999527	0.00000000	71.01993000	34.68873000
82.79999525	0.00000000	69.15600000	31.62524000
82.99999524	0.00000000	66.82455000	28.88164000
83.19999523	0.00000000	64.86835000	26.88853000
83.39999522	0.00000000	63.33661000	25.30758000
83.59999521	0.00000000	62.54921000	24.23720000
83.79999520	0.00000000	62.91216000	24.65551000
83.99999518	0.00000000	63.66264000	26.93159000
84.19999517	0.00000000	64.86835000	30.04429000
84.39999516	0.00000000	66.36318000	33.57529000
84.59999515	0.00000000	67.52583000	37.43233000
84.79999514	0.00000000	67.95029000	40.45275000
84.99999512	0.00000000	67.95029000	41.65846000
85.19999511	0.00000000	67.61810000	40.87721000
85.39999510	0.00000000	67.24901000	38.54576000
85.59999509	0.00000000	67.61810000	34.64567000
85.79999508	0.00000000	67.95029000	30.04429000
85.99999506	0.00000000	67.95029000	25.77510000
86.19999505	0.00000000	67.57505000	22.74852000
86.39999504	0.00000000	66.82455000	21.96112000
86.59999503	0.00000000	66.40624000	23.90502000
86.79999502	0.00000000	65.93873000	27.72515000
86.99999501	0.00000000	64.82529000	32.73868000
87.19999499	0.00000000	63.71186000	37.38312000
87.39999498	0.00000000	63.33661000	40.87721000
87.59999497	0.00000000	63.75492000	42.77190000
87.79999496	0.00000000	65.29281000	41.99065000
87.99999495	0.00000000	67.52583000	38.92101000
88.19999493	0.00000000	69.10678000	34.31963000
88.39999492	0.00000000	69.90649000	29.34916000
88.59999491	0.00000000	70.26943000	25.86122000
88.79999490	0.00000000	69.53124000	24.28026000
88.99999489	0.00000000	68.36859000	24.69857000
89.19999487	0.00000000	67.15059000	27.39296000
89.39999486	0.00000000	65.24360000	31.61909000
89.59999485	0.00000000	63.75492000	36.22662000
89.79999484	0.00000000	63.33661000	40.07751000
89.99999483	0.00000000	63.71186000	41.94144000
90.19999482	0.00000000	64.86835000	41.19094000
90.39999480	0.00000000	66.36318000	37.75836000
90.59999479	0.00000000	67.57505000	33.20005000
90.79999478	0.00000000	68.36859000	28.93085000
90.99999477	0.00000000	69.10678000	25.81816000
91.19999476	0.00000000	69.10678000	24.32948000
91.39999474	0.00000000	68.41166000	25.12303000
91.59999473	0.00000000	67.99335000	28.55561000
91.79999472	0.00000000	67.57505000	33.11393000
91.99999471	0.00000000	66.87376000	37.38312000
92.19999470	0.00000000	66.87376000	40.45275000
92.39999468	0.00000000	67.52583000	41.57234000
92.59999467	0.00000000	67.52583000	40.03444000
92.79999466	0.00000000	66.78149000	36.22662000
92.99999465	0.00000000	66.03100000	31.66830000
93.19999464	0.00000000	65.24360000	27.76821000
93.39999463	0.00000000	64.86835000	25.44291000
93.59999461	0.00000000	64.82529000	24.70472000
93.79999460	0.00000000	64.86835000	26.23647000
93.99999459	0.00000000	65.33588000	29.66904000
94.19999458	0.00000000	66.87376000	33.53223000
94.39999457	0.00000000	69.15600000	37.38312000
94.59999455	0.00000000	71.06299000	39.99138000
94.79999454	0.00000000	72.22563000	40.03444000
94.99999453	0.00000000	72.22563000	37.75836000
95.19999452	0.00000000	71.01993000	34.31963000
95.39999451	0.00000000	68.73154000	30.46260000
95.59999449	0.00000000	65.61884000	27.39296000
95.79999448	0.00000000	62.91216000	25.81816000
95.99999447	0.00000000	60.59301000	25.81816000
96.19999446	0.00000000	59.47342000	27.39296000
96.39999445	0.00000000	60.21776000	30.41954000
96.59999444	0.00000000	62.17396000	33.85211000
96.79999442	0.00000000	65.29281000	36.17741000
96.99999441	0.00000000	69.15600000	37.38312000
97.19999440	0.00000000	72.60088000	37.34006000
97.39999439	0.00000000	74.92618000	35.80217000
97.59999438	0.00000000	75.34448000	33.15699000
97.79999436	0.00000000	74.18184000	30.51181000
97.99999435	0.00000000	71.80733000	28.93085000
98.19999434	0.00000000	67.94415000	28.51255000
98.39999433	0.00000000	63.75492000	28.88779000
98.59999432	0.00000000	60.63607000	30.04429000
98.79999430	0.00000000	59.05511000	31.53297000
98.99999429	0.00000000	59.05511000	32.68946000
99.19999428	0.00000000	60.63607000	33.11393000
99.39999427	0.00000000	63.71186000	33.20005000
99.59999426	0.00000000	67.57505000	33.53223000
99.79999425	0.00000000	71.06299000	33.94439000
99.99999423	0.00000000	73.76353000	33.95054000
100.19999422	0.00000000	74.92618000	34.36269000
100.39999421	0.00000000	74.18184000	34.69488000
100.59999420	0.00000000	72.26870000	34.73794000
100.79999419	0.00000000	69.52509000	34.69488000
100.99999417	0.00000000	66.45546000	34.27042000
101.19999416	0.00000000	63.71186000	33.11393000
101.39999415	0.00000000	61.75566000	31.57603000
101.59999414	0.00000000	60.63607000	30.04429000
101.79999413	0.00000000	61.01131000	28.93085000
101.99999411	0.00000000	62.91216000	28.93085000
102.19999410	0.00000000	65.15748000	30.08735000
102.39999409	0.00000000	67.24286000	32.04355000
102.59999408	0.00000000	69.16215000	34.73794000
102.79999407	0.00000000	71.47514000	37.38312000
102.99999406	0.00000000	72.55782000	38.96407000
103.19999404	0.00000000	72.26870000	39.33932000
103.39999403	0.00000000	71.11221000	38.54576000
103.59999402	0.00000000	69.57431000	36.17741000
103.79999401	0.00000000	67.94415000	32.78174000
103.99999400	0.00000000	66.03100000	29.29995000
104.19999398	0.00000000	64.13016000	27.01772000
104.39999397	0.00000000	63.37967000	26.19340000
104.59999396	0.00000000	63.71186000	27.01772000
104.79999395	0.00000000	64.86835000	29.29995000
104.99999394	0.00000000	66.40624000	32.73868000
105.19999392	0.00000000	67.94415000	35.80217000
105.39999391	0.00000000	69.10678000	37.75836000
105.59999390	0.00000000	69.53124000	38.54576000
105.79999389	0.00000000	69.53124000	37.75836000
105.99999388	0.00000000	69.15600000	35.89444000
106.19999387	0.00000000	68.36859000	33.57529000
106.39999385	0.00000000	67.61810000	31.62524000
106.59999384	0.00000000	66.82455000	30.08735000
106.79999383	0.00000000	66.44931000	29.34916000
106.99999382	0.00000000	66.44931000	30.08735000
107.19999381	0.00000000	66.82455000	31.57603000
107.39999379	0.00000000	67.61810000	33.15699000
107.59999378	0.00000000	68.36859000	34.68873000
107.79999377	0.00000000	69.10678000	35.80217000
107.99999376	0.00000000	69.10678000	35.80217000
108.19999375	0.00000000	68.36859000	34.68873000
108.39999374	0.00000000	67.57505000	33.15699000
108.59999372	0.00000000	66.40624000	31.62524000
108.79999371	0.00000000	65.29281000	30.46260000
108.99999370	0.00000000	64.91756000	30.09350000
109.19999369	0.00000000	65.29281000	30.46260000
109.39999368	0.00000000	66.45546000	31.62524000
109.59999366	0.00000000	67.94415000	33.11393000
109.79999365	0.00000000	69.10678000	34.31963000
109.99999364	0.00000000	69.53124000	35.11319000
110.19999363	0.00000000	69.57431000	35.85138000
110.39999362	0.00000000	69.53124000	35.75910000
110.59999360	0.00000000	69.10678000	34.31963000
110.79999359	0.00000000	67.94415000	32.41265000
110.99999358	0.00000000	66.45546000	31.25000000
111.19999357	0.00000000	65.24360000	30.41954000
111.39999356	0.00000000	64.54232000	30.04429000
111.59999355	0.00000000	64.50541000	30.04429000
111.79999353	0.00000000	65.65575000	30.41954000
111.99999352	0.00000000	66.73843000	31.20078000
112.19999351	0.00000000	67.57505000	31.95128000
112.39999350	0.00000000	67.99335000	32.78174000
112.59999349	0.00000000	68.36859000	33.48917000
112.79999347	0.00000000	68.73769000	33.90133000
112.99999346	0.00000000	68.36859000	33.53223000
113.19999345	0.00000000	67.99335000	33.20005000
113.39999344	0.00000000	67.57505000	33.15699000
113.59999343	0.00000000	66.82455000	33.11393000
113.79999341	0.00000000	66.44931000	32.73868000
113.99999340	0.00000000	66.40624000	31.99434000
114.19999339	0.00000000	66.40624000	31.61909000
114.39999338	0.00000000	66.44931000	31.57603000
114.59999337	0.00000000	66.82455000	31.57603000
114.79999336	0.00000000	67.57505000	31.53297000
114.99999334	0.00000000	67.95029000	31.20078000
115.19999333	0.00000000	67.99335000	30.83784000
115.39999332	0.00000000	67.99335000	31.25000000
115.59999331	0.00000000	67.99335000	31.95128000
115.79999330	0.00000000	67.99335000	32.78174000
115.99999328	0.00000000	67.99335000	33.53223000
116.19999327	0.00000000	67.95029000	34.31963000
116.39999326	0.00000000	67.57505000	34.69488000
116.59999325	0.00000000	66.82455000	34.73794000
116.79999324	0.00000000	66.49852000	34.73794000
116.99999322	0.00000000	66.82455000	34.69488000
117.19999321	0.00000000	67.57505000	34.27042000
117.39999320	0.00000000	67.99335000	33.15699000
117.59999319	0.00000000	68.41166000	32.04355000
117.79999318	0.00000000	69.15600000	31.57603000
117.99999317	0.00000000	69.53124000	31.20078000
118.19999315	0.00000000	69.53124000	30.83784000
118.39999314	0.00000000	69.15600000	31.25000000
118.59999313	0.00000000	68.36859000	31.95128000
118.79999312	0.00000000	67.57505000	32.78174000
118.99999311	0.00000000	66.40624000	33.53223000
119.19999309	0.00000000	65.29281000	34.31963000
119.39999308	0.00000000	64.91756000	34.69488000
119.59999307	0.00000000	65.29281000	34.73794000
119.79999306	0.00000000	66.40624000	34.69488000
119.99999305	0.00000000	67.57505000	34.31963000
120.19999303	0.00000000	68.41166000	33.57529000
120.39999302	0.00000000	69.57431000	33.20005000
120.59999301	0.00000000	70.68774000	33.11393000
120.79999300	0.00000000	71.06299000	32.73868000
120.99999299	0.00000000	70.68774000	31.99434000
121.19999298	0.00000000	69.57431000	31.66830000
121.39999296	0.00000000	68.41166000	31.99434000
121.59999295	0.00000000	67.57505000	32.73868000
121.79999294	0.00000000	66.40624000	33.11393000
121.99999293	0.00000000	65.29281000	33.15699000
122.19999292	0.00000000	64.91756000	33.20005000
122.39999290	0.00000000	65.29281000	33.57529000
122.59999289	0.00000000	66.40624000	34.31963000
122.79999288	0.00000000	67.57505000	34.69488000
122.99999287	0.00000000	68.36859000	34.73794000
123.19999286	0.00000000	69.19906000	34.73794000
123.39999284	0.00000000	69.90649000	34.69488000
123.59999283	0.00000000	70.31865000	34.31963000
123.79999282	0.00000000	69.94955000	33.57529000
123.99999281	0.00000000	69.57431000	33.15699000
124.19999280	0.00000000	69.15600000	32.73868000
124.39999279	0.00000000	68.36859000	31.99434000
124.59999277	0.00000000	67.61810000	31.61909000
124.79999276	0.00000000	66.82455000	31.61909000
124.99999275	0.00000000	66.44931000	31.99434000
125.19999274	0.00000000	66.40624000	32.73868000
125.39999273	0.00000000	66.40624000	33.15699000
125.59999271	0.00000000	66.44931000	33.57529000
125.79999270	0.00000000	66.87376000	34.27042000
125.99999269	0.00000000	67.99335000	34.27042000
126.19999268	0.00000000	69.10678000	33.57529000
126.39999267	0.00000000	69.53124000	33.15699000
126.59999265	0.00000000	69.57431000	32.78174000
126.79999264	0.00000000	69.53124000	32.36959000
126.99999263	0.00000000	69.15600000	32.36343000
127.19999262	0.00000000	68.36859000	31.95128000
127.39999261	0.00000000	67.57505000	31.61909000
127.59999260	0.00000000	66.40624000	31.57603000
127.79999258	0.00000000	65.33588000	31.57603000
127.99999257	0.00000000	65.29281000	31.61909000
128.19999256	0.00000000	66.03100000	31.99434000
128.39999255	0.00000000	66.82455000	32.73868000
128.59999254	0.00000000	67.99335000	33.11393000
128.79999252	0.00000000	69.10678000	33.15699000
128.99999251	0.00000000	69.53124000	33.15699000
129.19999250	0.00000000	69.57431000	33.11393000
129.39999249	0.00000000	69.53124000	32.73868000
129.59999248	0.00000000	69.10678000	31.99434000
129.79999246	0.00000000	67.99335000	31.61909000
129.99999245	0.00000000	66.82455000	31.57603000
130.19999244	0.00000000	66.07406000	31.57603000
130.39999243	0.00000000	65.66190000	31.61909000
130.59999242	0.00000000	66.07406000	31.99434000
130.79999241	0.00000000	66.82455000	32.73868000
130.99999239	0.00000000	67.99335000	33.11393000
131.19999238	0.00000000	69.10678000	33.15699000
131.39999237	0.00000000	69.53124000	33.15699000
131.59999236	0.00000000	69.57431000	33.11393000
131.79999235	0.00000000	69.53124000	32.73868000
131.99999233	0.00000000	69.15600000	31.99434000
132.19999232	0.00000000	68.36859000	31.61909000
132.39999231	0.00000000	67.61810000	31.57603000
132.59999230	0.00000000	66.87376000	31.61909000
132.79999229	0.00000000	66.87376000	31.99434000
132.99999227	0.00000000	67.57505000	32.78174000
133.19999226	0.00000000	67.99335000	33.53223000
133.39999225	0.00000000	68.41166000	34.31963000
133.59999224	0.00000000	69.10678000	34.69488000
133.79999223	0.00000000	69.10678000	34.73794000
133.99999222	0.00000000	68.41166000	34.73794000
134.19999220	0.00000000	68.03641000	34.69488000
134.39999219	0.00000000	68.03641000	34.27042000
134.59999218	0.00000000	68.36859000	33.15699000
134.79999217	0.00000000	68.78075000	32.04355000
134.99999216	0.00000000	68.78691000	31.66830000
135.19999214	0.00000000	69.19906000	31.99434000
135.39999213	0.00000000	69.53124000	32.73868000
135.59999212	0.00000000	69.57431000	33.15699000
135.79999211	0.00000000	69.53124000	33.57529000
135.99999210	0.00000000	69.15600000	34.31963000
136.19999208	0.00000000	68.36859000	34.69488000
136.39999207	0.00000000	67.66117000	34.73794000
136.59999206	0.00000000	67.24901000	34.73794000
136.79999205	0.00000000	67.61810000	34.69488000
136.99999204	0.00000000	67.95029000	34.31963000
137.19999203	0.00000000	68.03641000	33.57529000
137.39999201	0.00000000	68.41166000	33.20005000
137.59999200	0.00000000	69.15600000	33.11393000
137.79999199	0.00000000	69.53124000	32.73868000
137.99999198	0.00000000	69.57431000	31.99434000
138.19999197	0.00000000	69.57431000	31.61909000
138.39999195	0.00000000	69.53124000	31.61909000
138.59999194	0.00000000	69.15600000	31.99434000
138.79999193	0.00000000	68.36859000	32.73868000
138.99999192	0.00000000	67.61810000	33.11393000
139.19999191	0.00000000	66.87376000	33.20005000
139.39999189	0.00000000	66.87376000	33.57529000
139.59999188	0.00000000	67.61810000	34.31963000
139.79999187	0.00000000	68.36859000	34.69488000
139.99999186	0.00000000	69.15600000	34.69488000
140.19999185	0.00000000	69.53124000	34.27042000
140.39999184	0.00000000	69.57431000	33.15699000
140.59999182	0.00000000	69.53124000	32.04355000
140.79999181	0.00000000	69.15600000	31.61909000
140.99999180	0.00000000	68.41166000	31.57603000
141.19999179	0.00000000	68.03641000	31.57603000
141.39999178	0.00000000	67.99335000	31.61909000
141.59999176	0.00000000	67.99335000	31.99434000
141.79999175	0.00000000	67.99335000	32.78174000
141.99999174	0.00000000	67.99335000	33.53223000
142.19999173	0.00000000	68.03641000	34.31963000
142.39999172	0.00000000	68.41166000	34.69488000
142.59999170	0.00000000	69.15600000	34.69488000
142.79999169	0.00000000	69.48203000	34.27042000
142.99999168	0.00000000	69.15600000	33.15699000
143.19999167	0.00000000	68.46087000	32.04355000
143.39999166	0.00000000	68.41166000	31.57603000
143.59999165	0.00000000	68.73769000	31.20078000
143.79999163	0.00000000	68.36859000	30.83784000
143.99999162	0.00000000	68.03641000	31.20078000
144.19999161	0.00000000	67.99335000	31.57603000
144.39999160	0.00000000	68.03641000	32.04355000
144.59999159	0.00000000	68.41166000	33.15699000
144.79999157	0.00000000	69.15600000	34.27042000
144.99999156	0.00000000	69.53124000	34.69488000
145.19999155	0.00000000	69.53124000	34.69488000
145.39999154	0.00000000	69.15600000	34.31963000
145.59999153	0.00000000	68.41166000	33.57529000
145.79999151	0.00000000	68.03641000	33.20005000
145.99999150	0.00000000	67.99335000	33.11393000
146.19999149	0.00000000	67.99335000	32.73868000
146.39999148	0.00000000	67.99335000	31.99434000
146.59999147	0.00000000	68.03641000	31.61909000
146.79999146	0.00000000	68.41166000	31.61909000
146.99999144	0.00000000	69.15600000	32.04355000
147.19999143	0.00000000	69.53124000	33.15699000
147.39999142	0.00000000	69.57431000	34.27042000
147.59999141	0.00000000	69.53124000	34.69488000
147.79999140	0.00000000	69.15600000	34.73794000
147.99999138	0.00000000	68.41166000	34.73794000
148.19999137	0.00000000	68.03641000	34.69488000
148.39999136	0.00000000	67.99335000	34.31963000
148.59999135	0.00000000	67.99335000	33.57529000
148.79999134	0.00000000	67.99335000	33.20005000
148.99999132	0.00000000	68.03641000	33.15699000
149.19999131	0.00000000	68.41166000	33.15699000
149.39999130	0.00000000	69.15600000	33.15699000
149.59999129	0.00000000	69.48203000	33.15699000
149.79999128	0.00000000	69.19906000	33.20005000
149.99999127	0.00000000	68.82996000	33.57529000
150.19999125	0.00000000	69.19906000	34.31963000
150.39999124	0.00000000	69.53124000	34.69488000
150.59999123	0.00000000	69.53124000	34.73794000
150.79999122	0.00000000	69.15600000	34.73794000
150.99999121	0.00000000	68.41166000	34.69488000
151.19999119	0.00000000	68.03641000	34.36269000
151.39999118	0.00000000	68.03641000	33.95054000
151.59999117	0.00000000	68.41166000	33.94439000
151.79999116	0.00000000	69.15600000	33.53223000
151.99999115	0.00000000	69.53124000	33.20005000
152.19999113	0.00000000	69.57431000	33.15699000
152.39999112	0.00000000	69.57431000	33.15699000
152.59999111	0.00000000	69.57431000	33.15699000
152.79999110	0.00000000	69.57431000	33.15699000
152.99999109	0.00000000	69.57431000	33.15699000
153.19999108	0.00000000	69.57431000	33.15699000
153.39999106	0.00000000	69.57431000	33.20005000
153.59999105	0.00000000	69.53124000	33.57529000
153.79999104	0.00000000	69.15600000	34.31963000
153.99999103	0.00000000	68.41166000	34.69488000
154.19999102	0.00000000	68.03641000	34.69488000
154.39999100	0.00000000	67.99335000	34.31963000
154.59999099	0.00000000	67.99335000	33.57529000
154.79999098	0.00000000	68.03641000	33.20005000
154.99999097	0.00000000	68.41166000	33.15699000
155.19999096	0.00000000	69.15600000	33.15699000
155.39999094	0.00000000	69.53124000	33.15699000
155.59999093	0.00000000	69.57431000	33.15699000
155.79999092	0.00000000	69.57431000	33.15699000
155.99999091	0.00000000	69.57431000	33.15699000
156.19999090	0.00000000	69.53124000	33.15699000
156.39999089	0.00000000	69.15600000	33.15699000
156.59999087	0.00000000	68.41166000	33.20005000
156.79999086	0.00000000	68.03641000	33.53223000
156.99999085	0.00000000	67.99335000	33.94439000
157.19999084	0.00000000	67.99335000	33.90748000
157.39999083	0.00000000	67.99335000	33.94439000
157.59999081	0.00000000	68.03641000	33.53223000
157.79999080	0.00000000	68.41166000	33.20005000
157.99999079	0.00000000	69.15600000	33.11393000
158.19999078	0.00000000	69.57431000	32.78174000
158.39999077	0.00000000	69.94955000	32.36959000
158.59999075	0.00000000	70.31865000	32.36343000
158.79999074	0.00000000	69.94955000	31.95128000
158.99999073	0.00000000	69.61736000	31.66830000
159.19999072	0.00000000	69.53124000	31.99434000
159.39999071	0.00000000	69.19906000	32.78174000
159.59999070	0.00000000	68.78691000	33.53223000
159.79999068	0.00000000	68.78075000	34.27042000
159.99999067	0.00000000	68.36859000	34.31963000
160.19999066	0.00000000	68.03641000	33.99360000
160.39999065	0.00000000	67.99335000	34.36269000
160.59999064	0.00000000	67.99335000	34.64567000
160.79999062	0.00000000	67.99335000	34.27042000
160.99999061	0.00000000	68.03641000	33.20005000
161.19999060	0.00000000	68.36859000	32.46186000
161.39999059	0.00000000	68.78075000	32.78174000
161.59999058	0.00000000	68.78691000	33.11393000
161.79999056	0.00000000	69.19906000	33.15699000
161.99999055	0.00000000	69.53124000	33.15699000
162.19999054	0.00000000	69.57431000	33.15699000
162.39999053	0.00000000	69.57431000	33.20005000
162.59999052	0.00000000	69.57431000	33.57529000
162.79999051	0.00000000	69.57431000	34.31963000
162.99999049	0.00000000	69.53124000	34.69488000
163.19999048	0.00000000	69.15600000	34.73794000
163.39999047	0.00000000	68.41166000	34.73794000
163.59999046	0.00000000	68.03641000	34.69488000
163.79999045	0.00000000	68.03641000	34.31963000
163.99999043	0.00000000	68.41166000	33.57529000
164.19999042	0.00000000	69.15600000	33.20005000
164.39999041	0.00000000	69.53124000	33.15699000
164.59999040	0.00000000	69.57431000	33.15699000
164.79999039	0.00000000	69.57431000	33.15699000
164.99999037	0.00000000	69.57431000	33.15699000
165.19999036	0.00000000	69.57431000	33.15699000
165.39999035	0.00000000	69.57431000	33.20005000
165.59999034	0.00000000	69.57431000	33.57529000
165.79999033	0.00000000	69.57431000	34.27042000
165.99999032	0.00000000	69.57431000	34.27042000
166.19999030	0.00000000	69.57431000	33.62450000
166.39999029	0.00000000	69.57431000	33.62450000
166.59999028	0.00000000	69.53124000	34.31963000
166.79999027	0.00000000	69.19906000	34.69488000
166.99999026	0.00000000	68.82996000	34.69488000
167.19999024	0.00000000	69.19906000	34.36269000
167.39999023	0.00000000	69.53124000	33.99360000
167.59999022	0.00000000	69.57431000	34.31963000
167.79999021	0.00000000	69.57431000	34.27042000
167.99999020	0.00000000	69.57431000	33.57529000
168.19999018	0.00000000	69.57431000	33.20005000
168.39999017	0.00000000	69.57431000	33.15699000
168.59999016	0.00000000	69.57431000	33.15699000
168.79999015	0.00000000	69.57431000	33.15699000
168.99999014	0.00000000	69.57431000	33.15699000
169.19999013	0.00000000	69.57431000	33.15699000
169.39999011	0.00000000	69.57431000	33.15699000
169.59999010	0.00000000	69.53124000	33.15699000
169.79999009	0.00000000	69.19906000	33.15699000
169.99999008	0.00000000	68.82996000	33.15699000
170.19999007	0.00000000	69.19906000	33.15699000
170.39999005	0.00000000	69.53124000	33.15699000
170.59999004	0.00000000	69.57431000	33.15699000
170.79999003	0.00000000	69.57431000	33.15699000
170.99999002	0.00000000	69.57431000	33.15699000
171.19999001	0.00000000	69.57431000	33.15699000
171.39998999	0.00000000	69.57431000	33.15699000
171.59998998	0.00000000	69.57431000	33.15699000
171.79998997	0.00000000	69.57431000	33.15699000
171.99998996	0.00000000	69.57431000	33.15699000
172.19998995	0.00000000	69.57431000	33.15699000
172.39998994	0.00000000	69.57431000	33.15699000
172.59998992	0.00000000	69.57431000	33.15699000
172.79998991	0.00000000	69.57431000	33.20005000
172.99998990	0.00000000	69.57431000	33.53223000
173.19998989	0.00000000	69.57431000	33.90133000
173.39998988	0.00000000	69.57431000	33.53223000
173.59998986	0.00000000	69.57431000	33.20005000
173.79998985	0.00000000	69.57431000	33.15699000
173.99998984	0.00000000	69.57431000	33.15699000
174.19998983	0.00000000	69.57431000	33.15699000
174.39998982	0.00000000	69.57431000	33.15699000
174.59998980	0.00000000	69.57431000	33.15699000
174.79998979	0.00000000	69.57431000	33.15699000
174.99998978	0.00000000	69.57431000	33.15699000
175.19998977	0.00000000	69.57431000	33.15699000
175.39998976	0.00000000	69.53124000	33.15699000
175.59998975	0.00000000	69.24213000	33.15699000
175.79998973	0.00000000	69.20522000	33.15699000
175.99998972	0.00000000	69.94341000	33.15699000
176.19998971	0.00000000	69.90649000	33.15699000
176.39998970	0.00000000	69.61736000	33.15699000
176.59998969	0.00000000	69.57431000	33.15699000
176.79998967	0.00000000	69.57431000	33.15699000
176.99998966	0.00000000	69.57431000	33.15699000
177.19998965	0.00000000	69.57431000	33.15699000
177.39998964	0.00000000	69.57431000	33.15699000
177.59998963	0.00000000	69.57431000	33.15699000
177.79998961	0.00000000	69.57431000	33.15699000
177.99998960	0.00000000	69.57431000	33.15699000
178.19998959	0.00000000	69.57431000	33.15699000
178.39998958	0.00000000	69.57431000	33.15699000
178.59998957	0.00000000	69.57431000	33.15699000
178.79998956	0.00000000	69.57431000	33.20005000
178.99998954	0.00000000	69.57431000	33.53223000
179.19998953	0.00000000	69.57431000	33.90133000
179.39998952	0.00000000	69.57431000	33.53223000
179.59998951	0.00000000	69.57431000	33.20005000
179.79998950	0.00000000	69.57431000	33.15699000
179.99998948	0.00000000	69.57431000	33.15699000
180.19998947	0.00000000	69.57431000	33.15699000
180.39998946	0.00000000	69.57431000	33.15699000
180.59998945	0.00000000	69.57431000	33.15699000
180.79998944	0.00000000	69.57431000	33.15699000
180.99998942	0.00000000	69.57431000	33.15699000
181.19998941	0.00000000	69.57431000	33.20005000
181.39998940	0.00000000	69.57431000	33.57529000
181.59998939	0.00000000	69.57431000	34.31963000
181.79998938	0.00000000	69.57431000	34.69488000
181.99998937	0.00000000	69.57431000	34.73794000
182.19998935	0.00000000	69.57431000	34.73794000
182.39998934	0.00000000	69.57431000	34.69488000
182.59998933	0.00000000	69.57431000	34.31963000
182.79998932	0.00000000	69.57431000	33.57529000
182.99998931	0.00000000	69.57431000	33.20005000
183.19998929	0.00000000	69.57431000	33.15699000
183.39998928	0.00000000	69.57431000	33.15699000
183.59998927	0.00000000	69.57431000	33.15699000
183.79998926	0.00000000	69.57431000	33.20005000
183.99998925	0.00000000	69.57431000	33.57529000
184.19998923	0.00000000	69.57431000	34.31963000
184.39998922	0.00000000	69.57431000	34.69488000
184.59998921	0.00000000	69.57431000	34.73794000
184.79998920	0.00000000	69.57431000	34.73794000
184.99998919	0.00000000	69.57431000	34.73794000
185.19998918	0.00000000	69.57431000	34.69488000
185.39998916	0.00000000	69.57431000	34.31963000
185.59998915	0.00000000	69.61736000	33.57529000
185.79998914	0.00000000	69.94955000	33.20005000
185.99998913	0.00000000	70.36171000	33.15699000
186.19998912	0.00000000	70.36786000	33.15699000
186.39998910	0.00000000	70.73695000	33.15699000
186.59998909	0.00000000	70.68774000	33.15699000
186.79998908	0.00000000	69.99261000	33.15699000
186.99998907	0.00000000	69.61736000	33.15699000
187.19998906	0.00000000	69.57431000	33.20005000
187.39998904	0.00000000	69.57431000	33.57529000
187.59998903	0.00000000	69.57431000	34.31963000
187.79998902	0.00000000	69.57431000	34.69488000
187.99998901	0.00000000	69.57431000	34.69488000
188.19998900	0.00000000	69.57431000	34.31963000
188.39998899	0.00000000	69.57431000	33.57529000
188.59998897	0.00000000	69.61736000	33.20005000
188.79998896	0.00000000	69.94955000	33.15699000
188.99998895	0.00000000	70.31865000	33.11393000
189.19998894	0.00000000	69.94955000	32.78174000
189.39998893	0.00000000	69.61736000	32.41265000
189.59998891	0.00000000	69.57431000	32.78174000
189.79998890	0.00000000	69.57431000	33.11393000
189.99998889	0.00000000	69.57431000	33.15699000
190.19998888	0.00000000	69.57431000	33.15699000
190.39998887	0.00000000	69.57431000	33.15699000
190.59998885	0.00000000	69.57431000	33.15699000
190.79998884	0.00000000	69.57431000	33.15699000
190.99998883	0.00000000	69.57431000	33.15699000
191.19998882	0.00000000	69.57431000	33.15699000
191.39998881	0.00000000	69.57431000	33.15699000
191.59998880	0.00000000	69.61736000	33.15699000
191.79998878	0.00000000	69.94955000	33.15699000
191.99998877	0.00000000	70.31865000	33.15699000
192.19998876	0.00000000	69.94955000	33.15699000
192.39998875	0.00000000	69.61736000	33.15699000
192.59998874	0.00000000	69.57431000	33.15699000
192.79998872	0.00000000	69.57431000	33.15699000
192.99998871	0.00000000	69.53124000	33.15699000
193.19998870	0.00000000	69.24213000	33.20005000
193.39998869	0.00000000	69.20522000	33.53223000
193.59998868	0.00000000	69.94341000	33.94439000
193.79998866	0.00000000	69.90649000	33.95054000
193.99998865	0.00000000	69.66658000	34.36269000
194.19998864	0.00000000	69.99261000	34.69488000
194.39998863	0.00000000	70.68774000	34.73794000
194.59998862	0.00000000	70.73695000	34.73794000
194.79998861	0.00000000	70.41092000	34.69488000
194.99998859	0.00000000	70.73695000	34.36269000
195.19998858	0.00000000	70.68774000	33.95054000
195.39998857	0.00000000	69.99261000	33.94439000
195.59998856	0.00000000	69.61736000	33.53223000
195.79998855	0.00000000	69.57431000	33.24926000
195.99998853	0.00000000	69.57431000	33.53223000
