Time	Channel A	Channel B
(us)	(V)	(mV)

-4.49999956	0.00000000	7.84325700
-4.29999957	0.00000000	8.24311000
-4.09999958	0.00000000	8.60605200
-3.89999959	0.00000000	8.65526600
-3.69999960	0.00000000	8.65526600
-3.49999962	0.00000000	8.65526600
-3.29999963	0.00000000	8.65526600
-3.09999964	0.00000000	8.65526600
-2.89999965	0.00000000	8.65526600
-2.69999966	0.00000000	8.65526600
-2.49999968	0.00000000	8.65526600
-2.29999969	0.00000000	8.65526600
-2.09999970	0.00000000	8.65526600
-1.89999971	0.00000000	8.60605200
-1.69999972	0.00000000	8.24311000
-1.49999973	0.00000000	7.84325700
-1.29999975	0.00000000	8.24311000
-1.09999976	0.00000000	8.60605200
-0.89999977	0.00000000	8.65526600
-0.69999978	0.00000000	8.60605200
-0.49999979	0.00000000	8.19389700
-0.29999981	0.35125490	7.43725300
-0.09999982	0.70250980	7.38804100
0.10000017	1.05376500	7.73868000
0.30000016	1.05376500	7.33882900
0.50000015	0.70250980	6.97588500
0.70000013	0.00000000	6.92667200
0.90000012	-0.87844490	6.97588500
1.10000011	-1.93282500	7.38804100
1.30000010	-2.63533500	8.19389700
1.50000009	-2.81127000	8.60605200
1.70000008	-2.10814500	8.65526600
1.90000006	-0.70250980	8.70447700
2.10000005	1.22970000	9.01820900
2.30000004	3.33846000	9.01205700
2.50000003	4.91941500	7.79404500
2.70000002	5.27128500	7.02509800
2.90000000	4.21690500	6.87746000
3.09999999	1.93282500	6.51451700
3.29999998	-1.40563500	6.11466500
3.49999997	-4.74409400	6.56373000
3.69999996	-7.20410900	7.33882900
3.89999994	-8.08255400	8.24311000
4.09999993	-6.85223900	9.06742000
4.29999992	-3.68971500	9.92864100
4.49999991	0.52657480	10.29158000
4.69999990	4.91941500	9.92864100
4.89999989	8.08255400	9.06742000
5.09999987	9.48818900	8.19389700
5.29999986	8.43380900	6.92667200
5.49999985	5.09534900	5.75172200
5.69999984	0.52657480	5.70251000
5.89999983	-4.21690500	6.51451700
6.09999981	-7.73129900	7.33882900
6.29999980	-9.48818900	8.24311000
6.49999979	-8.78567900	9.06742000
6.69999978	-5.79847400	9.92864100
6.89999977	-1.58095500	10.29158000
7.09999975	2.63533500	9.92864100
7.29999974	5.97379400	9.06742000
7.49999973	7.55536400	8.24311000
7.69999972	7.20410900	7.38804100
7.89999971	5.09534900	6.97588500
8.09999970	1.93282500	6.92667200
8.29999968	-1.22970000	6.97588500
8.49999967	-3.68971500	7.38804100
8.69999966	-5.09534900	8.19389700
8.89999965	-4.91941500	8.60605200
9.09999964	-3.68971500	8.65526600
9.29999962	-1.75689000	8.65526600
9.49999961	0.17531990	8.65526600
9.69999960	1.75689000	8.65526600
9.89999959	2.45940000	8.65526600
10.09999958	2.28408000	8.65526600
10.29999956	1.75689000	8.65526600
10.49999955	0.87844490	8.60605200
10.69999954	0.00000000	8.24311000
10.89999953	-0.70250980	7.84325700
11.09999952	-0.87844490	8.24311000
11.29999951	-0.87844490	8.60605200
11.49999949	-0.70250980	8.65526600
11.69999948	-0.52657480	8.65526600
11.89999947	-0.17531990	8.65526600
12.09999946	0.00000000	8.65526600
12.29999945	0.00000000	8.65526600
12.49999943	0.00000000	8.65526600
12.69999942	-0.17531990	8.65526600
12.89999941	-0.17531990	8.65526600
13.09999940	-0.17531990	8.65526600
13.29999939	0.00000000	8.65526600
13.49999937	-0.17531990	8.60605200
13.69999936	0.00000000	8.24311000
13.89999935	0.00000000	7.84325700
14.09999934	0.00000000	8.24311000
14.29999933	0.00000000	8.60605200
14.49999932	0.00000000	8.65526600
14.69999930	0.00000000	8.65526600
14.89999929	0.00000000	8.60605200
15.09999928	0.00000000	8.24311000
15.29999927	0.00000000	7.84325700
15.49999926	0.00000000	8.24311000
15.69999924	-0.17531990	8.60605200
15.89999923	0.00000000	8.65526600
16.09999922	0.00000000	8.65526600
16.29999921	0.00000000	8.65526600
16.49999920	0.00000000	8.65526600
16.69999919	0.00000000	8.65526600
16.89999917	0.00000000	8.60605200
17.09999916	0.00000000	8.19389700
17.29999915	0.00000000	7.38804100
17.49999914	0.00000000	7.02509800
17.69999913	0.00000000	7.38804100
17.89999911	0.00000000	8.19389700
18.09999910	0.00000000	8.60605200
18.29999909	0.00000000	8.65526600
18.49999908	0.00000000	8.65526600
18.69999907	0.00000000	8.65526600
18.89999905	0.00000000	8.65526600
19.09999904	0.00000000	8.65526600
19.29999903	0.00000000	8.65526600
19.49999902	0.00000000	8.65526600
19.69999901	0.00000000	8.65526600
19.89999900	0.00000000	8.65526600
20.09999898	0.00000000	8.65526600
20.29999897	0.00000000	8.65526600
20.49999896	0.00000000	8.65526600
20.69999895	0.00000000	8.65526600
20.89999894	0.00000000	8.65526600
21.09999892	0.00000000	8.65526600
21.29999891	0.00000000	8.65526600
21.49999890	0.00000000	8.65526600
21.69999889	0.00000000	8.65526600
21.89999888	0.00000000	8.65526600
22.09999886	0.00000000	8.65526600
22.29999885	0.00000000	8.65526600
22.49999884	0.00000000	8.65526600
22.69999883	0.00000000	8.60605200
22.89999882	0.00000000	8.19389700
23.09999881	0.00000000	7.38804100
23.29999879	0.00000000	6.97588500
23.49999878	0.00000000	6.92667200
23.69999877	0.00000000	6.92667200
23.89999876	0.00000000	6.97588500
24.09999875	0.00000000	7.38804100
24.29999873	0.00000000	8.24311000
24.49999872	0.00000000	9.11663300
24.69999871	0.00000000	10.39001000
24.89999870	0.00000000	11.60802000
25.09999869	0.00000000	12.06939000
25.29999867	0.00000000	11.97096000
25.49999866	0.00000000	10.69144000
25.69999865	0.00000000	7.79404500
25.89999864	0.00000000	5.24114100
26.09999863	0.00000000	2.95275600
26.29999862	0.00000000	0.14763780
26.49999860	0.00000000	-1.42716500
26.69999859	0.00000000	0.24606300
26.89999858	0.00000000	4.02313000
27.09999857	0.00000000	9.21505800
27.29999856	0.00000000	15.53273000
27.49999854	0.00000000	21.34596000
27.69999853	0.00000000	24.29872000
27.89999852	0.00000000	23.48671000
28.09999851	0.00000000	19.61737000
28.29999850	0.00000000	12.69070000
28.49999848	0.00000000	3.00196800
28.69999847	0.00000000	-7.12967500
28.89999846	0.00000000	-14.67766000
29.09999845	0.00000000	-18.03642000
29.29999844	0.00000000	-15.34818000
29.49999843	0.00000000	-6.47145600
29.69999841	0.00000000	7.12352300
29.89999840	0.00000000	22.31176000
30.09999839	0.00000000	35.81446000
30.29999838	0.00000000	43.76845000
30.49999837	0.00000000	43.71924000
30.69999835	0.00000000	35.20546000
30.89999834	0.00000000	19.51895000
31.09999833	0.00000000	0.04921259
31.29999832	0.00000000	-18.95915000
31.49999831	0.00000000	-32.86786000
31.69999829	0.00000000	-37.86294000
31.89999828	0.00000000	-32.35728000
32.09999827	0.00000000	-17.07677000
32.29999826	0.00000000	4.47834600
32.49999825	0.00000000	27.71284000
32.69999824	0.00000000	46.77042000
32.89999822	0.00000000	57.37573000
33.09999821	0.00000000	57.72638000
33.29999820	0.00000000	46.72121000
33.49999819	0.00000000	26.80241000
33.69999818	0.00000000	2.69439000
33.89999816	0.00000000	-21.04454000
34.09999815	0.00000000	-38.22588000
34.29999814	0.00000000	-44.63582000
34.49999813	0.00000000	-38.27509000
34.69999812	0.00000000	-21.45054000
34.89999810	0.00000000	1.87623000
35.09999809	0.00000000	26.39640000
35.29999808	0.00000000	46.67199000
35.49999807	0.00000000	57.72638000
35.69999806	0.00000000	57.27731000
35.89999805	0.00000000	45.90305000
36.09999803	0.00000000	25.57825000
36.29999802	0.00000000	2.02386800
36.49999801	0.00000000	-19.21137000
36.69999800	0.00000000	-33.12623000
36.89999799	0.00000000	-36.99557000
37.09999797	0.00000000	-29.85974000
37.29999796	0.00000000	-14.27165000
37.49999795	0.00000000	5.60408400
37.69999794	0.00000000	25.42446000
37.89999793	0.00000000	39.79454000
38.09999791	0.00000000	45.34940000
38.29999790	0.00000000	41.57849000
38.49999789	0.00000000	29.39837000
38.69999788	0.00000000	12.62918000
38.89999787	0.00000000	-3.46948800
39.09999786	0.00000000	-15.34818000
39.29999784	0.00000000	-20.84769000
39.49999783	0.00000000	-18.30093000
39.69999782	0.00000000	-8.71678100
39.89999781	0.00000000	4.68134800
40.09999780	0.00000000	17.32283000
40.29999778	0.00000000	25.83661000
40.49999777	0.00000000	28.88779000
40.69999776	0.00000000	26.39640000
40.89999775	0.00000000	19.66658000
41.09999774	0.00000000	10.43922000
41.29999772	0.00000000	1.62401600
41.49999771	0.00000000	-3.93085600
41.69999770	0.00000000	-5.65944900
41.89999769	0.00000000	-3.51870100
42.09999768	0.00000000	2.23917300
42.29999767	0.00000000	8.96284400
42.49999765	0.00000000	14.06865000
42.69999764	0.00000000	17.47047000
42.89999763	0.00000000	17.83341000
43.09999762	0.00000000	15.07136000
43.29999761	0.00000000	11.30659000
43.49999759	0.00000000	8.29232200
43.69999758	0.00000000	5.70251000
43.89999757	0.00000000	4.07234200
44.09999756	0.00000000	4.07234200
44.29999755	0.00000000	5.65329700
44.49999753	0.00000000	7.68946800
44.69999752	0.00000000	8.50762700
44.89999751	0.00000000	8.19389700
45.09999750	0.00000000	7.33882900
45.29999749	0.00000000	6.51451700
45.49999748	0.00000000	5.75172200
45.69999746	0.00000000	6.20693900
45.89999745	0.00000000	8.29232200
46.09999744	0.00000000	10.75295000
46.29999743	0.00000000	12.93676000
46.49999742	0.00000000	14.11786000
46.69999740	0.00000000	14.10556000
46.89999739	0.00000000	11.97096000
47.09999738	0.00000000	8.65526600
47.29999737	0.00000000	5.24114100
47.49999736	0.00000000	2.28838600
47.69999734	0.00000000	0.55979330
47.89999733	0.00000000	0.19685040
48.09999732	0.00000000	1.47637800
48.29999731	0.00000000	4.82898600
48.49999730	0.00000000	8.55684000
48.69999729	0.00000000	11.60802000
48.89999727	0.00000000	13.75492000
49.09999726	0.00000000	15.02214000
49.29999725	0.00000000	14.87451000
49.49999724	0.00000000	12.57382000
49.69999723	0.00000000	9.58415200
49.89999721	0.00000000	8.18774500
50.09999720	0.00000000	5.55487200
50.29999719	0.00000000	2.84202700
50.49999718	0.00000000	2.28838600
50.69999717	0.00000000	3.05118100
50.89999715	0.00000000	3.97391700
51.09999714	0.00000000	5.70251000
51.29999713	0.00000000	8.19389700
51.49999712	0.00000000	10.34080000
51.69999711	0.00000000	12.06939000
51.89999710	0.00000000	13.39198000
52.09999708	0.00000000	14.26550000
52.29999707	0.00000000	15.02214000
52.49999706	0.00000000	14.56693000
52.69999705	0.00000000	12.48154000
52.89999704	0.00000000	9.97785300
53.09999702	0.00000000	7.38804100
53.29999701	0.00000000	5.24114100
53.49999700	0.00000000	3.51254900
53.69999699	0.00000000	2.33759800
53.89999698	0.00000000	2.79281500
54.09999696	0.00000000	5.24114100
54.29999695	0.00000000	8.19389700
54.49999694	0.00000000	10.75295000
54.69999693	0.00000000	12.88755000
54.89999692	0.00000000	13.65650000
55.09999691	0.00000000	12.88755000
55.29999689	0.00000000	10.75295000
55.49999688	0.00000000	8.19389700
55.69999687	0.00000000	5.24114100
55.89999686	0.00000000	2.79281500
56.09999685	0.00000000	2.33759800
56.29999683	0.00000000	3.51254900
56.49999682	0.00000000	5.24114100
56.69999681	0.00000000	7.43725300
56.89999680	0.00000000	10.34080000
57.09999679	0.00000000	12.83834000
57.29999677	0.00000000	13.65650000
57.49999676	0.00000000	12.88755000
57.69999675	0.00000000	10.70374000
57.89999674	0.00000000	7.78789300
58.09999673	0.00000000	4.37992100
58.29999672	0.00000000	1.92544300
58.49999670	0.00000000	1.06422200
58.69999669	0.00000000	2.33759800
58.89999668	0.00000000	5.24114100
59.09999667	0.00000000	8.65526600
59.29999666	0.00000000	12.02018000
59.49999664	0.00000000	14.56693000
59.69999663	0.00000000	15.38509000
59.89999662	0.00000000	14.56693000
60.09999661	0.00000000	11.97096000
60.29999660	0.00000000	8.24311000
60.49999658	0.00000000	4.42913300
60.69999657	0.00000000	1.92544300
60.89999656	0.00000000	1.01501000
61.09999655	0.00000000	1.87623000
61.29999654	0.00000000	4.02313000
61.49999653	0.00000000	7.38804100
61.69999651	0.00000000	11.15280000
61.89999650	0.00000000	13.70571000
62.09999649	0.00000000	15.02214000
62.29999648	0.00000000	14.97293000
62.49999647	0.00000000	13.29355000
62.69999645	0.00000000	10.39001000
62.89999644	0.00000000	7.38804100
63.09999643	0.00000000	4.82898600
63.29999642	0.00000000	2.74360200
63.49999641	0.00000000	2.28838600
63.69999639	0.00000000	3.05118100
63.89999638	0.00000000	3.97391700
64.09999637	0.00000000	5.70251000
64.29999636	0.00000000	8.19389700
64.49999635	0.00000000	10.34080000
64.69999634	0.00000000	12.06939000
64.89999632	0.00000000	13.39198000
65.09999631	0.00000000	14.16708000
65.29999630	0.00000000	14.15477000
65.49999629	0.00000000	12.48154000
65.69999628	0.00000000	10.39001000
65.89999626	0.00000000	8.14468500
66.09999625	0.00000000	5.24114100
66.29999624	0.00000000	2.69439000
66.49999623	0.00000000	1.41486200
66.69999622	0.00000000	1.01501000
66.89999620	0.00000000	2.33759800
67.09999619	0.00000000	5.24114100
67.29999618	0.00000000	8.70447700
67.49999617	0.00000000	12.48154000
67.69999616	0.00000000	15.84030000
67.89999615	0.00000000	17.11983000
68.09999613	0.00000000	16.70768000
68.29999612	0.00000000	14.56693000
68.49999611	0.00000000	10.80217000
68.69999610	0.00000000	6.97588500
68.89999609	0.00000000	3.51254900
69.09999607	0.00000000	0.60900590
69.29999606	0.00000000	-0.66437010
69.49999605	0.00000000	0.19685040
69.69999604	0.00000000	2.70054100
69.89999603	0.00000000	6.56373000
70.09999601	0.00000000	10.75295000
70.29999600	0.00000000	14.61614000
70.49999599	0.00000000	17.11983000
70.69999598	0.00000000	17.98105000
70.89999597	0.00000000	16.65846000
71.09999596	0.00000000	13.34276000
71.29999594	0.00000000	9.11663300
71.49999593	0.00000000	5.29035400
71.69999592	0.00000000	2.28838600
71.89999591	0.00000000	0.60900590
72.09999590	0.00000000	0.60900590
72.29999588	0.00000000	2.28838600
72.49999587	0.00000000	5.29035400
72.69999586	0.00000000	9.11663300
72.89999585	0.00000000	13.29355000
73.09999584	0.00000000	16.20325000
73.29999582	0.00000000	16.70768000
73.49999581	0.00000000	15.48351000
73.69999580	0.00000000	13.29355000
73.89999579	0.00000000	9.87942800
74.09999578	0.00000000	5.70251000
74.29999577	0.00000000	2.33759800
74.49999575	-0.17531990	0.60900590
74.69999574	0.00000000	0.65821850
74.89999573	0.00000000	2.74975400
75.09999572	0.00000000	6.51451700
75.29999571	0.00000000	10.29158000
75.49999569	0.00000000	13.29355000
75.69999568	0.00000000	14.97293000
75.89999567	0.00000000	14.97293000
76.09999566	0.00000000	13.29355000
76.29999565	0.00000000	10.29158000
76.49999563	0.00000000	6.51451700
76.69999562	0.00000000	2.70054100
76.89999561	0.00000000	0.19685040
77.09999560	0.00000000	-0.61515740
77.29999559	0.00000000	1.11343500
77.49999558	0.00000000	5.29035400
77.69999556	0.00000000	10.34080000
77.89999555	0.00000000	15.02214000
78.09999554	0.00000000	18.38706000
78.29999553	0.00000000	19.61122000
78.49999552	0.00000000	17.93184000
78.69999550	0.00000000	13.70571000
78.89999549	0.00000000	8.24311000
79.09999548	0.00000000	2.70054100
79.29999547	-0.17531990	-1.53174200
79.49999546	0.00000000	-4.02928100
79.69999544	0.00000000	-3.56791300
79.89999543	0.00000000	0.19685040
80.09999542	0.00000000	5.65329700
80.29999541	0.00000000	11.60802000
80.49999540	0.00000000	16.70768000
80.69999539	0.00000000	20.12180000
80.89999537	0.00000000	21.29675000
81.09999536	0.00000000	19.20522000
81.29999535	0.00000000	14.16708000
81.49999534	0.00000000	8.24311000
81.69999533	0.00000000	2.33759800
81.89999531	0.00000000	-1.93774600
82.09999530	0.00000000	-3.72785400
82.29999529	0.00000000	-4.12770700
82.49999528	0.00000000	-2.34990100
82.69999527	0.00000000	1.87623000
82.89999525	0.00000000	7.38804100
83.09999524	0.00000000	13.34276000
83.29999523	0.00000000	18.33784000
83.49999522	0.00000000	20.93381000
83.69999521	0.00000000	20.58317000
83.89999520	0.00000000	18.43627000
84.09999518	0.00000000	14.56693000
84.29999517	0.00000000	9.06742000
84.49999516	0.00000000	3.61097400
84.69999515	0.00000000	-0.71358260
84.89999514	0.00000000	-3.26648600
85.09999512	0.00000000	-4.07849400
85.29999511	0.00000000	-2.34990100
85.49999510	0.00000000	1.87623000
85.69999509	0.00000000	7.33882900
85.89999508	0.00000000	12.88755000
86.09999506	0.00000000	17.16904000
86.29999505	0.00000000	20.17101000
86.49999504	0.00000000	21.34596000
86.69999503	0.00000000	19.66043000
86.89999502	0.00000000	15.43430000
87.09999501	0.00000000	9.92864100
87.29999499	0.00000000	4.02313000
87.49999498	0.00000000	-0.61515740
87.69999497	0.00000000	-2.85433100
87.89999496	0.00000000	-3.26648600
88.09999495	0.00000000	-1.93774600
88.29999493	0.00000000	1.87623000
88.49999492	0.00000000	6.92667200
88.69999491	0.00000000	12.06939000
88.89999490	0.00000000	16.65846000
89.09999489	0.00000000	19.20522000
89.29999487	0.00000000	18.84842000
89.49999486	0.00000000	16.75689000
89.69999485	0.00000000	13.29355000
89.89999484	0.00000000	8.65526600
90.09999483	0.00000000	4.02313000
90.29999482	0.00000000	0.60900590
90.49999480	0.00000000	-1.11958700
90.69999479	0.00000000	-1.07037400
90.89999478	0.00000000	1.01501000
91.09999477	0.00000000	4.77977300
91.29999476	0.00000000	8.55684000
91.49999474	0.00000000	11.60802000
91.69999473	0.00000000	13.75492000
91.89999472	0.00000000	15.02214000
92.09999471	0.00000000	14.97293000
92.29999470	0.00000000	13.34276000
92.49999468	0.00000000	10.80217000
92.69999467	0.00000000	8.24311000
92.89999466	0.00000000	5.70251000
93.09999465	0.00000000	4.02313000
93.29999464	0.00000000	3.56176100
93.49999463	0.00000000	3.97391700
93.69999461	0.00000000	5.24114100
93.89999460	0.00000000	6.92667200
94.09999459	0.00000000	8.60605200
94.29999458	0.00000000	9.87942800
94.49999457	0.00000000	10.34080000
94.69999455	0.00000000	10.43922000
94.89999454	0.00000000	10.80217000
95.09999453	0.00000000	11.15280000
95.29999452	0.00000000	10.34080000
95.49999451	0.00000000	9.16584600
95.69999449	0.00000000	8.65526600
95.89999448	0.00000000	8.19389700
96.09999447	0.00000000	7.33882900
96.29999446	0.00000000	6.56373000
96.49999445	0.00000000	6.11466500
96.69999444	0.00000000	6.51451700
96.89999442	0.00000000	6.92667200
97.09999441	0.00000000	7.38804100
97.29999440	0.00000000	8.19389700
97.49999439	0.00000000	8.65526600
97.69999438	0.00000000	9.16584600
97.89999436	0.00000000	10.34080000
98.09999435	0.00000000	11.15280000
98.29999434	0.00000000	10.75295000
98.49999433	0.00000000	9.97785300
98.69999432	0.00000000	9.06742000
98.89999430	0.00000000	8.19389700
99.09999429	0.00000000	6.97588500
99.29999428	0.00000000	6.16387700
99.49999427	0.00000000	6.51451700
99.69999426	0.00000000	6.87746000
99.89999425	0.00000000	6.97588500
100.09999423	0.00000000	7.43725300
100.29999422	0.00000000	8.70447700
100.49999421	0.00000000	10.29158000
100.69999420	0.00000000	11.15280000
100.89999419	0.00000000	10.80217000
101.09999417	0.00000000	10.39001000
101.29999416	0.00000000	9.87942800
101.49999415	0.00000000	8.70447700
101.69999414	0.00000000	7.84325700
101.89999413	0.00000000	7.83710600
102.09999411	0.00000000	7.79404500
102.29999410	0.00000000	8.24311000
102.49999409	0.00000000	8.65526600
102.69999408	0.00000000	9.11663300
102.89999407	0.00000000	9.92864100
103.09999406	0.00000000	10.34080000
103.29999404	0.00000000	10.39001000
103.49999403	0.00000000	10.34080000
103.69999402	0.00000000	9.87942800
103.89999401	0.00000000	8.65526600
104.09999400	0.00000000	7.43725300
104.29999398	0.00000000	6.92667200
104.49999397	0.00000000	6.46530500
104.69999396	0.00000000	5.65329700
104.89999395	0.00000000	5.29035400
105.09999394	0.00000000	5.70251000
105.29999392	0.00000000	6.92667200
105.49999391	0.00000000	8.19389700
105.69999390	0.00000000	9.06742000
105.89999389	0.00000000	9.92864100
106.09999388	0.00000000	10.34080000
106.29999387	0.00000000	10.34080000
106.49999385	0.00000000	9.87942800
106.69999384	0.00000000	8.65526600
106.89999383	0.00000000	7.38804100
107.09999382	0.00000000	6.51451700
107.29999381	0.00000000	5.65329700
107.49999379	0.00000000	5.29035400
107.69999378	0.00000000	5.70251000
107.89999377	0.00000000	6.92667200
108.09999376	0.00000000	8.19389700
108.29999375	0.00000000	9.11663300
108.49999374	0.00000000	10.34080000
108.69999372	0.00000000	11.15280000
108.89999371	0.00000000	10.75295000
109.09999370	0.00000000	9.92864100
109.29999369	0.00000000	8.60605200
109.49999368	0.00000000	6.97588500
109.69999366	0.00000000	5.70251000
109.89999365	0.00000000	5.24114100
110.09999364	0.00000000	5.24114100
110.29999363	0.00000000	5.70251000
110.49999362	0.00000000	6.97588500
110.69999360	0.00000000	8.60605200
110.89999359	0.00000000	9.92864100
111.09999358	0.00000000	10.80217000
111.29999357	0.00000000	11.60802000
111.49999356	0.00000000	11.60802000
111.69999355	0.00000000	10.75295000
111.89999353	0.00000000	9.52263600
112.09999352	0.00000000	7.79404500
112.29999351	0.00000000	6.51451700
112.49999350	0.00000000	5.24114100
112.69999349	0.00000000	4.47834600
112.89999347	0.00000000	5.24114100
113.09999346	0.00000000	6.51451700
113.29999345	0.00000000	7.84325700
113.49999344	0.00000000	9.92864100
113.69999343	0.00000000	11.60802000
113.89999341	0.00000000	12.43233000
114.09999340	0.00000000	12.42618000
114.29999339	0.00000000	10.75295000
114.49999338	0.00000000	8.70447700
114.69999337	0.00000000	6.92667200
114.89999336	0.00000000	5.24114100
115.09999334	0.00000000	4.02313000
115.29999333	0.00000000	4.02313000
115.49999332	0.00000000	5.24114100
115.69999331	0.00000000	6.97588500
115.89999330	0.00000000	9.06742000
116.09999328	0.00000000	11.15280000
116.29999327	0.00000000	12.02018000
116.49999326	0.00000000	12.06939000
116.69999325	0.00000000	11.60802000
116.89999324	0.00000000	10.29158000
117.09999322	0.00000000	8.24311000
117.29999321	0.00000000	6.15772600
117.49999320	0.00000000	5.29035400
117.69999319	0.00000000	5.19192900
117.89999318	0.00000000	5.29035400
118.09999317	0.00000000	6.15772600
118.29999315	0.00000000	8.19389700
118.49999314	0.00000000	9.83021600
118.69999313	0.00000000	10.34080000
118.89999312	0.00000000	10.39001000
119.09999311	0.00000000	10.34080000
119.29999309	0.00000000	9.87942800
119.49999308	0.00000000	8.65526600
119.69999307	0.00000000	7.43725300
119.89999306	0.00000000	6.97588500
120.09999305	0.00000000	6.92667200
120.29999303	0.00000000	6.97588500
120.49999302	0.00000000	7.38804100
120.69999301	0.00000000	8.19389700
120.89999300	0.00000000	8.65526600
121.09999299	0.00000000	9.11663300
121.29999298	0.00000000	9.87942800
121.49999296	0.00000000	9.87942800
121.69999295	0.00000000	9.11663300
121.89999294	0.00000000	8.65526600
122.09999293	0.00000000	8.19389700
122.29999292	0.00000000	7.38804100
122.49999290	0.00000000	6.97588500
122.69999289	0.00000000	6.97588500
122.89999288	0.00000000	7.38804100
123.09999287	0.00000000	8.24311000
123.29999286	0.00000000	9.06742000
123.49999284	0.00000000	9.92864100
123.69999283	0.00000000	10.29158000
123.89999282	0.00000000	9.92864100
124.09999281	0.00000000	9.06742000
124.29999280	0.00000000	8.24311000
124.49999279	0.00000000	7.38804100
124.69999277	0.00000000	6.97588500
124.89999276	0.00000000	6.92667200
125.09999275	0.00000000	6.92667200
125.29999274	0.00000000	6.97588500
125.49999273	0.00000000	7.43725300
125.69999271	0.00000000	8.65526600
125.89999270	0.00000000	9.87942800
126.09999269	0.00000000	10.34080000
126.29999268	0.00000000	10.34080000
126.49999267	0.00000000	9.87942800
126.69999265	0.00000000	8.65526600
126.89999264	0.00000000	7.38804100
127.09999263	0.00000000	6.56373000
127.29999262	0.00000000	6.11466500
127.49999261	0.00000000	6.51451700
127.69999260	0.00000000	6.92667200
127.89999258	0.00000000	7.38804100
128.09999257	0.00000000	8.24311000
128.29999256	0.00000000	9.06742000
128.49999255	0.00000000	9.92864100
128.69999254	0.00000000	10.29158000
128.89999252	0.00000000	9.97785300
129.09999251	0.00000000	9.52879000
129.29999250	0.00000000	9.46727400
129.49999249	0.00000000	8.60605200
129.69999248	0.00000000	7.38804100
129.89999246	0.00000000	6.56373000
130.09999245	0.00000000	6.11466500
130.29999244	0.00000000	6.56373000
130.49999243	0.00000000	7.33882900
130.69999242	0.00000000	8.24311000
130.89999241	0.00000000	9.06742000
131.09999239	0.00000000	9.92864100
131.29999238	0.00000000	10.29158000
131.49999237	0.00000000	9.92864100
131.69999236	0.00000000	9.11663300
131.89999235	0.00000000	8.65526600
132.09999233	0.00000000	8.19389700
132.29999232	0.00000000	7.43725300
132.49999231	0.00000000	7.38804100
132.69999230	0.00000000	7.78789300
132.89999229	0.00000000	7.79404500
133.09999227	0.00000000	8.24311000
133.29999226	0.00000000	8.60605200
133.49999225	0.00000000	8.65526600
133.69999224	0.00000000	8.60605200
133.89999223	0.00000000	8.24311000
134.09999222	0.00000000	7.79404500
134.29999220	0.00000000	7.78789300
134.49999219	0.00000000	7.38804100
134.69999218	0.00000000	7.43725300
134.89999217	0.00000000	8.19389700
135.09999216	0.00000000	8.65526600
135.29999214	0.00000000	9.11663300
135.49999213	0.00000000	9.92864100
135.69999212	0.00000000	10.34080000
135.89999211	0.00000000	10.34080000
136.09999210	0.00000000	9.87942800
136.29999208	0.00000000	8.65526600
136.49999207	0.00000000	7.43725300
136.69999206	0.00000000	6.97588500
136.89999205	0.00000000	6.92667200
137.09999204	0.00000000	6.97588500
137.29999203	0.00000000	7.38804100
137.49999201	0.00000000	8.24311000
137.69999200	-0.17531990	9.06742000
137.89999199	0.00000000	9.92864100
138.09999198	0.00000000	10.34080000
138.29999197	0.00000000	10.39001000
138.49999195	0.00000000	10.34080000
138.69999194	0.00000000	9.92864100
138.89999193	0.00000000	9.06742000
139.09999192	0.00000000	8.24311000
139.29999191	0.00000000	7.38804100
139.49999189	0.00000000	6.97588500
139.69999188	0.00000000	6.92667200
139.89999187	0.00000000	6.97588500
140.09999186	0.00000000	7.38804100
140.29999185	0.00000000	8.24311000
140.49999184	0.00000000	9.06742000
140.69999182	0.00000000	9.92864100
140.89999181	0.00000000	10.34080000
141.09999180	0.00000000	10.39001000
141.29999179	0.00000000	10.34080000
141.49999178	0.00000000	9.92864100
141.69999176	0.00000000	9.06742000
141.89999175	0.00000000	8.24311000
142.09999174	0.00000000	7.38804100
142.29999173	0.00000000	6.97588500
142.49999172	0.00000000	6.87746000
142.69999170	0.00000000	6.51451700
142.89999169	0.00000000	6.16387700
143.09999168	0.00000000	6.97588500
143.29999167	0.00000000	8.14468500
143.49999166	0.00000000	8.65526600
143.69999165	0.00000000	9.06742000
143.89999163	0.00000000	9.46727400
144.09999162	0.00000000	9.06742000
144.29999161	0.00000000	8.70447700
144.49999160	0.00000000	8.60605200
144.69999159	0.00000000	8.24311000
144.89999157	0.00000000	7.79404500
145.09999156	0.00000000	7.78789300
145.29999155	0.00000000	7.33882900
145.49999154	0.00000000	6.92667200
145.69999153	0.00000000	6.51451700
145.89999151	0.00000000	6.16387700
146.09999150	0.00000000	6.97588500
146.29999149	0.00000000	8.14468500
146.49999148	0.00000000	8.65526600
146.69999147	0.00000000	9.11663300
146.89999146	0.00000000	9.92864100
147.09999144	0.00000000	10.34080000
147.29999143	0.00000000	10.34080000
147.49999142	0.00000000	9.92864100
147.69999141	0.00000000	9.06742000
147.89999140	0.00000000	8.24311000
148.09999138	0.00000000	7.38804100
148.29999137	0.00000000	6.97588500
148.49999136	0.00000000	6.92667200
148.69999135	0.00000000	6.97588500
148.89999134	0.00000000	7.38804100
149.09999132	0.00000000	8.24311000
149.29999131	0.00000000	9.06742000
149.49999130	0.00000000	9.92864100
149.69999129	0.00000000	10.29158000
149.89999128	0.00000000	9.92864100
150.09999127	0.00000000	9.11663300
150.29999125	0.00000000	8.60605200
150.49999124	0.00000000	7.78789300
150.69999123	0.00000000	6.56988100
150.89999122	0.00000000	6.56373000
151.09999121	0.00000000	6.87746000
151.29999119	0.00000000	6.97588500
151.49999118	0.00000000	7.38804100
151.69999117	0.00000000	8.19389700
151.89999116	0.00000000	8.65526600
152.09999115	0.00000000	9.06742000
152.29999113	0.00000000	9.46727400
152.49999112	0.00000000	9.01820900
152.69999111	0.00000000	8.29232200
152.89999110	0.00000000	7.84325700
153.09999109	0.00000000	8.19389700
153.29999108	0.00000000	8.19389700
153.49999106	0.00000000	7.84325700
153.69999105	0.00000000	8.24311000
153.89999104	0.00000000	8.60605200
154.09999103	0.00000000	8.65526600
154.29999102	0.00000000	8.65526600
154.49999100	0.00000000	8.65526600
154.69999099	0.00000000	8.65526600
154.89999098	0.00000000	8.65526600
155.09999097	0.00000000	8.65526600
155.29999096	0.00000000	8.65526600
155.49999094	0.00000000	8.65526600
155.69999093	0.00000000	8.65526600
155.89999092	0.00000000	8.65526600
156.09999091	0.00000000	8.65526600
156.29999090	0.00000000	8.65526600
156.49999089	0.00000000	8.65526600
156.69999087	0.00000000	8.65526600
156.89999086	0.00000000	8.60605200
157.09999085	0.00000000	8.24311000
157.29999084	0.00000000	7.79404500
157.49999083	0.00000000	7.83710600
157.69999081	0.00000000	7.79404500
157.89999080	0.00000000	8.24311000
158.09999079	0.00000000	8.60605200
158.29999078	0.00000000	8.65526600
158.49999077	0.00000000	8.70447700
158.69999075	0.00000000	9.06742000
158.89999074	0.00000000	9.46727400
159.09999073	0.00000000	9.06742000
159.29999072	0.00000000	8.70447700
159.49999071	0.00000000	8.65526600
159.69999070	0.00000000	8.60605200
159.89999068	0.00000000	8.19389700
160.09999067	0.00000000	7.38804100
160.29999066	0.00000000	7.02509800
160.49999065	0.00000000	7.38804100
160.69999064	0.00000000	8.19389700
160.89999062	0.00000000	8.55684000
161.09999061	0.00000000	8.24311000
161.29999060	0.00000000	7.84325700
161.49999059	0.00000000	8.24311000
161.69999058	0.00000000	8.60605200
161.89999056	0.00000000	8.65526600
162.09999055	0.00000000	8.65526600
162.29999054	0.00000000	8.65526600
162.49999053	0.00000000	8.60605200
162.69999052	0.00000000	8.24311000
162.89999051	0.00000000	7.84325700
163.09999049	0.00000000	8.24311000
163.29999048	0.00000000	8.60605200
163.49999047	0.00000000	8.65526600
163.69999046	0.00000000	8.65526600
163.89999045	0.00000000	8.70447700
164.09999043	0.00000000	9.06742000
164.29999042	0.00000000	9.46727400
164.49999041	0.00000000	9.06742000
164.69999040	0.00000000	8.70447700
164.89999039	0.00000000	8.65526600
165.09999037	0.00000000	8.65526600
165.29999036	0.00000000	8.65526600
165.49999035	0.00000000	8.65526600
165.69999034	0.00000000	8.65526600
165.89999033	0.00000000	8.65526600
166.09999032	0.00000000	8.65526600
166.29999030	0.00000000	8.65526600
166.49999029	0.00000000	8.65526600
166.69999028	0.00000000	8.65526600
166.89999027	0.00000000	8.65526600
167.09999026	0.00000000	8.60605200
167.29999024	0.00000000	8.24311000
167.49999023	0.00000000	7.84325700
167.69999022	0.00000000	8.24311000
167.89999021	0.00000000	8.60605200
168.09999020	0.00000000	8.65526600
168.29999018	0.00000000	8.65526600
168.49999017	0.00000000	8.65526600
168.69999016	0.00000000	8.65526600
168.89999015	0.00000000	8.65526600
169.09999014	0.00000000	8.65526600
169.29999013	0.00000000	8.65526600
169.49999011	0.00000000	8.65526600
169.69999010	0.00000000	8.65526600
169.89999009	0.00000000	8.60605200
170.09999008	0.00000000	8.19389700
170.29999007	0.00000000	7.38804100
170.49999005	0.00000000	7.02509800
170.69999004	0.00000000	7.38804100
170.89999003	0.00000000	8.19389700
171.09999002	0.00000000	8.60605200
171.29999001	0.00000000	8.65526600
171.49998999	0.00000000	8.65526600
171.69998998	0.00000000	8.65526600
171.89998997	0.00000000	8.65526600
172.09998996	0.00000000	8.65526600
172.29998995	0.00000000	8.65526600
172.49998994	0.00000000	8.70447700
172.69998992	0.00000000	9.06742000
172.89998991	0.00000000	9.51648500
173.09998990	0.00000000	9.47957600
173.29998989	0.00000000	9.51648500
173.49998988	0.00000000	9.11663300
173.69998986	-0.17531990	9.16584600
173.89998985	0.00000000	9.87942800
174.09998984	0.00000000	9.87942800
174.29998983	0.00000000	9.11663300
174.49998982	0.00000000	8.70447700
174.69998980	0.00000000	8.65526600
174.89998979	0.00000000	8.60605200
175.09998978	0.00000000	8.24311000
175.29998977	0.00000000	7.79404500
175.49998976	0.00000000	7.78789300
175.69998975	0.00000000	7.38804100
175.89998973	0.00000000	7.43725300
176.09998972	0.00000000	8.19389700
176.29998971	0.00000000	8.60605200
176.49998970	0.00000000	8.65526600
176.69998969	0.00000000	8.65526600
176.89998967	0.00000000	8.65526600
177.09998966	0.00000000	8.65526600
177.29998965	0.00000000	8.65526600
177.49998964	0.00000000	8.65526600
177.69998963	0.00000000	8.65526600
177.89998961	0.00000000	8.65526600
178.09998960	0.00000000	8.60605200
178.29998959	0.00000000	8.19389700
178.49998958	0.00000000	7.43725300
178.69998957	0.00000000	7.43725300
178.89998956	0.00000000	8.19389700
179.09998954	0.00000000	8.60605200
179.29998953	0.00000000	8.65526600
179.49998952	0.00000000	8.65526600
179.69998951	0.00000000	8.65526600
179.89998950	0.00000000	8.65526600
180.09998948	0.00000000	8.65526600
180.29998947	0.00000000	8.65526600
180.49998946	0.00000000	8.65526600
180.69998945	0.00000000	8.65526600
180.89998944	0.00000000	8.65526600
181.09998942	0.00000000	8.65526600
181.29998941	0.00000000	8.60605200
181.49998940	0.00000000	8.24311000
181.69998939	0.00000000	7.84325700
181.89998938	0.00000000	8.24311000
182.09998937	0.00000000	8.60605200
182.29998935	0.00000000	8.65526600
182.49998934	0.00000000	8.65526600
182.69998933	0.00000000	8.65526600
182.89998932	0.00000000	8.65526600
183.09998931	0.00000000	8.65526600
183.29998929	0.00000000	8.65526600
183.49998928	0.00000000	8.65526600
183.69998927	0.00000000	8.65526600
183.89998926	0.00000000	8.65526600
184.09998925	0.00000000	8.65526600
184.29998923	0.00000000	8.65526600
184.49998922	0.00000000	8.65526600
184.69998921	0.00000000	8.65526600
184.89998920	0.00000000	8.65526600
185.09998919	0.00000000	8.65526600
185.29998918	0.00000000	8.65526600
185.49998916	0.00000000	8.65526600
185.69998915	0.00000000	8.65526600
185.89998914	0.00000000	8.65526600
186.09998913	0.00000000	8.65526600
186.29998912	0.00000000	8.65526600
186.49998910	0.00000000	8.65526600
186.69998909	0.00000000	8.65526600
186.89998908	0.00000000	8.65526600
187.09998907	0.00000000	8.65526600
187.29998906	0.00000000	8.65526600
187.49998904	0.00000000	8.65526600
187.69998903	0.00000000	8.65526600
187.89998902	0.00000000	8.65526600
188.09998901	0.00000000	8.60605200
188.29998900	0.00000000	8.19389700
188.49998899	0.00000000	7.43725300
188.69998897	0.00000000	7.43725300
188.89998896	0.00000000	8.19389700
189.09998895	0.00000000	8.60605200
189.29998894	0.00000000	8.65526600
189.49998893	0.00000000	8.65526600
189.69998891	0.00000000	8.65526600
189.89998890	0.00000000	8.65526600
190.09998889	0.00000000	8.65526600
190.29998888	0.00000000	8.60605200
190.49998887	0.00000000	8.19389700
190.69998885	0.00000000	7.38804100
190.89998884	0.00000000	6.97588500
191.09998883	0.00000000	6.92667200
191.29998882	0.00000000	6.97588500
191.49998881	0.00000000	7.38804100
191.69998880	0.00000000	8.19389700
191.89998878	0.00000000	8.65526600
192.09998877	0.00000000	9.06742000
192.29998876	0.00000000	9.51648500
192.49998875	0.00000000	9.47957600
192.69998874	0.00000000	9.51648500
192.89998872	0.00000000	9.06742000
193.09998871	0.00000000	8.70447700
193.29998870	0.00000000	8.65526600
193.49998869	0.00000000	8.65526600
193.69998868	0.00000000	8.65526600
193.89998866	0.00000000	8.65526600
194.09998865	0.00000000	8.65526600
194.29998864	0.00000000	8.65526600
194.49998863	0.00000000	8.70447700
194.69998862	0.00000000	9.06742000
194.89998861	0.00000000	9.46727400
195.09998859	0.00000000	9.06742000
195.29998858	0.00000000	8.70447700
195.49998857	0.00000000	8.65526600
195.69998856	0.00000000	8.65526600
195.89998855	0.00000000	8.65526600
196.09998853	0.00000000	8.65526600
