Time	Channel A	Channel B	Channel C
(us)	(V)	(mV)	(mV)

-4.49999956	0.00000000	-52.92200000	-16.20325000
-4.29999957	0.00000000	-52.59596000	-16.89837000
-4.09999958	0.00000000	-52.59596000	-16.89837000
-3.89999959	0.00000000	-52.92200000	-16.20325000
-3.69999960	0.00000000	-52.55290000	-15.82800000
-3.49999962	0.00000000	-52.22071000	-15.78494000
-3.29999963	0.00000000	-52.17765000	-15.78494000
-3.09999964	0.00000000	-52.17765000	-15.82800000
-2.89999965	0.00000000	-52.17765000	-16.16018000
-2.69999966	0.00000000	-52.22071000	-16.52928000
-2.49999968	0.00000000	-52.55290000	-16.20325000
-2.29999969	0.00000000	-52.92200000	-16.25246000
-2.09999970	0.00000000	-52.55290000	-16.94759000
-1.89999971	0.00000000	-52.22071000	-17.32283000
-1.69999972	0.00000000	-52.17765000	-17.36589000
-1.49999973	0.00000000	-52.17765000	-17.36589000
-1.29999975	0.00000000	-52.17765000	-17.36589000
-1.09999976	0.00000000	-52.17765000	-17.36589000
-0.89999977	0.00000000	-52.17765000	-17.36589000
-0.69999978	0.00000000	-52.22071000	-17.36589000
-0.49999979	0.00000000	-52.55290000	-17.36589000
-0.29999981	0.15871060	-52.92200000	-17.36589000
-0.09999982	0.63668800	-52.59596000	-17.36589000
0.10000017	0.95533960	-52.64517000	-17.36589000
0.30000016	0.95533960	-53.29109000	-17.36589000
0.50000015	0.79601380	-53.29109000	-17.36589000
0.70000013	0.31803640	-52.59596000	-17.36589000
0.90000012	-0.47736220	-52.26993000	-17.36589000
1.10000011	-1.43331700	-52.55290000	-17.36589000
1.30000010	-2.38927200	-52.92200000	-17.36589000
1.50000009	-2.86724900	-52.55290000	-17.36589000
1.70000008	-2.54859700	-52.22071000	-17.36589000
1.90000006	-1.43331700	-52.17765000	-17.36589000
2.10000005	0.47736220	-52.17765000	-17.36589000
2.30000004	2.54859700	-52.22071000	-17.36589000
2.50000003	4.30056600	-52.59596000	-17.36589000
2.70000002	5.25652100	-53.29109000	-17.36589000
2.90000000	4.93786900	-53.34030000	-17.36589000
3.09999999	3.02657500	-53.01427000	-17.36589000
3.29999998	0.00000000	-53.34030000	-17.36589000
3.49999997	-3.34522600	-53.29109000	-17.36589000
3.69999996	-6.21247500	-52.59596000	-17.32283000
3.89999994	-7.80511800	-52.22071000	-16.94759000
4.09999993	-7.64579200	-52.17765000	-16.20325000
4.29999992	-5.25652100	-52.17765000	-15.82800000
4.49999991	-1.43331700	-52.17765000	-15.78494000
4.69999990	3.02657500	-52.17765000	-15.78494000
4.89999989	6.84916400	-52.17765000	-15.82800000
5.09999987	9.23905000	-52.17765000	-16.20325000
5.29999986	9.07972400	-52.17765000	-16.94759000
5.49999985	6.69045300	-52.22071000	-17.32283000
5.69999984	2.70792300	-52.55290000	-17.36589000
5.89999983	-2.07062000	-52.92200000	-17.36589000
6.09999981	-6.53112700	-52.55290000	-17.32283000
6.29999980	-9.07972400	-52.22071000	-16.94759000
6.49999979	-9.39837600	-52.17765000	-16.20325000
6.69999978	-7.48646600	-52.17765000	-15.82800000
6.89999977	-3.66326300	-52.17765000	-15.78494000
7.09999975	0.79601380	-52.17765000	-15.78494000
7.29999974	4.61921700	-52.17765000	-15.78494000
7.49999973	7.16781500	-52.17765000	-15.82800000
7.69999972	7.64579200	-52.17765000	-16.20325000
7.89999971	6.37180100	-52.17765000	-16.94759000
8.09999970	3.50393700	-52.17765000	-17.32283000
8.29999968	0.31803640	-52.17765000	-17.36589000
8.49999967	-2.70792300	-52.17765000	-17.36589000
8.69999966	-4.61921700	-52.17765000	-17.36589000
8.89999965	-5.25652100	-52.17765000	-17.32283000
9.09999964	-4.45989200	-52.17765000	-16.94759000
9.29999962	-2.86724900	-52.17765000	-16.20325000
9.49999961	-0.79601380	-52.17765000	-15.82800000
9.69999960	0.95533960	-52.17765000	-15.78494000
9.89999959	2.07062000	-52.17765000	-15.82800000
10.09999958	2.54859700	-52.17765000	-16.20325000
10.29999956	2.22994600	-52.17765000	-16.94759000
10.49999955	1.43331700	-52.17765000	-17.32283000
10.69999954	0.63668800	-52.17765000	-17.36589000
10.89999953	-0.15871060	-52.17765000	-17.36589000
11.09999952	-0.79601380	-52.17765000	-17.36589000
11.29999951	-0.95533960	-52.22071000	-17.36589000
11.49999949	-0.95533960	-52.55290000	-17.36589000
11.69999948	-0.79601380	-52.92200000	-17.36589000
11.89999947	-0.47736220	-52.55290000	-17.36589000
12.09999946	-0.15871060	-52.22071000	-17.36589000
12.29999945	-0.15871060	-52.17765000	-17.36589000
12.49999943	-0.15871060	-52.17765000	-17.36589000
12.69999942	0.00000000	-52.17765000	-17.36589000
12.89999941	0.00000000	-52.17765000	-17.36589000
13.09999940	0.00000000	-52.17765000	-17.36589000
13.29999939	0.00000000	-52.17765000	-17.32283000
13.49999937	0.00000000	-52.17765000	-16.99065000
13.69999936	0.00000000	-52.17765000	-16.62155000
13.89999935	-0.15871060	-52.17765000	-16.99065000
14.09999934	-0.15871060	-52.17765000	-17.27362000
14.29999933	-0.15871060	-52.17765000	-16.99065000
14.49999932	-0.15871060	-52.17765000	-16.62155000
14.69999930	0.00000000	-52.17765000	-16.99065000
14.89999929	0.00000000	-52.22071000	-17.32283000
15.09999928	0.00000000	-52.55290000	-17.32283000
15.29999927	0.00000000	-52.92200000	-16.99065000
15.49999926	0.00000000	-52.55290000	-16.62155000
15.69999924	0.00000000	-52.26993000	-16.99065000
15.89999923	0.00000000	-52.55290000	-17.32283000
16.09999922	0.00000000	-52.92200000	-17.36589000
16.29999921	-0.15871060	-52.55290000	-17.36589000
16.49999920	-0.15871060	-52.22071000	-17.36589000
16.69999919	-0.15871060	-52.17765000	-17.32283000
16.89999917	-0.15871060	-52.13459000	-16.99065000
17.09999916	-0.15871060	-51.75935000	-16.62155000
17.29999915	0.00000000	-51.01501000	-16.99065000
17.49999914	0.00000000	-50.63976000	-17.32283000
17.69999913	0.00000000	-50.63976000	-17.36589000
17.89999911	0.00000000	-51.06422000	-17.36589000
18.09999910	0.00000000	-52.26993000	-17.36589000
18.29999909	0.00000000	-54.13385000	-17.36589000
18.49999908	0.00000000	-56.08390000	-17.32283000
18.69999907	-0.15871060	-57.25270000	-16.99065000
18.89999905	-0.15871060	-58.03395000	-16.62155000
19.09999904	0.00000000	-57.94783000	-16.99065000
19.29999903	0.00000000	-56.36687000	-17.27362000
19.49999902	0.00000000	-53.29109000	-16.94759000
19.69999901	0.00000000	-49.39099000	-16.20325000
19.89999900	0.00000000	-45.52165000	-15.87721000
20.09999898	0.00000000	-42.08292000	-16.16018000
20.29999897	0.00000000	-40.63730000	-16.57234000
20.49999896	0.00000000	-42.17519000	-16.53543000
20.69999895	0.00000000	-46.45054000	-16.61540000
20.89999894	-0.15871060	-52.68823000	-16.57849000
21.09999892	0.00000000	-60.08243000	-16.99065000
21.29999891	0.00000000	-67.39050000	-17.32283000
21.49999890	0.00000000	-72.69930000	-17.36589000
21.69999889	0.00000000	-73.76968000	-17.36589000
21.89999888	0.00000000	-69.44512000	-17.36589000
22.09999886	0.00000000	-60.18085000	-17.36589000
22.29999885	0.00000000	-47.81004000	-17.36589000
22.49999884	0.00000000	-35.42692000	-17.32283000
22.69999883	0.00000000	-25.42446000	-16.94759000
22.89999882	0.00000000	-20.49089000	-16.20325000
23.09999881	0.00000000	-22.90846000	-15.82800000
23.29999879	0.00000000	-32.58489000	-15.74188000
23.49999878	0.00000000	-48.08071000	-15.36663000
23.69999877	-0.15871060	-65.85260000	-14.62844000
23.89999876	0.00000000	-82.04970000	-14.30241000
24.09999875	0.00000000	-92.79034000	-14.62844000
24.29999873	0.00000000	-94.61737000	-15.40969000
24.49999872	0.00000000	-86.46653000	-16.20325000
24.69999871	0.00000000	-69.44512000	-17.40895000
24.89999870	0.00000000	-47.47785000	-18.94685000
25.09999869	0.00000000	-25.79970000	-20.47859000
25.29999867	0.00000000	-9.23351300	-21.59203000
25.49999866	0.00000000	-1.55634800	-21.54897000
25.69999865	-0.15871060	-5.50565900	-20.01722000
25.89999864	0.00000000	-20.54011000	-17.27977000
26.09999863	0.00000000	-43.33784000	-13.79183000
26.29999862	0.00000000	-68.41782000	-9.93479300
26.49999860	0.00000000	-90.05289000	-6.86515700
26.69999859	0.00000000	-103.17420000	-5.37647600
26.89999858	0.00000000	-104.66900000	-6.21924200
27.09999857	0.00000000	-93.90993000	-10.11319000
27.29999856	0.00000000	-73.53592000	-16.29552000
27.49999854	0.00000000	-49.52633000	-23.68356000
27.69999853	0.00000000	-26.67323000	-30.93627000
27.89999852	-0.15871060	-9.33193800	-35.90059000
28.09999851	0.00000000	-2.34375000	-36.65108000
28.29999850	0.00000000	-6.53297200	-33.16314000
28.49999848	0.00000000	-20.44783000	-25.73203000
28.69999847	0.00000000	-41.24631000	-15.27436000
28.89999846	0.00000000	-63.25048000	-3.70939900
29.09999845	0.00000000	-81.49606000	6.27460600
29.29999844	0.00000000	-92.74729000	11.99557000
29.49999843	0.00000000	-94.74654000	11.57726000
29.69999841	0.00000000	-87.81988000	4.56446800
29.89999840	-0.15871060	-73.94807000	-7.75098400
30.09999839	0.00000000	-56.18233000	-22.84695000
30.29999838	0.00000000	-39.14862000	-37.11860000
30.49999837	0.00000000	-25.93504000	-47.93922000
30.69999835	0.00000000	-18.90994000	-52.49754000
30.89999834	0.00000000	-19.27903000	-49.37868000
31.09999833	0.00000000	-26.17495000	-38.97022000
31.29999832	0.00000000	-38.17052000	-23.50517000
31.49999831	0.00000000	-52.04232000	-6.49606300
31.69999829	0.00000000	-64.88066000	8.96899500
31.89999828	0.00000000	-74.18799000	19.33440000
32.09999827	0.00000000	-78.46948000	22.12106000
32.29999826	0.00000000	-76.97465000	17.05832000
32.49999825	0.00000000	-70.41707000	5.43799200
32.69999824	0.00000000	-60.78371000	-11.18356000
32.89999822	0.00000000	-49.94463000	-28.89395000
33.09999821	0.00000000	-40.68036000	-43.62082000
33.29999820	0.00000000	-34.77485000	-52.49754000
33.49999819	0.00000000	-32.86171000	-53.70325000
33.69999818	0.00000000	-35.15010000	-47.15182000
33.89999816	0.00000000	-41.33243000	-34.78716000
34.09999815	0.00000000	-49.39099000	-18.89764000
34.29999814	0.00000000	-57.48031000	-2.73129900
34.49999813	0.00000000	-63.25048000	10.03937000
34.69999812	0.00000000	-65.29897000	16.59695000
34.89999810	0.00000000	-64.17938000	15.89567000
35.09999809	-0.15871060	-60.69144000	8.14468500
35.29999808	-0.15871060	-55.29650000	-4.55216500
35.49999807	0.00000000	-49.52633000	-19.59892000
35.69999806	0.00000000	-44.91880000	-33.07701000
35.89999805	0.00000000	-42.59350000	-41.99680000
36.09999803	0.00000000	-43.38090000	-44.69119000
36.29999802	0.00000000	-46.78272000	-40.50196000
36.49999801	0.00000000	-51.75935000	-30.88705000
36.69999800	0.00000000	-56.36687000	-18.61466000
36.89999799	0.00000000	-59.48573000	-6.68061000
37.09999797	0.00000000	-60.64222000	1.40255900
37.29999796	0.00000000	-59.48573000	4.14000900
37.49999795	0.00000000	-56.40993000	1.07652500
37.69999794	0.00000000	-52.13459000	-6.91437000
37.89999793	0.00000000	-47.52707000	-16.90453000
38.09999791	0.00000000	-43.71309000	-26.10728000
38.29999790	0.00000000	-42.17519000	-32.23425000
38.49999789	0.00000000	-43.28863000	-32.98474000
38.69999788	0.00000000	-46.36442000	-28.42643000
38.89999787	0.00000000	-50.59670000	-20.01722000
39.09999786	0.00000000	-54.87204000	-10.44537000
39.29999784	0.00000000	-58.36614000	-2.77436000
39.49999783	0.00000000	-60.69144000	1.03346500
39.69999782	0.00000000	-61.06668000	-0.54749010
39.89999781	0.00000000	-59.57185000	-7.37573800
40.09999780	0.00000000	-56.82825000	-16.94759000
40.29999778	0.00000000	-53.29109000	-26.19955000
40.49999777	0.00000000	-49.05881000	-33.12008000
40.69999776	0.00000000	-45.20177000	-35.77140000
40.89999775	0.00000000	-42.87032000	-33.07701000
41.09999774	0.00000000	-42.08292000	-25.77510000
41.29999772	0.00000000	-43.28863000	-15.83415000
41.49999771	0.00000000	-46.32135000	-6.26230300
41.69999770	0.00000000	-50.22145000	-0.08612204
41.89999769	0.00000000	-54.09079000	1.53789400
42.09999768	0.00000000	-57.61565000	-1.15034400
42.29999767	0.00000000	-59.90403000	-7.33267600
42.49999765	0.00000000	-60.69144000	-15.74188000
42.69999764	0.00000000	-59.52879000	-23.82505000
42.89999763	0.00000000	-56.87746000	-29.26919000
43.09999762	0.00000000	-53.80167000	-31.63140000
43.29999761	0.00000000	-51.06422000	-30.42569000
43.49999759	0.00000000	-49.10802000	-25.86737000
43.69999758	0.00000000	-47.90231000	-19.36516000
43.89999757	0.00000000	-47.52707000	-13.18282000
44.09999756	0.00000000	-47.90231000	-8.53838500
44.29999755	0.00000000	-48.97269000	-6.17002900
44.49999753	0.00000000	-49.71087000	-6.53912400
44.69999752	0.00000000	-49.39099000	-8.82135800
44.89999751	0.00000000	-49.10802000	-12.67224000
45.09999750	0.00000000	-49.43405000	-16.85531000
45.29999749	0.00000000	-50.26451000	-19.97416000
45.49999748	0.00000000	-51.48252000	-21.59203000
45.69999746	0.00000000	-53.85088000	-21.96727000
45.89999745	-0.15871060	-56.87746000	-21.17372000
46.09999744	0.00000000	-59.57185000	-18.89764000
46.29999743	0.00000000	-61.10974000	-16.25246000
46.49999742	0.00000000	-61.06668000	-14.25320000
46.69999740	0.00000000	-59.01821000	-12.67224000
46.89999739	0.00000000	-54.36761000	-11.55881000
47.09999738	0.00000000	-47.85310000	-11.60187000
47.29999737	0.00000000	-41.70767000	-13.09055000
47.49999736	0.00000000	-37.43233000	-15.40969000
47.69999734	0.00000000	-35.94365000	-17.74114000
47.89999733	0.00000000	-37.89985000	-20.06029000
48.09999732	0.00000000	-43.33784000	-21.54897000
48.29999731	0.00000000	-51.06422000	-21.59203000
48.49999730	0.00000000	-59.57185000	-20.43553000
48.69999729	0.00000000	-66.83685000	-18.47933000
48.89999727	-0.15871060	-70.65083000	-15.74188000
49.09999726	0.00000000	-69.48818000	-12.72146000
49.29999725	0.00000000	-63.76107000	-10.40231000
49.49999724	0.00000000	-55.24729000	-9.60875900
49.69999723	0.00000000	-45.98917000	-10.02707000
49.89999721	0.00000000	-37.89370000	-11.97711000
50.09999720	0.00000000	-33.28617000	-15.45891000
50.29999719	0.00000000	-33.28617000	-19.27288000
50.49999718	0.00000000	-37.89370000	-22.75467000
50.69999717	-0.15871060	-45.98917000	-24.66781000
50.89999715	0.00000000	-55.24729000	-24.71087000
51.09999714	0.00000000	-63.71801000	-23.12992000
51.29999713	0.00000000	-69.02682000	-20.01722000
51.49999712	0.00000000	-69.06988000	-15.78494000
51.69999711	0.00000000	-64.13631000	-11.60187000
51.89999710	0.00000000	-56.45300000	-8.86441900
52.09999708	0.00000000	-47.94537000	-8.07086500
52.29999707	0.00000000	-40.68651000	-8.86441900
52.49999706	0.00000000	-36.82332000	-11.55881000
52.69999705	0.00000000	-37.56767000	-15.36663000
52.89999704	0.00000000	-42.13213000	-18.89764000
53.09999702	0.00000000	-49.05881000	-21.96727000
53.29999701	0.00000000	-56.36687000	-23.86811000
53.49999700	0.00000000	-62.13705000	-23.50517000
53.69999699	0.00000000	-64.83144000	-21.64124000
53.89999698	0.00000000	-63.66880000	-18.89764000
54.09999696	0.00000000	-59.06127000	-15.87721000
54.29999695	0.00000000	-52.22071000	-13.55807000
54.49999694	0.00000000	-45.66929000	-12.76452000
54.69999693	0.00000000	-41.42470000	-13.09670000
54.89999692	0.00000000	-39.84990000	-14.25320000
55.09999691	0.00000000	-41.79995000	-15.78494000
55.29999689	0.00000000	-46.36442000	-17.32283000
55.49999688	0.00000000	-52.13459000	-18.39321000
55.69999687	0.00000000	-57.52953000	-18.01796000
55.89999686	0.00000000	-61.01746000	-16.16018000
56.09999685	0.00000000	-62.18011000	-14.29626000
56.29999683	0.00000000	-60.59916000	-13.13976000
56.49999682	0.00000000	-56.40993000	-13.13976000
56.69999681	0.00000000	-51.06422000	-14.29626000
56.89999680	0.00000000	-46.45054000	-16.25246000
57.09999679	0.00000000	-43.71309000	-18.94685000
57.29999677	0.00000000	-43.28863000	-21.59203000
57.49999676	0.00000000	-44.82652000	-23.08686000
57.69999675	0.00000000	-47.90231000	-22.66855000
57.89999674	0.00000000	-51.75935000	-19.97416000
58.09999673	-0.15871060	-55.20423000	-15.74188000
58.29999672	0.00000000	-57.52953000	-11.14050000
58.49999670	0.00000000	-57.94783000	-7.28346400
58.69999669	0.00000000	-56.82825000	-5.42568800
58.89999668	0.00000000	-54.87204000	-6.17618100
59.09999667	0.00000000	-52.17765000	-9.69488100
59.29999666	0.00000000	-49.52633000	-15.04675000
59.49999664	0.00000000	-47.94537000	-21.22293000
59.69999663	0.00000000	-47.57013000	-26.19955000
59.89999662	0.00000000	-48.27140000	-28.89395000
60.09999661	-0.15871060	-49.80315000	-28.47564000
60.29999660	0.00000000	-50.97194000	-24.66781000
60.49999658	0.00000000	-52.17765000	-18.85458000
60.69999657	0.00000000	-53.24803000	-12.25394000
60.89999656	0.00000000	-53.29109000	-5.75172200
61.09999655	0.00000000	-52.55290000	-1.61786400
61.29999654	0.00000000	-51.80241000	-1.56865100
61.49999653	0.00000000	-51.01501000	-5.42568800
61.69999651	0.00000000	-50.63976000	-11.97711000
61.89999650	0.00000000	-50.63976000	-20.06029000
62.09999649	0.00000000	-51.06422000	-27.31299000
62.29999648	0.00000000	-52.17765000	-31.63140000
62.49999647	0.00000000	-53.29109000	-32.37574000
62.69999645	0.00000000	-53.71555000	-29.71826000
62.89999644	0.00000000	-53.71555000	-23.87426000
63.09999643	0.00000000	-53.29109000	-16.61540000
63.29999642	0.00000000	-52.13459000	-9.23966500
63.49999641	0.00000000	-50.63976000	-3.88779500
63.69999639	0.00000000	-49.48326000	-1.52559000
63.89999638	0.00000000	-49.05881000	-2.68208600
64.09999637	0.00000000	-49.05881000	-6.86515700
64.29999636	0.00000000	-49.48326000	-12.67224000
64.49999635	0.00000000	-50.63976000	-18.85458000
64.69999634	0.00000000	-52.13459000	-24.29257000
64.89999632	0.00000000	-53.29109000	-27.78051000
65.09999631	0.00000000	-53.71555000	-28.93701000
65.29999630	0.00000000	-53.66634000	-27.40526000
65.49999629	0.00000000	-52.92200000	-23.59129000
65.69999628	0.00000000	-51.43332000	-18.94685000
65.89999626	0.00000000	-50.68897000	-14.25320000
66.09999625	0.00000000	-50.63976000	-9.98400600
66.29999624	0.00000000	-51.01501000	-6.91437000
66.49999623	0.00000000	-51.80241000	-5.70866100
66.69999622	0.00000000	-52.55290000	-6.44685000
66.89999620	0.00000000	-53.34030000	-8.40305000
67.09999619	0.00000000	-53.66634000	-11.51575000
67.29999618	0.00000000	-53.29109000	-15.36663000
67.49999617	0.00000000	-52.08538000	-18.85458000
67.69999616	0.00000000	-50.17839000	-21.64124000
67.89999615	0.00000000	-47.90231000	-23.59129000
68.09999613	0.00000000	-46.36442000	-24.79700000
68.29999612	0.00000000	-45.98917000	-25.08612000
68.49999611	0.00000000	-46.82579000	-23.91732000
68.69999610	0.00000000	-49.52633000	-20.81078000
68.89999609	0.00000000	-53.34030000	-16.94759000
69.09999607	0.00000000	-56.82825000	-12.62918000
69.29999606	0.00000000	-59.52879000	-8.44611200
69.49999605	0.00000000	-60.64222000	-5.75172200
69.69999604	0.00000000	-59.48573000	-5.29035400
69.89999603	0.00000000	-56.36687000	-6.48991100
70.09999601	0.00000000	-51.71013000	-9.23966500
70.29999600	0.00000000	-46.36442000	-13.92717000
70.49999599	-0.15871060	-42.13213000	-19.22982000
70.69999598	0.00000000	-40.17593000	-23.91732000
70.89999597	0.00000000	-40.55118000	-26.56865000
71.09999596	0.00000000	-43.28863000	-27.03002000
71.29999594	-0.15871060	-47.94537000	-25.08612000
71.49999593	0.00000000	-53.71555000	-21.59203000
71.69999592	0.00000000	-59.11048000	-16.94759000
71.89999591	0.00000000	-62.59842000	-11.97711000
72.09999590	0.00000000	-63.76107000	-8.48917200
72.29999588	0.00000000	-62.18011000	-6.90821800
72.49999587	0.00000000	-57.99089000	-7.33267600
72.69999586	0.00000000	-52.59596000	-9.98400600
72.89999585	0.00000000	-47.52707000	-13.79183000
73.09999584	0.00000000	-43.24557000	-17.27977000
73.29999582	0.00000000	-40.59424000	-19.97416000
73.49999581	0.00000000	-40.59424000	-21.13066000
73.69999580	0.00000000	-43.24557000	-20.43553000
73.89999579	0.00000000	-47.47785000	-18.94685000
74.09999578	0.00000000	-52.13459000	-17.40895000
74.29999577	0.00000000	-56.36687000	-16.25246000
74.49999575	0.00000000	-59.06127000	-15.82800000
74.69999574	0.00000000	-59.52879000	-15.87721000
74.89999573	0.00000000	-58.36614000	-16.62155000
75.09999572	0.00000000	-56.03469000	-18.11024000
75.29999571	0.00000000	-52.59596000	-18.76845000
75.49999569	0.00000000	-49.52633000	-18.06102000
75.69999568	0.00000000	-47.57013000	-16.16018000
75.89999567	0.00000000	-46.73966000	-14.21014000
76.09999566	0.00000000	-47.10260000	-12.25394000
76.29999565	0.00000000	-47.85310000	-10.40231000
76.49999563	0.00000000	-49.05881000	-10.07013000
76.69999562	0.00000000	-50.55364000	-11.60187000
76.89999561	0.00000000	-51.71013000	-14.67150000
77.09999560	0.00000000	-52.13459000	-18.52854000
77.29999559	0.00000000	-52.17765000	-22.01649000
77.49999558	0.00000000	-52.17765000	-24.71087000
77.69999556	0.00000000	-52.17765000	-25.82431000
77.89999555	-0.15871060	-52.22071000	-24.66166000
78.09999554	0.00000000	-52.59596000	-21.54897000
78.29999553	0.00000000	-53.34030000	-16.94759000
78.49999552	0.00000000	-53.66634000	-11.93405000
78.69999550	0.00000000	-53.34030000	-8.11392700
78.89999549	0.00000000	-52.50984000	-6.12696800
79.09999548	0.00000000	-51.34104000	-6.48991100
79.29999547	0.00000000	-49.39099000	-8.44611200
79.49999546	-0.15871060	-47.52707000	-11.97711000
79.69999544	0.00000000	-46.36442000	-16.94759000
79.89999543	0.00000000	-46.36442000	-21.54897000
80.09999542	0.00000000	-47.52707000	-24.66166000
80.29999541	0.00000000	-49.48326000	-25.82431000
80.49999540	0.00000000	-52.17765000	-24.71087000
80.69999539	0.00000000	-54.82898000	-22.05955000
80.89999537	0.00000000	-56.36687000	-18.94685000
81.09999536	0.00000000	-56.40993000	-15.78494000
81.29999535	0.00000000	-55.24729000	-12.67224000
81.49999534	0.00000000	-53.29109000	-9.98400600
81.69999533	0.00000000	-50.59670000	-8.44611200
81.89999531	0.00000000	-47.94537000	-8.40305000
82.09999530	0.00000000	-46.36442000	-9.55954600
82.29999529	0.00000000	-45.98917000	-11.51575000
82.49999528	0.00000000	-46.73966000	-14.21014000
82.69999527	0.00000000	-48.68356000	-16.94759000
82.89999525	0.00000000	-50.92888000	-19.32210000
83.09999524	0.00000000	-52.92200000	-21.64124000
83.29999523	0.00000000	-54.09079000	-23.17298000
83.49999522	0.00000000	-54.87204000	-23.54823000
83.69999521	0.00000000	-54.82898000	-22.75467000
83.89999520	0.00000000	-53.71555000	-20.43553000
84.09999518	0.00000000	-52.17765000	-17.32283000
84.29999517	0.00000000	-50.68897000	-13.83489000
84.49999516	0.00000000	-49.90157000	-10.35310000
84.69999515	0.00000000	-50.22145000	-8.07086500
84.89999514	0.00000000	-50.55364000	-7.28346400
85.09999512	0.00000000	-50.59670000	-8.48917200
85.29999511	0.00000000	-50.59670000	-11.55881000
85.49999510	0.00000000	-50.59670000	-15.78494000
85.69999509	0.00000000	-50.59670000	-20.06029000
85.89999508	0.00000000	-50.59670000	-23.54823000
86.09999506	0.00000000	-50.63976000	-25.82431000
86.29999505	0.00000000	-51.01501000	-25.77510000
86.49999504	0.00000000	-51.80241000	-23.12992000
86.69999503	0.00000000	-52.55290000	-18.90379000
86.89999502	0.00000000	-53.34030000	-14.25320000
87.09999501	0.00000000	-53.66634000	-10.02707000
87.29999499	0.00000000	-53.34030000	-7.33267600
87.49999498	0.00000000	-52.55290000	-6.90821800
87.69999497	0.00000000	-51.75935000	-8.48917200
87.89999496	0.00000000	-50.55364000	-11.97711000
88.09999495	0.00000000	-49.10802000	-16.94759000
88.29999493	0.00000000	-48.32062000	-21.54897000
88.49999492	0.00000000	-48.68356000	-24.66166000
88.69999491	0.00000000	-49.43405000	-25.78125000
88.89999490	0.00000000	-50.59670000	-24.24335000
89.09999489	0.00000000	-51.75935000	-20.39247000
89.29999487	0.00000000	-52.55290000	-15.41585000
89.49999486	0.00000000	-53.29109000	-10.40231000
89.69999485	0.00000000	-53.29109000	-7.00049200
89.89999484	0.00000000	-52.55290000	-6.17002900
90.09999483	0.00000000	-51.80241000	-8.11392700
90.29999482	0.00000000	-51.01501000	-11.93405000
90.49999480	0.00000000	-50.63976000	-16.94759000
90.69999479	0.00000000	-50.59670000	-21.54897000
90.89999478	0.00000000	-50.59670000	-24.61860000
91.09999477	0.00000000	-50.55364000	-25.35679000
91.29999476	0.00000000	-50.26451000	-23.12992000
91.49999474	0.00000000	-50.22760000	-19.27288000
91.69999473	0.00000000	-50.96579000	-14.99139000
91.89999472	0.00000000	-50.87967000	-10.40231000
92.09999471	0.00000000	-50.26451000	-7.37573800
92.29999470	0.00000000	-49.85236000	-6.95743000
92.49999468	0.00000000	-50.26451000	-8.86441900
92.69999467	0.00000000	-50.97194000	-12.72146000
92.89999466	0.00000000	-51.80241000	-17.32283000
93.09999465	0.00000000	-52.55290000	-21.54897000
93.29999464	0.00000000	-53.34030000	-24.24335000
93.49999463	0.00000000	-53.66634000	-24.61860000
93.69999461	0.00000000	-53.29109000	-22.71161000
93.89999460	0.00000000	-52.13459000	-18.85458000
94.09999459	0.00000000	-50.55364000	-14.30241000
94.29999458	0.00000000	-48.59744000	-10.44537000
94.49999457	0.00000000	-46.32135000	-8.53838500
94.69999455	0.00000000	-44.82652000	-8.86441900
94.89999454	-0.15871060	-44.82652000	-11.18356000
95.09999453	0.00000000	-46.36442000	-14.62844000
95.29999452	0.00000000	-49.05881000	-18.47933000
95.49999451	0.00000000	-52.17765000	-21.54897000
95.69999449	0.00000000	-55.24729000	-23.08686000
95.89999448	0.00000000	-57.52953000	-22.71161000
96.09999447	0.00000000	-57.94783000	-20.39247000
96.29999446	0.00000000	-56.82825000	-16.99065000
96.49999445	0.00000000	-54.82898000	-13.51501000
96.69999444	0.00000000	-51.71013000	-11.22662000
96.89999442	0.00000000	-47.85310000	-10.40231000
97.09999441	0.00000000	-44.40821000	-11.18356000
97.29999440	0.00000000	-42.13213000	-13.09055000
97.49999439	0.00000000	-42.13213000	-15.74188000
97.69999438	0.00000000	-44.40821000	-18.06102000
97.89999436	0.00000000	-47.85310000	-19.22982000
98.09999435	0.00000000	-51.75935000	-19.64198000
98.29999434	0.00000000	-55.24729000	-18.90379000
98.49999433	0.00000000	-57.99089000	-17.78420000
98.69999432	0.00000000	-59.48573000	-16.94759000
98.89999430	0.00000000	-59.11048000	-15.83415000
99.09999429	0.00000000	-56.78519000	-15.04675000
99.29999428	0.00000000	-53.34030000	-14.99139000
99.49999427	0.00000000	-49.43405000	-14.58538000
99.69999426	0.00000000	-45.98917000	-14.25320000
99.89999425	0.00000000	-43.62082000	-14.21014000
100.09999423	0.00000000	-42.87032000	-14.21014000
100.29999422	0.00000000	-43.62082000	-14.21014000
100.49999421	0.00000000	-45.94611000	-14.21014000
100.69999420	0.00000000	-49.01575000	-14.30241000
100.89999419	0.00000000	-52.13459000	-15.08981000
101.09999417	0.00000000	-54.82898000	-16.99065000
101.29999416	0.00000000	-56.40993000	-18.85458000
101.49999415	0.00000000	-56.82825000	-20.06029000
101.69999414	0.00000000	-56.40993000	-20.43553000
101.89999413	0.00000000	-54.87204000	-20.01722000
102.09999411	0.00000000	-52.55290000	-18.43627000
102.29999410	0.00000000	-50.22145000	-15.78494000
102.49999409	0.00000000	-47.90231000	-13.09055000
102.69999408	0.00000000	-46.36442000	-11.14050000
102.89999407	0.00000000	-45.94611000	-9.98400600
103.09999406	0.00000000	-46.32135000	-10.02707000
103.29999404	0.00000000	-47.52707000	-11.55881000
103.49999403	0.00000000	-49.43405000	-14.29626000
103.69999402	0.00000000	-51.75935000	-17.74114000
103.89999401	0.00000000	-53.66634000	-21.17372000
104.09999400	0.00000000	-54.82898000	-23.03765000
104.29999398	0.00000000	-54.87204000	-22.71161000
104.49999397	0.00000000	-54.13385000	-20.43553000
104.69999396	0.00000000	-53.29109000	-17.41511000
104.89999395	0.00000000	-51.75935000	-14.67150000
105.09999394	0.00000000	-49.85236000	-12.67224000
105.29999392	0.00000000	-48.68356000	-11.14050000
105.49999391	0.00000000	-47.90231000	-10.44537000
105.69999390	0.00000000	-47.94537000	-11.60187000
105.89999389	0.00000000	-49.05881000	-14.21014000
106.09999388	0.00000000	-50.55364000	-16.90453000
106.29999387	0.00000000	-51.75935000	-18.85458000
106.49999385	0.00000000	-52.50984000	-20.01722000
106.69999384	0.00000000	-52.92200000	-20.01722000
106.89999383	0.00000000	-52.50984000	-18.90379000
107.09999382	0.00000000	-51.75935000	-17.36589000
107.29999381	0.00000000	-50.59670000	-15.78494000
107.49999379	0.00000000	-49.48326000	-14.25320000
107.69999378	0.00000000	-49.05881000	-13.13976000
107.89999377	0.00000000	-49.05881000	-13.13976000
108.09999376	0.00000000	-49.48326000	-14.25320000
108.29999375	0.00000000	-50.59670000	-15.78494000
108.49999374	0.00000000	-51.75935000	-17.32283000
108.69999372	0.00000000	-52.50984000	-18.47933000
108.89999371	0.00000000	-52.92200000	-18.85458000
109.09999370	0.00000000	-52.50984000	-18.47933000
109.29999369	0.00000000	-51.75935000	-17.32283000
109.49999368	-0.15871060	-50.59670000	-15.78494000
109.69999366	0.00000000	-49.43405000	-14.25320000
109.89999365	0.00000000	-48.68356000	-13.09670000
110.09999364	0.00000000	-48.27140000	-12.72146000
110.29999363	0.00000000	-48.68356000	-13.09670000
110.49999362	0.00000000	-49.39099000	-14.25320000
110.69999360	0.00000000	-50.22145000	-15.78494000
110.89999359	0.00000000	-50.97194000	-17.32283000
111.09999358	0.00000000	-51.75935000	-18.47933000
111.29999357	0.00000000	-52.08538000	-18.90379000
111.49999356	0.00000000	-51.80241000	-18.94685000
111.69999355	0.00000000	-51.39025000	-18.85458000
111.89999353	0.00000000	-51.38410000	-18.06102000
112.09999352	0.00000000	-50.97194000	-16.20325000
112.29999351	0.00000000	-50.59670000	-14.72072000
112.49999350	0.00000000	-50.17839000	-14.25320000
112.69999349	0.00000000	-49.43405000	-14.21014000
112.89999347	0.00000000	-49.10802000	-14.21014000
113.09999346	0.00000000	-49.43405000	-14.25320000
113.29999345	0.00000000	-50.17839000	-14.62844000
113.49999344	0.00000000	-50.55364000	-15.36663000
113.69999343	0.00000000	-50.59670000	-15.78494000
113.89999341	0.00000000	-50.59670000	-16.20325000
114.09999340	0.00000000	-50.59670000	-16.94759000
114.29999339	0.00000000	-50.63976000	-17.32283000
114.49999338	0.00000000	-50.97194000	-17.36589000
114.69999337	0.00000000	-51.38410000	-17.36589000
114.89999336	0.00000000	-51.34719000	-17.36589000
115.09999334	0.00000000	-51.38410000	-17.36589000
115.29999333	0.00000000	-50.97194000	-17.32283000
115.49999332	0.00000000	-50.59670000	-16.94759000
115.69999331	0.00000000	-50.22145000	-16.16018000
115.89999330	0.00000000	-49.85236000	-15.40969000
116.09999328	0.00000000	-50.22145000	-14.58538000
116.29999327	0.00000000	-50.59670000	-13.87795000
116.49999326	0.00000000	-50.97194000	-13.46580000
116.69999325	0.00000000	-51.34104000	-13.87795000
116.89999324	0.00000000	-50.97194000	-14.62844000
117.09999322	0.00000000	-50.63976000	-15.78494000
117.29999321	0.00000000	-50.55364000	-16.89837000
117.49999320	0.00000000	-50.17839000	-17.36589000
117.69999319	0.00000000	-49.43405000	-17.74114000
117.89999318	0.00000000	-49.05881000	-18.11024000
118.09999317	0.00000000	-49.01575000	-17.69808000
118.29999315	0.00000000	-49.05881000	-16.99065000
118.49999314	0.00000000	-49.48326000	-16.16018000
118.69999313	0.00000000	-50.59670000	-15.40969000
118.89999312	0.00000000	-51.75935000	-14.58538000
119.09999311	0.00000000	-52.55290000	-13.83489000
119.29999309	0.00000000	-53.29109000	-13.09670000
119.49999308	0.00000000	-53.24803000	-13.09670000
119.69999307	0.00000000	-52.13459000	-13.83489000
119.89999306	0.00000000	-50.59670000	-14.58538000
120.09999305	0.00000000	-49.05881000	-15.36663000
120.29999303	0.00000000	-47.90231000	-15.78494000
120.49999302	0.00000000	-47.47785000	-16.20325000
120.69999301	0.00000000	-47.47785000	-16.94759000
120.89999300	0.00000000	-47.90231000	-17.32283000
121.09999299	0.00000000	-49.05881000	-17.32283000
121.29999298	0.00000000	-50.55364000	-16.94759000
121.49999296	0.00000000	-51.75935000	-16.20325000
121.69999295	0.00000000	-52.55290000	-15.82800000
121.89999294	0.00000000	-53.34030000	-15.78494000
122.09999293	-0.15871060	-53.66634000	-15.78494000
122.29999292	0.00000000	-53.29109000	-15.74188000
122.49999290	0.00000000	-52.17765000	-15.40969000
122.69999289	0.00000000	-51.01501000	-15.00369000
122.89999288	0.00000000	-50.17839000	-15.04060000
123.09999287	0.00000000	-49.01575000	-15.00369000
123.29999286	0.00000000	-47.90231000	-15.40969000
123.49999284	0.00000000	-47.47785000	-15.74188000
123.69999283	0.00000000	-47.52707000	-15.82800000
123.89999282	0.00000000	-48.27140000	-16.20325000
124.09999281	0.00000000	-49.80315000	-16.89837000
124.29999280	0.00000000	-50.92888000	-16.94759000
124.49999279	0.00000000	-51.75935000	-16.57849000
124.69999277	0.00000000	-52.13459000	-16.57234000
124.89999276	0.00000000	-52.17765000	-16.16018000
125.09999275	0.00000000	-52.17765000	-15.78494000
125.29999274	0.00000000	-52.13459000	-15.36663000
125.49999273	0.00000000	-51.71013000	-14.62844000
125.69999271	0.00000000	-50.59670000	-14.25320000
125.89999270	0.00000000	-49.43405000	-14.21014000
126.09999269	0.00000000	-48.64050000	-14.21014000
126.29999268	0.00000000	-47.85310000	-14.25320000
126.49999267	0.00000000	-47.52707000	-14.62844000
126.69999265	0.00000000	-47.85310000	-15.36663000
126.89999264	0.00000000	-48.64050000	-15.74188000
127.09999263	-0.15871060	-49.43405000	-15.82800000
127.29999262	0.00000000	-50.59670000	-16.16018000
127.49999261	0.00000000	-51.71013000	-16.52928000
127.69999260	0.00000000	-52.08538000	-16.20325000
127.89999258	0.00000000	-51.80241000	-16.16018000
128.09999257	0.00000000	-51.39025000	-16.11097000
128.29999256	0.00000000	-51.34104000	-15.00369000
128.49999255	0.00000000	-50.50443000	-14.30241000
128.69999254	0.00000000	-49.05881000	-14.25320000
128.89999252	0.00000000	-47.90231000	-14.62844000
129.09999251	0.00000000	-47.52707000	-15.36663000
129.29999250	0.00000000	-47.90231000	-15.74188000
129.49999249	0.00000000	-49.05881000	-15.78494000
129.69999248	0.00000000	-50.55364000	-15.78494000
129.89999246	0.00000000	-51.71013000	-15.78494000
130.09999245	0.00000000	-52.13459000	-15.78494000
130.29999244	0.00000000	-52.17765000	-15.78494000
130.49999243	-0.15871060	-52.13459000	-15.78494000
130.69999242	0.00000000	-51.71013000	-15.78494000
130.89999241	0.00000000	-50.59670000	-15.78494000
131.09999239	0.00000000	-49.48326000	-15.78494000
131.29999238	0.00000000	-49.05881000	-15.78494000
131.49999237	0.00000000	-49.01575000	-15.82800000
131.69999236	0.00000000	-49.01575000	-16.20325000
131.89999235	0.00000000	-49.05881000	-16.94759000
132.09999233	0.00000000	-49.43405000	-17.32283000
132.29999232	0.00000000	-50.17839000	-17.36589000
132.49999231	0.00000000	-50.55364000	-17.32283000
132.69999230	0.00000000	-50.59670000	-16.94759000
132.89999229	0.00000000	-50.59670000	-16.16018000
133.09999227	0.00000000	-50.59670000	-15.40969000
133.29999226	0.00000000	-50.59670000	-14.62844000
133.49999225	0.00000000	-50.59670000	-14.25320000
133.69999224	0.00000000	-50.59670000	-14.25320000
133.89999223	0.00000000	-50.59670000	-14.62844000
134.09999222	0.00000000	-50.59670000	-15.36663000
134.29999220	0.00000000	-50.55364000	-15.78494000
134.49999219	0.00000000	-50.17839000	-16.20325000
134.69999218	0.00000000	-49.43405000	-16.94759000
134.89999217	0.00000000	-49.05881000	-17.32283000
135.09999216	0.00000000	-49.01575000	-17.36589000
135.29999214	0.00000000	-49.05881000	-17.32283000
135.49999213	0.00000000	-49.43405000	-16.89837000
135.69999212	0.00000000	-50.17839000	-15.78494000
135.89999211	0.00000000	-50.55364000	-14.67150000
136.09999210	0.00000000	-50.63976000	-14.25320000
136.29999208	0.00000000	-51.01501000	-14.21014000
136.49999207	0.00000000	-51.71013000	-14.21014000
136.69999206	0.00000000	-51.71013000	-14.25320000
136.89999205	0.00000000	-50.97194000	-14.62844000
137.09999204	0.00000000	-50.22145000	-15.40969000
137.29999203	0.00000000	-49.43405000	-16.16018000
137.49999201	0.00000000	-49.05881000	-16.94759000
137.69999200	0.00000000	-49.01575000	-17.32283000
137.89999199	0.00000000	-49.01575000	-17.36589000
138.09999198	0.00000000	-49.05881000	-17.32283000
138.29999197	0.00000000	-49.43405000	-16.94759000
138.49999195	0.00000000	-50.17839000	-16.16018000
138.69999194	0.00000000	-50.55364000	-15.40969000
138.89999193	0.00000000	-50.59670000	-14.62844000
139.09999192	0.00000000	-50.59670000	-14.25320000
139.29999191	0.00000000	-50.55364000	-14.21014000
139.49999189	0.00000000	-50.17839000	-14.21014000
139.69999188	0.00000000	-49.43405000	-14.25320000
139.89999187	0.00000000	-49.05881000	-14.62844000
140.09999186	0.00000000	-49.01575000	-15.36663000
140.29999185	0.00000000	-49.01575000	-15.78494000
140.49999184	0.00000000	-49.05881000	-16.20325000
140.69999182	0.00000000	-49.43405000	-16.94759000
140.89999181	-0.15871060	-50.17839000	-17.32283000
141.09999180	0.00000000	-50.55364000	-17.32283000
141.29999179	0.00000000	-50.59670000	-16.94759000
141.49999178	0.00000000	-50.59670000	-16.16018000
141.69999176	0.00000000	-50.55364000	-15.40969000
141.89999175	0.00000000	-50.17839000	-14.62844000
142.09999174	0.00000000	-49.43405000	-14.25320000
142.29999173	0.00000000	-49.05881000	-14.21014000
142.49999172	0.00000000	-49.01575000	-14.25320000
142.69999170	0.00000000	-49.05881000	-14.62844000
142.89999169	0.00000000	-49.43405000	-15.40969000
143.09999168	0.00000000	-50.17839000	-16.16018000
143.29999167	0.00000000	-50.55364000	-16.94759000
143.49999166	0.00000000	-50.59670000	-17.32283000
143.69999165	0.00000000	-50.59670000	-17.32283000
143.89999163	0.00000000	-50.55364000	-16.94759000
144.09999162	0.00000000	-50.17839000	-16.16018000
144.29999161	0.00000000	-49.43405000	-15.40969000
144.49999160	0.00000000	-49.05881000	-14.62844000
144.69999159	0.00000000	-49.01575000	-14.25320000
144.89999157	0.00000000	-49.05881000	-14.25320000
145.09999156	0.00000000	-49.43405000	-14.62844000
145.29999155	0.00000000	-50.17839000	-15.36663000
145.49999154	0.00000000	-50.55364000	-15.74188000
145.69999153	0.00000000	-50.59670000	-15.82800000
145.89999151	0.00000000	-50.59670000	-16.20325000
146.09999150	0.00000000	-50.59670000	-16.94759000
146.29999149	0.00000000	-50.59670000	-17.27362000
146.49999148	-0.15871060	-50.59670000	-16.94759000
146.69999147	0.00000000	-50.55364000	-16.20325000
146.89999146	0.00000000	-50.17839000	-15.78494000
147.09999144	0.00000000	-49.43405000	-15.36663000
147.29999143	0.00000000	-49.05881000	-14.62844000
147.49999142	0.00000000	-49.05881000	-14.25320000
147.69999141	0.00000000	-49.43405000	-14.21014000
147.89999140	0.00000000	-50.17839000	-14.25320000
148.09999138	0.00000000	-50.55364000	-14.62844000
148.29999137	0.00000000	-50.59670000	-15.36663000
148.49999136	0.00000000	-50.59670000	-15.74188000
148.69999135	0.00000000	-50.59670000	-15.78494000
148.89999134	0.00000000	-50.55364000	-15.78494000
149.09999132	0.00000000	-50.17839000	-15.78494000
149.29999131	0.00000000	-49.43405000	-15.78494000
149.49999130	0.00000000	-49.05881000	-15.78494000
149.69999129	0.00000000	-49.01575000	-15.74188000
149.89999128	0.00000000	-49.01575000	-15.36663000
150.09999127	0.00000000	-49.01575000	-14.62844000
150.29999125	0.00000000	-49.05881000	-14.25320000
150.49999124	0.00000000	-49.43405000	-14.21014000
150.69999123	0.00000000	-50.17839000	-14.25320000
150.89999122	0.00000000	-50.55364000	-14.62844000
151.09999121	0.00000000	-50.59670000	-15.36663000
151.29999119	0.00000000	-50.59670000	-15.74188000
151.49999118	0.00000000	-50.59670000	-15.78494000
151.69999117	0.00000000	-50.55364000	-15.78494000
151.89999116	0.00000000	-50.17839000	-15.78494000
152.09999115	0.00000000	-49.43405000	-15.78494000
152.29999113	0.00000000	-49.05881000	-15.78494000
152.49999112	0.00000000	-49.01575000	-15.78494000
152.69999111	0.00000000	-49.01575000	-15.78494000
152.89999110	0.00000000	-49.01575000	-15.78494000
153.09999109	0.00000000	-49.01575000	-15.78494000
153.29999108	0.00000000	-49.05881000	-15.74188000
153.49999106	0.00000000	-49.43405000	-15.36663000
153.69999105	0.00000000	-50.17839000	-14.62844000
153.89999104	0.00000000	-50.55364000	-14.25320000
154.09999103	0.00000000	-50.59670000	-14.25320000
154.29999102	0.00000000	-50.59670000	-14.62844000
154.49999100	0.00000000	-50.59670000	-15.36663000
154.69999099	0.00000000	-50.55364000	-15.74188000
154.89999098	0.00000000	-50.17839000	-15.78494000
155.09999097	0.00000000	-49.43405000	-15.78494000
155.29999096	0.00000000	-49.05881000	-15.82800000
155.49999094	0.00000000	-49.01575000	-16.16018000
155.69999093	0.00000000	-49.01575000	-16.52928000
155.89999092	0.00000000	-49.05881000	-16.11712000
156.09999091	0.00000000	-49.43405000	-15.40969000
156.29999090	0.00000000	-50.17839000	-14.62844000
156.49999089	0.00000000	-50.55364000	-14.25320000
156.69999087	0.00000000	-50.59670000	-14.21014000
156.89999086	0.00000000	-50.59670000	-14.25320000
157.09999085	0.00000000	-50.59670000	-14.62844000
157.29999084	0.00000000	-50.59670000	-15.36663000
157.49999083	0.00000000	-50.55364000	-15.74188000
157.69999081	0.00000000	-50.17839000	-15.78494000
157.89999080	0.00000000	-49.43405000	-15.78494000
158.09999079	0.00000000	-49.05881000	-15.78494000
158.29999078	0.00000000	-49.01575000	-15.78494000
158.49999077	0.00000000	-49.01575000	-15.78494000
158.69999075	0.00000000	-49.01575000	-15.78494000
158.89999074	0.00000000	-49.05881000	-15.74188000
159.09999073	0.00000000	-49.43405000	-15.36663000
159.29999072	0.00000000	-50.17839000	-14.62844000
159.49999071	0.00000000	-50.55364000	-14.25320000
159.69999070	0.00000000	-50.59670000	-14.21014000
159.89999068	0.00000000	-50.59670000	-14.25320000
160.09999067	0.00000000	-50.59670000	-14.62844000
160.29999066	0.00000000	-50.55364000	-15.36663000
160.49999065	0.00000000	-50.22145000	-15.74188000
160.69999064	0.00000000	-49.85236000	-15.82800000
160.89999062	0.00000000	-50.17839000	-16.16018000
161.09999061	0.00000000	-50.12918000	-16.52928000
161.29999060	0.00000000	-49.43405000	-16.16018000
161.49999059	0.00000000	-49.05881000	-15.82800000
161.69999058	0.00000000	-49.01575000	-15.78494000
161.89999056	0.00000000	-49.01575000	-15.78494000
162.09999055	0.00000000	-49.01575000	-15.74188000
162.29999054	0.00000000	-49.01575000	-15.36663000
162.49999053	0.00000000	-49.01575000	-14.67150000
162.69999052	0.00000000	-49.05881000	-14.67150000
162.89999051	0.00000000	-49.43405000	-15.36663000
163.09999049	0.00000000	-50.17839000	-15.74188000
163.29999048	0.00000000	-50.55364000	-15.78494000
163.49999047	0.00000000	-50.59670000	-15.78494000
163.69999046	0.00000000	-50.59670000	-15.78494000
163.89999045	0.00000000	-50.55364000	-15.78494000
164.09999043	0.00000000	-50.17839000	-15.78494000
164.29999042	0.00000000	-49.43405000	-15.78494000
164.49999041	0.00000000	-49.05881000	-15.78494000
164.69999040	0.00000000	-49.01575000	-15.78494000
164.89999039	0.00000000	-49.01575000	-15.78494000
165.09999037	0.00000000	-49.01575000	-15.78494000
165.29999036	0.00000000	-49.01575000	-15.78494000
165.49999035	0.00000000	-49.05881000	-15.78494000
165.69999034	0.00000000	-49.43405000	-15.78494000
165.89999033	0.00000000	-50.17839000	-15.78494000
166.09999032	0.00000000	-50.55364000	-15.78494000
166.29999030	0.00000000	-50.59670000	-15.78494000
166.49999029	0.00000000	-50.55364000	-15.78494000
166.69999028	0.00000000	-50.17839000	-15.78494000
166.89999027	0.00000000	-49.43405000	-15.78494000
167.09999026	0.00000000	-49.05881000	-15.78494000
167.29999024	0.00000000	-49.01575000	-15.78494000
167.49999023	0.00000000	-49.01575000	-15.78494000
167.69999022	0.00000000	-49.01575000	-15.78494000
167.89999021	0.00000000	-49.01575000	-15.78494000
168.09999020	0.00000000	-49.01575000	-15.78494000
168.29999018	0.00000000	-49.01575000	-15.78494000
168.49999017	0.00000000	-49.01575000	-15.78494000
168.69999016	0.00000000	-49.01575000	-15.78494000
168.89999015	0.00000000	-49.01575000	-15.78494000
169.09999014	0.00000000	-49.05881000	-15.78494000
169.29999013	0.00000000	-49.39099000	-15.78494000
169.49999011	0.00000000	-49.80315000	-15.78494000
169.69999010	0.00000000	-49.76624000	-15.78494000
169.89999009	-0.15871060	-49.80315000	-15.78494000
170.09999008	0.00000000	-49.39099000	-15.78494000
170.29999007	0.00000000	-49.05881000	-15.78494000
170.49999005	0.00000000	-49.01575000	-15.78494000
170.69999004	0.00000000	-49.01575000	-15.78494000
170.89999003	0.00000000	-49.01575000	-15.78494000
171.09999002	0.00000000	-49.01575000	-15.78494000
171.29999001	0.00000000	-49.01575000	-15.78494000
171.49998999	0.00000000	-49.01575000	-15.78494000
171.69998998	0.00000000	-49.01575000	-15.78494000
171.89998997	0.00000000	-49.01575000	-15.78494000
172.09998996	0.00000000	-49.01575000	-15.78494000
172.29998995	0.00000000	-49.01575000	-15.78494000
172.49998994	0.00000000	-49.01575000	-15.74188000
172.69998992	0.00000000	-49.01575000	-15.40969000
172.89998991	-0.15871060	-49.01575000	-15.04675000
173.09998990	0.00000000	-49.01575000	-15.40969000
173.29998989	0.00000000	-49.01575000	-15.74188000
173.49998988	0.00000000	-49.01575000	-15.78494000
173.69998986	0.00000000	-49.01575000	-15.78494000
173.89998985	0.00000000	-49.01575000	-15.78494000
174.09998984	0.00000000	-49.01575000	-15.74188000
174.29998983	0.00000000	-49.01575000	-15.40969000
174.49998982	0.00000000	-49.01575000	-15.04675000
174.69998980	0.00000000	-49.01575000	-15.40969000
174.89998979	0.00000000	-49.01575000	-15.74188000
175.09998978	0.00000000	-49.01575000	-15.78494000
175.29998977	0.00000000	-49.01575000	-15.78494000
175.49998976	0.00000000	-49.01575000	-15.78494000
175.69998975	-0.15871060	-49.01575000	-15.78494000
175.89998973	0.00000000	-49.01575000	-15.78494000
176.09998972	0.00000000	-49.01575000	-15.78494000
176.29998971	0.00000000	-49.01575000	-15.78494000
176.49998970	0.00000000	-49.01575000	-15.78494000
176.69998969	0.00000000	-49.01575000	-15.78494000
176.89998967	0.00000000	-49.01575000	-15.78494000
177.09998966	0.00000000	-48.97269000	-15.78494000
177.29998965	0.00000000	-48.68356000	-15.74188000
177.49998964	0.00000000	-48.64665000	-15.40969000
177.69998963	0.00000000	-49.38484000	-15.04675000
177.89998961	0.00000000	-49.34793000	-15.40969000
178.09998960	0.00000000	-49.05881000	-15.74188000
178.29998959	0.00000000	-49.01575000	-15.78494000
178.49998958	0.00000000	-49.01575000	-15.78494000
178.69998957	0.00000000	-49.01575000	-15.78494000
178.89998956	0.00000000	-49.01575000	-15.78494000
179.09998954	0.00000000	-49.01575000	-15.78494000
179.29998953	0.00000000	-49.01575000	-15.78494000
179.49998952	0.00000000	-49.01575000	-15.78494000
179.69998951	0.00000000	-49.01575000	-15.78494000
179.89998950	0.00000000	-49.01575000	-15.78494000
180.09998948	0.00000000	-49.01575000	-15.78494000
180.29998947	0.00000000	-49.01575000	-15.78494000
180.49998946	0.00000000	-49.01575000	-15.78494000
180.69998945	0.00000000	-49.01575000	-15.78494000
180.89998944	0.00000000	-49.01575000	-15.78494000
181.09998942	0.00000000	-49.01575000	-15.78494000
181.29998941	0.00000000	-49.01575000	-15.74188000
181.49998940	0.00000000	-49.01575000	-15.36663000
181.69998939	0.00000000	-49.01575000	-14.67150000
181.89998938	0.00000000	-49.01575000	-14.62844000
182.09998937	0.00000000	-49.01575000	-14.99139000
182.29998935	0.00000000	-49.01575000	-15.00369000
182.49998934	0.00000000	-49.01575000	-15.40969000
182.69998933	0.00000000	-49.01575000	-15.74188000
182.89998932	0.00000000	-49.01575000	-15.78494000
183.09998931	0.00000000	-49.01575000	-15.78494000
183.29998929	0.00000000	-49.01575000	-15.78494000
183.49998928	0.00000000	-49.01575000	-15.78494000
183.69998927	0.00000000	-49.01575000	-15.78494000
183.89998926	0.00000000	-49.01575000	-15.74188000
184.09998925	0.00000000	-49.01575000	-15.36663000
184.29998923	0.00000000	-49.01575000	-14.62844000
184.49998922	0.00000000	-49.01575000	-14.30241000
184.69998921	0.00000000	-49.01575000	-14.58538000
184.89998920	0.00000000	-49.01575000	-14.94833000
185.09998919	0.00000000	-49.01575000	-14.62844000
185.29998918	0.00000000	-49.01575000	-14.67150000
185.49998916	0.00000000	-49.01575000	-15.36663000
185.69998915	0.00000000	-49.01575000	-15.74188000
185.89998914	0.00000000	-49.01575000	-15.78494000
186.09998913	0.00000000	-49.01575000	-15.78494000
186.29998912	0.00000000	-49.01575000	-15.78494000
186.49998910	0.00000000	-49.01575000	-15.78494000
186.69998909	0.00000000	-49.01575000	-15.74188000
186.89998908	0.00000000	-49.01575000	-15.36663000
187.09998907	0.00000000	-49.01575000	-14.62844000
187.29998906	0.00000000	-49.01575000	-14.25320000
187.49998904	0.00000000	-49.01575000	-14.21014000
187.69998903	0.00000000	-49.05881000	-14.21014000
187.89998902	0.00000000	-49.34793000	-14.25320000
188.09998901	0.00000000	-49.38484000	-14.62844000
188.29998900	0.00000000	-48.64665000	-15.36663000
188.49998899	0.00000000	-48.68356000	-15.74188000
188.69998897	0.00000000	-48.97269000	-15.78494000
188.89998896	0.00000000	-49.01575000	-15.78494000
189.09998895	0.00000000	-49.01575000	-15.78494000
189.29998894	0.00000000	-49.01575000	-15.78494000
189.49998893	0.00000000	-49.01575000	-15.74188000
189.69998891	0.00000000	-49.01575000	-15.36663000
189.89998890	0.00000000	-49.01575000	-14.67150000
190.09998889	0.00000000	-49.01575000	-14.62844000
190.29998888	0.00000000	-49.01575000	-14.94833000
190.49998887	0.00000000	-49.01575000	-14.62844000
190.69998885	0.00000000	-49.01575000	-14.62844000
190.89998884	0.00000000	-49.01575000	-14.94833000
191.09998883	0.00000000	-49.01575000	-14.58538000
191.29998882	0.00000000	-49.01575000	-14.30241000
191.49998881	0.00000000	-49.01575000	-14.62844000
191.69998880	0.00000000	-49.01575000	-15.36663000
191.89998878	0.00000000	-49.01575000	-15.74188000
192.09998877	0.00000000	-49.01575000	-15.78494000
192.29998876	0.00000000	-49.01575000	-15.78494000
192.49998875	0.00000000	-49.01575000	-15.78494000
192.69998874	0.00000000	-49.01575000	-15.78494000
192.89998872	0.00000000	-49.01575000	-15.78494000
193.09998871	0.00000000	-49.01575000	-15.74188000
193.29998870	0.00000000	-49.01575000	-15.36663000
193.49998869	0.00000000	-49.01575000	-14.62844000
193.69998868	-0.15871060	-49.01575000	-14.25320000
193.89998866	0.00000000	-49.01575000	-14.21014000
194.09998865	0.00000000	-49.01575000	-14.21014000
194.29998864	0.00000000	-49.01575000	-14.25320000
194.49998863	0.00000000	-49.01575000	-14.62844000
194.69998862	0.00000000	-49.01575000	-15.36663000
194.89998861	0.00000000	-49.01575000	-15.74188000
195.09998859	0.00000000	-49.01575000	-15.78494000
195.29998858	0.00000000	-49.01575000	-15.74188000
195.49998857	0.00000000	-49.05881000	-15.40969000
195.69998856	0.00000000	-49.39099000	-15.04675000
195.89998855	0.00000000	-49.76009000	-15.40969000
196.09998853	0.00000000	-49.39099000	-15.74188000
