Time	Channel A	Channel B	Channel C
(us)	(V)	(mV)	(mV)

-4.59999956	0.00000000	-79.06004000	-30.00123000
-4.39999957	0.00000000	-79.06004000	-30.00123000
-4.19999958	0.00000000	-79.06004000	-30.00123000
-3.99999959	0.00000000	-79.06004000	-30.00123000
-3.79999960	0.00000000	-79.06004000	-30.00123000
-3.59999962	0.00000000	-79.06004000	-30.00123000
-3.39999963	0.00000000	-79.06004000	-30.00123000
-3.19999964	0.00000000	-79.06004000	-30.00123000
-2.99999965	0.00000000	-79.06004000	-30.00123000
-2.79999966	0.00000000	-79.06004000	-30.00123000
-2.59999968	0.00000000	-79.06004000	-30.00123000
-2.39999969	0.00000000	-79.06004000	-30.00123000
-2.19999970	0.00000000	-79.06004000	-30.00123000
-1.99999971	0.00000000	-79.06004000	-30.00123000
-1.79999972	0.00000000	-79.06004000	-30.00123000
-1.59999973	0.00000000	-79.06004000	-30.00123000
-1.39999975	0.00000000	-79.06004000	-30.00123000
-1.19999976	0.00000000	-79.06004000	-30.00123000
-0.99999977	0.00000000	-79.06004000	-29.95817000
-0.79999978	0.00000000	-79.06004000	-29.62598000
-0.59999979	0.00000000	-79.06004000	-29.21383000
-0.39999981	0.00000000	-79.06004000	-29.25074000
-0.19999982	0.31803640	-79.06004000	-29.21383000
0.00000017	0.79601380	-79.06004000	-29.62598000
0.20000016	0.95533960	-79.06004000	-29.95817000
0.40000015	0.95533960	-79.06004000	-30.00123000
0.60000013	0.63668800	-79.06004000	-30.00123000
0.80000012	0.15871060	-79.06004000	-30.00123000
1.00000011	-0.79601380	-79.06004000	-30.00123000
1.20000010	-1.75196900	-79.06004000	-30.00123000
1.40000009	-2.54859700	-79.06004000	-29.95817000
1.60000008	-2.86724900	-79.06004000	-29.58292000
1.80000006	-2.22994600	-79.06004000	-28.88779000
2.00000005	-0.95533960	-79.06004000	-28.83858000
2.20000004	1.11466500	-79.06004000	-29.20767000
2.40000003	3.18590100	-79.06004000	-29.21383000
2.60000002	4.77854300	-79.06004000	-29.62598000
2.80000000	5.25652100	-79.06004000	-29.95817000
2.99999999	4.45989200	-79.06004000	-30.00123000
3.19999998	2.07062000	-79.06004000	-30.00123000
3.39999997	-1.11466500	-79.06004000	-30.00123000
3.59999996	-4.45989200	-79.06004000	-29.95817000
3.79999994	-7.00848900	-79.06004000	-29.58292000
3.99999993	-7.96444400	-79.06004000	-28.83858000
4.19999992	-7.00848900	-79.06004000	-28.46333000
4.39999991	-3.98191400	-79.06004000	-28.42027000
4.59999990	0.00000000	-79.06004000	-28.42027000
4.79999989	4.45989200	-79.06004000	-28.46333000
4.99999987	7.96444400	-79.06004000	-28.83858000
5.19999986	9.39837600	-79.06004000	-29.58292000
5.39999985	8.60174700	-79.06004000	-29.95817000
5.59999984	5.57517200	-79.06004000	-30.00123000
5.79999983	1.11466500	-79.06004000	-30.00123000
5.99999981	-3.66326300	-79.06004000	-30.00123000
6.19999980	-7.48646600	-79.06004000	-29.95817000
6.39999979	-9.39837600	-79.06004000	-29.58292000
6.59999978	-8.92039900	-79.06004000	-28.83858000
6.79999977	-6.37180100	-79.06004000	-28.46333000
6.99999975	-2.22994600	-79.06004000	-28.42027000
7.19999974	2.07062000	-79.06004000	-28.46333000
7.39999973	5.73449800	-79.06004000	-28.83858000
7.59999972	7.48646600	-79.06004000	-29.58292000
7.79999971	7.48646600	-79.06004000	-29.95817000
7.99999970	5.57517200	-79.06004000	-30.00123000
8.19999968	2.54859700	-79.06004000	-30.00123000
8.39999967	-0.79601380	-79.06004000	-30.00123000
8.59999966	-3.50393700	-79.06004000	-30.00123000
8.79999965	-4.93786900	-79.06004000	-30.00123000
8.99999964	-5.09719500	-79.06004000	-30.00123000
9.19999962	-3.98191400	-79.06004000	-30.00123000
9.39999961	-2.22994600	-79.06004000	-30.00123000
9.59999960	-0.15871060	-79.06004000	-30.00123000
9.79999959	1.43331700	-79.06004000	-30.00123000
9.99999958	2.38927200	-79.06004000	-30.00123000
10.19999956	2.54859700	-79.06004000	-30.00123000
10.39999955	2.07062000	-79.06004000	-30.00123000
10.59999954	1.11466500	-79.06004000	-30.00123000
10.79999953	0.31803640	-79.06004000	-30.00123000
10.99999952	-0.47736220	-79.06004000	-30.00123000
11.19999951	-0.79601380	-79.06004000	-30.00123000
11.39999949	-0.95533960	-79.06004000	-30.00123000
11.59999948	-0.95533960	-79.06004000	-30.00123000
11.79999947	-0.63668800	-79.06004000	-30.00123000
11.99999946	-0.31803640	-79.06004000	-30.00123000
12.19999945	-0.15871060	-79.06004000	-30.00123000
12.39999943	-0.15871060	-79.06004000	-30.00123000
12.59999942	-0.15871060	-79.06004000	-30.00123000
12.79999941	0.00000000	-79.06004000	-30.00123000
12.99999940	0.00000000	-79.06004000	-30.00123000
13.19999939	0.00000000	-79.06004000	-30.00123000
13.39999937	0.00000000	-79.06004000	-30.00123000
13.59999936	0.00000000	-79.06004000	-30.00123000
13.79999935	0.00000000	-79.06004000	-30.00123000
13.99999934	-0.15871060	-79.06004000	-29.95817000
14.19999933	-0.15871060	-79.06004000	-29.62598000
14.39999932	-0.15871060	-79.06004000	-29.25689000
14.59999930	-0.15871060	-79.06004000	-29.58292000
14.79999929	-0.15871060	-79.06004000	-29.53371000
14.99999928	0.00000000	-79.06004000	-28.83858000
15.19999927	0.00000000	-79.06004000	-28.51255000
15.39999926	0.00000000	-79.01697000	-28.79552000
15.59999924	0.00000000	-78.68478000	-29.16461000
15.79999923	0.00000000	-78.31569000	-28.83858000
15.99999922	0.00000000	-78.68478000	-28.88779000
16.19999921	-0.15871060	-79.01697000	-29.53371000
16.39999920	-0.15871060	-79.06004000	-29.53371000
16.59999919	-0.15871060	-79.01697000	-28.83858000
16.79999917	-0.15871060	-78.64173000	-28.46333000
16.99999916	-0.15871060	-77.89738000	-28.42027000
17.19999915	0.00000000	-77.52214000	-28.42027000
17.39999914	0.00000000	-77.47908000	-28.42027000
17.59999913	0.00000000	-77.47908000	-28.42027000
17.79999911	0.00000000	-77.52214000	-28.42027000
17.99999910	0.00000000	-77.94660000	-28.42027000
18.19999909	0.00000000	-79.10310000	-28.42027000
18.39999908	0.00000000	-80.64099000	-28.46333000
18.59999907	0.00000000	-82.17889000	-28.79552000
18.79999905	-0.15871060	-83.33538000	-29.16461000
18.99999904	-0.15871060	-83.71062000	-28.79552000
19.19999903	-0.15871060	-83.29231000	-28.46333000
19.39999902	-0.15871060	-81.66830000	-28.42027000
19.59999901	0.00000000	-78.54945000	-28.42027000
19.79999900	0.00000000	-74.31717000	-28.42027000
19.99999898	0.00000000	-70.12794000	-28.42027000
20.19999897	0.00000000	-67.42741000	-28.46333000
20.39999896	0.00000000	-67.09522000	-28.79552000
20.59999895	0.00000000	-69.43282000	-29.20767000
20.79999894	0.00000000	-74.49557000	-29.17077000
20.99999892	0.00000000	-81.10851000	-29.25074000
21.19999891	0.00000000	-88.50270000	-29.21383000
21.39999890	0.00000000	-95.38631000	-29.62598000
21.59999889	0.00000000	-99.53247000	-29.90895000
21.79999888	0.00000000	-99.07111000	-29.62598000
21.99999886	0.00000000	-93.20866000	-29.25689000
22.19999885	0.00000000	-82.78174000	-29.62598000
22.39999884	0.00000000	-69.99261000	-29.95817000
22.59999883	0.00000000	-57.65871000	-29.95817000
22.79999882	0.00000000	-48.49286000	-29.58292000
22.99999881	-0.15871060	-45.88459000	-28.83858000
23.19999879	-0.15871060	-51.27952000	-28.46333000
23.39999878	0.00000000	-63.33046000	-28.37721000
23.59999877	0.00000000	-79.98892000	-28.00197000
23.79999876	-0.15871060	-98.12991000	-27.25763000
23.99999875	0.00000000	-113.12130000	-26.93159000
24.19999873	0.00000000	-121.16760000	-27.25763000
24.39999872	0.00000000	-119.54350000	-28.08809000
24.59999871	0.00000000	-107.95400000	-29.25689000
24.79999870	0.00000000	-88.97022000	-31.20078000
24.99999869	0.00000000	-66.58464000	-33.06471000
25.19999867	0.00000000	-45.74926000	-34.27042000
25.39999866	-0.15871060	-31.87746000	-34.60261000
25.59999865	-0.15871060	-28.06348000	-33.80905000
25.79999864	0.00000000	-35.83292000	-31.48991000
25.99999863	0.00000000	-53.97392000	-28.37721000
26.19999862	0.00000000	-77.94660000	-24.84621000
26.39999860	0.00000000	-102.65130000	-21.03838000
26.59999859	0.00000000	-122.28710000	-18.38706000
26.79999858	0.00000000	-131.59450000	-18.01181000
26.99999857	0.00000000	-128.89390000	-20.01107000
27.19999856	0.00000000	-114.97910000	-24.69857000
27.39999854	0.00000000	-92.59965000	-31.62524000
27.59999853	0.00000000	-67.56274000	-38.96407000
27.79999852	0.00000000	-45.88459000	-45.14640000
27.99999851	0.00000000	-32.29576000	-48.95423000
28.19999850	-0.15871060	-29.17692000	-48.86811000
28.39999848	0.00000000	-36.86023000	-44.17446000
28.59999847	0.00000000	-53.46948000	-35.25467000
28.79999846	0.00000000	-74.69241000	-23.68356000
28.99999845	0.00000000	-95.99532000	-12.15551000
29.19999844	0.00000000	-112.61070000	-3.66018700
29.39999843	0.00000000	-121.16760000	-0.21530510
29.59999841	0.00000000	-120.04800000	-2.58981300
29.79999840	0.00000000	-110.08860000	-11.17741000
29.99999839	0.00000000	-94.27287000	-24.65551000
30.19999838	0.00000000	-76.49483000	-40.08366000
30.39999837	0.00000000	-60.58685000	-53.60482000
30.59999835	0.00000000	-49.65551000	-62.48154000
30.79999834	0.00000000	-44.99877000	-64.75147000
30.99999833	0.00000000	-47.33021000	-59.31963000
31.19999832	0.00000000	-56.53912000	-47.33021000
31.39999831	0.00000000	-69.61736000	-31.06545000
31.59999829	0.00000000	-83.20619000	-13.73647000
31.79999828	0.00000000	-94.83266000	0.52288380
31.99999827	0.00000000	-102.23300000	8.28001900
32.19999826	0.00000000	-104.23230000	8.32308000
32.39999825	0.00000000	-101.16260000	0.94119090
32.59999824	0.00000000	-93.80536000	-12.62303000
32.79999822	0.00000000	-83.75984000	-29.95201000
32.99999821	0.00000000	-73.33292000	-46.96112000
33.19999820	0.00000000	-64.77608000	-59.73794000
33.39999819	0.00000000	-59.74409000	-66.33243000
33.59999818	0.00000000	-58.95669000	-65.12672000
33.79999816	0.00000000	-62.81988000	-56.29306000
33.99999815	0.00000000	-70.08488000	-41.99065000
34.19999814	0.00000000	-78.54945000	-25.39985000
34.39999813	0.00000000	-85.90058000	-9.92864100
34.59999812	0.00000000	-90.55118000	0.89812980
34.79999810	0.00000000	-91.75688000	5.16732200
34.99999809	0.00000000	-89.48080000	2.06077700
35.19999808	0.00000000	-84.87327000	-7.92937900
35.39999807	0.00000000	-79.10310000	-22.14567000
35.59999806	0.00000000	-73.70817000	-36.82948000
35.79999805	0.00000000	-70.22022000	-48.81889000
35.99999803	0.00000000	-69.05757000	-55.78863000
36.19999802	0.00000000	-70.59547000	-56.16388000
36.39999801	0.00000000	-74.40945000	-50.06767000
36.59999800	0.00000000	-79.01697000	-39.29626000
36.79999799	0.00000000	-83.29231000	-26.97465000
36.99999797	0.00000000	-86.31889000	-15.82800000
37.19999796	0.00000000	-87.06323000	-8.94438800
37.39999795	0.00000000	-84.78715000	-8.48302100
37.59999794	0.00000000	-80.59792000	-13.77953000
37.79999793	0.00000000	-75.99039000	-22.61319000
37.99999791	0.00000000	-72.08414000	-32.60334000
38.19999790	0.00000000	-69.75270000	-41.01255000
38.39999789	0.00000000	-68.96530000	-45.24483000
38.59999788	0.00000000	-70.17101000	-44.08218000
38.79999787	0.00000000	-73.24680000	-37.99213000
38.99999786	0.00000000	-77.52214000	-28.83858000
39.19999784	0.00000000	-82.12967000	-20.01107000
39.39999783	0.00000000	-85.99286000	-13.87180000
39.59999782	0.00000000	-87.94906000	-11.97096000
39.79999781	0.00000000	-87.94906000	-15.45275000
39.99999780	0.00000000	-85.99286000	-23.07455000
40.19999778	0.00000000	-82.17889000	-32.68946000
40.39999777	0.00000000	-77.89738000	-41.52312000
40.59999776	0.00000000	-73.98499000	-47.24409000
40.79999775	0.00000000	-70.50320000	-47.98228000
40.99999774	0.00000000	-68.59006000	-43.06102000
41.19999772	0.00000000	-68.54699000	-34.60261000
41.39999771	0.00000000	-70.12794000	-24.98154000
41.59999770	0.00000000	-73.24680000	-16.15404000
41.79999769	0.00000000	-77.47908000	-11.17741000
41.99999768	0.00000000	-81.71136000	-11.09129000
42.19999767	0.00000000	-84.83022000	-15.31742000
42.39999765	0.00000000	-86.41116000	-22.61319000
42.59999764	0.00000000	-86.45423000	-31.06545000
42.79999763	0.00000000	-85.24852000	-38.41043000
42.99999762	0.00000000	-82.91708000	-43.06102000
43.19999761	0.00000000	-79.47834000	-44.21752000
43.39999759	0.00000000	-76.45177000	-41.56618000
43.59999758	0.00000000	-74.82775000	-36.17741000
43.79999757	0.00000000	-74.36023000	-29.66904000
43.99999756	0.00000000	-74.36023000	-23.49901000
44.19999755	0.00000000	-74.73548000	-19.63582000
44.39999753	0.00000000	-75.47981000	-18.43012000
44.59999752	0.00000000	-75.85506000	-19.91880000
44.79999751	0.00000000	-75.89813000	-23.35138000
44.99999750	0.00000000	-75.89813000	-27.21457000
45.19999749	0.00000000	-75.94118000	-31.11466000
45.39999748	0.00000000	-76.40871000	-34.13509000
45.59999746	0.00000000	-77.98966000	-35.34079000
45.79999745	0.00000000	-80.68405000	-34.64567000
45.99999744	0.00000000	-83.75984000	-33.11393000
46.19999743	-0.15871060	-86.45423000	-31.11466000
46.39999742	0.00000000	-87.89984000	-28.42027000
46.59999740	0.00000000	-87.10630000	-25.77510000
46.79999739	0.00000000	-83.62450000	-24.23720000
46.99999738	0.00000000	-78.59251000	-24.19414000
47.19999737	0.00000000	-72.73621000	-25.30758000
47.39999736	0.00000000	-67.00910000	-26.88853000
47.59999734	0.00000000	-63.19512000	-28.83858000
47.79999733	0.00000000	-62.81988000	-31.15772000
47.99999732	0.00000000	-65.93873000	-33.06471000
48.19999731	0.00000000	-72.17027000	-34.22736000
48.39999730	0.00000000	-80.64099000	-34.18430000
48.59999729	0.00000000	-89.10555000	-32.64640000
48.79999727	0.00000000	-95.25098000	-29.95201000
48.99999726	0.00000000	-97.52706000	-26.88853000
49.19999725	0.00000000	-94.83266000	-24.14493000
49.39999724	0.00000000	-87.89984000	-22.23794000
49.59999723	0.00000000	-78.64173000	-21.49975000
49.79999721	0.00000000	-69.00836000	-22.65625000
49.99999720	0.00000000	-61.65723000	-25.35064000
50.19999719	0.00000000	-58.21235000	-28.83858000
50.39999718	0.00000000	-59.38115000	-32.68946000
50.59999717	0.00000000	-65.56348000	-35.75910000
50.79999715	0.00000000	-74.73548000	-37.29700000
50.99999714	0.00000000	-84.36269000	-36.87869000
51.19999713	0.00000000	-91.67076000	-34.22736000
51.39999712	0.00000000	-94.78961000	-30.37647000
51.59999711	0.00000000	-93.29478000	-26.46407000
51.79999710	0.00000000	-87.89984000	-22.61319000
51.99999708	0.00000000	-80.17347000	-19.96186000
52.19999707	0.00000000	-71.75196000	-19.54355000
52.39999706	0.00000000	-65.23744000	-21.08145000
52.59999705	0.00000000	-62.90600000	-24.19414000
52.79999704	0.00000000	-64.77608000	-28.42027000
52.99999702	0.00000000	-70.17101000	-32.60334000
53.19999701	0.00000000	-77.43602000	-35.29773000
53.39999700	-0.15871060	-84.36269000	-35.75910000
53.59999699	0.00000000	-89.01943000	-34.64567000
53.79999698	0.00000000	-90.55118000	-32.69562000
53.99999696	0.00000000	-88.59498000	-30.00123000
54.19999695	0.00000000	-83.24926000	-27.34990000
54.39999694	0.00000000	-76.36565000	-25.77510000
54.59999693	0.00000000	-70.21407000	-25.35679000
54.79999692	0.00000000	-66.35703000	-25.72589000
54.99999691	0.00000000	-65.98179000	-26.88853000
55.19999689	0.00000000	-69.00836000	-28.37721000
55.39999688	0.00000000	-74.36023000	-29.53371000
55.59999687	0.00000000	-80.13041000	-29.90895000
55.79999686	0.00000000	-84.83022000	-29.53371000
55.99999685	0.00000000	-87.85679000	-28.37721000
56.19999683	0.00000000	-88.22588000	-26.88853000
56.39999682	0.00000000	-85.15624000	-25.77510000
56.59999681	0.00000000	-80.26574000	-25.81816000
56.79999680	0.00000000	-75.20300000	-27.34990000
56.99999679	0.00000000	-71.33366000	-30.04429000
57.19999677	0.00000000	-69.01452000	-33.06471000
57.39999676	0.00000000	-69.01452000	-35.34079000
57.59999675	0.00000000	-71.29060000	-35.71604000
57.79999674	0.00000000	-74.73548000	-34.18430000
57.99999673	-0.15871060	-78.59251000	-31.06545000
58.19999672	0.00000000	-81.66830000	-26.79626000
58.39999670	0.00000000	-83.29231000	-22.19488000
58.59999669	0.00000000	-83.62450000	-18.43012000
58.79999668	0.00000000	-82.49876000	-17.31053000
58.99999667	0.00000000	-79.81052000	-19.58661000
59.19999666	0.00000000	-77.19611000	-24.19414000
59.39999664	0.00000000	-75.20300000	-30.00123000
59.59999663	0.00000000	-74.40945000	-35.75910000
59.79999662	0.00000000	-74.36023000	-39.99138000
59.99999661	0.00000000	-74.78469000	-41.52312000
60.19999660	0.00000000	-75.94118000	-39.94832000
60.39999658	0.00000000	-77.43602000	-35.29773000
60.59999657	0.00000000	-78.59251000	-28.42027000
60.79999656	0.00000000	-79.01697000	-21.49975000
60.99999655	0.00000000	-79.01697000	-16.47392000
61.19999654	0.00000000	-78.59251000	-14.15477000
61.39999653	0.00000000	-77.47908000	-15.36048000
61.59999651	0.00000000	-76.36565000	-19.96186000
61.79999650	0.00000000	-75.99039000	-26.88853000
61.99999649	0.00000000	-76.36565000	-34.22736000
62.19999648	0.00000000	-77.47908000	-40.40969000
62.39999647	0.00000000	-78.59251000	-44.21752000
62.59999645	0.00000000	-79.01697000	-44.21752000
62.79999644	0.00000000	-79.06004000	-40.40969000
62.99999643	0.00000000	-79.01697000	-34.22736000
63.19999642	0.00000000	-78.59251000	-26.83932000
63.39999641	0.00000000	-77.43602000	-19.58661000
63.59999639	0.00000000	-75.94118000	-14.57308000
63.79999638	0.00000000	-74.78469000	-13.36122000
63.99999637	0.00000000	-74.40945000	-15.27436000
64.19999636	0.00000000	-74.78469000	-19.91880000
64.39999635	0.00000000	-75.94118000	-26.46407000
64.59999634	0.00000000	-77.47908000	-33.02165000
64.79999632	0.00000000	-78.96776000	-38.45349000
64.99999631	0.00000000	-79.75516000	-41.52312000
65.19999630	0.00000000	-79.39222000	-41.56618000
65.39999629	-0.15871060	-78.68478000	-38.92101000
65.59999628	0.00000000	-77.85432000	-34.64567000
65.79999626	0.00000000	-77.10384000	-29.62598000
65.99999625	0.00000000	-76.31644000	-24.56939000
66.19999624	0.00000000	-75.99039000	-20.70620000
66.39999623	0.00000000	-76.36565000	-18.33784000
66.59999622	-0.15871060	-77.52214000	-17.96260000
66.79999620	0.00000000	-79.01697000	-19.45743000
66.99999619	0.00000000	-80.13041000	-22.15182000
67.19999618	0.00000000	-80.13041000	-25.26452000
67.39999617	0.00000000	-78.96776000	-28.42027000
67.59999616	0.00000000	-77.06077000	-31.53297000
67.79999615	0.00000000	-74.73548000	-34.27042000
67.99999613	0.00000000	-72.82849000	-36.22662000
68.19999612	0.00000000	-71.66584000	-37.38312000
68.39999611	0.00000000	-71.70891000	-37.34006000
68.59999610	0.00000000	-73.28986000	-35.75910000
68.79999609	0.00000000	-76.36565000	-32.64640000
68.99999607	0.00000000	-80.22269000	-28.37721000
69.19999606	0.00000000	-83.66756000	-23.77584000
69.39999605	0.00000000	-85.99286000	-19.87574000
69.59999604	0.00000000	-86.31889000	-17.59350000
69.79999603	0.00000000	-84.41190000	-17.18135000
69.99999601	0.00000000	-80.54871000	-19.16830000
70.19999600	0.00000000	-75.89813000	-22.98843000
70.39999599	0.00000000	-71.24138000	-28.04503000
70.59999598	0.00000000	-67.42741000	-33.06471000
70.79999597	0.00000000	-65.88951000	-37.29700000
70.99999596	0.00000000	-67.05216000	-39.61614000
71.19999594	0.00000000	-70.54626000	-39.24704000
71.39999593	0.00000000	-75.94118000	-36.96481000
71.59999592	0.00000000	-81.71136000	-33.02165000
71.79999591	0.00000000	-86.36810000	-28.04503000
71.99999590	0.00000000	-89.06249000	-23.07455000
72.19999588	0.00000000	-89.06249000	-20.01107000
72.39999587	0.00000000	-86.41116000	-19.54355000
72.59999586	0.00000000	-82.12967000	-21.03838000
72.79999585	0.00000000	-77.06077000	-23.77584000
72.99999584	0.00000000	-71.66584000	-27.21457000
73.19999582	0.00000000	-67.47047000	-30.69636000
73.39999581	0.00000000	-65.88951000	-32.97859000
73.59999580	0.00000000	-67.00910000	-33.80905000
73.79999579	0.00000000	-70.12794000	-33.02165000
73.99999578	0.00000000	-74.69241000	-31.15772000
74.19999577	0.00000000	-79.33685000	-28.88164000
74.39999575	0.00000000	-82.46185000	-27.39296000
74.59999574	0.00000000	-84.49802000	-27.34990000
74.79999573	0.00000000	-85.15624000	-28.42027000
74.99999572	0.00000000	-84.03666000	-29.58292000
75.19999571	0.00000000	-80.97318000	-30.32726000
75.39999569	0.00000000	-77.57135000	-30.69636000
75.59999568	0.00000000	-74.82775000	-29.86589000
75.79999567	0.00000000	-73.24680000	-28.00197000
75.99999566	0.00000000	-72.82849000	-25.68282000
76.19999565	0.00000000	-73.20374000	-23.77584000
76.39999563	0.00000000	-74.36023000	-22.61319000
76.59999562	0.00000000	-75.85506000	-22.69931000
76.79999561	0.00000000	-77.01156000	-24.61245000
76.99999560	0.00000000	-77.43602000	-28.08809000
77.19999559	0.00000000	-77.47908000	-31.90822000
77.39999558	0.00000000	-77.47908000	-35.38385000
77.59999556	0.00000000	-77.47908000	-37.29700000
77.79999555	0.00000000	-77.52214000	-37.29700000
77.99999554	0.00000000	-77.89738000	-35.34079000
78.19999553	0.00000000	-78.68478000	-31.48376000
78.39999552	0.00000000	-79.39222000	-26.88238000
78.59999550	0.00000000	-79.80437000	-22.61319000
78.79999549	0.00000000	-79.34301000	-19.50049000
78.99999548	0.00000000	-78.22342000	-17.96260000
79.19999547	0.00000000	-76.27337000	-18.38706000
79.39999546	0.00000000	-74.36023000	-21.08145000
79.59999544	0.00000000	-72.77928000	-25.26452000
79.79999543	0.00000000	-71.66584000	-29.58292000
79.99999542	0.00000000	-71.70891000	-33.43996000
80.19999541	0.00000000	-73.24680000	-36.50344000
80.39999540	0.00000000	-75.94118000	-37.24778000
80.59999539	0.00000000	-79.01697000	-35.80217000
80.79999537	0.00000000	-81.66830000	-33.11393000
80.99999536	0.00000000	-82.83096000	-30.00123000
81.19999535	0.00000000	-82.08661000	-26.88853000
81.39999534	0.00000000	-80.17347000	-24.14493000
81.59999533	0.00000000	-77.47908000	-22.19488000
81.79999531	0.00000000	-74.78469000	-21.03838000
81.99999530	0.00000000	-72.82849000	-21.03838000
82.19999529	0.00000000	-71.66584000	-22.19488000
82.39999528	0.00000000	-71.66584000	-24.14493000
82.59999527	0.00000000	-72.82849000	-26.83932000
82.79999525	0.00000000	-74.73548000	-29.58292000
82.99999524	0.00000000	-77.06077000	-31.95128000
83.19999523	0.00000000	-78.96776000	-34.27042000
83.39999522	0.00000000	-80.13041000	-35.75910000
83.59999521	0.00000000	-80.13041000	-35.75910000
83.79999520	0.00000000	-79.06004000	-34.22736000
83.99999518	0.00000000	-77.89738000	-31.48991000
84.19999517	0.00000000	-77.10384000	-28.00197000
84.39999516	0.00000000	-76.31644000	-24.15108000
84.59999515	0.00000000	-75.94118000	-21.08145000
84.79999514	0.00000000	-75.89813000	-19.50049000
84.99999512	0.00000000	-75.89813000	-19.50049000
85.19999511	0.00000000	-75.89813000	-21.08145000
85.39999510	0.00000000	-75.89813000	-24.19414000
85.59999509	0.00000000	-75.89813000	-28.42027000
85.79999508	0.00000000	-75.89813000	-32.68946000
85.99999506	0.00000000	-75.89813000	-36.13435000
86.19999505	0.00000000	-75.94118000	-38.03519000
86.39999504	0.00000000	-76.36565000	-37.25394000
86.59999503	0.00000000	-77.47908000	-34.22736000
86.79999502	0.00000000	-78.59251000	-29.95817000
86.99999501	0.00000000	-79.01697000	-25.35679000
87.19999499	0.00000000	-79.01697000	-21.49975000
87.39999498	0.00000000	-78.64173000	-19.54355000
87.59999497	0.00000000	-77.85432000	-19.59276000
87.79999496	0.00000000	-77.06077000	-21.87500000
87.99999495	0.00000000	-75.89813000	-26.09498000
88.19999493	0.00000000	-74.78469000	-30.32726000
88.39999492	0.00000000	-74.40945000	-34.22736000
88.59999491	0.00000000	-74.73548000	-36.87869000
88.79999490	0.00000000	-75.52288000	-37.24778000
88.99999489	0.00000000	-76.31644000	-35.29773000
89.19999487	0.00000000	-77.47908000	-31.06545000
89.39999486	0.00000000	-78.59251000	-25.72589000
89.59999485	0.00000000	-78.96776000	-21.12451000
89.79999484	0.00000000	-78.64173000	-18.43012000
89.99999483	0.00000000	-77.89738000	-18.43012000
90.19999482	0.00000000	-77.47908000	-21.12451000
90.39999480	0.00000000	-77.06077000	-25.72589000
90.59999479	-0.15871060	-76.31644000	-31.06545000
90.79999478	0.00000000	-75.94118000	-35.29773000
90.99999477	0.00000000	-75.89813000	-37.24778000
91.19999476	0.00000000	-75.89813000	-36.87869000
91.39999474	0.00000000	-75.89813000	-34.18430000
91.59999473	0.00000000	-75.89813000	-29.95817000
91.79999472	0.00000000	-75.89813000	-25.30758000
91.99999471	0.00000000	-75.89813000	-21.12451000
92.19999470	0.00000000	-75.89813000	-18.84842000
92.39999468	0.00000000	-75.94118000	-19.58661000
92.59999467	0.00000000	-76.31644000	-22.61319000
92.79999466	0.00000000	-77.10384000	-26.88238000
92.99999465	0.00000000	-77.89738000	-31.48376000
93.19999464	0.00000000	-79.06004000	-35.34079000
93.39999463	0.00000000	-80.13041000	-37.24778000
93.59999461	0.00000000	-80.13041000	-36.87869000
93.79999460	0.00000000	-79.01697000	-34.18430000
93.99999459	0.00000000	-77.43602000	-29.95817000
94.19999458	0.00000000	-75.47981000	-25.35679000
94.39999457	0.00000000	-73.20374000	-21.54281000
94.59999455	0.00000000	-71.66584000	-20.01107000
94.79999454	0.00000000	-71.24754000	-21.12451000
94.99999453	0.00000000	-71.66584000	-24.19414000
95.19999452	0.00000000	-73.24680000	-28.37721000
95.39999451	0.00000000	-75.94118000	-32.22810000
95.59999449	0.00000000	-79.01697000	-34.55955000
95.79999448	0.00000000	-81.75443000	-35.34079000
95.99999447	0.00000000	-83.62450000	-34.18430000
96.19999446	0.00000000	-83.98745000	-31.53297000
96.39999445	0.00000000	-82.08661000	-28.42027000
96.59999444	0.00000000	-79.01697000	-25.35064000
96.79999442	0.00000000	-75.47981000	-23.07455000
96.99999441	0.00000000	-71.62278000	-22.65625000
97.19999440	0.00000000	-68.59006000	-23.77584000
97.39999439	0.00000000	-67.38435000	-25.68282000
97.59999438	0.00000000	-68.17175000	-28.00197000
97.79999436	0.00000000	-70.50320000	-29.90895000
97.99999435	0.00000000	-74.36023000	-31.11466000
98.19999434	0.00000000	-78.59251000	-31.48376000
98.39999433	0.00000000	-82.08661000	-31.11466000
98.59999432	0.00000000	-84.41190000	-29.95201000
98.79999430	0.00000000	-84.83022000	-28.46333000
98.99999429	0.00000000	-83.66756000	-27.30684000
99.19999428	0.00000000	-81.29305000	-26.88238000
99.39999427	0.00000000	-77.47908000	-26.83932000
99.59999426	0.00000000	-73.62204000	-26.83932000
99.79999425	-0.15871060	-70.87228000	-26.83932000
99.99999423	0.00000000	-68.92224000	-26.79626000
100.19999422	0.00000000	-68.59006000	-26.42101000
100.39999421	0.00000000	-70.08488000	-25.72589000
100.59999420	0.00000000	-72.77928000	-25.72589000
100.79999419	0.00000000	-75.89813000	-26.51329000
100.99999417	0.00000000	-78.96776000	-27.67593000
101.19999416	0.00000000	-81.29305000	-29.62598000
101.39999415	0.00000000	-82.12967000	-31.48991000
101.59999414	0.00000000	-82.17889000	-32.64640000
101.79999413	0.00000000	-81.71136000	-32.64640000
101.99999411	0.00000000	-80.13041000	-31.48991000
102.19999410	0.00000000	-77.47908000	-29.58292000
102.39999409	0.00000000	-74.78469000	-27.21457000
102.59999408	0.00000000	-72.82849000	-24.93233000
102.79999407	0.00000000	-71.62278000	-22.98843000
102.99999406	0.00000000	-71.29060000	-22.28100000
103.19999404	0.00000000	-72.04109000	-23.03149000
103.39999403	0.00000000	-73.94193000	-25.35064000
103.59999402	0.00000000	-75.85506000	-28.42027000
103.79999401	0.00000000	-77.47908000	-31.53297000
103.99999400	0.00000000	-79.01697000	-34.18430000
104.19999398	0.00000000	-80.17347000	-35.34079000
104.39999397	0.00000000	-80.54871000	-34.60261000
104.59999396	0.00000000	-80.13041000	-32.69562000
104.79999395	0.00000000	-78.59251000	-29.95201000
104.99999394	0.00000000	-76.36565000	-26.88853000
105.19999392	0.00000000	-74.78469000	-24.23720000
105.39999391	0.00000000	-73.98499000	-23.03149000
105.59999390	0.00000000	-73.57283000	-23.40059000
105.79999389	0.00000000	-73.98499000	-24.56324000
105.99999388	0.00000000	-74.73548000	-26.88853000
106.19999387	0.00000000	-75.94118000	-29.53371000
106.39999385	0.00000000	-77.43602000	-31.48991000
106.59999384	0.00000000	-78.54945000	-32.60334000
106.79999383	0.00000000	-78.54945000	-32.22810000
106.99999382	0.00000000	-77.47908000	-30.37647000
107.19999381	0.00000000	-76.31644000	-28.46333000
107.39999379	0.00000000	-75.52288000	-26.83932000
107.59999378	0.00000000	-74.73548000	-25.35064000
107.79999377	0.00000000	-74.40945000	-24.61245000
107.99999376	0.00000000	-74.78469000	-25.35064000
108.19999375	0.00000000	-75.89813000	-26.83932000
108.39999374	0.00000000	-77.06077000	-28.42027000
108.59999372	0.00000000	-77.85432000	-29.95201000
108.79999371	0.00000000	-78.64173000	-31.06545000
108.99999370	0.00000000	-78.96776000	-31.06545000
109.19999369	0.00000000	-78.59251000	-29.95201000
109.39999368	0.00000000	-77.47908000	-28.42027000
109.59999366	0.00000000	-76.31644000	-26.83932000
109.79999365	0.00000000	-75.47981000	-25.30758000
109.99999364	0.00000000	-74.36023000	-24.19414000
110.19999363	0.00000000	-73.62204000	-24.19414000
110.39999362	0.00000000	-73.98499000	-25.30758000
110.59999360	0.00000000	-74.73548000	-26.83932000
110.79999359	0.00000000	-75.89813000	-28.37721000
110.99999358	0.00000000	-77.01156000	-29.58292000
111.19999357	0.00000000	-77.43602000	-30.32726000
111.39999356	0.00000000	-77.47908000	-30.73942000
111.59999355	0.00000000	-77.43602000	-30.32726000
111.79999353	0.00000000	-77.06077000	-29.58292000
111.99999352	0.00000000	-76.31644000	-28.42027000
112.19999351	0.00000000	-75.89813000	-27.30684000
112.39999350	0.00000000	-75.47981000	-26.88238000
112.59999349	0.00000000	-74.73548000	-26.83932000
112.79999347	0.00000000	-74.40945000	-26.83932000
112.99999346	0.00000000	-74.73548000	-26.83932000
113.19999345	0.00000000	-75.47981000	-26.88238000
113.39999344	0.00000000	-75.85506000	-27.25763000
113.59999343	0.00000000	-75.89813000	-28.00197000
113.79999341	0.00000000	-75.89813000	-28.37721000
113.99999340	0.00000000	-75.89813000	-28.42027000
114.19999339	0.00000000	-75.89813000	-28.42027000
114.39999338	0.00000000	-75.89813000	-28.46333000
114.59999337	0.00000000	-75.89813000	-28.79552000
114.79999336	-0.15871060	-75.89813000	-29.20767000
114.99999334	0.00000000	-75.89813000	-29.17077000
115.19999333	0.00000000	-75.89813000	-29.20767000
115.39999332	0.00000000	-75.89813000	-28.79552000
115.59999331	0.00000000	-75.89813000	-28.42027000
115.79999330	0.00000000	-75.89813000	-27.95275000
115.99999328	0.00000000	-75.89813000	-26.83932000
116.19999327	0.00000000	-75.89813000	-25.72589000
116.39999326	0.00000000	-75.94118000	-25.30758000
116.59999325	0.00000000	-76.27337000	-25.30758000
116.79999324	0.00000000	-76.64246000	-25.72589000
116.99999322	0.00000000	-76.27337000	-26.83932000
117.19999321	0.00000000	-75.89813000	-28.00197000
117.39999320	0.00000000	-75.47981000	-28.79552000
117.59999319	0.00000000	-74.73548000	-29.58292000
117.79999318	0.00000000	-74.36023000	-29.95817000
117.99999317	0.00000000	-74.31717000	-29.95817000
118.19999315	0.00000000	-74.36023000	-29.58292000
118.39999314	0.00000000	-74.73548000	-28.79552000
118.59999313	0.00000000	-75.52288000	-28.00197000
118.79999312	0.00000000	-76.31644000	-26.83932000
118.99999311	0.00000000	-77.47908000	-25.72589000
119.19999309	0.00000000	-78.54945000	-25.30758000
119.39999308	0.00000000	-78.59251000	-25.30758000
119.59999307	0.00000000	-77.85432000	-25.68282000
119.79999306	0.00000000	-77.06077000	-26.46407000
119.99999305	0.00000000	-75.85506000	-27.21457000
120.19999303	0.00000000	-74.36023000	-28.00197000
120.39999302	0.00000000	-73.20374000	-28.37721000
120.59999301	0.00000000	-72.77928000	-28.42027000
120.79999300	0.00000000	-72.77928000	-28.42027000
120.99999299	0.00000000	-73.20374000	-28.42027000
121.19999298	0.00000000	-74.36023000	-28.42027000
121.39999296	0.00000000	-75.89813000	-28.42027000
121.59999295	0.00000000	-77.43602000	-28.42027000
121.79999294	0.00000000	-78.59251000	-28.37721000
121.99999293	0.00000000	-79.01697000	-28.00197000
122.19999292	0.00000000	-79.01697000	-27.25763000
122.39999290	0.00000000	-78.59251000	-26.88238000
122.59999289	0.00000000	-77.43602000	-26.83932000
122.79999288	0.00000000	-75.94118000	-26.83932000
122.99999287	0.00000000	-74.73548000	-26.83932000
123.19999286	0.00000000	-73.94193000	-26.83932000
123.39999284	0.00000000	-73.15452000	-26.88238000
123.59999283	0.00000000	-72.82849000	-27.25763000
123.79999282	0.00000000	-73.15452000	-28.00197000
123.99999281	0.00000000	-73.94193000	-28.37721000
124.19999280	0.00000000	-74.73548000	-28.42027000
124.39999279	0.00000000	-75.89813000	-28.42027000
124.59999277	0.00000000	-77.01156000	-28.42027000
124.79999276	0.00000000	-77.43602000	-28.42027000
124.99999275	0.00000000	-77.47908000	-28.37721000
125.19999274	0.00000000	-77.47908000	-28.00197000
125.39999273	0.00000000	-77.43602000	-27.25763000
125.59999271	0.00000000	-77.01156000	-26.83932000
125.79999270	0.00000000	-75.89813000	-26.46407000
125.99999269	0.00000000	-74.73548000	-26.10113000
126.19999268	0.00000000	-73.94193000	-26.46407000
126.39999267	0.00000000	-73.15452000	-26.79626000
126.59999265	0.00000000	-72.82849000	-26.88238000
126.79999264	0.00000000	-73.20374000	-27.25763000
126.99999263	0.00000000	-74.31717000	-28.00197000
127.19999262	0.00000000	-75.47981000	-28.37721000
127.39999261	0.00000000	-76.31644000	-28.42027000
127.59999260	0.00000000	-77.43602000	-28.42027000
127.79999258	0.00000000	-78.17421000	-28.37721000
127.99999257	0.00000000	-77.81126000	-28.00197000
128.19999256	0.00000000	-77.06077000	-27.25763000
128.39999255	0.00000000	-75.89813000	-26.88238000
128.59999254	0.00000000	-74.73548000	-26.83932000
128.79999252	0.00000000	-73.94193000	-26.83932000
128.99999251	0.00000000	-73.20374000	-26.83932000
129.19999250	0.00000000	-73.20374000	-26.88238000
129.39999249	-0.15871060	-73.94193000	-27.25763000
129.59999248	0.00000000	-74.73548000	-28.00197000
129.79999246	0.00000000	-75.89813000	-28.37721000
129.99999245	0.00000000	-77.01156000	-28.42027000
130.19999244	0.00000000	-77.43602000	-28.37721000
130.39999243	0.00000000	-77.43602000	-28.00197000
130.59999242	0.00000000	-77.06077000	-27.25763000
130.79999241	0.00000000	-76.27337000	-26.88238000
130.99999239	0.00000000	-75.52288000	-26.83932000
131.19999238	0.00000000	-74.73548000	-26.88238000
131.39999237	0.00000000	-74.36023000	-27.25763000
131.59999236	0.00000000	-74.31717000	-28.00197000
131.79999235	0.00000000	-74.36023000	-28.42027000
131.99999233	0.00000000	-74.73548000	-28.83858000
132.19999232	0.00000000	-75.47981000	-29.53371000
132.39999231	0.00000000	-75.85506000	-29.53371000
132.59999230	0.00000000	-75.89813000	-28.83858000
132.79999229	0.00000000	-75.89813000	-28.42027000
132.99999227	0.00000000	-75.89813000	-28.00197000
133.19999226	0.00000000	-75.89813000	-27.25763000
133.39999225	0.00000000	-75.89813000	-26.88238000
133.59999224	0.00000000	-75.89813000	-26.83932000
133.79999223	0.00000000	-75.89813000	-26.83932000
133.99999222	0.00000000	-75.85506000	-26.88238000
134.19999220	0.00000000	-75.52288000	-27.25763000
134.39999219	0.00000000	-75.11072000	-28.04503000
134.59999218	0.00000000	-75.10458000	-28.79552000
134.79999217	0.00000000	-74.69241000	-29.53371000
134.99999216	-0.15871060	-74.36023000	-29.53371000
135.19999214	0.00000000	-74.36023000	-28.83858000
135.39999213	0.00000000	-74.69241000	-28.42027000
135.59999212	0.00000000	-75.10458000	-28.00197000
135.79999211	0.00000000	-75.15379000	-27.25763000
135.99999210	0.00000000	-75.94118000	-26.88238000
136.19999208	-0.15871060	-77.01156000	-26.83932000
136.39999207	0.00000000	-77.38681000	-26.83932000
136.59999206	0.00000000	-77.06077000	-26.83932000
136.79999205	0.00000000	-76.31644000	-26.83932000
136.99999204	0.00000000	-75.89813000	-26.88238000
137.19999203	0.00000000	-75.47981000	-27.25763000
137.39999201	0.00000000	-74.69241000	-28.00197000
137.59999200	0.00000000	-73.98499000	-28.37721000
137.79999199	0.00000000	-73.57283000	-28.42027000
137.99999198	0.00000000	-73.98499000	-28.42027000
138.19999197	0.00000000	-74.69241000	-28.42027000
138.39999195	0.00000000	-75.47981000	-28.37721000
138.59999194	0.00000000	-75.85506000	-28.00197000
138.79999193	0.00000000	-75.89813000	-27.25763000
138.99999192	0.00000000	-75.89813000	-26.83932000
139.19999191	0.00000000	-75.89813000	-26.42101000
139.39999189	0.00000000	-75.85506000	-25.72589000
139.59999188	0.00000000	-75.47981000	-25.72589000
139.79999187	0.00000000	-74.73548000	-26.42101000
139.99999186	0.00000000	-74.36023000	-26.83932000
140.19999185	0.00000000	-74.31717000	-27.25763000
140.39999184	0.00000000	-74.31717000	-28.00197000
140.59999182	0.00000000	-74.36023000	-28.37721000
140.79999181	0.00000000	-74.73548000	-28.42027000
140.99999180	0.00000000	-75.47981000	-28.42027000
141.19999179	0.00000000	-75.85506000	-28.42027000
141.39999178	0.00000000	-75.89813000	-28.37721000
141.59999176	0.00000000	-75.85506000	-27.95275000
141.79999175	0.00000000	-75.47981000	-26.83932000
141.99999174	0.00000000	-74.73548000	-25.72589000
142.19999173	0.00000000	-74.36023000	-25.30758000
142.39999172	0.00000000	-74.31717000	-25.30758000
142.59999170	0.00000000	-74.31717000	-25.68282000
142.79999169	0.00000000	-74.36023000	-26.46407000
142.99999168	0.00000000	-74.73548000	-27.21457000
143.19999167	0.00000000	-75.47981000	-28.00197000
143.39999166	0.00000000	-75.85506000	-28.37721000
143.59999165	0.00000000	-75.89813000	-28.42027000
143.79999163	0.00000000	-75.85506000	-28.37721000
143.99999162	0.00000000	-75.47981000	-28.00197000
144.19999161	-0.15871060	-74.73548000	-27.25763000
144.39999160	0.00000000	-74.36023000	-26.83932000
144.59999159	0.00000000	-74.31717000	-26.42101000
144.79999157	0.00000000	-74.31717000	-25.68282000
144.99999156	0.00000000	-74.31717000	-25.35679000
145.19999155	0.00000000	-74.36023000	-25.68282000
145.39999154	0.00000000	-74.73548000	-26.42101000
145.59999153	0.00000000	-75.47981000	-26.83932000
145.79999151	0.00000000	-75.85506000	-27.25763000
145.99999150	0.00000000	-75.89813000	-28.00197000
146.19999149	0.00000000	-75.85506000	-28.37721000
146.39999148	0.00000000	-75.47981000	-28.42027000
146.59999147	0.00000000	-74.73548000	-28.37721000
146.79999146	-0.15871060	-74.36023000	-28.00197000
146.99999144	0.00000000	-74.31717000	-27.25763000
147.19999143	0.00000000	-74.31717000	-26.88238000
147.39999142	0.00000000	-74.31717000	-26.83932000
147.59999141	0.00000000	-74.36023000	-26.83932000
147.79999140	0.00000000	-74.73548000	-26.83932000
147.99999138	0.00000000	-75.47981000	-26.83932000
148.19999137	0.00000000	-75.85506000	-26.88238000
148.39999136	0.00000000	-75.89813000	-27.25763000
148.59999135	0.00000000	-75.89813000	-28.00197000
148.79999134	0.00000000	-75.85506000	-28.37721000
148.99999132	0.00000000	-75.47981000	-28.42027000
149.19999131	0.00000000	-74.73548000	-28.42027000
149.39999130	0.00000000	-74.36023000	-28.37721000
149.59999129	0.00000000	-74.31717000	-28.00197000
149.79999128	0.00000000	-74.31717000	-27.25763000
149.99999127	0.00000000	-74.31717000	-26.88238000
150.19999125	0.00000000	-74.31717000	-26.83932000
150.39999124	0.00000000	-74.31717000	-26.83932000
150.59999123	0.00000000	-74.36023000	-26.83932000
150.79999122	0.00000000	-74.73548000	-26.83932000
150.99999121	0.00000000	-75.47981000	-26.83932000
151.19999119	0.00000000	-75.85506000	-26.83932000
151.39999118	0.00000000	-75.85506000	-26.88238000
151.59999117	0.00000000	-75.47981000	-27.25763000
151.79999116	0.00000000	-74.73548000	-28.00197000
151.99999115	0.00000000	-74.36023000	-28.37721000
152.19999113	0.00000000	-74.31717000	-28.42027000
152.39999112	0.00000000	-74.31717000	-28.37721000
152.59999111	0.00000000	-74.31717000	-28.00197000
152.79999110	0.00000000	-74.31717000	-27.25763000
152.99999109	0.00000000	-74.31717000	-26.88238000
153.19999108	0.00000000	-74.36023000	-26.83932000
153.39999106	0.00000000	-74.73548000	-26.83932000
153.59999105	0.00000000	-75.47981000	-26.83932000
153.79999104	0.00000000	-75.85506000	-26.83932000
153.99999103	0.00000000	-75.89813000	-26.83932000
154.19999102	0.00000000	-75.89813000	-26.83932000
154.39999100	0.00000000	-75.89813000	-26.83932000
154.59999099	0.00000000	-75.85506000	-26.88238000
154.79999098	0.00000000	-75.47981000	-27.25763000
154.99999097	0.00000000	-74.73548000	-28.00197000
155.19999096	0.00000000	-74.36023000	-28.37721000
155.39999094	0.00000000	-74.27411000	-28.37721000
155.59999093	0.00000000	-73.94193000	-28.04503000
155.79999092	0.00000000	-73.57283000	-27.63287000
155.99999091	0.00000000	-73.94193000	-27.62672000
156.19999090	0.00000000	-74.27411000	-27.17150000
156.39999089	0.00000000	-74.36023000	-26.46407000
156.59999087	0.00000000	-74.73548000	-25.68282000
156.79999086	0.00000000	-75.47981000	-25.35679000
156.99999085	0.00000000	-75.85506000	-25.68282000
157.19999084	0.00000000	-75.89813000	-26.42101000
157.39999083	0.00000000	-75.85506000	-26.79626000
157.59999081	0.00000000	-75.47981000	-26.88238000
157.79999080	0.00000000	-74.73548000	-27.25763000
157.99999079	0.00000000	-74.36023000	-28.00197000
158.19999078	0.00000000	-74.27411000	-28.37721000
158.39999077	0.00000000	-73.94193000	-28.42027000
158.59999075	0.00000000	-73.57283000	-28.37721000
158.79999074	0.00000000	-73.94193000	-28.00197000
158.99999073	0.00000000	-74.27411000	-27.25763000
159.19999072	0.00000000	-74.31717000	-26.88238000
159.39999071	0.00000000	-74.31717000	-26.79626000
159.59999070	0.00000000	-74.36023000	-26.46407000
159.79999068	0.00000000	-74.69241000	-26.10113000
159.99999067	0.00000000	-75.06151000	-26.46407000
160.19999066	0.00000000	-74.73548000	-26.79626000
160.39999065	0.00000000	-74.73548000	-26.88238000
160.59999064	-0.15871060	-75.06151000	-27.25763000
160.79999062	0.00000000	-74.69241000	-28.00197000
160.99999061	0.00000000	-74.36023000	-28.32800000
161.19999060	0.00000000	-74.31717000	-28.04503000
161.39999059	0.00000000	-74.27411000	-27.63287000
161.59999058	0.00000000	-73.94193000	-27.62672000
161.79999056	0.00000000	-73.57283000	-27.21457000
161.99999055	0.00000000	-73.94193000	-26.88238000
162.19999054	0.00000000	-74.27411000	-26.83932000
162.39999053	0.00000000	-74.31717000	-26.83932000
162.59999052	0.00000000	-74.31717000	-26.83932000
162.79999051	0.00000000	-74.36023000	-26.83932000
162.99999049	0.00000000	-74.73548000	-26.83932000
163.19999048	0.00000000	-75.47981000	-26.83932000
163.39999047	0.00000000	-75.85506000	-26.83932000
163.59999046	0.00000000	-75.85506000	-26.83932000
163.79999045	0.00000000	-75.47981000	-26.83932000
163.99999043	0.00000000	-74.73548000	-26.88238000
164.19999042	0.00000000	-74.36023000	-27.25763000
164.39999041	0.00000000	-74.27411000	-27.95275000
164.59999040	0.00000000	-73.94193000	-28.00197000
164.79999039	0.00000000	-73.57283000	-27.63287000
164.99999037	0.00000000	-73.94193000	-27.66978000
165.19999036	0.00000000	-74.27411000	-27.63287000
165.39999035	0.00000000	-74.31717000	-28.00197000
165.59999034	0.00000000	-74.31717000	-27.95275000
165.79999033	0.00000000	-74.36023000	-27.25763000
165.99999032	0.00000000	-74.73548000	-26.88238000
166.19999030	0.00000000	-75.47981000	-26.83932000
166.39999029	0.00000000	-75.85506000	-26.83932000
166.59999028	0.00000000	-75.85506000	-26.83932000
166.79999027	0.00000000	-75.47981000	-26.88238000
166.99999026	0.00000000	-74.73548000	-27.21457000
167.19999024	0.00000000	-74.36023000	-27.58366000
167.39999023	0.00000000	-74.31717000	-27.25763000
167.59999022	0.00000000	-74.31717000	-27.25763000
167.79999021	0.00000000	-74.31717000	-27.58366000
167.99999020	0.00000000	-74.31717000	-27.21457000
168.19999018	0.00000000	-74.31717000	-26.88238000
168.39999017	0.00000000	-74.31717000	-26.83932000
168.59999016	0.00000000	-74.31717000	-26.83932000
168.79999015	0.00000000	-74.31717000	-26.83932000
168.99999014	0.00000000	-74.31717000	-26.88238000
169.19999013	0.00000000	-74.31717000	-27.21457000
169.39999011	0.00000000	-74.31717000	-27.58366000
169.59999010	0.00000000	-74.31717000	-27.21457000
169.79999009	0.00000000	-74.31717000	-26.88238000
169.99999008	0.00000000	-74.31717000	-26.83932000
170.19999007	-0.15871060	-74.31717000	-26.83932000
170.39999005	0.00000000	-74.31717000	-26.83932000
170.59999004	0.00000000	-74.31717000	-26.83932000
170.79999003	0.00000000	-74.31717000	-26.83932000
170.99999002	0.00000000	-74.31717000	-26.83932000
171.19999001	0.00000000	-74.31717000	-26.83932000
171.39998999	0.00000000	-74.31717000	-26.83932000
171.59998998	0.00000000	-74.31717000	-26.83932000
171.79998997	0.00000000	-74.31717000	-26.83932000
171.99998996	0.00000000	-74.31717000	-26.83932000
172.19998995	0.00000000	-74.31717000	-26.83932000
172.39998994	0.00000000	-74.31717000	-26.83932000
172.59998992	-0.15871060	-74.31717000	-26.83932000
172.79998991	0.00000000	-74.31717000	-26.83932000
172.99998990	-0.15871060	-74.31717000	-26.83932000
173.19998989	0.00000000	-74.31717000	-26.83932000
173.39998988	0.00000000	-74.31717000	-26.83932000
173.59998986	0.00000000	-74.31717000	-26.83932000
173.79998985	0.00000000	-74.31717000	-26.83932000
173.99998984	0.00000000	-74.31717000	-26.83932000
174.19998983	0.00000000	-74.31717000	-26.83932000
174.39998982	0.00000000	-74.31717000	-26.83932000
174.59998980	0.00000000	-74.31717000	-26.83932000
174.79998979	0.00000000	-74.31717000	-26.83932000
174.99998978	0.00000000	-74.31717000	-26.83932000
175.19998977	0.00000000	-74.31717000	-26.83932000
175.39998976	0.00000000	-74.31717000	-26.83932000
175.59998975	0.00000000	-74.31717000	-26.83932000
175.79998973	0.00000000	-74.31717000	-26.83932000
175.99998972	0.00000000	-74.31717000	-26.83932000
176.19998971	0.00000000	-74.31717000	-26.83932000
176.39998970	0.00000000	-74.31717000	-26.83932000
176.59998969	0.00000000	-74.31717000	-26.83932000
176.79998967	0.00000000	-74.31717000	-26.83932000
176.99998966	0.00000000	-74.31717000	-26.83932000
177.19998965	0.00000000	-74.31717000	-26.83932000
177.39998964	0.00000000	-74.31717000	-26.83932000
177.59998963	0.00000000	-74.31717000	-26.83932000
177.79998961	0.00000000	-74.31717000	-26.83932000
177.99998960	0.00000000	-74.31717000	-26.83932000
178.19998959	0.00000000	-74.31717000	-26.83932000
178.39998958	0.00000000	-74.31717000	-26.83932000
178.59998957	0.00000000	-74.31717000	-26.83932000
178.79998956	0.00000000	-74.27411000	-26.83932000
178.99998954	0.00000000	-73.94193000	-26.83932000
179.19998953	0.00000000	-73.57283000	-26.83932000
179.39998952	0.00000000	-73.94193000	-26.83932000
179.59998951	0.00000000	-74.27411000	-26.83932000
179.79998950	0.00000000	-74.31717000	-26.83932000
179.99998948	0.00000000	-74.31717000	-26.83932000
180.19998947	0.00000000	-74.31717000	-26.83932000
180.39998946	0.00000000	-74.31717000	-26.83932000
180.59998945	0.00000000	-74.31717000	-26.83932000
180.79998944	0.00000000	-74.31717000	-26.83932000
180.99998942	0.00000000	-74.31717000	-26.83932000
181.19998941	0.00000000	-74.31717000	-26.83932000
181.39998940	0.00000000	-74.31717000	-26.83932000
181.59998939	0.00000000	-74.31717000	-26.83932000
181.79998938	0.00000000	-74.31717000	-26.83932000
181.99998937	0.00000000	-74.31717000	-26.83932000
182.19998935	0.00000000	-74.31717000	-26.83932000
182.39998934	0.00000000	-74.31717000	-26.83932000
182.59998933	0.00000000	-74.27411000	-26.83932000
182.79998932	0.00000000	-73.94193000	-26.83932000
182.99998931	0.00000000	-73.57283000	-26.83932000
183.19998929	0.00000000	-73.94193000	-26.83932000
183.39998928	0.00000000	-74.27411000	-26.83932000
183.59998927	0.00000000	-74.31717000	-26.83932000
183.79998926	0.00000000	-74.31717000	-26.83932000
183.99998925	0.00000000	-74.31717000	-26.83932000
184.19998923	-0.15871060	-74.31717000	-26.83932000
184.39998922	0.00000000	-74.31717000	-26.83932000
184.59998921	0.00000000	-74.31717000	-26.83932000
184.79998920	0.00000000	-74.31717000	-26.79626000
184.99998919	0.00000000	-74.27411000	-26.46407000
185.19998918	0.00000000	-73.94193000	-26.10113000
185.39998916	0.00000000	-73.57283000	-26.46407000
185.59998915	0.00000000	-73.89886000	-26.83932000
185.79998914	0.00000000	-73.89886000	-27.21457000
185.99998913	0.00000000	-73.57283000	-27.58366000
186.19998912	0.00000000	-73.94193000	-27.21457000
186.39998910	0.00000000	-74.27411000	-26.88238000
186.59998909	0.00000000	-74.31717000	-26.83932000
186.79998908	0.00000000	-74.31717000	-26.83932000
186.99998907	0.00000000	-74.31717000	-26.83932000
187.19998906	0.00000000	-74.31717000	-26.83932000
187.39998904	0.00000000	-74.31717000	-26.83932000
187.59998903	0.00000000	-74.31717000	-26.83932000
187.79998902	0.00000000	-74.31717000	-26.83932000
187.99998901	0.00000000	-74.27411000	-26.83932000
188.19998900	0.00000000	-73.89886000	-26.83932000
188.39998899	0.00000000	-73.20374000	-26.83932000
188.59998897	0.00000000	-73.15452000	-26.83932000
188.79998896	0.00000000	-73.52361000	-26.83932000
188.99998895	0.00000000	-73.52977000	-26.83932000
189.19998894	0.00000000	-73.94193000	-26.83932000
189.39998893	0.00000000	-74.27411000	-26.83932000
189.59998891	0.00000000	-74.31717000	-26.83932000
189.79998890	0.00000000	-74.31717000	-26.83932000
189.99998889	0.00000000	-74.31717000	-26.79626000
190.19998888	0.00000000	-74.31717000	-26.46407000
190.39998887	0.00000000	-74.31717000	-26.10113000
190.59998885	0.00000000	-74.31717000	-26.46407000
190.79998884	0.00000000	-74.31717000	-26.79626000
190.99998883	0.00000000	-74.31717000	-26.83932000
191.19998882	0.00000000	-74.27411000	-26.83932000
191.39998881	0.00000000	-73.89886000	-26.83932000
191.59998880	0.00000000	-73.20374000	-26.83932000
191.79998878	0.00000000	-73.20374000	-26.83932000
191.99998877	0.00000000	-73.89886000	-26.83932000
192.19998876	0.00000000	-74.27411000	-26.83932000
192.39998875	0.00000000	-74.31717000	-26.83932000
192.59998874	0.00000000	-74.31717000	-26.88238000
192.79998872	0.00000000	-74.31717000	-27.21457000
192.99998871	0.00000000	-74.31717000	-27.58366000
193.19998870	0.00000000	-74.31717000	-27.21457000
193.39998869	0.00000000	-74.31717000	-26.88238000
193.59998868	0.00000000	-74.27411000	-26.83932000
193.79998866	0.00000000	-73.94193000	-26.83932000
193.99998865	0.00000000	-73.52977000	-26.83932000
194.19998864	-0.15871060	-73.52361000	-26.83932000
194.39998863	0.00000000	-73.11147000	-26.83932000
194.59998862	0.00000000	-72.82849000	-26.83932000
194.79998861	0.00000000	-73.15452000	-26.83932000
194.99998859	0.00000000	-73.89886000	-26.83932000
195.19998858	0.00000000	-74.27411000	-26.83932000
195.39998857	0.00000000	-74.31717000	-26.83932000
195.59998856	0.00000000	-74.31717000	-26.83932000
195.79998855	0.00000000	-74.31717000	-26.83932000
195.99998853	0.00000000	-74.31717000	-26.83932000
