Time	Channel A	Channel B	Channel C
(us)	(V)	(mV)	(mV)

-4.49999956	0.00000000	17.39050000	3.15575800
-4.29999957	0.00000000	17.39050000	3.15575800
-4.09999958	0.00000000	17.39050000	3.15575800
-3.89999959	0.00000000	17.39050000	3.15575800
-3.69999960	0.00000000	17.39050000	3.15575800
-3.49999962	0.00000000	17.39050000	3.15575800
-3.29999963	0.00000000	17.39050000	3.15575800
-3.09999964	0.00000000	17.39050000	3.15575800
-2.89999965	0.00000000	17.39050000	3.15575800
-2.69999966	0.00000000	17.39050000	3.15575800
-2.49999968	0.00000000	17.39050000	3.15575800
-2.29999969	0.00000000	17.43356000	3.15575800
-2.09999970	0.00000000	17.76575000	3.15575800
-1.89999971	0.00000000	18.13484000	3.15575800
-1.69999972	0.00000000	17.76575000	3.15575800
-1.49999973	0.00000000	17.43356000	3.15575800
-1.29999975	0.00000000	17.39050000	3.15575800
-1.09999976	0.00000000	17.39050000	3.15575800
-0.89999977	0.00000000	17.39050000	3.15575800
-0.69999978	0.00000000	17.39050000	3.15575800
-0.49999979	0.00000000	17.39050000	3.15575800
-0.29999981	0.15871060	17.43356000	3.15575800
-0.09999982	0.63668800	17.76575000	3.15575800
0.10000017	0.95533960	18.13484000	3.15575800
0.30000016	0.95533960	17.76575000	3.15575800
0.50000015	0.95533960	17.43356000	3.15575800
0.70000013	0.31803640	17.39050000	3.15575800
0.90000012	-0.47736220	17.39050000	3.15575800
1.10000011	-1.43331700	17.39050000	3.15575800
1.30000010	-2.22994600	17.39050000	3.15575800
1.50000009	-2.86724900	17.39050000	3.15575800
1.70000008	-2.54859700	17.39050000	3.19881900
1.90000006	-1.43331700	17.39050000	3.57406500
2.10000005	0.31803640	17.39050000	4.26919300
2.30000004	2.38927200	17.39050000	4.26919300
2.50000003	4.30056600	17.39050000	3.57406500
2.70000002	5.25652100	17.39050000	3.19881900
2.90000000	4.93786900	17.39050000	3.15575800
3.09999999	3.18590100	17.39050000	3.15575800
3.29999998	0.31803640	17.39050000	3.15575800
3.49999997	-3.18590100	17.39050000	3.15575800
3.69999996	-6.05315000	17.39050000	3.19881900
3.89999994	-7.80511800	17.39050000	3.57406500
4.09999993	-7.64579200	17.39050000	4.31840500
4.29999992	-5.41584600	17.39050000	4.69365100
4.49999991	-1.59264300	17.39050000	4.73671200
4.69999990	2.70792300	17.43356000	4.73671200
4.89999989	6.84916400	17.76575000	4.69365100
5.09999987	9.07972400	18.13484000	4.31840500
5.29999986	9.23905000	17.76575000	3.57406500
5.49999985	7.00848900	17.43356000	3.19881900
5.69999984	3.02657500	17.39050000	3.15575800
5.89999983	-1.91129400	17.39050000	3.15575800
6.09999981	-6.21247500	17.39050000	3.15575800
6.29999980	-8.92039900	17.39050000	3.15575800
6.49999979	-9.39837600	17.39050000	3.19881900
6.69999978	-7.48646600	17.39050000	3.53100400
6.89999977	-3.98191400	17.39050000	3.90009800
7.09999975	0.47736220	17.39050000	3.53100400
7.29999974	4.45989200	17.39050000	3.19881900
7.49999973	7.00848900	17.39050000	3.15575800
7.69999972	7.80511800	17.39050000	3.15575800
7.89999971	6.37180100	17.39050000	3.15575800
8.09999970	3.82258900	17.39050000	3.15575800
8.29999968	0.47736220	17.39050000	3.11269700
8.49999967	-2.54859700	17.39050000	2.78051200
8.69999966	-4.61921700	17.39050000	2.41141700
8.89999965	-5.25652100	17.39050000	2.78051200
9.09999964	-4.45989200	17.39050000	3.11269700
9.29999962	-2.86724900	17.39050000	3.15575800
9.49999961	-0.95533960	17.39050000	3.15575800
9.69999960	0.95533960	17.39050000	3.15575800
9.89999959	2.07062000	17.39050000	3.15575800
10.09999958	2.54859700	17.39050000	3.15575800
10.29999956	2.22994600	17.39050000	3.15575800
10.49999955	1.59264300	17.39050000	3.15575800
10.69999954	0.63668800	17.39050000	3.15575800
10.89999953	-0.15871060	17.39050000	3.15575800
11.09999952	-0.79601380	17.39050000	3.15575800
11.29999951	-0.95533960	17.39050000	3.15575800
11.49999949	-0.95533960	17.39050000	3.15575800
11.69999948	-0.79601380	17.39050000	3.15575800
11.89999947	-0.47736220	17.39050000	3.15575800
12.09999946	-0.15871060	17.39050000	3.15575800
12.29999945	-0.15871060	17.39050000	3.15575800
12.49999943	-0.15871060	17.39050000	3.15575800
12.69999942	0.00000000	17.39050000	3.15575800
12.89999941	0.00000000	17.39050000	3.15575800
13.09999940	0.00000000	17.43356000	3.15575800
13.29999939	0.00000000	17.76575000	3.15575800
13.49999937	0.00000000	18.13484000	3.15575800
13.69999936	0.00000000	17.76575000	3.15575800
13.89999935	0.00000000	17.43356000	3.15575800
14.09999934	0.00000000	17.39050000	3.15575800
14.29999933	-0.15871060	17.39050000	3.15575800
14.49999932	-0.15871060	17.39050000	3.15575800
14.69999930	0.00000000	17.39050000	3.15575800
14.89999929	0.00000000	17.39050000	3.15575800
15.09999928	0.00000000	17.39050000	3.15575800
15.29999927	0.00000000	17.39050000	3.15575800
15.49999926	0.00000000	17.39050000	3.15575800
15.69999924	0.00000000	17.39050000	3.15575800
15.89999923	0.00000000	17.39050000	3.15575800
16.09999922	0.00000000	17.39050000	3.15575800
16.29999921	-0.15871060	17.39050000	3.15575800
16.49999920	0.00000000	17.39050000	3.15575800
16.69999919	-0.15871060	17.39050000	3.15575800
16.89999917	0.00000000	17.43356000	3.15575800
17.09999916	0.00000000	17.80881000	3.15575800
17.29999915	0.00000000	18.55315000	3.15575800
17.49999914	0.00000000	18.87918000	3.15575800
17.69999913	0.00000000	18.59621000	3.15575800
17.89999911	0.00000000	18.18405000	3.15575800
18.09999910	0.00000000	18.13484000	3.15575800
18.29999909	0.00000000	17.25517000	3.15575800
18.49999908	0.00000000	15.43430000	3.15575800
18.69999907	0.00000000	13.48425000	3.15575800
18.89999905	0.00000000	12.36466000	3.15575800
19.09999904	0.00000000	11.95251000	3.15575800
19.29999903	0.00000000	12.82603000	3.15575800
19.49999902	0.00000000	15.11442000	3.15575800
19.69999901	0.00000000	18.63927000	3.15575800
19.89999900	0.00000000	22.50861000	3.15575800
20.09999898	0.00000000	26.36565000	3.15575800
20.29999897	0.00000000	28.97392000	3.15575800
20.49999896	0.00000000	28.93085000	3.15575800
20.69999895	0.00000000	25.81201000	3.15575800
20.89999894	0.00000000	19.99877000	3.15575800
21.09999892	0.00000000	12.64764000	3.15575800
21.29999891	0.00000000	5.29650500	3.15575800
21.49999890	0.00000000	-0.47367120	3.15575800
21.69999889	0.00000000	-3.08193900	3.15575800
21.89999888	0.00000000	-1.07652500	3.15575800
22.09999886	0.00000000	5.94242000	3.15575800
22.29999885	0.00000000	16.78149000	3.15575800
22.49999884	0.00000000	29.52756000	3.15575800
22.69999883	0.00000000	41.07406000	3.15575800
22.89999882	0.00000000	48.33292000	3.15575800
23.09999881	0.00000000	49.02805000	3.19881900
23.29999879	0.00000000	42.00910000	3.57406500
23.49999878	0.00000000	28.46333000	4.31840500
23.69999877	0.00000000	11.02362000	4.69365100
23.89999876	0.00000000	-6.70521600	4.73671200
24.09999875	0.00000000	-20.52165000	4.73671200
24.29999873	0.00000000	-26.24877000	4.69365100
24.49999872	0.00000000	-21.96727000	4.26919300
24.69999871	0.00000000	-8.38459600	3.11269700
24.89999870	0.00000000	12.13091000	1.57480300
25.09999869	0.00000000	35.25467000	0.00000000
25.29999867	0.00000000	55.26574000	-1.48868100
25.49999866	0.00000000	66.84916000	-2.22687000
25.69999865	0.00000000	67.22440000	-1.39640700
25.89999864	-0.15871060	56.37918000	0.92888770
26.09999863	0.00000000	36.23893000	4.77977300
26.29999862	0.00000000	11.15896000	9.00590400
26.49999860	0.00000000	-13.12746000	12.49385000
26.69999859	0.00000000	-30.48105000	14.76993000
26.89999858	0.00000000	-36.71875000	14.72072000
27.09999857	0.00000000	-30.90551000	11.98327000
27.29999856	0.00000000	-14.29011000	6.87746000
27.49999854	0.00000000	9.62106200	-0.46751960
27.69999853	0.00000000	34.70103000	-8.50147600
27.89999852	-0.15871060	55.26574000	-14.63459000
28.09999851	0.00000000	67.22440000	-17.32899000
28.29999850	0.00000000	68.01181000	-15.74803000
28.49999848	0.00000000	57.22195000	-9.84867000
28.69999847	0.00000000	37.95522000	-0.18454720
28.89999846	0.00000000	14.78223000	11.79257000
29.09999845	0.00000000	-6.84670200	22.95152000
29.29999844	0.00000000	-21.96727000	31.02854000
29.49999843	0.00000000	-27.87278000	33.63681000
29.69999841	0.00000000	-24.05881000	29.36146000
29.89999840	0.00000000	-12.10015000	18.90994000
30.09999839	0.00000000	5.33956700	4.22613100
30.29999838	0.00000000	24.60630000	-11.61417000
30.49999837	0.00000000	41.30167000	-25.08612000
30.69999835	0.00000000	51.73474000	-33.16929000
30.89999834	0.00000000	54.51525000	-33.50147000
31.09999833	0.00000000	48.75123000	-25.78740000
31.29999832	0.00000000	36.83563000	-11.47884000
31.49999831	0.00000000	21.75812000	6.31766700
31.69999829	0.00000000	6.64370100	24.06496000
31.89999828	0.00000000	-4.94586600	37.91216000
32.09999827	0.00000000	-11.21432000	44.13755000
32.29999826	0.00000000	-10.85138000	41.86147000
32.49999825	0.00000000	-4.70595500	32.14813000
32.69999824	0.00000000	5.71481200	16.25861000
32.89999822	0.00000000	18.04257000	-2.60211600
33.09999821	0.00000000	28.88779000	-19.98031000
33.29999820	0.00000000	36.23893000	-31.96973000
33.49999819	0.00000000	38.60728000	-36.28814000
33.69999818	0.00000000	35.58686000	-32.43110000
33.89999816	0.00000000	29.02313000	-21.60433000
34.09999815	0.00000000	20.13410000	-5.75787400
34.29999814	0.00000000	10.92520000	11.61417000
34.49999813	0.00000000	4.36146600	26.66708000
34.69999812	0.00000000	1.61786400	36.33120000
34.89999810	0.00000000	3.15575800	38.28740000
35.09999809	0.00000000	8.45841400	32.56643000
35.29999808	0.00000000	15.34203000	20.99532000
35.49999807	0.00000000	21.57972000	6.31151500
35.69999806	0.00000000	26.18725000	-8.36614100
35.89999805	0.00000000	28.08809000	-19.88804000
36.09999803	0.00000000	26.23031000	-25.31988000
36.29999802	0.00000000	22.04109000	-23.46826000
36.49999801	0.00000000	17.01525000	-15.79724000
36.69999800	0.00000000	11.99557000	-4.22613100
36.89999799	0.00000000	8.55068800	8.45841400
37.09999797	0.00000000	7.38804100	18.81767000
37.29999796	0.00000000	8.92593500	24.24951000
37.49999795	0.00000000	12.73991000	23.51132000
37.69999794	0.00000000	17.39050000	17.42126000
37.89999793	0.00000000	21.99803000	7.80634800
38.09999791	0.00000000	25.47982000	-2.51599400
38.29999790	0.00000000	26.60556000	-10.54995000
38.49999789	0.00000000	25.52903000	-13.61343000
38.69999788	0.00000000	22.41634000	-10.96826000
38.89999787	0.00000000	18.55315000	-3.72170300
39.09999786	0.00000000	14.27165000	5.85014700
39.29999784	0.00000000	10.45768000	14.63459000
39.49999783	0.00000000	8.50147600	19.97416000
39.69999782	0.00000000	8.41535400	19.97416000
39.89999781	0.00000000	9.62106200	14.63459000
40.09999780	0.00000000	11.95251000	5.85014700
40.29999778	0.00000000	15.43430000	-3.80782500
40.49999777	0.00000000	18.92839000	-11.80487000
40.69999776	0.00000000	22.04109000	-16.02485000
40.89999775	0.00000000	24.36639000	-14.45620000
41.09999774	0.00000000	25.15994000	-7.99089500
41.29999772	0.00000000	24.78469000	1.62401600
41.49999771	0.00000000	23.20374000	11.61417000
41.69999770	0.00000000	20.50935000	19.32825000
41.89999769	0.00000000	17.43356000	23.18528000
42.09999768	0.00000000	14.69611000	21.97957000
42.29999767	0.00000000	12.69070000	15.88336000
42.49999765	0.00000000	11.15896000	6.68676100
42.69999764	0.00000000	10.37155000	-2.51599400
42.89999763	0.00000000	10.78371000	-9.52263600
43.09999762	0.00000000	11.95251000	-13.01058000
43.29999761	0.00000000	14.27165000	-12.63533000
43.49999759	0.00000000	16.92298000	-8.40920300
43.69999758	0.00000000	18.92839000	-1.53174200
43.89999757	0.00000000	20.50935000	5.75787400
44.09999756	0.00000000	21.66585000	11.56496000
44.29999755	0.00000000	22.04109000	14.67766000
44.49999753	0.00000000	21.71506000	14.72072000
44.69999752	0.00000000	20.97072000	12.07554000
44.89999751	0.00000000	20.55241000	7.84940900
45.09999750	0.00000000	20.08489000	3.24803100
45.29999749	0.00000000	18.92839000	-0.64591530
45.49999748	0.00000000	17.34744000	-2.97736200
45.69999746	0.00000000	15.34203000	-3.80782500
45.89999745	0.00000000	12.60458000	-3.02042300
46.09999744	0.00000000	9.57800100	-1.11343500
46.29999743	0.00000000	7.29576700	1.62401600
46.49999742	0.00000000	6.92052100	4.64443900
46.69999740	0.00000000	8.50147600	7.01279500
46.89999739	0.00000000	12.03863000	8.17544300
47.09999738	0.00000000	17.48277000	8.58759800
47.29999737	0.00000000	23.67126000	7.75713500
47.49999736	0.00000000	29.44143000	5.85014700
47.69999734	0.00000000	33.21235000	3.15575800
47.89999733	0.00000000	33.16929000	0.46751960
48.09999732	0.00000000	28.93085000	-1.48868100
48.29999731	0.00000000	21.57972000	-2.64517700
48.49999730	0.00000000	12.69070000	-2.60211600
48.69999729	0.00000000	4.22613100	-1.07037400
48.89999727	0.00000000	-1.58710600	1.62401600
49.09999726	0.00000000	-3.45103300	4.68750000
49.29999725	0.00000000	-0.75049200	7.43110200
49.49999724	0.00000000	6.59448800	9.38115100
49.69999723	0.00000000	16.22785000	10.49459000
49.89999721	0.00000000	26.27953000	10.03322000
50.09999720	0.00000000	34.32578000	7.33882900
50.29999719	0.00000000	37.77682000	3.15575800
50.49999718	0.00000000	35.90674000	-1.07037400
50.69999717	0.00000000	29.34916000	-4.18307100
50.89999715	0.00000000	20.13410000	-5.71481200
51.09999714	0.00000000	10.45768000	-5.29650500
51.29999713	0.00000000	2.78051200	-2.60211600
51.49999712	0.00000000	-1.07652500	1.57480300
51.69999711	0.00000000	0.07997046	5.85014700
51.89999710	0.00000000	5.80708600	9.33809000
52.09999708	0.00000000	14.22859000	11.61417000
52.29999707	0.00000000	22.74237000	11.61417000
52.49999706	0.00000000	29.26304000	9.33809000
52.69999705	0.00000000	32.32653000	5.89320800
52.89999704	0.00000000	30.41954000	1.99311000
53.09999702	0.00000000	24.74163000	-1.44562000
53.29999701	0.00000000	17.43356000	-3.76476400
53.49999700	0.00000000	10.50689000	-4.14000900
53.69999699	0.00000000	5.89936000	-2.64517700
53.89999698	0.00000000	4.69365100	0.04306102
54.09999696	0.00000000	7.01279500	3.11269700
54.29999695	0.00000000	11.99557000	5.75787400
54.49999694	0.00000000	18.50394000	6.92052100
54.69999693	0.00000000	24.23105000	6.22539300
54.89999692	0.00000000	27.34990000	4.73671200
55.09999691	0.00000000	27.34990000	3.15575800
55.29999689	0.00000000	24.27411000	1.62401600
55.49999688	0.00000000	18.92839000	0.55364170
55.69999687	0.00000000	13.15822000	0.92888770
55.89999686	0.00000000	8.55068800	2.82972400
56.09999685	0.00000000	6.22539300	5.06274600
56.29999683	0.00000000	7.01279500	7.01279500
56.49999682	0.00000000	10.45768000	7.71407400
56.69999681	0.00000000	15.80955000	6.96358300
56.89999680	0.00000000	21.16142000	4.60137700
57.09999679	0.00000000	24.69857000	1.15649600
57.29999677	0.00000000	26.23031000	-2.64517700
57.49999676	0.00000000	25.43676000	-5.29650500
57.69999675	0.00000000	21.99803000	-5.67175200
57.89999674	0.00000000	17.43356000	-3.71555100
58.09999673	0.00000000	13.15822000	0.55364170
58.29999672	0.00000000	10.08243000	6.26845500
58.49999670	0.00000000	8.92593500	11.65723000
58.69999669	0.00000000	10.03937000	15.09596000
58.89999668	0.00000000	12.69070000	15.84030000
59.09999667	0.00000000	15.80955000	13.14591000
59.29999666	0.00000000	18.87918000	7.75713500
59.49999664	0.00000000	21.16142000	1.20570900
59.69999663	0.00000000	21.57972000	-5.33956700
59.89999662	0.00000000	20.50935000	-9.89788300
60.09999661	0.00000000	18.92839000	-11.10359000
60.29999660	0.00000000	16.97219000	-8.74138700
60.49999658	0.00000000	14.69611000	-3.34645700
60.69999657	0.00000000	13.20128000	4.31840500
60.89999656	0.00000000	13.15822000	11.61417000
61.09999655	0.00000000	14.27165000	16.67692000
61.29999654	0.00000000	15.85261000	18.95300000
61.49999653	0.00000000	17.76575000	17.37205000
61.69999651	0.00000000	19.62352000	11.98942000
61.89999650	0.00000000	20.04183000	4.31840500
62.09999649	0.00000000	19.30364000	-3.76476400
62.29999648	0.00000000	18.13484000	-9.94094400
62.49999647	0.00000000	16.18479000	-13.05364000
62.69999645	0.00000000	14.32087000	-12.63533000
62.89999644	0.00000000	13.11516000	-8.40920300
63.09999643	0.00000000	12.78297000	-1.48868100
63.29999642	0.00000000	13.53346000	6.18233200
63.49999641	0.00000000	15.47736000	12.77067000
63.69999639	0.00000000	17.72268000	16.63386000
63.89999638	0.00000000	19.66658000	17.46432000
64.09999637	0.00000000	20.46014000	15.09596000
64.29999636	0.00000000	20.46014000	10.11934000
64.49999635	0.00000000	19.66658000	3.57406500
64.69999634	0.00000000	17.72268000	-2.55905500
64.89999632	0.00000000	15.43430000	-6.87746000
65.09999631	0.00000000	13.15822000	-8.82750900
65.29999630	0.00000000	12.03863000	-8.45226300
65.49999629	0.00000000	12.73991000	-5.80093500
65.69999628	0.00000000	14.27165000	-1.95004900
65.89999626	0.00000000	16.18479000	1.95004900
66.09999625	0.00000000	18.08563000	5.85014700
66.29999624	0.00000000	18.87918000	8.91978400
66.49999623	0.00000000	18.87918000	10.53765000
66.69999622	0.00000000	18.08563000	10.95595000
66.89999620	0.00000000	16.18479000	10.58686000
67.09999619	0.00000000	14.32087000	9.42421200
67.29999618	0.00000000	13.15822000	7.80019600
67.49999617	0.00000000	13.20128000	5.43184000
67.69999616	0.00000000	14.73917000	1.95004900
67.89999615	0.00000000	17.39050000	-1.53174200
68.09999613	0.00000000	20.04183000	-4.64443900
68.29999612	0.00000000	21.62278000	-6.92052100
68.49999611	0.00000000	21.99803000	-7.29576700
68.69999610	0.00000000	21.16142000	-5.75787400
68.89999609	0.00000000	18.41781000	-2.60211600
69.09999607	0.00000000	14.22859000	2.04232300
69.29999606	0.00000000	9.99630800	7.42495000
69.49999605	0.00000000	6.96973400	12.07554000
69.69999604	0.00000000	6.18233200	15.14518000
69.89999603	0.00000000	8.13238100	15.88336000
70.09999601	0.00000000	11.99557000	13.56422000
70.29999600	0.00000000	17.39050000	8.96284400
70.49999599	0.00000000	22.78543000	3.15575800
70.69999598	0.00000000	26.69783000	-2.64517700
70.89999597	0.00000000	28.97392000	-7.29576700
71.09999596	0.00000000	28.50640000	-9.94094400
71.29999594	0.00000000	24.69857000	-9.56569900
71.49999593	0.00000000	18.92839000	-6.13312000
71.69999592	0.00000000	12.69070000	-1.15649600
71.89999591	0.00000000	6.92052100	4.27534400
72.09999590	0.00000000	3.11269700	8.87672100
72.29999588	0.00000000	2.68823800	11.61417000
72.49999587	0.00000000	5.38877900	12.03248000
72.69999586	0.00000000	10.41462000	10.49459000
72.89999585	0.00000000	16.92298000	7.42495000
73.09999584	0.00000000	22.74237000	3.62327700
73.29999582	0.00000000	26.64862000	0.55364170
73.49999581	0.00000000	28.59867000	-1.02116100
73.69999580	0.00000000	27.81127000	-1.06422200
73.89999579	0.00000000	24.69857000	0.04306102
74.09999578	0.00000000	19.66658000	1.57480300
74.29999577	0.00000000	13.53346000	3.06348400
74.49999575	0.00000000	8.55068800	3.80782500
74.69999574	0.00000000	5.80708600	3.06348400
74.89999573	0.00000000	5.76402500	1.57480300
75.09999572	0.00000000	8.08316900	0.09227362
75.29999571	0.00000000	11.90330000	-0.65206690
75.49999569	0.00000000	16.50467000	0.09227362
75.69999568	0.00000000	19.99877000	1.66707700
75.89999567	0.00000000	21.99803000	4.03543200
76.09999566	0.00000000	22.78543000	7.47416300
76.29999565	0.00000000	21.99803000	10.49459000
76.49999563	0.00000000	20.13410000	11.98327000
76.69999562	0.00000000	17.80881000	11.18971000
76.89999561	0.00000000	15.90182000	7.75713500
77.09999560	0.00000000	14.69611000	3.15575800
77.29999559	0.00000000	14.32087000	-1.53174200
77.49999558	0.00000000	14.64690000	-5.75787400
77.69999556	0.00000000	15.39124000	-8.40920300
77.89999555	0.00000000	15.76649000	-8.40920300
78.09999554	0.00000000	15.76649000	-5.71481200
78.29999553	0.00000000	15.39124000	-1.06422200
78.49999552	0.00000000	14.64690000	4.69365100
78.69999550	0.00000000	14.27165000	10.07628000
78.89999549	0.00000000	14.27165000	13.56422000
79.09999548	0.00000000	14.73917000	14.72687000
79.29999547	0.00000000	16.27707000	13.18898000
79.49999546	0.00000000	18.55315000	9.38115100
79.69999544	0.00000000	20.46014000	4.73671200
79.89999543	0.00000000	21.62278000	0.04306102
80.09999542	0.00000000	21.57972000	-4.18307100
80.29999541	0.00000000	20.04183000	-6.87746000
80.49999540	0.00000000	17.34744000	-7.29576700
80.69999539	0.00000000	14.27165000	-5.80093500
80.89999537	0.00000000	11.57726000	-3.06348400
81.09999536	0.00000000	10.03937000	0.41830710
81.29999535	0.00000000	10.03937000	4.26919300
81.49999534	0.00000000	11.57726000	7.38188900
81.69999533	0.00000000	14.27165000	9.33809000
81.89999531	0.00000000	17.34744000	10.11934000
82.09999530	0.00000000	20.04183000	9.38115100
82.29999529	0.00000000	21.57972000	7.89247000
82.49999528	0.00000000	21.62278000	6.26845500
82.69999527	0.00000000	20.46014000	4.26919300
82.89999525	0.00000000	18.55315000	1.58095500
83.09999524	0.00000000	16.22785000	-1.11343500
83.29999523	0.00000000	14.32087000	-3.06348400
83.49999522	0.00000000	13.11516000	-4.26919300
83.69999521	0.00000000	12.73991000	-4.60137700
83.89999520	0.00000000	13.11516000	-3.80782500
84.09999518	0.00000000	14.27165000	-1.48868100
84.29999517	0.00000000	15.76649000	1.62401600
84.49999516	0.00000000	16.92298000	5.11195900
84.69999515	0.00000000	17.34744000	8.58759800
84.89999514	0.00000000	17.39050000	10.86983000
85.09999512	0.00000000	17.39050000	11.65723000
85.29999511	0.00000000	17.39050000	10.45152000
85.49999510	0.00000000	17.39050000	7.38188900
85.69999509	0.00000000	17.39050000	3.15575800
85.89999508	0.00000000	17.39050000	-1.11343500
86.09999506	0.00000000	17.39050000	-4.60137700
86.29999505	0.00000000	17.34744000	-6.87746000
86.49999504	0.00000000	16.92298000	-6.82824800
86.69999503	0.00000000	15.76649000	-4.18307100
86.89999502	0.00000000	14.27165000	0.04306102
87.09999501	0.00000000	13.11516000	4.69365100
87.29999499	0.00000000	12.73991000	8.91978400
87.49999498	0.00000000	13.11516000	11.56496000
87.69999497	0.00000000	14.27165000	11.61417000
87.89999496	0.00000000	15.80955000	9.33809000
88.09999495	0.00000000	17.39050000	5.85014700
88.29999493	0.00000000	18.87918000	1.57480300
88.49999492	0.00000000	19.66658000	-2.60211600
88.69999491	0.00000000	19.30364000	-5.24729300
88.89999490	0.00000000	18.55315000	-5.29650500
89.09999489	0.00000000	17.34744000	-3.02042300
89.29999487	0.00000000	15.80955000	0.46751960
89.49999486	0.00000000	14.27165000	4.69365100
89.69999485	0.00000000	13.11516000	8.50147600
89.89999484	-0.15871060	12.73991000	10.45152000
90.09999483	0.00000000	13.11516000	10.45152000
90.29999482	0.00000000	14.27165000	8.50147600
90.49999480	0.00000000	15.76649000	4.69365100
90.69999479	0.00000000	16.92298000	0.46751960
90.89999478	0.00000000	17.34744000	-3.02042300
91.09999477	0.00000000	17.39050000	-5.29650500
91.29999476	0.00000000	17.39050000	-5.24729300
91.49999474	0.00000000	17.34744000	-2.60211600
91.69999473	0.00000000	16.97219000	1.62401600
91.89999472	0.00000000	16.22785000	6.21924200
92.09999471	0.00000000	15.90182000	10.03322000
92.29999470	0.00000000	16.18479000	11.56496000
92.49999468	0.00000000	16.55389000	10.45152000
92.69999467	0.00000000	16.18479000	7.38188900
92.89999466	0.00000000	15.80955000	3.11269700
93.09999465	0.00000000	15.39124000	-1.43946800
93.29999464	0.00000000	14.60384000	-4.92125900
93.49999463	0.00000000	13.85334000	-6.04084600
93.69999461	0.00000000	13.11516000	-4.92125900
93.89999460	0.00000000	13.20128000	-1.43946800
94.09999459	0.00000000	14.69611000	3.11269700
94.29999458	0.00000000	16.97219000	7.38188900
94.49999457	0.00000000	18.92839000	10.45152000
94.69999455	0.00000000	20.50935000	11.56496000
94.89999454	0.00000000	21.62278000	10.03322000
95.09999453	0.00000000	21.57972000	6.21924200
95.29999452	0.00000000	20.04183000	1.66707700
95.49999451	0.00000000	17.29823000	-2.22687000
95.69999449	0.00000000	13.85334000	-4.55831700
95.89999448	0.00000000	10.45768000	-5.29650500
96.09999447	0.00000000	8.87672100	-3.76476400
96.29999446	0.00000000	9.20275500	-0.33218500
96.49999445	0.00000000	10.41462000	3.43873000
96.69999444	0.00000000	13.15822000	6.58833600
96.89999442	0.00000000	16.97219000	8.13238100
97.09999441	0.00000000	20.46014000	8.54453700
97.29999440	0.00000000	23.20374000	7.33882900
97.49999439	0.00000000	24.69857000	4.73671200
97.69999438	0.00000000	24.32333000	2.04232300
97.89999436	0.00000000	21.99803000	0.09227362
98.09999435	0.00000000	18.50394000	-1.06422200
98.29999434	0.00000000	14.27165000	-1.06422200
98.49999433	0.00000000	10.41462000	0.04306102
98.69999432	0.00000000	8.08316900	1.53174200
98.89999430	0.00000000	7.29576700	2.73745100
99.09999429	0.00000000	8.45841400	3.53100400
99.29999428	0.00000000	11.15896000	4.26919300
99.49999427	0.00000000	14.64690000	4.31840500
99.69999426	0.00000000	18.50394000	3.99237200
99.89999425	0.00000000	21.57972000	4.36146600
100.09999423	0.00000000	23.20374000	4.69365100
100.29999422	0.00000000	23.57899000	4.73671200
100.49999421	0.00000000	22.78543000	4.73671200
100.69999420	0.00000000	20.46014000	4.69365100
100.89999419	0.00000000	17.39050000	4.26919300
101.09999417	0.00000000	14.27165000	3.11269700
101.29999416	0.00000000	11.57726000	1.57480300
101.49999415	0.00000000	10.03937000	0.04306102
101.69999414	0.00000000	9.99630800	-1.11343500
101.89999413	0.00000000	11.10974000	-1.48253000
102.09999411	0.00000000	12.69070000	-1.06422200
102.29999410	0.00000000	14.64690000	0.51058070
102.49999409	0.00000000	16.97219000	3.15575800
102.69999408	0.00000000	18.87918000	5.85014700
102.89999407	0.00000000	20.08489000	7.80019600
103.09999406	0.00000000	20.46014000	8.91978400
103.29999404	0.00000000	20.08489000	8.50147600
103.49999403	0.00000000	18.87918000	6.22539300
103.69999402	0.00000000	16.97219000	3.15575800
103.89999401	0.00000000	14.64690000	0.09227362
104.09999400	0.00000000	12.78297000	-2.22687000
104.29999398	0.00000000	11.95251000	-3.02042300
104.49999397	0.00000000	12.31545000	-2.64517700
104.69999396	0.00000000	13.02288000	-1.07037400
104.89999395	0.00000000	13.85334000	1.58095500
105.09999394	0.00000000	14.69611000	4.26919300
105.29999392	0.00000000	16.22785000	6.22539300
105.49999391	0.00000000	18.08563000	7.38188900
105.69999390	0.00000000	18.83612000	7.38188900
105.89999389	0.00000000	18.50394000	6.22539300
106.09999388	0.00000000	17.34744000	4.31840500
106.29999387	0.00000000	15.85261000	1.99311000
106.49999385	0.00000000	14.69611000	0.09227362
106.69999384	0.00000000	14.27165000	-1.06422200
106.89999383	0.00000000	14.27165000	-1.02116100
107.09999382	0.00000000	14.64690000	0.46751960
107.29999381	0.00000000	15.43430000	2.69439000
107.49999379	0.00000000	16.18479000	4.26919300
107.69999378	0.00000000	16.97219000	5.06274600
107.89999377	0.00000000	17.29823000	5.43184000
108.09999376	0.00000000	16.92298000	4.64443900
108.29999375	0.00000000	15.80955000	3.15575800
108.49999374	0.00000000	14.69611000	1.62401600
108.69999372	0.00000000	14.22859000	0.46136810
108.89999371	0.00000000	13.85334000	0.04306102
109.09999370	0.00000000	13.53346000	0.04306102
109.29999369	0.00000000	14.32087000	0.51058070
109.49999368	0.00000000	15.76649000	2.04232300
109.69999366	0.00000000	16.97219000	4.26919300
109.89999365	0.00000000	17.72268000	5.80093500
110.09999364	0.00000000	18.13484000	6.21924200
110.29999363	0.00000000	17.72268000	5.85014700
110.49999362	0.00000000	16.97219000	4.68750000
110.69999360	0.00000000	15.80955000	3.15575800
110.89999359	0.00000000	14.64690000	1.62401600
111.09999358	0.00000000	13.85334000	0.46136810
111.29999357	0.00000000	13.11516000	0.04306102
111.49999356	0.00000000	13.11516000	0.04306102
111.69999355	0.00000000	13.85334000	0.46136810
111.89999353	0.00000000	14.60384000	1.57480300
112.09999352	0.00000000	15.43430000	2.73745100
112.29999351	0.00000000	16.18479000	3.53100400
112.49999350	0.00000000	16.97219000	4.31840500
112.69999349	0.00000000	17.29823000	4.69365100
112.89999347	0.00000000	16.97219000	4.69365100
113.09999346	0.00000000	16.22785000	4.31840500
113.29999345	0.00000000	15.85261000	3.57406500
113.49999344	0.00000000	15.76649000	3.19881900
113.69999343	0.00000000	15.39124000	3.11269700
113.89999341	0.00000000	14.69611000	2.73745100
114.09999340	0.00000000	14.69611000	1.99311000
114.29999339	0.00000000	15.39124000	1.61786400
114.49999338	0.00000000	15.80955000	1.57480300
114.69999337	0.00000000	16.18479000	1.57480300
114.89999336	0.00000000	16.55389000	1.57480300
115.09999334	0.00000000	16.18479000	1.57480300
115.29999333	0.00000000	15.85261000	1.57480300
115.49999332	0.00000000	15.80955000	1.61786400
115.69999331	0.00000000	15.80955000	1.99311000
115.89999330	0.00000000	15.76649000	2.78051200
116.09999328	0.00000000	15.39124000	3.53100400
116.29999327	0.00000000	14.64690000	4.31840500
116.49999326	0.00000000	14.27165000	4.69365100
116.69999325	0.00000000	14.22859000	4.69365100
116.89999324	0.00000000	14.27165000	4.26919300
117.09999322	0.00000000	14.64690000	3.15575800
117.29999321	0.00000000	15.43430000	2.04232300
117.49999320	0.00000000	16.18479000	1.57480300
117.69999319	0.00000000	16.97219000	1.15649600
117.89999318	0.00000000	17.34744000	0.46136810
118.09999317	0.00000000	17.39050000	0.46136810
118.29999315	0.00000000	17.34744000	1.15649600
118.49999314	0.00000000	16.92298000	1.57480300
118.69999313	0.00000000	15.80955000	2.04232300
118.89999312	0.00000000	14.64690000	3.15575800
119.09999311	0.00000000	13.85334000	4.26919300
119.29999309	0.00000000	13.11516000	4.69365100
119.49999308	0.00000000	13.11516000	4.69365100
119.69999307	0.00000000	13.85334000	4.31840500
119.89999306	0.00000000	14.64690000	3.57406500
120.09999305	0.00000000	15.80955000	3.15575800
120.29999303	0.00000000	16.97219000	2.73745100
120.49999302	0.00000000	17.76575000	1.99311000
120.69999301	0.00000000	18.50394000	1.61786400
120.89999300	0.00000000	18.50394000	1.57480300
121.09999299	0.00000000	17.76575000	1.57480300
121.29999298	0.00000000	16.97219000	1.57480300
121.49999296	0.00000000	15.76649000	1.57480300
121.69999295	0.00000000	14.27165000	1.61786400
121.89999294	0.00000000	13.11516000	1.99311000
122.09999293	0.00000000	12.69070000	2.73745100
122.29999292	0.00000000	12.69070000	3.11269700
122.49999290	0.00000000	13.11516000	3.15575800
122.69999289	0.00000000	14.22859000	3.15575800
122.89999288	0.00000000	15.39124000	3.15575800
123.09999287	0.00000000	16.18479000	3.15575800
123.29999286	0.00000000	16.97219000	3.15575800
123.49999284	0.00000000	17.34744000	3.15575800
123.69999283	0.00000000	17.39050000	3.11269700
123.89999282	0.00000000	17.34744000	2.73745100
124.09999281	0.00000000	16.97219000	1.99311000
124.29999280	0.00000000	16.18479000	1.61786400
124.49999279	0.00000000	15.43430000	1.57480300
124.69999277	0.00000000	14.64690000	1.57480300
124.89999276	0.00000000	14.22859000	1.57480300
125.09999275	0.00000000	13.85334000	1.61786400
125.29999274	0.00000000	13.48425000	1.99311000
125.49999273	0.00000000	13.89641000	2.73745100
125.69999271	0.00000000	14.60384000	3.11269700
125.89999270	0.00000000	15.43430000	3.15575800
126.09999269	0.00000000	16.18479000	3.15575800
126.29999268	0.00000000	16.97219000	3.15575800
126.49999267	0.00000000	17.34744000	3.15575800
126.69999265	0.00000000	17.39050000	3.11269700
126.89999264	0.00000000	17.34744000	2.73745100
127.09999263	0.00000000	16.92298000	1.99311000
127.29999262	0.00000000	15.76649000	1.61786400
127.49999261	0.00000000	14.27165000	1.57480300
127.69999260	0.00000000	13.11516000	1.57480300
127.89999258	0.00000000	12.73991000	1.61786400
128.09999257	0.00000000	13.11516000	1.99311000
128.29999256	0.00000000	14.22859000	2.73745100
128.49999255	0.00000000	15.39124000	3.11269700
128.69999254	0.00000000	16.18479000	3.15575800
128.89999252	0.00000000	16.97219000	3.15575800
129.09999251	0.00000000	17.34744000	3.15575800
129.29999250	0.00000000	17.34744000	3.11269700
129.49999249	0.00000000	16.92298000	2.73745100
129.69999248	0.00000000	15.80955000	1.99311000
129.89999246	0.00000000	14.64690000	1.61786400
130.09999245	0.00000000	13.85334000	1.57480300
130.29999244	0.00000000	13.11516000	1.61786400
130.49999243	0.00000000	13.11516000	1.99311000
130.69999242	0.00000000	13.85334000	2.73745100
130.89999241	0.00000000	14.64690000	3.11269700
131.09999239	0.00000000	15.80955000	3.15575800
131.29999238	0.00000000	16.92298000	3.11269700
131.49999237	0.00000000	17.34744000	2.73745100
131.69999236	0.00000000	17.34744000	1.99311000
131.89999235	0.00000000	16.92298000	1.61786400
132.09999233	0.00000000	15.80955000	1.57480300
132.29999232	0.00000000	14.69611000	1.57480300
132.49999231	0.00000000	14.27165000	1.57480300
132.69999230	0.00000000	14.22859000	1.61786400
132.89999229	0.00000000	14.22859000	1.99311000
133.09999227	0.00000000	14.27165000	2.78051200
133.29999226	0.00000000	14.64690000	3.53100400
133.49999225	0.00000000	15.39124000	4.26919300
133.69999224	0.00000000	15.76649000	4.26919300
133.89999223	0.00000000	15.80955000	3.57406500
134.09999222	0.00000000	15.80955000	3.15575800
134.29999220	0.00000000	15.76649000	2.73745100
134.49999219	0.00000000	15.43430000	1.99311000
134.69999218	0.00000000	15.06521000	1.57480300
134.89999217	0.00000000	15.43430000	1.19955700
135.09999216	0.00000000	15.76649000	0.83661410
135.29999214	0.00000000	15.80955000	1.19955700
135.49999213	0.00000000	15.80955000	1.57480300
135.69999212	0.00000000	15.80955000	1.99311000
135.89999211	0.00000000	15.76649000	2.73745100
136.09999210	0.00000000	15.39124000	3.11269700
136.29999208	0.00000000	14.60384000	3.15575800
136.49999207	0.00000000	13.89641000	3.15575800
136.69999206	0.00000000	13.48425000	3.11269700
136.89999205	0.00000000	13.89641000	2.78051200
137.09999204	0.00000000	14.60384000	2.36835600
137.29999203	0.00000000	15.43430000	2.36220500
137.49999201	0.00000000	16.18479000	1.95004900
137.69999200	0.00000000	16.97219000	1.61786400
137.89999199	0.00000000	17.29823000	1.57480300
138.09999198	0.00000000	16.97219000	1.57480300
138.29999197	0.00000000	16.18479000	1.57480300
138.49999195	0.00000000	15.43430000	1.57480300
138.69999194	0.00000000	14.64690000	1.61786400
138.89999193	0.00000000	14.22859000	1.99311000
139.09999192	0.00000000	13.85334000	2.73745100
139.29999191	0.00000000	13.48425000	3.11269700
139.49999189	0.00000000	13.89641000	3.19881900
139.69999188	0.00000000	14.60384000	3.53100400
139.89999187	0.00000000	15.39124000	3.90009800
140.09999186	0.00000000	15.76649000	3.48794300
140.29999185	0.00000000	15.80955000	2.78051200
140.49999184	0.00000000	15.80955000	1.95004900
140.69999182	0.00000000	15.76649000	1.19955700
140.89999181	0.00000000	15.39124000	0.41830710
141.09999180	0.00000000	14.64690000	0.09227362
141.29999179	0.00000000	14.27165000	0.41830710
141.49999178	0.00000000	14.22859000	1.19955700
141.69999176	0.00000000	14.22859000	1.95004900
141.89999175	0.00000000	14.27165000	2.78051200
142.09999174	0.00000000	14.64690000	3.53100400
142.29999173	0.00000000	15.39124000	4.31840500
142.49999172	0.00000000	15.76649000	4.64443900
142.69999170	0.00000000	15.80955000	4.31840500
142.89999169	0.00000000	15.80955000	3.53100400
143.09999168	0.00000000	15.76649000	2.78051200
143.29999167	0.00000000	15.39124000	1.99311000
143.49999166	0.00000000	14.69611000	1.57480300
143.69999165	0.00000000	14.64690000	1.19955700
143.89999163	0.00000000	15.01599000	0.83661410
144.09999162	0.00000000	15.02214000	1.24877000
144.29999161	0.00000000	15.43430000	1.95004900
144.49999160	0.00000000	15.76649000	2.73745100
144.69999159	0.00000000	15.80955000	3.15575800
144.89999157	0.00000000	15.80955000	3.57406500
145.09999156	0.00000000	15.76649000	4.26919300
145.29999155	0.00000000	15.39124000	4.26919300
145.49999154	0.00000000	14.64690000	3.53100400
145.69999153	0.00000000	14.27165000	2.78051200
145.89999151	0.00000000	14.22859000	1.99311000
146.09999150	0.00000000	14.22859000	1.61786400
146.29999149	0.00000000	14.22859000	1.57480300
146.49999148	0.00000000	14.27165000	1.57480300
146.69999147	0.00000000	14.64690000	1.57480300
146.89999146	0.00000000	15.39124000	1.61786400
147.09999144	0.00000000	15.76649000	1.99311000
147.29999143	0.00000000	15.80955000	2.73745100
147.49999142	0.00000000	15.80955000	3.11269700
147.69999141	0.00000000	15.76649000	3.15575800
147.89999140	0.00000000	15.39124000	3.15575800
148.09999138	0.00000000	14.64690000	3.15575800
148.29999137	0.00000000	14.27165000	3.15575800
148.49999136	0.00000000	14.22859000	3.15575800
148.69999135	0.00000000	14.22859000	3.11269700
148.89999134	0.00000000	14.27165000	2.73745100
149.09999132	0.00000000	14.64690000	1.99311000
149.29999131	0.00000000	15.39124000	1.61786400
149.49999130	0.00000000	15.76649000	1.57480300
149.69999129	0.00000000	15.80955000	1.57480300
149.89999128	0.00000000	15.80955000	1.61786400
150.09999127	0.00000000	15.80955000	1.99311000
150.29999125	0.00000000	15.76649000	2.73745100
150.49999124	0.00000000	15.39124000	3.11269700
150.69999123	0.00000000	14.64690000	3.15575800
150.89999122	0.00000000	14.27165000	3.15575800
151.09999121	0.00000000	14.22859000	3.15575800
151.29999119	0.00000000	14.22859000	3.11269700
151.49999118	0.00000000	14.22859000	2.73745100
151.69999117	0.00000000	14.22859000	1.99311000
151.89999116	0.00000000	14.27165000	1.61786400
152.09999115	0.00000000	14.64690000	1.57480300
152.29999113	0.00000000	15.39124000	1.57480300
152.49999112	0.00000000	15.76649000	1.57480300
152.69999111	0.00000000	15.80955000	1.61786400
152.89999110	0.00000000	15.80955000	1.99311000
153.09999109	0.00000000	15.80955000	2.73745100
153.29999108	0.00000000	15.80955000	3.11269700
153.49999106	0.00000000	15.76649000	3.15575800
153.69999105	0.00000000	15.39124000	3.15575800
153.89999104	0.00000000	14.64690000	3.15575800
154.09999103	0.00000000	14.27165000	3.15575800
154.29999102	0.00000000	14.22859000	3.11269700
154.49999100	0.00000000	14.22859000	2.73745100
154.69999099	0.00000000	14.22859000	1.99311000
154.89999098	0.00000000	14.27165000	1.61786400
155.09999097	0.00000000	14.64690000	1.57480300
155.29999096	0.00000000	15.39124000	1.57480300
155.49999094	0.00000000	15.76649000	1.57480300
155.69999093	0.00000000	15.80955000	1.57480300
155.89999092	0.00000000	15.80955000	1.57480300
156.09999091	0.00000000	15.76649000	1.57480300
156.29999090	0.00000000	15.39124000	1.61786400
156.49999089	0.00000000	14.64690000	1.99311000
156.69999087	0.00000000	14.27165000	2.73745100
156.89999086	0.00000000	14.22859000	3.11269700
157.09999085	0.00000000	14.22859000	3.15575800
157.29999084	0.00000000	14.22859000	3.15575800
157.49999083	0.00000000	14.22859000	3.11269700
157.69999081	0.00000000	14.27165000	2.73745100
157.89999080	0.00000000	14.64690000	1.99311000
158.09999079	0.00000000	15.39124000	1.61786400
158.29999078	0.00000000	15.76649000	1.57480300
158.49999077	0.00000000	15.80955000	1.57480300
158.69999075	0.00000000	15.80955000	1.57480300
158.89999074	0.00000000	15.80955000	1.57480300
159.09999073	0.00000000	15.76649000	1.61786400
159.29999072	0.00000000	15.39124000	1.99311000
159.49999071	0.00000000	14.64690000	2.73745100
159.69999070	0.00000000	14.27165000	3.11269700
159.89999068	0.00000000	14.22859000	3.15575800
160.09999067	0.00000000	14.27165000	3.15575800
160.29999066	0.00000000	14.60384000	3.15575800
160.49999065	0.00000000	14.97293000	3.11269700
160.69999064	0.00000000	14.60384000	2.73745100
160.89999062	0.00000000	14.27165000	1.99311000
161.09999061	0.00000000	14.22859000	1.61786400
161.29999060	0.00000000	14.27165000	1.57480300
161.49999059	0.00000000	14.64690000	1.57480300
161.69999058	0.00000000	15.39124000	1.57480300
161.89999056	0.00000000	15.76649000	1.61786400
162.09999055	0.00000000	15.80955000	1.99311000
162.29999054	0.00000000	15.76649000	2.73745100
162.49999053	0.00000000	15.39124000	3.11269700
162.69999052	0.00000000	14.64690000	3.15575800
162.89999051	0.00000000	14.27165000	3.15575800
163.09999049	0.00000000	14.22859000	3.15575800
163.29999048	0.00000000	14.22859000	3.15575800
163.49999047	0.00000000	14.22859000	3.11269700
163.69999046	0.00000000	14.22859000	2.73745100
163.89999045	0.00000000	14.22859000	1.99311000
164.09999043	0.00000000	14.22859000	1.61786400
164.29999042	0.00000000	14.27165000	1.57480300
164.49999041	0.00000000	14.64690000	1.57480300
164.69999040	0.00000000	15.39124000	1.57480300
164.89999039	0.00000000	15.76649000	1.57480300
165.09999037	0.00000000	15.80955000	1.57480300
165.29999036	0.00000000	15.80955000	1.61786400
165.49999035	0.00000000	15.80955000	1.95004900
165.69999034	0.00000000	15.76649000	2.36220500
165.89999033	0.00000000	15.39124000	2.36835600
166.09999032	0.00000000	14.64690000	2.78051200
166.29999030	0.00000000	14.27165000	3.11269700
166.49999029	0.00000000	14.22859000	3.11269700
166.69999028	0.00000000	14.22859000	2.78051200
166.89999027	0.00000000	14.22859000	2.36835600
167.09999026	0.00000000	14.22859000	2.36220500
167.29999024	0.00000000	14.27165000	1.95004900
167.49999023	0.00000000	14.64690000	1.61786400
167.69999022	0.00000000	15.39124000	1.57480300
167.89999021	0.00000000	15.76649000	1.57480300
168.09999020	0.00000000	15.80955000	1.57480300
168.29999018	0.00000000	15.80955000	1.61786400
168.49999017	0.00000000	15.76649000	1.95004900
168.69999016	0.00000000	15.39124000	2.31914400
168.89999015	0.00000000	14.69611000	1.95004900
169.09999014	0.00000000	14.64690000	1.61786400
169.29999013	0.00000000	14.97293000	1.57480300
169.49999011	0.00000000	14.60384000	1.57480300
169.69999010	0.00000000	14.27165000	1.57480300
169.89999009	0.00000000	14.22859000	1.57480300
170.09999008	0.00000000	14.22859000	1.61786400
170.29999007	0.00000000	14.22859000	1.95004900
170.49999005	0.00000000	14.22859000	2.36220500
170.69999004	0.00000000	14.22859000	2.32529500
170.89999003	0.00000000	14.27165000	2.36220500
171.09999002	0.00000000	14.64690000	1.95004900
171.29999001	0.00000000	15.34203000	1.61786400
171.49998999	0.00000000	15.34203000	1.57480300
171.69998998	0.00000000	14.64690000	1.57480300
171.89998997	0.00000000	14.27165000	1.57480300
172.09998996	0.00000000	14.22859000	1.57480300
172.29998995	0.00000000	14.22859000	1.57480300
172.49998994	0.00000000	14.27165000	1.61786400
172.69998992	0.00000000	14.60384000	1.99311000
172.89998991	0.00000000	14.97293000	2.68823800
173.09998990	0.00000000	14.60384000	2.68823800
173.29998989	0.00000000	14.27165000	2.04232300
173.49998988	0.00000000	14.22859000	1.99311000
173.69998986	0.00000000	14.22859000	2.31914400
173.89998985	0.00000000	14.27165000	1.95004900
174.09998984	0.00000000	14.64690000	1.61786400
174.29998983	0.00000000	15.34203000	1.57480300
174.49998982	0.00000000	15.34203000	1.57480300
174.69998980	0.00000000	14.64690000	1.57480300
174.89998979	0.00000000	14.27165000	1.57480300
175.09998978	0.00000000	14.22859000	1.57480300
175.29998977	0.00000000	14.22859000	1.57480300
175.49998976	0.00000000	14.22859000	1.61786400
175.69998975	0.00000000	14.22859000	1.95004900
175.89998973	0.00000000	14.22859000	2.36220500
176.09998972	0.00000000	14.22859000	2.32529500
176.29998971	0.00000000	14.22859000	2.36220500
176.49998970	0.00000000	14.22859000	1.99311000
176.69998969	0.00000000	14.22859000	2.04232300
176.89998967	0.00000000	14.22859000	2.68823800
177.09998966	0.00000000	14.22859000	2.68823800
177.29998965	0.00000000	14.22859000	1.99311000
177.49998964	0.00000000	14.22859000	1.61786400
177.69998963	0.00000000	14.22859000	1.57480300
177.89998961	0.00000000	14.22859000	1.57480300
178.09998960	0.00000000	14.22859000	1.57480300
178.29998959	0.00000000	14.22859000	1.57480300
178.49998958	0.00000000	14.22859000	1.57480300
178.69998957	0.00000000	14.22859000	1.61786400
178.89998956	0.00000000	14.22859000	1.99311000
179.09998954	0.00000000	14.22859000	2.68823800
179.29998953	0.00000000	14.22859000	2.68823800
179.49998952	0.00000000	14.22859000	1.99311000
179.69998951	0.00000000	14.22859000	1.61786400
179.89998950	0.00000000	14.22859000	1.57480300
180.09998948	0.00000000	14.22859000	1.57480300
180.29998947	0.00000000	14.22859000	1.57480300
180.49998946	0.00000000	14.22859000	1.57480300
180.69998945	0.00000000	14.22859000	1.57480300
180.89998944	0.00000000	14.22859000	1.57480300
181.09998942	0.00000000	14.22859000	1.61786400
181.29998941	0.00000000	14.22859000	1.99311000
181.49998940	0.00000000	14.22859000	2.73745100
181.69998939	0.00000000	14.22859000	3.11269700
181.89998938	0.00000000	14.22859000	3.15575800
182.09998937	0.00000000	14.22859000	3.15575800
182.29998935	0.00000000	14.22859000	3.11269700
182.49998934	0.00000000	14.22859000	2.73745100
182.69998933	0.00000000	14.27165000	1.99311000
182.89998932	0.00000000	14.60384000	1.61786400
183.09998931	0.00000000	14.97293000	1.57480300
183.29998929	0.00000000	14.60384000	1.57480300
183.49998928	0.00000000	14.27165000	1.57480300
183.69998927	0.00000000	14.22859000	1.57480300
183.89998926	0.00000000	14.22859000	1.61786400
184.09998925	0.00000000	14.22859000	1.99311000
184.29998923	0.00000000	14.22859000	2.73745100
184.49998922	0.00000000	14.22859000	3.11269700
184.69998921	0.00000000	14.22859000	3.15575800
184.89998920	0.00000000	14.22859000	3.15575800
185.09998919	0.00000000	14.22859000	3.15575800
185.29998918	0.00000000	14.22859000	3.11269700
185.49998916	0.00000000	14.22859000	2.73745100
185.69998915	0.00000000	14.22859000	1.99311000
185.89998914	0.00000000	14.27165000	1.61786400
186.09998913	0.00000000	14.60384000	1.57480300
186.29998912	0.00000000	14.97293000	1.57480300
186.49998910	0.00000000	14.60384000	1.57480300
186.69998909	0.00000000	14.27165000	1.57480300
186.89998908	0.00000000	14.22859000	1.57480300
187.09998907	0.00000000	14.22859000	1.61786400
187.29998906	0.00000000	14.22859000	1.99311000
187.49998904	0.00000000	14.22859000	2.73745100
187.69998903	0.00000000	14.22859000	3.11269700
187.89998902	0.00000000	14.22859000	3.15575800
188.09998901	0.00000000	14.22859000	3.11269700
188.29998900	0.00000000	14.22859000	2.73745100
188.49998899	0.00000000	14.22859000	1.99311000
188.69998897	0.00000000	14.22859000	1.61786400
188.89998896	0.00000000	14.22859000	1.57480300
189.09998895	0.00000000	14.22859000	1.57480300
189.29998894	0.00000000	14.22859000	1.57480300
189.49998893	0.00000000	14.22859000	1.57480300
189.69998891	0.00000000	14.22859000	1.57480300
189.89998890	0.00000000	14.22859000	1.57480300
190.09998889	0.00000000	14.22859000	1.57480300
190.29998888	0.00000000	14.22859000	1.61786400
190.49998887	0.00000000	14.22859000	1.99311000
190.69998885	0.00000000	14.22859000	2.73745100
190.89998884	0.00000000	14.22859000	3.11269700
191.09998883	0.00000000	14.22859000	3.15575800
191.29998882	0.00000000	14.22859000	3.11269700
191.49998881	0.00000000	14.22859000	2.73745100
191.69998880	0.00000000	14.22859000	1.99311000
191.89998878	0.00000000	14.22859000	1.61786400
192.09998877	0.00000000	14.22859000	1.57480300
192.29998876	0.00000000	14.27165000	1.57480300
192.49998875	0.00000000	14.60384000	1.57480300
192.69998874	0.00000000	14.97293000	1.57480300
192.89998872	0.00000000	14.60384000	1.57480300
193.09998871	0.00000000	14.27165000	1.57480300
193.29998870	0.00000000	14.22859000	1.57480300
193.49998869	0.00000000	14.22859000	1.57480300
193.69998868	0.00000000	14.22859000	1.61786400
193.89998866	0.00000000	14.22859000	1.99311000
194.09998865	0.00000000	14.22859000	2.73745100
194.29998864	0.00000000	14.22859000	3.11269700
194.49998863	0.00000000	14.22859000	3.11269700
194.69998862	0.00000000	14.22859000	2.73745100
194.89998861	0.00000000	14.22859000	1.99311000
195.09998859	0.00000000	14.22859000	1.61786400
195.29998858	0.00000000	14.22859000	1.57480300
195.49998857	0.00000000	14.22859000	1.57480300
195.69998856	0.00000000	14.22859000	1.57480300
195.89998855	0.00000000	14.22859000	1.57480300
196.09998853	0.00000000	14.22859000	1.57480300
