Time	Channel A	Channel B	Channel C
(us)	(V)	(mV)	(mV)

-4.49999956	0.00000000	-12.64764000	-9.47342500
-4.29999957	0.00000000	-12.64764000	-9.47342500
-4.09999958	0.00000000	-12.64764000	-9.43036400
-3.89999959	0.00000000	-12.64764000	-9.05511800
-3.69999960	0.00000000	-12.64764000	-8.35998900
-3.49999962	0.00000000	-12.64764000	-8.31077700
-3.29999963	0.00000000	-12.64764000	-8.63681000
-3.09999964	0.00000000	-12.64764000	-8.26771600
-2.89999965	0.00000000	-12.64764000	-7.98474400
-2.69999966	0.00000000	-12.64764000	-8.26771600
-2.49999968	0.00000000	-12.64764000	-8.67987200
-2.29999969	0.00000000	-12.64764000	-8.68602300
-2.09999970	0.00000000	-12.64764000	-9.09817800
-1.89999971	0.00000000	-12.64764000	-9.43036400
-1.69999972	0.00000000	-12.64764000	-9.47342500
-1.49999973	0.00000000	-12.64764000	-9.47342500
-1.29999975	0.00000000	-12.64764000	-9.47342500
-1.09999976	0.00000000	-12.64764000	-9.43036400
-0.89999977	0.00000000	-12.64764000	-9.09817800
-0.69999978	0.00000000	-12.64764000	-8.72908400
-0.49999979	0.00000000	-12.64764000	-9.05511800
-0.29999981	0.31803640	-12.64764000	-9.05511800
-0.09999982	0.63668800	-12.64764000	-8.72908400
0.10000017	0.95533960	-12.64764000	-9.09817800
0.30000016	0.95533960	-12.64764000	-9.43036400
0.50000015	0.79601380	-12.64764000	-9.47342500
0.70000013	0.15871060	-12.64764000	-9.47342500
0.90000012	-0.63668800	-12.64764000	-9.47342500
1.10000011	-1.59264300	-12.64764000	-9.47342500
1.30000010	-2.38927200	-12.64764000	-9.47342500
1.50000009	-2.86724900	-12.64764000	-9.43036400
1.70000008	-2.38927200	-12.64764000	-9.05511800
1.90000006	-1.11466500	-12.64764000	-8.35998900
2.10000005	0.63668800	-12.64764000	-8.35998900
2.30000004	2.86724900	-12.64764000	-9.05511800
2.50000003	4.61921700	-12.64764000	-9.43036400
2.70000002	5.25652100	-12.64764000	-9.47342500
2.90000000	4.61921700	-12.64764000	-9.47342500
3.09999999	2.70792300	-12.64764000	-9.47342500
3.29999998	-0.31803640	-12.64764000	-9.47342500
3.49999997	-3.82258900	-12.64764000	-9.47342500
3.69999996	-6.69045300	-12.64764000	-9.43036400
3.89999994	-7.96444400	-12.64764000	-9.05511800
4.09999993	-7.32714100	-12.64764000	-8.31077700
4.29999992	-4.77854300	-12.64764000	-7.93553100
4.49999991	-0.63668800	-12.64764000	-7.89247000
4.69999990	3.82258900	-12.64764000	-7.93553100
4.89999989	7.48646600	-12.64764000	-8.31077700
5.09999987	9.39837600	-12.64764000	-9.05511800
5.29999986	8.92039900	-12.64764000	-9.47342500
5.49999985	6.21247500	-12.64764000	-9.84867000
5.69999984	1.91129400	-12.64764000	-10.21161000
5.89999983	-2.86724900	-12.64764000	-9.84867000
6.09999981	-7.00848900	-12.64764000	-9.47342500
6.29999980	-9.23905000	-12.64764000	-9.05511800
6.49999979	-9.23905000	-12.64764000	-8.31077700
6.69999978	-6.84916400	-12.64764000	-7.93553100
6.89999977	-3.02657500	-12.64764000	-7.89247000
7.09999975	1.43331700	-12.64764000	-7.93553100
7.29999974	5.09719500	-12.64764000	-8.31077700
7.49999973	7.32714100	-12.64764000	-9.05511800
7.69999972	7.64579200	-12.64764000	-9.43036400
7.89999971	6.05315000	-12.64764000	-9.47342500
8.09999970	3.18590100	-12.64764000	-9.47342500
8.29999968	-0.15871060	-12.64764000	-9.47342500
8.49999967	-3.02657500	-12.64764000	-9.47342500
8.69999966	-4.77854300	-12.64764000	-9.43036400
8.89999965	-5.09719500	-12.64764000	-9.05511800
9.09999964	-4.30056600	-12.64764000	-8.35998900
9.29999962	-2.54859700	-12.64764000	-8.35998900
9.49999961	-0.47736220	-12.64764000	-9.05511800
9.69999960	1.27399100	-12.64764000	-9.43036400
9.89999959	2.22994600	-12.64764000	-9.47342500
10.09999958	2.54859700	-12.64764000	-9.47342500
10.29999956	2.07062000	-12.64764000	-9.43036400
10.49999955	1.43331700	-12.64764000	-9.09817800
10.69999954	0.47736220	-12.64764000	-8.72908400
10.89999953	-0.31803640	-12.64764000	-9.09817800
11.09999952	-0.79601380	-12.64764000	-9.43036400
11.29999951	-0.95533960	-12.64764000	-9.47342500
11.49999949	-0.95533960	-12.64764000	-9.47342500
11.69999948	-0.79601380	-12.64764000	-9.47342500
11.89999947	-0.47736220	-12.64764000	-9.47342500
12.09999946	-0.15871060	-12.64764000	-9.47342500
12.29999945	-0.15871060	-12.64764000	-9.47342500
12.49999943	-0.15871060	-12.64764000	-9.47342500
12.69999942	0.00000000	-12.64764000	-9.47342500
12.89999941	0.00000000	-12.64764000	-9.47342500
13.09999940	0.00000000	-12.64764000	-9.47342500
13.29999939	0.00000000	-12.64764000	-9.47342500
13.49999937	0.00000000	-12.64764000	-9.43036400
13.69999936	0.00000000	-12.64764000	-9.14124000
13.89999935	-0.15871060	-12.64764000	-9.10433000
14.09999934	-0.15871060	-12.64764000	-9.83636800
14.29999933	-0.15871060	-12.64764000	-9.79945900
14.49999932	-0.15871060	-12.64764000	-9.51648500
14.69999930	-0.15871060	-12.64764000	-9.47342500
14.89999929	0.00000000	-12.64764000	-9.47342500
15.09999928	0.00000000	-12.64764000	-9.47342500
15.29999927	0.00000000	-12.64764000	-9.47342500
15.49999926	0.00000000	-12.64764000	-9.47342500
15.69999924	0.00000000	-12.64764000	-9.47342500
15.89999923	0.00000000	-12.64764000	-9.47342500
16.09999922	0.00000000	-12.64764000	-9.47342500
16.29999921	-0.15871060	-12.64764000	-9.47342500
16.49999920	0.00000000	-12.60458000	-9.47342500
16.69999919	-0.15871060	-12.22933000	-9.47342500
16.89999917	0.00000000	-11.48499000	-9.47342500
17.09999916	0.00000000	-11.10974000	-9.47342500
17.29999915	0.00000000	-11.06668000	-9.47342500
17.49999914	0.00000000	-11.06668000	-9.47342500
17.69999913	0.00000000	-11.10974000	-9.47342500
17.89999911	0.00000000	-11.48499000	-9.47342500
18.09999910	0.00000000	-12.31545000	-9.47342500
18.29999909	0.00000000	-13.48425000	-9.47342500
18.49999908	0.00000000	-15.39124000	-9.47342500
18.69999907	-0.15871060	-16.87992000	-9.47342500
18.89999905	0.00000000	-17.34744000	-9.47342500
19.09999904	0.00000000	-17.29823000	-9.47342500
19.29999903	0.00000000	-16.41855000	-9.47342500
19.49999902	0.00000000	-13.71801000	-9.47342500
19.69999901	0.00000000	-9.90403500	-9.47342500
19.89999900	0.00000000	-6.36687900	-9.47342500
20.09999898	0.00000000	-3.25418300	-9.47342500
20.29999897	0.00000000	-1.06422200	-9.47342500
20.49999896	0.00000000	-1.53174200	-9.47342500
20.69999895	0.00000000	-5.38877900	-9.47342500
20.89999894	0.00000000	-11.57726000	-9.47342500
21.09999892	-0.15871060	-18.97145000	-9.47342500
21.29999891	0.00000000	-26.27953000	-9.47342500
21.49999890	0.00000000	-31.62524000	-9.47342500
21.69999889	0.00000000	-33.12008000	-9.47342500
21.89999888	0.00000000	-29.95817000	-9.47342500
22.09999886	0.00000000	-22.13952000	-9.47342500
22.29999885	0.00000000	-10.55610000	-9.47342500
22.49999884	0.00000000	2.14074800	-9.47342500
22.69999883	0.00000000	12.56767000	-9.47342500
22.89999882	0.00000000	18.33169000	-9.43036400
23.09999881	0.00000000	17.82726000	-9.05511800
23.29999879	0.00000000	9.96555000	-8.31077700
23.49999878	0.00000000	-4.73671200	-7.89247000
23.69999877	0.00000000	-23.20374000	-7.47416300
23.89999876	0.00000000	-40.51427000	-6.77903500
24.09999875	0.00000000	-52.10384000	-6.77903500
24.29999873	0.00000000	-55.17347000	-7.51722400
24.49999872	0.00000000	-48.89272000	-8.35998900
24.69999871	0.00000000	-33.77214000	-9.89173200
24.89999870	0.00000000	-12.51230000	-11.79257000
25.09999869	0.00000000	9.82406400	-12.96137000
25.29999867	0.00000000	27.96506000	-13.79183000
25.49999866	0.00000000	37.18011000	-14.07480000
25.69999865	0.00000000	35.22392000	-13.28125000
25.89999864	0.00000000	22.05955000	-10.86983000
26.09999863	0.00000000	0.42445860	-7.05585600
26.29999862	0.00000000	-24.65551000	-2.46063000
26.49999860	0.00000000	-47.44709000	0.97810030
26.69999859	0.00000000	-62.48154000	2.55905500
26.89999858	0.00000000	-66.33858000	2.09153500
27.09999857	0.00000000	-57.82480000	-1.06422200
27.29999856	0.00000000	-38.98253000	-6.86515700
27.49999854	0.00000000	-14.60384000	-14.21014000
27.69999853	0.00000000	9.73179100	-21.54897000
27.89999852	0.00000000	29.07849000	-27.31299000
28.09999851	0.00000000	38.71801000	-29.91511000
28.29999850	0.00000000	36.85408000	-27.91584000
28.49999848	0.00000000	24.10802000	-20.90305000
28.69999847	0.00000000	3.67864200	-10.11934000
28.89999846	0.00000000	-19.48819000	2.22687000
29.09999845	0.00000000	-40.00984000	13.01058000
29.29999844	0.00000000	-53.59251000	19.93110000
29.49999843	0.00000000	-57.87401000	21.05069000
29.69999841	0.00000000	-52.14690000	15.56963000
29.89999840	0.00000000	-38.28740000	4.32455700
30.09999839	0.00000000	-20.09104000	-11.14050000
30.29999838	0.00000000	-1.15649600	-27.26993000
30.49999837	0.00000000	14.33317000	-39.99754000
30.69999835	0.00000000	22.89616000	-46.17987000
30.89999834	0.00000000	23.72662000	-44.64198000
31.09999833	0.00000000	16.79995000	-35.67913000
31.29999832	0.00000000	4.09694900	-20.57702000
31.49999831	0.00000000	-10.97441000	-2.08538400
31.69999829	0.00000000	-25.35064000	15.24360000
31.89999828	0.00000000	-36.19587000	27.27608000
32.09999827	0.00000000	-41.59080000	31.92052000
32.29999826	0.00000000	-40.09596000	28.38951000
32.49999825	0.00000000	-32.46801000	16.81841000
32.69999824	0.00000000	-21.62278000	-0.13533460
32.89999822	0.00000000	-9.62106200	-18.35015000
33.09999821	0.00000000	1.16879900	-34.60876000
33.29999820	0.00000000	7.73252900	-45.75541000
33.49999819	0.00000000	8.98129900	-48.82505000
33.69999818	0.00000000	5.16732200	-43.11023000
33.89999816	0.00000000	-2.13459600	-30.38263000
34.09999815	0.00000000	-11.02362000	-13.79183000
34.29999814	0.00000000	-19.48819000	3.25418300
34.49999813	0.00000000	-25.30143000	17.15059000
34.69999812	0.00000000	-27.25763000	25.27682000
34.89999810	0.00000000	-25.34449000	25.69513000
35.09999809	0.00000000	-19.99877000	18.77460000
35.29999808	0.00000000	-13.15822000	6.40994000
35.49999807	0.00000000	-7.29576700	-9.01205700
35.69999806	0.00000000	-3.43257800	-23.64665000
35.89999805	0.00000000	-1.90083600	-34.05511000
36.09999803	0.00000000	-3.85088600	-37.95522000
36.29999802	0.00000000	-8.37229300	-34.56570000
36.49999801	0.00000000	-13.81028000	-25.73203000
36.69999800	0.00000000	-18.74385000	-13.74262000
36.89999799	0.00000000	-21.85654000	-1.10728300
37.09999797	0.00000000	-21.86270000	8.45841400
37.29999796	0.00000000	-19.62352000	11.99557000
37.49999795	0.00000000	-15.71727000	9.38730200
37.69999794	0.00000000	-11.10974000	2.09153500
37.89999793	0.00000000	-6.83439900	-7.89247000
38.09999791	0.00000000	-3.80782500	-17.83957000
38.29999790	0.00000000	-3.02042300	-24.71703000
38.49999789	0.00000000	-4.92125900	-26.24877000
38.69999788	0.00000000	-8.37229300	-22.10876000
38.89999787	0.00000000	-12.64764000	-14.07480000
39.09999786	0.00000000	-16.87992000	-4.87204700
39.29999784	0.00000000	-19.99877000	3.16190900
39.49999783	0.00000000	-21.57972000	7.34498000
39.69999782	0.00000000	-21.57972000	6.23154500
39.89999781	0.00000000	-20.04183000	0.46751960
40.09999780	0.00000000	-17.29823000	-8.35998900
40.29999778	0.00000000	-13.81028000	-17.92569000
40.49999777	0.00000000	-9.95324800	-25.22145000
40.69999776	0.00000000	-6.87746000	-28.29109000
40.89999775	0.00000000	-5.25344500	-26.29798000
41.09999774	0.00000000	-4.83513700	-19.04527000
41.29999772	0.00000000	-5.25344500	-8.73523500
41.49999771	0.00000000	-6.83439900	0.88582670
41.69999770	0.00000000	-9.52879000	7.85556000
41.89999769	-0.15871060	-12.60458000	10.50689000
42.09999768	0.00000000	-15.34203000	7.85556000
42.29999767	0.00000000	-17.34744000	0.97810030
42.49999765	0.00000000	-18.87918000	-7.89247000
42.69999764	0.00000000	-19.62352000	-16.72613000
42.89999763	0.00000000	-18.83612000	-23.27141000
43.09999762	0.00000000	-16.97219000	-25.64591000
43.29999761	0.00000000	-14.64690000	-24.15723000
43.49999759	0.00000000	-12.69070000	-19.50664000
43.69999758	0.00000000	-11.06668000	-12.58612000
43.89999757	0.00000000	-9.52879000	-5.33341500
44.09999756	0.00000000	-8.37229300	0.09227362
44.29999755	0.00000000	-7.94783400	2.46678100
44.49999753	0.00000000	-7.94783400	2.14074800
44.69999752	0.00000000	-8.32308000	-0.55364170
44.89999751	0.00000000	-9.11048200	-4.77977300
45.09999750	0.00000000	-9.90403500	-9.38115100
45.29999749	0.00000000	-11.10974000	-13.23819000
45.49999748	0.00000000	-12.69070000	-15.23130000
45.69999746	0.00000000	-14.69611000	-15.64960000
45.89999745	0.00000000	-17.43356000	-14.90526000
46.09999744	0.00000000	-20.46014000	-12.95522000
46.29999743	0.00000000	-22.74237000	-10.62992000
46.49999742	0.00000000	-23.06841000	-7.89247000
46.69999740	0.00000000	-21.11220000	-5.24729300
46.89999739	0.00000000	-16.79380000	-3.70939900
47.09999738	0.00000000	-10.64838000	-3.66633800
47.29999737	0.00000000	-4.09079700	-4.82283400
47.49999736	0.00000000	0.89197830	-6.77903500
47.69999734	0.00000000	3.26033400	-9.47342500
47.89999733	0.00000000	2.42987200	-12.16781000
48.09999732	0.00000000	-1.48253000	-14.11786000
48.29999731	0.00000000	-8.50147600	-15.23130000
48.49999730	0.00000000	-17.34744000	-14.81299000
48.69999729	0.00000000	-25.81201000	-12.58612000
48.89999727	0.00000000	-31.53912000	-9.84867000
49.09999726	0.00000000	-32.70177000	-7.09891700
49.29999725	0.00000000	-28.83858000	-3.99237200
49.49999724	0.00000000	-21.11220000	-1.80241100
49.69999723	0.00000000	-11.06668000	-1.39025600
49.89999721	0.00000000	-1.10728300	-3.29109200
50.09999720	0.00000000	5.86860200	-6.36072800
50.29999719	0.00000000	8.15083600	-9.89173200
50.49999718	0.00000000	5.49335600	-13.74262000
50.69999717	0.00000000	-1.85162400	-16.76919000
50.89999715	0.00000000	-11.44193000	-17.92569000
51.09999714	0.00000000	-21.11220000	-16.76919000
51.29999713	0.00000000	-28.37721000	-13.69956000
51.49999712	0.00000000	-31.11466000	-9.47342500
51.69999711	0.00000000	-28.83858000	-5.24729300
51.89999710	0.00000000	-22.69316000	-2.12844500
52.09999708	0.00000000	-14.22859000	-0.59670270
52.29999707	0.00000000	-5.76402500	-0.97194880
52.49999706	0.00000000	0.38139760	-3.29109200
52.69999705	0.00000000	2.65748000	-6.72982200
52.89999704	0.00000000	0.00615157	-10.58686000
53.09999702	0.00000000	-6.45915300	-13.65650000
53.29999701	0.00000000	-14.09326000	-15.23130000
53.49999700	0.00000000	-20.69390000	-15.23130000
53.69999699	0.00000000	-24.51402000	-13.69956000
53.89999698	0.00000000	-24.92618000	-11.00517000
54.09999696	0.00000000	-21.48745000	-7.98474400
54.29999695	0.00000000	-15.76649000	-5.70866100
54.49999694	0.00000000	-9.57800100	-5.29035400
54.69999693	0.00000000	-4.22613100	-6.36072800
54.89999692	0.00000000	-1.53174200	-7.89247000
55.09999691	0.00000000	-2.26993100	-9.47342500
55.29999689	0.00000000	-5.76402500	-10.96211000
55.49999688	0.00000000	-11.48499000	-11.65723000
55.69999687	0.00000000	-17.62426000	-10.53765000
55.89999686	0.00000000	-21.86270000	-8.31077700
56.09999685	0.00000000	-23.81275000	-6.36072800
56.29999683	0.00000000	-22.60704000	-4.82283400
56.49999682	0.00000000	-18.46087000	-4.12770700
56.69999681	0.00000000	-13.06594000	-5.33341500
56.89999680	0.00000000	-8.04010800	-8.35998900
57.09999679	0.00000000	-4.18307100	-12.21087000
57.29999677	0.00000000	-2.68823800	-15.64960000
57.49999676	0.00000000	-4.18307100	-17.92569000
57.69999675	0.00000000	-7.99704600	-17.88263000
57.89999674	0.00000000	-12.60458000	-15.18824000
58.09999673	0.00000000	-16.83686000	-10.58686000
58.29999672	0.00000000	-19.53125000	-5.19808000
58.49999670	0.00000000	-19.95571000	-0.55364170
58.69999669	0.00000000	-18.46087000	2.51599400
58.89999668	0.00000000	-15.76649000	3.21112200
59.09999667	0.00000000	-12.69070000	0.46751960
59.29999666	0.00000000	-9.95324800	-5.29035400
59.49999664	0.00000000	-8.04010800	-12.54306000
59.69999663	0.00000000	-7.25270600	-19.08834000
59.89999662	0.00000000	-8.04010800	-22.95152000
60.09999661	0.00000000	-9.95324800	-23.68971000
60.29999660	0.00000000	-12.64764000	-20.57702000
60.49999658	0.00000000	-15.25591000	-14.07480000
60.69999657	0.00000000	-16.46161000	-6.40378900
60.89999656	0.00000000	-16.09252000	0.55979330
61.09999655	0.00000000	-14.97293000	5.16117100
61.29999654	0.00000000	-13.02288000	6.32381900
61.49999653	0.00000000	-11.15896000	3.62942900
61.69999651	0.00000000	-9.95324800	-2.17765700
61.89999650	0.00000000	-9.57800100	-9.84867000
62.09999649	0.00000000	-9.99630800	-17.55659000
62.29999648	0.00000000	-11.53420000	-22.90231000
62.49999647	0.00000000	-13.81028000	-24.93848000
62.69999645	0.00000000	-15.67421000	-23.32677000
62.89999644	0.00000000	-16.50467000	-18.71309000
63.09999643	0.00000000	-16.09252000	-11.38041000
63.29999642	0.00000000	-14.97293000	-3.75246000
63.49999641	0.00000000	-13.02288000	2.09153500
63.69999639	0.00000000	-11.10974000	5.20423200
63.89999638	0.00000000	-9.52879000	5.20423200
64.09999637	0.00000000	-8.41535400	2.14074800
64.29999636	0.00000000	-8.45841400	-3.24803100
64.49999635	0.00000000	-9.95324800	-9.42421200
64.69999634	0.00000000	-12.22933000	-15.23130000
64.89999632	0.00000000	-14.18553000	-19.46358000
65.09999631	0.00000000	-15.71727000	-21.04454000
65.29999630	0.00000000	-16.46161000	-19.97416000
65.49999629	0.00000000	-15.71727000	-17.27977000
65.69999628	0.00000000	-14.22859000	-13.79183000
65.89999626	0.00000000	-12.64764000	-9.89173200
66.09999625	0.00000000	-11.10974000	-6.40378900
66.29999624	0.00000000	-9.99630800	-3.61712600
66.49999623	0.00000000	-10.03937000	-1.71013800
66.69999622	0.00000000	-11.53420000	-0.87967510
66.89999620	0.00000000	-13.76107000	-1.29183100
67.09999619	0.00000000	-15.29897000	-2.46063000
67.29999618	0.00000000	-15.71727000	-4.82283400
67.49999617	0.00000000	-15.29897000	-7.89247000
67.69999616	0.00000000	-13.76107000	-11.04823000
67.89999615	0.00000000	-11.44193000	-14.16092000
68.09999613	0.00000000	-9.15354300	-16.90453000
68.29999612	0.00000000	-7.25270600	-18.76845000
68.49999611	0.00000000	-6.92052100	-19.13140000
68.69999610	0.00000000	-8.45841400	-17.18750000
68.89999609	0.00000000	-11.57726000	-13.69956000
69.09999607	0.00000000	-15.76649000	-9.00590400
69.29999606	0.00000000	-19.62352000	-3.66633800
69.49999605	0.00000000	-21.95497000	0.60285430
69.69999604	0.00000000	-22.69316000	2.93430100
69.89999603	0.00000000	-21.06914000	3.29724400
70.09999601	0.00000000	-16.83686000	0.93503930
70.29999600	0.00000000	-11.06668000	-3.66633800
70.49999599	0.00000000	-5.29650500	-9.47342500
70.69999598	0.00000000	-1.06422200	-15.23130000
70.89999597	0.00000000	0.47367120	-19.46358000
71.09999596	0.00000000	-1.06422200	-21.04454000
71.29999594	0.00000000	-5.33956700	-19.88189000
71.49999593	0.00000000	-11.53420000	-16.43701000
71.69999592	0.00000000	-18.41781000	-11.42347000
71.89999591	0.00000000	-23.85581000	-6.40378900
72.09999590	0.00000000	-26.56250000	-2.17765700
72.29999588	0.00000000	-26.59941000	0.14148620
72.49999587	0.00000000	-23.44365000	-0.22145670
72.69999586	0.00000000	-18.08563000	-2.46063000
72.89999585	0.00000000	-11.48499000	-5.93626900
73.09999584	0.00000000	-5.33956700	-9.38115100
73.29999582	0.00000000	-1.06422200	-12.11860000
73.49999581	0.00000000	0.47367120	-13.65650000
73.69999580	0.00000000	-1.06422200	-13.65650000
73.89999579	0.00000000	-5.29650500	-12.16781000
74.09999578	0.00000000	-11.06668000	-9.93479300
74.29999577	0.00000000	-16.83686000	-8.40305000
74.49999575	0.00000000	-21.11220000	-8.02780400
74.69999574	0.00000000	-23.06841000	-8.77214500
74.89999573	0.00000000	-22.69316000	-10.67298000
75.09999572	0.00000000	-20.04183000	-12.49385000
75.29999571	0.00000000	-16.18479000	-13.28125000
75.49999569	0.00000000	-12.31545000	-12.49385000
75.69999568	0.00000000	-8.79060000	-10.58686000
75.89999567	0.00000000	-6.50221400	-7.84940900
76.09999566	0.00000000	-5.71481200	-4.77977300
76.29999565	0.00000000	-6.87746000	-2.08538400
76.49999563	0.00000000	-9.48572700	-0.63976370
76.69999562	0.00000000	-12.13706000	-1.43946800
76.89999561	0.00000000	-13.76107000	-4.91510800
77.09999560	0.00000000	-14.56078000	-9.84867000
77.29999559	0.00000000	-14.92372000	-14.90526000
77.49999558	0.00000000	-14.18553000	-18.76845000
77.69999556	0.00000000	-13.11516000	-21.08760000
77.89999555	0.00000000	-12.73991000	-20.99532000
78.09999554	0.00000000	-13.06594000	-17.92569000
78.29999553	0.00000000	-13.85334000	-12.58612000
78.49999552	0.00000000	-14.60384000	-6.77903500
78.69999550	0.00000000	-15.29897000	-1.71013800
78.89999549	0.00000000	-14.92372000	2.09768700
79.09999548	0.00000000	-13.39813000	3.21112200
79.29999547	0.00000000	-11.85408000	0.97810030
79.49999546	0.00000000	-9.90403500	-3.24803100
79.69999544	0.00000000	-8.41535400	-8.31077700
79.89999543	0.00000000	-7.99704600	-13.69956000
80.09999542	0.00000000	-8.41535400	-17.88263000
80.29999541	0.00000000	-9.99630800	-19.50664000
80.49999540	0.00000000	-12.64764000	-18.81152000
80.69999539	0.00000000	-15.34203000	-16.85531000
80.89999537	0.00000000	-17.29823000	-13.74262000
81.09999536	0.00000000	-18.46087000	-9.89173200
81.29999535	0.00000000	-18.41781000	-6.40378900
81.49999534	0.00000000	-16.87992000	-3.66633800
81.69999533	0.00000000	-14.18553000	-2.08538400
81.89999531	0.00000000	-11.10974000	-1.66707700
82.09999530	0.00000000	-8.45841400	-2.08538400
82.29999529	0.00000000	-7.29576700	-3.61712600
82.49999528	0.00000000	-7.99704600	-5.93626900
82.69999527	0.00000000	-9.52879000	-8.26771600
82.89999525	0.00000000	-11.48499000	-10.67298000
83.09999524	0.00000000	-13.76107000	-13.00443000
83.29999523	0.00000000	-15.29897000	-15.32357000
83.49999522	0.00000000	-15.76649000	-16.81225000
83.69999521	0.00000000	-15.76649000	-16.81225000
83.89999520	0.00000000	-15.34203000	-15.27436000
84.09999518	0.00000000	-14.22859000	-12.58612000
84.29999517	0.00000000	-13.06594000	-9.42421200
84.49999516	0.00000000	-12.31545000	-5.93626900
84.69999515	0.00000000	-11.90330000	-2.50369100
84.89999514	0.00000000	-12.27239000	-0.59670270
85.09999512	0.00000000	-12.60458000	-0.55364170
85.29999511	0.00000000	-12.60458000	-2.12844500
85.49999510	0.00000000	-12.22933000	-5.24729300
85.69999509	0.00000000	-11.48499000	-9.47342500
85.89999508	0.00000000	-11.10974000	-13.69956000
86.09999506	0.00000000	-11.06668000	-16.81225000
86.29999505	0.00000000	-11.10974000	-18.35015000
86.49999504	0.00000000	-11.53420000	-17.92569000
86.69999503	0.00000000	-12.69070000	-15.23130000
86.89999502	0.00000000	-14.18553000	-11.00517000
87.09999501	0.00000000	-15.34203000	-6.40378900
87.29999499	0.00000000	-15.76649000	-2.54675200
87.49999498	0.00000000	-15.71727000	-0.59670270
87.69999497	0.00000000	-14.92372000	-0.59670270
87.89999496	0.00000000	-13.02288000	-2.54675200
88.09999495	0.00000000	-11.15896000	-6.40378900
88.29999493	0.00000000	-9.95324800	-10.95595000
88.49999492	0.00000000	-9.57800100	-14.81299000
88.69999491	0.00000000	-9.95324800	-16.71998000
88.89999490	0.00000000	-11.10974000	-16.39395000
89.09999489	0.00000000	-12.64764000	-14.07480000
89.29999487	0.00000000	-14.18553000	-10.58686000
89.49999486	0.00000000	-15.34203000	-6.35457700
89.69999485	0.00000000	-15.76649000	-2.54675200
89.89999484	0.00000000	-15.76649000	-0.68897630
90.09999483	0.00000000	-15.34203000	-1.39025600
90.29999482	0.00000000	-14.18553000	-4.45374000
90.49999480	0.00000000	-12.69070000	-8.31077700
90.69999479	0.00000000	-11.53420000	-12.58612000
90.89999478	0.00000000	-11.10974000	-16.35089000
91.09999477	0.00000000	-11.10974000	-17.92569000
91.29999476	0.00000000	-11.48499000	-17.14444000
91.49999474	0.00000000	-12.22933000	-14.39468000
91.69999473	0.00000000	-12.60458000	-9.42421200
91.89999472	0.00000000	-12.64764000	-4.17691900
92.09999471	0.00000000	-12.64764000	-1.06422200
92.29999470	0.00000000	-12.64764000	-0.59670270
92.49999468	0.00000000	-12.64764000	-2.12844500
92.69999467	0.00000000	-12.69070000	-5.29035400
92.89999466	0.00000000	-13.06594000	-9.89173200
93.09999465	0.00000000	-13.85334000	-14.81299000
93.29999464	0.00000000	-14.60384000	-17.88263000
93.49999463	0.00000000	-15.39124000	-18.30093000
93.69999461	0.00000000	-15.71727000	-16.39395000
93.89999460	0.00000000	-15.29897000	-12.53691000
94.09999459	0.00000000	-13.76107000	-7.93553100
94.29999458	0.00000000	-11.48499000	-3.70939900
94.49999457	0.00000000	-9.52879000	-1.06422200
94.69999455	0.00000000	-7.99704600	-1.01501000
94.89999454	0.00000000	-7.25270600	-3.29109200
95.09999453	0.00000000	-8.04010800	-6.77903500
95.29999452	0.00000000	-9.95324800	-11.00517000
95.49999451	0.00000000	-12.69070000	-14.81299000
95.69999449	0.00000000	-15.76649000	-16.71998000
95.89999448	0.00000000	-18.46087000	-16.39395000
96.09999447	0.00000000	-19.99877000	-14.11786000
96.29999446	0.00000000	-19.99877000	-11.04823000
96.49999445	0.00000000	-18.41781000	-7.93553100
96.69999444	0.00000000	-15.34203000	-5.24729300
96.89999442	0.00000000	-11.48499000	-3.70939900
97.09999441	0.00000000	-7.99704600	-3.70939900
97.29999440	0.00000000	-5.29650500	-5.24729300
97.49999439	0.00000000	-4.18307100	-7.89247000
97.69999438	0.00000000	-5.29650500	-10.58686000
97.89999436	0.00000000	-7.99704600	-12.53691000
98.09999435	0.00000000	-11.53420000	-13.65650000
98.29999434	0.00000000	-15.76649000	-13.32431000
98.49999433	0.00000000	-19.58046000	-11.84178000
98.69999432	0.00000000	-21.53666000	-10.67298000
98.89999430	0.00000000	-21.57972000	-9.47342500
99.09999429	0.00000000	-19.99877000	-8.35998900
99.29999428	0.00000000	-16.92298000	-7.93553100
99.49999427	0.00000000	-13.06594000	-7.89247000
99.69999426	0.00000000	-9.57800100	-7.89247000
99.89999425	0.00000000	-6.83439900	-7.84940900
100.09999423	0.00000000	-5.29650500	-7.47416300
100.29999422	0.00000000	-5.29650500	-6.72982200
100.49999421	0.00000000	-6.83439900	-6.40378900
100.69999420	0.00000000	-9.52879000	-6.77903500
100.89999419	0.00000000	-12.64764000	-7.93553100
101.09999417	0.00000000	-15.71727000	-9.47342500
101.29999416	0.00000000	-18.04257000	-11.04823000
101.49999415	0.00000000	-18.87918000	-12.58612000
101.69999414	0.00000000	-18.87918000	-13.69956000
101.89999413	0.00000000	-18.04257000	-13.69956000
102.09999411	0.00000000	-15.76649000	-12.53691000
102.29999410	0.00000000	-13.11516000	-10.58686000
102.49999409	0.00000000	-11.10974000	-7.89247000
102.69999408	0.00000000	-9.52879000	-5.24729300
102.89999407	0.00000000	-8.37229300	-3.66633800
103.09999406	0.00000000	-7.99704600	-3.29109200
103.29999404	0.00000000	-8.41535400	-4.08464600
103.49999403	0.00000000	-9.95324800	-6.40378900
103.69999402	0.00000000	-12.22933000	-9.47342500
103.89999401	0.00000000	-14.18553000	-12.53691000
104.09999400	0.00000000	-15.76649000	-14.85605000
104.29999398	0.00000000	-16.87992000	-15.60654000
104.49999397	0.00000000	-16.92298000	-14.85605000
104.69999396	0.00000000	-16.14173000	-12.53691000
104.89999395	0.00000000	-15.01599000	-9.51648500
105.09999394	0.00000000	-13.44119000	-6.82209600
105.29999392	0.00000000	-12.27239000	-5.24729300
105.49999391	0.00000000	-11.10974000	-4.77977300
105.69999390	0.00000000	-10.37155000	-4.87204700
105.89999389	0.00000000	-10.73450000	-6.04084600
106.09999388	0.00000000	-11.48499000	-8.67987200
106.29999387	0.00000000	-12.64764000	-10.91289000
106.49999385	0.00000000	-13.76107000	-12.16166000
106.69999384	0.00000000	-14.18553000	-12.53691000
106.89999383	0.00000000	-14.18553000	-12.16166000
107.09999382	0.00000000	-13.81028000	-11.00517000
107.29999381	0.00000000	-13.02288000	-9.47342500
107.49999379	0.00000000	-12.27239000	-7.93553100
107.69999378	0.00000000	-11.48499000	-6.82209600
107.89999377	0.00000000	-11.15896000	-6.82209600
108.09999376	0.00000000	-11.53420000	-7.93553100
108.29999375	0.00000000	-12.64764000	-9.42421200
108.49999374	0.00000000	-13.81028000	-10.62992000
108.69999372	0.00000000	-14.60384000	-11.42347000
108.89999371	0.00000000	-15.34203000	-12.11860000
109.09999370	0.00000000	-15.29897000	-11.74951000
109.29999369	0.00000000	-14.18553000	-10.26698000
109.49999368	0.00000000	-12.69070000	-9.09817800
109.69999366	0.00000000	-11.53420000	-7.84940900
109.89999365	0.00000000	-11.10974000	-6.40378900
110.09999364	0.00000000	-11.06668000	-5.61638700
110.29999363	0.00000000	-11.10974000	-5.98548200
110.49999362	0.00000000	-11.48499000	-6.72982200
110.69999360	0.00000000	-12.31545000	-7.93553100
110.89999359	0.00000000	-13.44119000	-9.47342500
111.09999358	0.00000000	-14.97293000	-11.00517000
111.29999357	0.00000000	-15.67421000	-12.11860000
111.49999356	0.00000000	-15.39124000	-12.16166000
111.69999355	0.00000000	-14.60384000	-11.42347000
111.89999353	0.00000000	-13.81028000	-10.62992000
112.09999352	0.00000000	-12.64764000	-9.47342500
112.29999351	0.00000000	-11.53420000	-8.35998900
112.49999350	0.00000000	-11.15896000	-7.93553100
112.69999349	0.00000000	-11.48499000	-7.89247000
112.89999347	0.00000000	-12.22933000	-7.93553100
113.09999346	0.00000000	-12.60458000	-8.26771600
113.29999345	0.00000000	-12.69070000	-8.67987200
113.49999344	0.00000000	-13.06594000	-8.68602300
113.69999343	0.00000000	-13.81028000	-9.09817800
113.89999341	0.00000000	-14.18553000	-9.43036400
114.09999340	0.00000000	-14.18553000	-9.47342500
114.29999339	0.00000000	-13.81028000	-9.51648500
114.49999338	0.00000000	-13.06594000	-9.89173200
114.69999337	0.00000000	-12.69070000	-10.62992000
114.89999336	0.00000000	-12.64764000	-11.00517000
115.09999334	0.00000000	-12.64764000	-11.00517000
115.29999333	0.00000000	-12.64764000	-10.62992000
115.49999332	0.00000000	-12.64764000	-9.89173200
115.69999331	0.00000000	-12.64764000	-9.47342500
115.89999330	0.00000000	-12.69070000	-9.05511800
116.09999328	0.00000000	-13.06594000	-8.31077700
116.29999327	0.00000000	-13.81028000	-7.93553100
116.49999326	0.00000000	-14.18553000	-7.89247000
116.69999325	0.00000000	-14.22859000	-7.89247000
116.89999324	0.00000000	-14.18553000	-7.93553100
117.09999322	0.00000000	-13.81028000	-8.35998900
117.29999321	0.00000000	-13.02288000	-9.47342500
117.49999320	0.00000000	-12.27239000	-10.58686000
117.69999319	0.00000000	-11.48499000	-11.00517000
117.89999318	0.00000000	-11.10974000	-11.04823000
118.09999317	0.00000000	-11.10974000	-11.00517000
118.29999315	0.00000000	-11.48499000	-10.62992000
118.49999314	0.00000000	-12.27239000	-9.84867000
118.69999313	0.00000000	-13.06594000	-9.09817800
118.89999312	0.00000000	-14.22859000	-8.31077700
119.09999311	0.00000000	-15.34203000	-7.89247000
119.29999309	0.00000000	-15.71727000	-7.51722400
119.49999308	0.00000000	-15.34203000	-7.14812900
119.69999307	0.00000000	-14.22859000	-7.56028500
119.89999306	0.00000000	-13.06594000	-8.26771600
120.09999305	0.00000000	-12.27239000	-9.05511800
120.29999303	0.00000000	-11.44193000	-9.43036400
120.49999302	0.00000000	-10.69144000	-9.47342500
120.69999301	0.00000000	-9.95324800	-9.47342500
120.89999300	0.00000000	-9.99630800	-9.47342500
121.09999299	0.00000000	-11.06668000	-9.47342500
121.29999298	0.00000000	-12.22933000	-9.47342500
121.49999296	0.00000000	-13.06594000	-9.47342500
121.69999295	0.00000000	-14.22859000	-9.43036400
121.89999294	0.00000000	-15.34203000	-9.09817800
122.09999293	0.00000000	-15.76649000	-8.72908400
122.29999292	0.00000000	-15.76649000	-9.05511800
122.49999290	0.00000000	-15.34203000	-9.00590400
122.69999289	0.00000000	-14.22859000	-8.31077700
122.89999288	0.00000000	-13.06594000	-7.93553100
123.09999287	0.00000000	-12.27239000	-7.93553100
123.29999286	0.00000000	-11.48499000	-8.31077700
123.49999284	0.00000000	-11.10974000	-9.05511800
123.69999283	0.00000000	-11.06668000	-9.43036400
123.89999282	0.00000000	-11.10974000	-9.47342500
124.09999281	0.00000000	-11.48499000	-9.51648500
124.29999280	0.00000000	-12.27239000	-9.89173200
124.49999279	0.00000000	-13.02288000	-10.58686000
124.69999277	0.00000000	-13.81028000	-10.58686000
124.89999276	0.00000000	-14.22859000	-9.89173200
125.09999275	0.00000000	-14.64690000	-9.51648500
125.29999274	0.00000000	-15.34203000	-9.47342500
125.49999273	0.00000000	-15.29897000	-9.43036400
125.69999271	0.00000000	-14.22859000	-9.05511800
125.89999270	0.00000000	-13.06594000	-8.31077700
126.09999269	0.00000000	-12.27239000	-7.93553100
126.29999268	0.00000000	-11.48499000	-7.93553100
126.49999267	0.00000000	-11.10974000	-8.31077700
126.69999265	0.00000000	-11.10974000	-9.05511800
126.89999264	0.00000000	-11.48499000	-9.43036400
127.09999263	0.00000000	-12.27239000	-9.47342500
127.29999262	0.00000000	-13.06594000	-9.51648500
127.49999261	0.00000000	-14.22859000	-9.84867000
127.69999260	0.00000000	-15.34203000	-10.21161000
127.89999258	0.00000000	-15.76649000	-9.84867000
128.09999257	0.00000000	-15.71727000	-9.51648500
128.29999256	0.00000000	-14.97293000	-9.43036400
128.49999255	0.00000000	-13.44119000	-9.05511800
128.69999254	0.00000000	-12.31545000	-8.31077700
128.89999252	0.00000000	-11.48499000	-7.98474400
129.09999251	0.00000000	-11.10974000	-8.31077700
129.29999250	0.00000000	-11.10974000	-9.05511800
129.49999249	0.00000000	-11.53420000	-9.43036400
129.69999248	0.00000000	-12.69070000	-9.47342500
129.89999246	0.00000000	-14.18553000	-9.47342500
130.09999245	0.00000000	-15.34203000	-9.47342500
130.29999244	0.00000000	-15.71727000	-9.47342500
130.49999243	0.00000000	-15.39124000	-9.47342500
130.69999242	0.00000000	-14.56078000	-9.43036400
130.89999241	0.00000000	-13.43504000	-9.09817800
131.09999239	0.00000000	-11.90330000	-8.72908400
131.29999238	0.00000000	-11.15896000	-9.09817800
131.49999237	0.00000000	-11.10974000	-9.43036400
131.69999236	0.00000000	-11.48499000	-9.51648500
131.89999235	0.00000000	-12.27239000	-9.89173200
132.09999233	0.00000000	-13.02288000	-10.62992000
132.29999232	0.00000000	-13.81028000	-10.95595000
132.49999231	0.00000000	-14.18553000	-10.62992000
132.69999230	0.00000000	-14.22859000	-9.89173200
132.89999229	0.00000000	-14.18553000	-9.47342500
133.09999227	0.00000000	-13.81028000	-9.05511800
133.29999226	0.00000000	-13.06594000	-8.31077700
133.49999225	0.00000000	-12.69070000	-7.93553100
133.69999224	0.00000000	-12.64764000	-7.89247000
133.89999223	0.00000000	-12.64764000	-7.93553100
134.09999222	0.00000000	-12.69070000	-8.35998900
134.29999220	0.00000000	-13.02288000	-9.47342500
134.49999219	0.00000000	-13.39198000	-10.58686000
134.69999218	0.00000000	-13.02288000	-11.00517000
134.89999217	0.00000000	-12.69070000	-11.04823000
135.09999216	0.00000000	-12.64764000	-11.00517000
135.29999214	0.00000000	-12.64764000	-10.62992000
135.49999213	0.00000000	-12.64764000	-9.84867000
135.69999212	0.00000000	-12.64764000	-9.09817800
135.89999211	0.00000000	-12.69070000	-8.31077700
136.09999210	0.00000000	-13.06594000	-7.93553100
136.29999208	0.00000000	-13.81028000	-7.89247000
136.49999207	0.00000000	-14.18553000	-7.93553100
136.69999206	0.00000000	-14.22859000	-8.31077700
136.89999205	0.00000000	-14.22859000	-9.05511800
137.09999204	0.00000000	-14.18553000	-9.43036400
137.29999203	0.00000000	-13.81028000	-9.51648500
137.49999201	0.00000000	-13.02288000	-9.89173200
137.69999200	0.00000000	-12.27239000	-10.58686000
137.89999199	0.00000000	-11.53420000	-10.62992000
138.09999198	0.00000000	-11.53420000	-10.26698000
138.29999197	0.00000000	-12.27239000	-10.25467000
138.49999195	0.00000000	-13.02288000	-9.84867000
138.69999194	0.00000000	-13.81028000	-9.51648500
138.89999193	0.00000000	-14.18553000	-9.47342500
139.09999192	0.00000000	-14.22859000	-9.43036400
139.29999191	0.00000000	-14.22859000	-9.05511800
139.49999189	0.00000000	-14.18553000	-8.31077700
139.69999188	0.00000000	-13.81028000	-7.93553100
139.89999187	0.00000000	-13.06594000	-7.89247000
140.09999186	0.00000000	-12.69070000	-7.93553100
140.29999185	0.00000000	-12.64764000	-8.31077700
140.49999184	0.00000000	-12.64764000	-9.09817800
140.69999182	0.00000000	-12.64764000	-9.84867000
140.89999181	0.00000000	-12.69070000	-10.62992000
141.09999180	0.00000000	-13.06594000	-11.00517000
141.29999179	0.00000000	-13.81028000	-11.00517000
141.49999178	0.00000000	-14.13632000	-10.58686000
141.69999176	0.00000000	-13.81028000	-9.47342500
141.89999175	0.00000000	-13.06594000	-8.31077700
142.09999174	0.00000000	-12.69070000	-7.51722400
142.29999173	0.00000000	-12.60458000	-6.77903500
142.49999172	0.00000000	-12.22933000	-6.77903500
142.69999170	0.00000000	-11.57726000	-7.51722400
142.89999169	0.00000000	-11.90330000	-8.31077700
143.09999168	0.00000000	-13.01673000	-9.47342500
143.29999167	0.00000000	-13.39813000	-10.58686000
143.49999166	0.00000000	-13.85334000	-11.00517000
143.69999165	0.00000000	-14.18553000	-11.04823000
143.89999163	0.00000000	-14.18553000	-11.00517000
144.09999162	0.00000000	-13.81028000	-10.62992000
144.29999161	0.00000000	-13.06594000	-9.84867000
144.49999160	0.00000000	-12.69070000	-9.09817800
144.69999159	0.00000000	-12.64764000	-8.31077700
144.89999157	0.00000000	-12.64764000	-7.93553100
145.09999156	0.00000000	-12.69070000	-7.89247000
145.29999155	0.00000000	-13.06594000	-7.93553100
145.49999154	0.00000000	-13.81028000	-8.31077700
145.69999153	0.00000000	-14.18553000	-9.09817800
145.89999151	0.00000000	-14.22859000	-9.79945900
146.09999150	0.00000000	-14.22859000	-10.25467000
146.29999149	0.00000000	-14.18553000	-10.26698000
146.49999148	0.00000000	-13.81028000	-10.67298000
146.69999147	0.00000000	-13.06594000	-10.95595000
146.89999146	0.00000000	-12.69070000	-10.62992000
147.09999144	0.00000000	-12.64764000	-9.89173200
147.29999143	0.00000000	-12.64764000	-9.47342500
147.49999142	0.00000000	-12.64764000	-9.05511800
147.69999141	0.00000000	-12.69070000	-8.31077700
147.89999140	0.00000000	-13.06594000	-7.93553100
148.09999138	0.00000000	-13.81028000	-7.89247000
148.29999137	0.00000000	-14.18553000	-7.93553100
148.49999136	0.00000000	-14.22859000	-8.31077700
148.69999135	0.00000000	-14.18553000	-9.05511800
148.89999134	0.00000000	-13.81028000	-9.43036400
149.09999132	0.00000000	-13.06594000	-9.47342500
149.29999131	0.00000000	-12.69070000	-9.47342500
149.49999130	0.00000000	-12.64764000	-9.47342500
149.69999129	0.00000000	-12.64764000	-9.47342500
149.89999128	0.00000000	-12.64764000	-9.47342500
150.09999127	0.00000000	-12.64764000	-9.43036400
150.29999125	0.00000000	-12.64764000	-9.05511800
150.49999124	0.00000000	-12.69070000	-8.31077700
150.69999123	0.00000000	-13.06594000	-7.93553100
150.89999122	0.00000000	-13.81028000	-7.89247000
151.09999121	0.00000000	-14.18553000	-7.93553100
151.29999119	0.00000000	-14.22859000	-8.31077700
151.49999118	0.00000000	-14.18553000	-9.05511800
151.69999117	0.00000000	-13.81028000	-9.43036400
151.89999116	0.00000000	-13.06594000	-9.47342500
152.09999115	0.00000000	-12.69070000	-9.47342500
152.29999113	0.00000000	-12.64764000	-9.47342500
152.49999112	0.00000000	-12.64764000	-9.47342500
152.69999111	0.00000000	-12.64764000	-9.47342500
152.89999110	0.00000000	-12.64764000	-9.47342500
153.09999109	0.00000000	-12.64764000	-9.43036400
153.29999108	0.00000000	-12.69070000	-9.09817800
153.49999106	0.00000000	-13.06594000	-8.72908400
153.69999105	0.00000000	-13.81028000	-9.05511800
153.89999104	0.00000000	-14.18553000	-9.05511800
154.09999103	0.00000000	-14.22859000	-8.72908400
154.29999102	0.00000000	-14.22859000	-9.09817800
154.49999100	0.00000000	-14.18553000	-9.43036400
154.69999099	0.00000000	-13.81028000	-9.47342500
154.89999098	0.00000000	-13.06594000	-9.47342500
155.09999097	0.00000000	-12.69070000	-9.47342500
155.29999096	0.00000000	-12.64764000	-9.47342500
155.49999094	0.00000000	-12.64764000	-9.47342500
155.69999093	0.00000000	-12.64764000	-9.47342500
155.89999092	0.00000000	-12.64764000	-9.47342500
156.09999091	0.00000000	-12.64764000	-9.47342500
156.29999090	0.00000000	-12.69070000	-9.43036400
156.49999089	0.00000000	-13.02288000	-9.09817800
156.69999087	0.00000000	-13.43504000	-8.68602300
156.89999086	0.00000000	-13.44119000	-8.67987200
157.09999085	0.00000000	-13.85334000	-8.26771600
157.29999084	0.00000000	-14.18553000	-7.98474400
157.49999083	0.00000000	-14.18553000	-8.31077700
157.69999081	0.00000000	-13.81028000	-9.05511800
157.89999080	0.00000000	-13.06594000	-9.43036400
158.09999079	0.00000000	-12.69070000	-9.47342500
158.29999078	0.00000000	-12.64764000	-9.47342500
158.49999077	0.00000000	-12.64764000	-9.47342500
158.69999075	0.00000000	-12.64764000	-9.47342500
158.89999074	0.00000000	-12.64764000	-9.47342500
159.09999073	0.00000000	-12.69070000	-9.43036400
159.29999072	0.00000000	-13.02288000	-9.05511800
159.49999071	0.00000000	-13.43504000	-8.31077700
159.69999070	0.00000000	-13.44119000	-7.93553100
159.89999068	0.00000000	-13.85334000	-7.89247000
160.09999067	0.00000000	-14.18553000	-7.89247000
160.29999066	0.00000000	-14.18553000	-7.93553100
160.49999065	0.00000000	-13.81028000	-8.31077700
160.69999064	0.00000000	-13.06594000	-9.05511800
160.89999062	0.00000000	-12.69070000	-9.43036400
161.09999061	0.00000000	-12.64764000	-9.51648500
161.29999060	0.00000000	-12.64764000	-9.84867000
161.49999059	0.00000000	-12.64764000	-10.21161000
161.69999058	0.00000000	-12.64764000	-9.84867000
161.89999056	0.00000000	-12.64764000	-9.51648500
162.09999055	0.00000000	-12.64764000	-9.43036400
162.29999054	0.00000000	-12.64764000	-9.05511800
162.49999053	0.00000000	-12.64764000	-8.31077700
162.69999052	0.00000000	-12.69070000	-7.98474400
162.89999051	0.00000000	-13.06594000	-8.31077700
163.09999049	0.00000000	-13.81028000	-9.05511800
163.29999048	0.00000000	-14.18553000	-9.47342500
163.49999047	0.00000000	-14.22859000	-9.84867000
163.69999046	0.00000000	-14.22859000	-10.21161000
163.89999045	0.00000000	-14.22859000	-9.84867000
164.09999043	0.00000000	-14.18553000	-9.51648500
164.29999042	0.00000000	-13.81028000	-9.47342500
164.49999041	0.00000000	-13.06594000	-9.47342500
164.69999040	0.00000000	-12.69070000	-9.47342500
164.89999039	0.00000000	-12.64764000	-9.47342500
165.09999037	0.00000000	-12.64764000	-9.47342500
165.29999036	0.00000000	-12.64764000	-9.47342500
165.49999035	0.00000000	-12.69070000	-9.47342500
165.69999034	0.00000000	-13.06594000	-9.47342500
165.89999033	0.00000000	-13.81028000	-9.47342500
166.09999032	0.00000000	-14.18553000	-9.47342500
166.29999030	0.00000000	-14.22859000	-9.47342500
166.49999029	0.00000000	-14.22859000	-9.47342500
166.69999028	0.00000000	-14.22859000	-9.47342500
166.89999027	0.00000000	-14.18553000	-9.47342500
167.09999026	0.00000000	-13.81028000	-9.47342500
167.29999024	0.00000000	-13.06594000	-9.47342500
167.49999023	0.00000000	-12.69070000	-9.47342500
167.69999022	0.00000000	-12.64764000	-9.47342500
167.89999021	0.00000000	-12.64764000	-9.47342500
168.09999020	0.00000000	-12.64764000	-9.47342500
168.29999018	0.00000000	-12.64764000	-9.47342500
168.49999017	0.00000000	-12.64764000	-9.47342500
168.69999016	0.00000000	-12.64764000	-9.47342500
168.89999015	0.00000000	-12.69070000	-9.47342500
169.09999014	0.00000000	-13.02288000	-9.47342500
169.29999013	0.00000000	-13.43504000	-9.47342500
169.49999011	0.00000000	-13.44119000	-9.47342500
169.69999010	0.00000000	-13.85334000	-9.47342500
169.89999009	0.00000000	-14.13632000	-9.47342500
170.09999008	0.00000000	-13.85334000	-9.47342500
170.29999007	0.00000000	-13.44119000	-9.47342500
170.49999005	0.00000000	-13.43504000	-9.47342500
170.69999004	0.00000000	-13.02288000	-9.47342500
170.89999003	0.00000000	-12.69070000	-9.47342500
171.09999002	0.00000000	-12.64764000	-9.47342500
171.29999001	0.00000000	-12.64764000	-9.47342500
171.49998999	0.00000000	-12.64764000	-9.47342500
171.69998998	0.00000000	-12.64764000	-9.47342500
171.89998997	0.00000000	-12.64764000	-9.47342500
172.09998996	0.00000000	-12.69070000	-9.47342500
172.29998995	0.00000000	-13.06594000	-9.47342500
172.49998994	0.00000000	-13.81028000	-9.47342500
172.69998992	0.00000000	-14.18553000	-9.47342500
172.89998991	0.00000000	-14.22859000	-9.47342500
173.09998990	0.00000000	-14.18553000	-9.47342500
173.29998989	0.00000000	-13.85334000	-9.47342500
173.49998988	0.00000000	-13.44119000	-9.47342500
173.69998986	0.00000000	-13.43504000	-9.47342500
173.89998985	0.00000000	-13.02288000	-9.47342500
174.09998984	0.00000000	-12.69070000	-9.47342500
174.29998983	0.00000000	-12.69070000	-9.47342500
174.49998982	0.00000000	-13.06594000	-9.47342500
174.69998980	0.00000000	-13.81028000	-9.47342500
174.89998979	0.00000000	-14.13632000	-9.47342500
175.09998978	0.00000000	-13.85334000	-9.47342500
175.29998977	0.00000000	-13.44119000	-9.47342500
175.49998976	0.00000000	-13.43504000	-9.47342500
175.69998975	0.00000000	-13.02288000	-9.47342500
175.89998973	0.00000000	-12.69070000	-9.47342500
176.09998972	0.00000000	-12.64764000	-9.47342500
176.29998971	0.00000000	-12.64764000	-9.47342500
176.49998970	0.00000000	-12.64764000	-9.47342500
176.69998969	0.00000000	-12.64764000	-9.47342500
176.89998967	0.00000000	-12.69070000	-9.47342500
177.09998966	0.00000000	-13.06594000	-9.47342500
177.29998965	0.00000000	-13.76107000	-9.47342500
177.49998964	0.00000000	-13.81028000	-9.47342500
177.69998963	0.00000000	-13.48425000	-9.47342500
177.89998961	0.00000000	-13.85334000	-9.47342500
178.09998960	0.00000000	-14.13632000	-9.47342500
178.29998959	0.00000000	-13.85334000	-9.47342500
178.49998958	0.00000000	-13.44119000	-9.47342500
178.69998957	0.00000000	-13.43504000	-9.47342500
178.89998956	0.00000000	-13.02288000	-9.47342500
179.09998954	0.00000000	-12.69070000	-9.47342500
179.29998953	0.00000000	-12.64764000	-9.47342500
179.49998952	0.00000000	-12.64764000	-9.47342500
179.69998951	0.00000000	-12.64764000	-9.47342500
179.89998950	0.00000000	-12.64764000	-9.47342500
180.09998948	0.00000000	-12.69070000	-9.47342500
180.29998947	0.00000000	-13.06594000	-9.47342500
180.49998946	0.00000000	-13.81028000	-9.47342500
180.69998945	0.00000000	-14.18553000	-9.47342500
180.89998944	0.00000000	-14.22859000	-9.47342500
181.09998942	0.00000000	-14.22859000	-9.47342500
181.29998941	0.00000000	-14.22859000	-9.47342500
181.49998940	0.00000000	-14.22859000	-9.47342500
181.69998939	0.00000000	-14.22859000	-9.47342500
181.89998938	0.00000000	-14.22859000	-9.47342500
182.09998937	0.00000000	-14.18553000	-9.47342500
182.29998935	0.00000000	-13.81028000	-9.47342500
182.49998934	0.00000000	-13.06594000	-9.47342500
182.69998933	0.00000000	-12.69070000	-9.47342500
182.89998932	0.00000000	-12.69070000	-9.47342500
183.09998931	0.00000000	-13.02288000	-9.47342500
183.29998929	0.00000000	-13.39198000	-9.47342500
183.49998928	0.00000000	-13.06594000	-9.47342500
183.69998927	0.00000000	-13.11516000	-9.47342500
183.89998926	0.00000000	-13.76107000	-9.47342500
184.09998925	0.00000000	-13.81028000	-9.47342500
184.29998923	0.00000000	-13.48425000	-9.47342500
184.49998922	0.00000000	-13.85334000	-9.47342500
184.69998921	0.00000000	-14.18553000	-9.47342500
184.89998920	0.00000000	-14.18553000	-9.47342500
185.09998919	0.00000000	-13.81028000	-9.47342500
185.29998918	0.00000000	-13.11516000	-9.47342500
185.49998916	0.00000000	-13.06594000	-9.47342500
185.69998915	0.00000000	-13.39198000	-9.47342500
185.89998914	0.00000000	-13.02288000	-9.51648500
186.09998913	0.00000000	-12.69070000	-9.89173200
186.29998912	0.00000000	-12.64764000	-10.58686000
186.49998910	0.00000000	-12.69070000	-10.58686000
186.69998909	0.00000000	-13.06594000	-9.89173200
186.89998908	0.00000000	-13.81028000	-9.51648500
187.09998907	0.00000000	-14.18553000	-9.43036400
187.29998906	0.00000000	-14.22859000	-9.09817800
187.49998904	0.00000000	-14.22859000	-8.68602300
187.69998903	0.00000000	-14.22859000	-8.72293300
187.89998902	0.00000000	-14.22859000	-8.64296200
188.09998901	0.00000000	-14.18553000	-8.72293300
188.29998900	0.00000000	-13.81028000	-8.68602300
188.49998899	0.00000000	-13.06594000	-9.09817800
188.69998897	0.00000000	-12.69070000	-9.47342500
188.89998896	0.00000000	-12.64764000	-9.84867000
189.09998895	0.00000000	-12.64764000	-10.25467000
189.29998894	0.00000000	-12.69070000	-10.21776000
189.49998893	0.00000000	-13.06594000	-10.25467000
189.69998891	0.00000000	-13.81028000	-9.84867000
189.89998890	0.00000000	-14.18553000	-9.51648500
190.09998889	0.00000000	-14.22859000	-9.47342500
190.29998888	0.00000000	-14.22859000	-9.47342500
190.49998887	0.00000000	-14.22859000	-9.47342500
190.69998885	-0.15871060	-14.18553000	-9.47342500
190.89998884	0.00000000	-13.85334000	-9.47342500
191.09998883	0.00000000	-13.44119000	-9.47342500
191.29998882	0.00000000	-13.43504000	-9.47342500
191.49998881	0.00000000	-13.06594000	-9.47342500
191.69998880	0.00000000	-13.06594000	-9.47342500
191.89998878	0.00000000	-13.39198000	-9.47342500
192.09998877	0.00000000	-13.02288000	-9.47342500
192.29998876	0.00000000	-12.69070000	-9.47342500
192.49998875	0.00000000	-12.69070000	-9.47342500
192.69998874	0.00000000	-13.06594000	-9.47342500
192.89998872	0.00000000	-13.81028000	-9.47342500
193.09998871	0.00000000	-14.18553000	-9.47342500
193.29998870	0.00000000	-14.22859000	-9.47342500
193.49998869	0.00000000	-14.22859000	-9.47342500
193.69998868	0.00000000	-14.22859000	-9.47342500
193.89998866	0.00000000	-14.18553000	-9.47342500
194.09998865	0.00000000	-13.81028000	-9.47342500
194.29998864	0.00000000	-13.06594000	-9.47342500
194.49998863	0.00000000	-12.69070000	-9.47342500
194.69998862	0.00000000	-12.64764000	-9.47342500
194.89998861	0.00000000	-12.64764000	-9.47342500
195.09998859	0.00000000	-12.69070000	-9.47342500
195.29998858	0.00000000	-13.06594000	-9.47342500
195.49998857	0.00000000	-13.81028000	-9.47342500
195.69998856	0.00000000	-14.18553000	-9.47342500
195.89998855	0.00000000	-14.22859000	-9.47342500
196.09998853	0.00000000	-14.22859000	-9.47342500
