Time	Channel A	Channel B	Channel C
(us)	(V)	(mV)	(mV)

-4.49999956	0.00000000	38.69955000	13.00443000
-4.29999957	0.00000000	38.73647000	12.72146000
-4.09999958	0.00000000	38.32431000	12.96137000
-3.89999959	0.00000000	38.04134000	12.99828000
-3.69999960	0.00000000	38.36737000	12.30930000
-3.49999962	0.00000000	39.06250000	12.67224000
-3.29999963	0.00000000	39.06250000	13.32431000
-3.09999964	0.00000000	38.36737000	13.00443000
-2.89999965	0.00000000	37.99213000	12.67224000
-2.69999966	0.00000000	37.94907000	12.62918000
-2.49999968	0.00000000	37.94907000	12.62918000
-2.29999969	0.00000000	37.94907000	12.62918000
-2.09999970	0.00000000	37.94907000	12.62918000
-1.89999971	0.00000000	37.94907000	12.62918000
-1.69999972	0.00000000	37.94907000	12.62918000
-1.49999973	0.00000000	37.94907000	12.62918000
-1.29999975	0.00000000	37.94907000	12.62918000
-1.09999976	0.00000000	37.94907000	12.62918000
-0.89999977	0.00000000	37.94907000	12.62918000
-0.69999978	0.00000000	37.94907000	12.62918000
-0.49999979	0.00000000	37.94907000	12.62918000
-0.29999981	0.31803640	37.94907000	12.62918000
-0.09999982	0.63668800	37.94907000	12.62918000
0.10000017	0.95533960	37.94907000	12.62918000
0.30000016	0.95533960	37.94907000	12.62918000
0.50000015	0.79601380	37.94907000	12.62918000
0.70000013	0.31803640	37.94907000	12.62918000
0.90000012	-0.47736220	37.94907000	12.62918000
1.10000011	-1.43331700	37.94907000	12.62918000
1.30000010	-2.38927200	37.94907000	12.62918000
1.50000009	-2.70792300	37.94907000	12.67224000
1.70000008	-2.38927200	37.94907000	13.00443000
1.90000006	-1.27399100	37.94907000	13.37352000
2.10000005	0.47736220	37.94907000	13.00443000
2.30000004	2.70792300	37.94907000	12.67224000
2.50000003	4.45989200	37.94907000	12.62918000
2.70000002	5.25652100	37.94907000	12.62918000
2.90000000	4.93786900	37.94907000	12.62918000
3.09999999	2.86724900	37.94907000	12.62918000
3.29999998	-0.15871060	37.94907000	12.62918000
3.49999997	-3.50393700	37.94907000	12.62918000
3.69999996	-6.37180100	37.94907000	12.62918000
3.89999994	-7.96444400	37.94907000	12.62918000
4.09999993	-7.48646600	37.94907000	12.67224000
4.29999992	-4.93786900	37.94907000	13.04749000
4.49999991	-1.11466500	37.94907000	13.74262000
4.69999990	3.34522600	37.94907000	13.74262000
4.89999989	7.16781500	37.94907000	13.04749000
5.09999987	9.23905000	37.94907000	12.67224000
5.29999986	9.07972400	37.94907000	12.58612000
5.49999985	6.53112700	37.94907000	12.25394000
5.69999984	2.54859700	37.94907000	11.88484000
5.89999983	-2.38927200	37.94907000	12.25394000
6.09999981	-6.53112700	37.94907000	12.58612000
6.29999980	-9.07972400	37.94907000	12.62918000
6.49999979	-9.23905000	37.94907000	12.67224000
6.69999978	-7.16781500	37.94907000	13.04749000
6.89999977	-3.50393700	37.94907000	13.79183000
7.09999975	0.95533960	37.99213000	14.11786000
7.29999974	4.77854300	38.32431000	13.79183000
7.49999973	7.16781500	38.69341000	13.04749000
7.69999972	7.64579200	38.32431000	12.67224000
7.89999971	6.21247500	37.99213000	12.62918000
8.09999970	3.34522600	37.94907000	12.62918000
8.29999968	0.00000000	37.94907000	12.62918000
8.49999967	-2.86724900	37.94907000	12.62918000
8.69999966	-4.61921700	37.94907000	12.62918000
8.89999965	-5.25652100	37.94907000	12.62918000
9.09999964	-4.45989200	37.94907000	12.62918000
9.29999962	-2.70792300	37.94907000	12.62918000
9.49999961	-0.63668800	37.94907000	12.62918000
9.69999960	1.11466500	37.94907000	12.62918000
9.89999959	2.22994600	37.94907000	12.62918000
10.09999958	2.54859700	37.94907000	12.62918000
10.29999956	2.22994600	37.94907000	12.62918000
10.49999955	1.43331700	37.94907000	12.62918000
10.69999954	0.63668800	37.94907000	12.62918000
10.89999953	-0.15871060	37.94907000	12.62918000
11.09999952	-0.79601380	37.94907000	12.62918000
11.29999951	-0.95533960	37.94907000	12.62918000
11.49999949	-0.95533960	37.94907000	12.62918000
11.69999948	-0.63668800	37.94907000	12.62918000
11.89999947	-0.47736220	37.94907000	12.62918000
12.09999946	-0.15871060	37.94907000	12.62918000
12.29999945	-0.15871060	37.94907000	12.62918000
12.49999943	-0.15871060	37.94907000	12.62918000
12.69999942	0.00000000	37.94907000	12.62918000
12.89999941	0.00000000	37.94907000	12.62918000
13.09999940	0.15871060	37.94907000	12.62918000
13.29999939	0.15871060	37.94907000	12.62918000
13.49999937	0.00000000	37.94907000	12.62918000
13.69999936	0.00000000	37.94907000	12.62918000
13.89999935	-0.15871060	37.94907000	12.62918000
14.09999934	-0.15871060	37.94907000	12.62918000
14.29999933	-0.15871060	37.94907000	12.62918000
14.49999932	-0.15871060	37.94907000	12.62918000
14.69999930	0.00000000	37.94907000	12.62918000
14.89999929	0.00000000	37.94907000	12.62918000
15.09999928	0.00000000	37.94907000	12.62918000
15.29999927	0.00000000	37.94907000	12.62918000
15.49999926	0.00000000	37.94907000	12.62918000
15.69999924	0.00000000	37.94907000	12.62918000
15.89999923	0.00000000	37.94907000	12.62918000
16.09999922	0.00000000	37.94907000	12.58612000
16.29999921	-0.15871060	37.94907000	12.25394000
16.49999920	-0.15871060	37.99213000	11.88484000
16.69999919	-0.15871060	38.36737000	12.25394000
16.89999917	0.00000000	39.11171000	12.58612000
17.09999916	0.00000000	39.53002000	12.62918000
17.29999915	0.00000000	39.90526000	12.62918000
17.49999914	0.00000000	40.27436000	12.62918000
17.69999913	0.00000000	39.90526000	12.62918000
17.89999911	0.00000000	39.53002000	12.62918000
18.09999910	0.00000000	39.01944000	12.62918000
18.29999909	0.00000000	37.48154000	12.62918000
18.49999908	0.00000000	35.24852000	12.62918000
18.69999907	0.00000000	33.71063000	12.62918000
18.89999905	0.00000000	33.29232000	12.62918000
19.09999904	0.00000000	33.66756000	12.62918000
19.29999903	0.00000000	34.92249000	12.62918000
19.49999902	0.00000000	37.25394000	12.62918000
19.69999901	0.00000000	40.77879000	12.62918000
19.89999900	0.00000000	44.60506000	12.62918000
20.09999898	0.00000000	48.04380000	12.62918000
20.29999897	0.00000000	49.53248000	12.62918000
20.49999896	0.00000000	48.36983000	12.62918000
20.69999895	0.00000000	44.83267000	12.62918000
20.89999894	0.00000000	38.97638000	12.62918000
21.09999892	0.00000000	31.61909000	12.62918000
21.29999891	0.00000000	24.31102000	12.62918000
21.49999890	0.00000000	18.96531000	12.62918000
21.69999889	0.00000000	17.47047000	12.62918000
21.89999888	0.00000000	20.63238000	12.62918000
22.09999886	0.00000000	28.45103000	12.62918000
22.29999885	0.00000000	40.04060000	12.62918000
22.49999884	0.00000000	52.73745000	12.62918000
22.69999883	0.00000000	63.16436000	12.62918000
22.89999882	0.00000000	68.89149000	12.62918000
23.09999881	0.00000000	68.04872000	12.62918000
23.29999879	0.00000000	59.82406000	12.67224000
23.49999878	0.00000000	45.48474000	13.04749000
23.69999877	0.00000000	27.34375000	13.79183000
23.89999876	0.00000000	10.07628000	14.16708000
24.09999875	0.00000000	-1.50713600	14.16708000
24.29999873	0.00000000	-4.57677100	13.74262000
24.49999872	0.00000000	1.65477300	12.58612000
24.69999871	0.00000000	16.44931000	11.04823000
24.89999870	0.00000000	37.34006000	9.51648500
25.09999869	0.00000000	60.04552000	8.31077700
25.29999867	0.00000000	78.51870000	7.56028500
25.49999866	0.00000000	87.78297000	7.24040300
25.69999865	0.00000000	85.82677000	8.44611200
25.89999864	0.00000000	72.65625000	11.14050000
26.09999863	0.00000000	51.02116000	14.67150000
26.29999862	0.00000000	25.94119000	18.90379000
26.49999860	0.00000000	3.19266700	22.66855000
26.69999859	0.00000000	-11.50960000	24.20029000
26.89999858	0.00000000	-14.99754000	23.04380000
27.09999857	0.00000000	-6.90206700	19.55585000
27.29999856	0.00000000	11.28814000	14.07480000
27.49999854	0.00000000	35.20546000	7.43110200
27.69999853	0.00000000	59.53494000	0.13533460
27.89999852	0.00000000	78.47563000	-5.94857300
28.09999851	0.00000000	87.78297000	-8.18774500
28.29999850	0.00000000	85.91289000	-5.85629900
28.49999848	0.00000000	73.59129000	1.15034400
28.69999847	0.00000000	54.27534000	11.55881000
28.89999846	0.00000000	32.22195000	23.17298000
29.09999845	0.00000000	12.12475000	33.58144000
29.29999844	0.00000000	-1.41486200	40.45890000
29.49999843	0.00000000	-5.73941900	41.57849000
29.69999841	0.00000000	-0.38754920	36.14050000
29.89999840	0.00000000	12.68455000	25.27067000
30.09999839	0.00000000	30.08735000	10.58686000
30.29999838	0.00000000	47.90231000	-4.83513700
30.49999837	0.00000000	62.65378000	-17.15059000
30.69999835	0.00000000	71.54281000	-23.69586000
30.89999834	0.00000000	72.79774000	-22.49016000
31.09999833	0.00000000	66.65846000	-13.61959000
31.29999832	0.00000000	55.43799000	1.06422200
31.49999831	0.00000000	41.11097000	18.48548000
31.69999829	0.00000000	26.82701000	35.07013000
31.89999828	0.00000000	15.98179000	47.42864000
32.09999827	0.00000000	10.50074000	52.40526000
32.29999826	0.00000000	11.19587000	48.96038000
32.49999825	0.00000000	16.96604000	37.76451000
32.69999824	0.00000000	26.27337000	21.54897000
32.89999822	0.00000000	37.53075000	3.75246000
33.09999821	0.00000000	48.28371000	-12.13091000
33.29999820	0.00000000	56.04084000	-22.91462000
33.49999819	0.00000000	58.74754000	-26.39025000
33.69999818	0.00000000	56.50836000	-21.37672000
33.89999816	0.00000000	49.95078000	-9.43651600
34.09999815	0.00000000	41.15403000	6.77903500
34.29999814	0.00000000	32.64025000	23.78199000
34.49999813	0.00000000	26.40256000	37.67839000
34.69999812	0.00000000	23.28986000	45.84769000
34.89999810	0.00000000	23.66511000	46.59818000
35.09999809	0.00000000	27.52214000	40.08366000
35.29999808	0.00000000	33.66756000	27.73130000
35.49999807	0.00000000	40.55733000	12.72146000
35.69999806	0.00000000	45.95226000	-1.58710600
35.89999805	0.00000000	48.28371000	-11.99557000
36.09999803	0.00000000	47.57627000	-16.26476000
36.29999802	0.00000000	44.09449000	-13.61343000
36.49999801	0.00000000	39.11171000	-5.16117100
36.69999800	0.00000000	33.71063000	6.77903500
36.89999799	0.00000000	29.52141000	19.46358000
37.09999797	0.00000000	27.94045000	29.40452000
37.29999796	0.00000000	29.05389000	33.67987000
37.49999795	0.00000000	32.17273000	31.49606000
37.69999794	0.00000000	36.78642000	24.57554000
37.89999793	0.00000000	41.80610000	14.99139000
38.09999791	0.00000000	45.62623000	5.01353300
38.29999790	0.00000000	47.57627000	-1.87007900
38.49999789	0.00000000	46.83809000	-4.23228400
38.69999788	0.00000000	44.13755000	-1.49483300
38.89999787	0.00000000	40.27436000	5.75172200
39.09999786	0.00000000	35.62377000	15.28051000
39.29999784	0.00000000	31.75443000	23.68971000
39.49999783	0.00000000	29.01082000	28.34030000
39.69999782	0.00000000	27.89739000	28.34030000
39.89999781	0.00000000	29.01082000	23.68971000
40.09999780	0.00000000	31.71137000	15.23130000
40.29999778	0.00000000	35.20546000	5.29035400
40.49999777	0.00000000	39.11171000	-3.07578700
40.69999776	0.00000000	42.59965000	-6.92667200
40.89999775	0.00000000	45.34325000	-5.02583600
41.09999774	0.00000000	46.83809000	1.48253000
41.29999772	0.00000000	46.46284000	11.09744000
41.49999771	0.00000000	44.13755000	21.03838000
41.69999770	0.00000000	40.69267000	28.38337000
41.89999769	0.00000000	36.78642000	31.49606000
42.09999768	0.00000000	33.33538000	29.95817000
42.29999767	0.00000000	30.92396000	24.15723000
42.49999765	0.00000000	29.79823000	15.36663000
42.69999764	0.00000000	29.80438000	6.17618100
42.89999763	0.00000000	31.75443000	-0.42445860
43.09999762	0.00000000	34.73794000	-3.58021600
43.29999761	0.00000000	37.48154000	-3.16190900
43.49999759	0.00000000	39.43774000	1.06422200
43.69999758	0.00000000	40.64345000	7.89247000
43.89999757	0.00000000	41.06791000	14.81299000
44.09999756	0.00000000	41.06791000	19.88189000
44.29999755	0.00000000	40.69267000	22.66855000
44.49999753	0.00000000	39.94832000	23.03765000
44.69999752	0.00000000	39.57308000	21.13066000
44.89999751	0.00000000	39.53002000	17.27362000
45.09999750	0.00000000	39.48696000	12.72146000
45.29999749	0.00000000	39.06250000	8.82135800
45.49999748	0.00000000	37.85679000	6.48991100
45.69999746	0.00000000	35.90059000	5.66560000
45.89999745	0.00000000	33.20005000	6.44685000
46.09999744	0.00000000	30.50566000	8.35383800
46.29999743	0.00000000	28.59252000	11.04823000
46.49999742	0.00000000	27.84818000	13.74262000
46.69999740	0.00000000	29.10310000	15.69882000
46.89999739	0.00000000	32.59719000	16.85531000
47.09999738	0.00000000	38.03519000	16.85531000
47.29999737	0.00000000	44.18061000	15.74188000
47.49999736	0.00000000	49.57554000	14.16092000
47.69999734	0.00000000	52.60211000	12.21087000
47.89999733	0.00000000	52.18381000	9.89173200
48.09999732	0.00000000	47.95152000	7.98474400
48.29999731	0.00000000	40.97564000	6.82209600
48.49999730	0.00000000	32.87401000	6.86515700
48.69999729	0.00000000	25.15379000	8.44611200
48.89999727	0.00000000	20.17101000	11.46653000
49.09999726	0.00000000	19.00837000	14.90526000
49.29999725	0.00000000	22.17027000	17.27362000
49.49999724	0.00000000	29.47835000	18.85458000
49.69999723	0.00000000	39.11171000	19.50664000
49.89999721	0.00000000	48.32677000	17.97490000
50.09999720	0.00000000	54.88435000	14.53617000
50.29999719	0.00000000	56.79134000	10.67298000
50.49999718	0.00000000	53.76476000	6.82209600
50.69999717	0.00000000	46.83809000	4.17076700
50.89999715	0.00000000	37.94907000	3.75246000
51.09999714	0.00000000	29.10310000	5.24729300
51.29999713	0.00000000	22.54552000	7.98474400
51.49999712	0.00000000	20.26329000	11.51575000
51.69999711	0.00000000	22.50246000	15.74188000
51.89999710	0.00000000	28.68479000	19.54970000
52.09999708	0.00000000	36.74335000	21.46284000
52.29999707	0.00000000	44.83267000	21.08760000
52.49999706	0.00000000	50.55979000	18.39321000
52.69999705	0.00000000	52.14074000	14.21014000
52.89999704	0.00000000	49.48942000	9.98400600
53.09999702	0.00000000	43.71924000	6.86515700
53.29999701	0.00000000	36.41117000	5.33341500
53.49999700	0.00000000	29.52141000	5.70866100
53.69999699	0.00000000	25.28912000	7.93553100
53.89999698	0.00000000	24.87082000	10.62992000
54.09999696	0.00000000	27.94045000	13.00443000
54.29999695	0.00000000	33.66756000	15.27436000
54.49999694	0.00000000	40.18209000	16.39395000
54.69999693	0.00000000	45.20792000	15.69882000
54.89999692	0.00000000	47.95152000	14.16092000
55.09999691	0.00000000	47.90846000	12.25394000
55.29999689	0.00000000	44.83267000	10.35310000
55.49999688	0.00000000	39.48080000	9.65182000
55.69999687	0.00000000	33.71063000	10.31004000
55.89999686	0.00000000	29.10310000	11.87869000
56.09999685	0.00000000	26.77780000	13.46580000
56.29999683	0.00000000	27.56521000	15.74188000
56.49999682	0.00000000	30.96703000	17.46432000
56.69999681	0.00000000	35.94980000	16.30167000
56.89999680	0.00000000	40.55733000	12.62918000
57.09999679	0.00000000	43.71924000	8.77214500
57.29999677	0.00000000	45.25713000	6.02854300
57.49999676	0.00000000	44.83267000	4.12770700
57.69999675	0.00000000	42.18134000	4.21998000
57.89999674	0.00000000	38.36737000	6.86515700
58.09999673	0.00000000	34.87328000	11.09129000
58.29999672	0.00000000	32.17273000	15.78494000
58.49999670	0.00000000	31.01009000	20.39247000
58.69999669	0.00000000	31.75443000	23.78199000
58.89999668	0.00000000	33.61835000	24.15723000
59.09999667	0.00000000	35.94980000	21.46284000
59.29999666	0.00000000	37.90600000	16.39395000
59.49999664	0.00000000	39.48696000	9.51648500
59.69999663	0.00000000	40.60039000	3.01427100
59.89999662	0.00000000	40.60039000	-0.84276570
60.09999661	0.00000000	39.48696000	-1.63016700
60.29999660	0.00000000	37.99213000	1.10728300
60.49999658	0.00000000	36.83563000	6.86515700
60.69999657	0.00000000	36.41117000	14.21014000
60.89999656	0.00000000	36.41117000	21.50590000
61.09999655	0.00000000	36.78642000	26.84547000
61.29999654	0.00000000	37.53075000	28.38337000
61.49999653	0.00000000	37.90600000	25.73203000
61.69999651	0.00000000	37.94907000	19.92495000
61.89999650	0.00000000	37.90600000	12.21087000
62.09999649	0.00000000	37.48154000	4.12770700
62.29999648	0.00000000	36.36811000	-2.00541300
62.49999647	0.00000000	35.25467000	-4.69980300
62.69999645	0.00000000	34.83022000	-3.21112200
62.89999644	0.00000000	34.83022000	1.80241100
63.09999643	0.00000000	35.25467000	8.72908400
63.29999642	0.00000000	36.41117000	16.48622000
63.49999641	0.00000000	37.94907000	22.99459000
63.69999639	0.00000000	39.48696000	26.89468000
63.89999638	0.00000000	40.60039000	27.26993000
64.09999637	0.00000000	40.60039000	24.20029000
64.29999636	0.00000000	39.48696000	18.43627000
64.49999635	0.00000000	37.94907000	11.51575000
64.69999634	0.00000000	36.36811000	5.33341500
64.89999632	0.00000000	34.83022000	1.02116100
65.09999631	0.00000000	33.71063000	-0.93503930
65.29999630	0.00000000	33.71063000	-0.55979330
65.49999629	0.00000000	34.83022000	2.17765700
65.69999628	0.00000000	36.36811000	6.77903500
65.89999626	0.00000000	37.90600000	12.16166000
66.09999625	0.00000000	39.06250000	16.81225000
66.29999624	0.00000000	39.43774000	19.97416000
66.49999623	0.00000000	39.01944000	21.54897000
66.69999622	0.00000000	37.53075000	21.59203000
66.89999620	0.00000000	35.62377000	20.43553000
67.09999619	0.00000000	34.49803000	18.47933000
67.29999618	0.00000000	34.08588000	15.69882000
67.49999617	0.00000000	34.92249000	12.21087000
67.69999616	0.00000000	36.83563000	8.35998900
67.89999615	0.00000000	39.48696000	5.29035400
68.09999613	0.00000000	41.80610000	3.66633800
68.29999612	0.00000000	42.93184000	3.24803100
68.49999611	0.00000000	42.92569000	3.66633800
68.69999610	0.00000000	40.93258000	5.29035400
68.89999609	0.00000000	37.53075000	8.40305000
69.09999607	0.00000000	33.61835000	12.67224000
69.29999606	0.00000000	30.17347000	17.27362000
69.49999605	0.00000000	27.84818000	21.13066000
69.69999604	0.00000000	27.52214000	23.08686000
69.89999603	0.00000000	29.47835000	23.08686000
70.09999601	0.00000000	33.71063000	21.08760000
70.29999600	0.00000000	39.11171000	16.85531000
70.49999599	0.00000000	44.13755000	11.51575000
70.69999598	0.00000000	47.95152000	6.86515700
70.89999597	0.00000000	49.11417000	3.70939900
71.09999596	0.00000000	47.20718000	2.17150600
71.29999594	0.00000000	43.34399000	2.59596400
71.49999593	0.00000000	37.85679000	5.29035400
71.69999592	0.00000000	31.75443000	9.47342500
71.89999591	0.00000000	26.73474000	13.74262000
72.09999590	0.00000000	24.40330000	17.27977000
72.29999588	0.00000000	24.73548000	19.92495000
72.49999587	0.00000000	27.47293000	20.66929000
72.69999586	0.00000000	32.12967000	18.81152000
72.89999585	0.00000000	37.94907000	15.78494000
73.09999584	0.00000000	43.71924000	12.67224000
73.29999582	0.00000000	47.90846000	9.98400600
73.49999581	0.00000000	49.15723000	8.44611200
73.69999580	0.00000000	47.58243000	8.40305000
73.89999579	0.00000000	44.13140000	9.51648500
74.09999578	0.00000000	38.69955000	11.00517000
74.29999577	0.00000000	33.37844000	12.11860000
74.49999575	0.00000000	29.42913000	12.16166000
74.69999574	0.00000000	27.52214000	11.42347000
74.89999573	0.00000000	27.84818000	10.62992000
75.09999572	0.00000000	30.17347000	9.47342500
75.29999571	0.00000000	33.61835000	8.40305000
75.49999569	0.00000000	37.48154000	8.44611200
75.69999568	0.00000000	40.55733000	9.98400600
75.89999567	0.00000000	42.13828000	12.67224000
76.09999566	0.00000000	42.18134000	15.74188000
76.29999565	0.00000000	41.06791000	18.39321000
76.49999563	0.00000000	39.53002000	19.50664000
76.69999562	0.00000000	37.94907000	18.39321000
76.89999561	0.00000000	36.46038000	15.64960000
77.09999560	0.00000000	35.67298000	11.79257000
77.29999559	0.00000000	35.99286000	7.14812900
77.49999558	0.00000000	36.32505000	3.33415300
77.69999556	0.00000000	36.36811000	1.01501000
77.89999555	0.00000000	36.32505000	1.06422200
78.09999554	0.00000000	35.94980000	3.75246000
78.29999553	0.00000000	35.16240000	8.35998900
78.49999552	0.00000000	34.45497000	13.79183000
78.69999550	0.00000000	34.08588000	18.81152000
78.89999549	0.00000000	34.87328000	22.66855000
79.09999548	0.00000000	36.36811000	24.15723000
79.29999547	0.00000000	37.99213000	22.66855000
79.49999546	0.00000000	39.90526000	18.81152000
79.69999544	0.00000000	41.80610000	13.83489000
79.89999543	0.00000000	42.51353000	8.77829600
80.09999542	0.00000000	41.76304000	4.91510800
80.29999541	0.00000000	39.48696000	2.54675200
80.49999540	0.00000000	36.78642000	2.17150600
80.69999539	0.00000000	34.41191000	3.70939900
80.89999537	0.00000000	32.12967000	6.82209600
81.09999536	0.00000000	31.01009000	11.00517000
81.29999535	0.00000000	31.75443000	14.90526000
81.49999534	0.00000000	33.66756000	17.64887000
81.69999533	0.00000000	36.36811000	19.64198000
81.89999531	0.00000000	39.06250000	20.39247000
82.09999530	0.00000000	41.01870000	20.01722000
82.29999529	0.00000000	42.18134000	18.43627000
82.49999528	0.00000000	42.13828000	15.74188000
82.69999527	0.00000000	40.64345000	12.67224000
82.89999525	0.00000000	38.32431000	9.89173200
83.09999524	0.00000000	36.03592000	7.51722400
83.29999523	0.00000000	34.08588000	5.19808000
83.49999522	0.00000000	33.33538000	3.75246000
83.69999521	0.00000000	33.61835000	4.08464600
83.89999520	0.00000000	34.45497000	6.02854300
84.09999518	0.00000000	35.58071000	8.72908400
84.29999517	0.00000000	37.11245000	12.25394000
84.49999516	0.00000000	37.85679000	15.69882000
84.69999515	0.00000000	37.94907000	18.47933000
84.89999514	0.00000000	37.94907000	20.39247000
85.09999512	0.00000000	37.94907000	21.08760000
85.29999511	0.00000000	37.90600000	19.50664000
85.49999510	0.00000000	37.57381000	15.69882000
85.69999509	0.00000000	37.20472000	11.09129000
85.89999508	0.00000000	37.57381000	6.77903500
86.09999506	0.00000000	37.90600000	3.37721400
86.29999505	0.00000000	37.90600000	1.80856300
86.49999504	0.00000000	37.48154000	2.96505900
86.69999503	0.00000000	36.36811000	5.61638700
86.89999502	0.00000000	35.20546000	9.56569900
87.09999501	0.00000000	34.41191000	14.16708000
87.29999499	0.00000000	33.66756000	18.39321000
87.49999498	0.00000000	33.71063000	21.03838000
87.69999497	0.00000000	34.83022000	21.08760000
87.89999496	0.00000000	36.36811000	18.76845000
88.09999495	0.00000000	37.94907000	14.90526000
88.29999493	0.00000000	39.43774000	9.89173200
88.49999492	0.00000000	40.22515000	5.33341500
88.69999491	0.00000000	39.86220000	2.63902500
88.89999490	0.00000000	39.11171000	2.59596400
89.09999489	0.00000000	37.90600000	4.91510800
89.29999487	0.00000000	36.36811000	8.77829600
89.49999486	0.00000000	34.83022000	13.74262000
89.69999485	0.00000000	33.71063000	17.97490000
89.89999484	0.00000000	33.71063000	20.30020000
90.09999483	0.00000000	34.73794000	20.66929000
90.29999482	0.00000000	35.53149000	18.35015000
90.49999480	0.00000000	35.67298000	14.16708000
90.69999479	0.00000000	36.78642000	9.56569900
90.89999478	0.00000000	38.22588000	5.66560000
91.09999477	0.00000000	38.28125000	3.38336600
91.29999476	0.00000000	37.99213000	3.01427100
91.49999474	0.00000000	37.94907000	5.37647600
91.69999473	0.00000000	37.90600000	9.89173200
91.89999472	0.00000000	37.53075000	14.90526000
92.09999471	0.00000000	36.83563000	18.71924000
92.29999470	0.00000000	36.78642000	20.71235000
92.49999468	0.00000000	37.11245000	20.25714000
92.69999467	0.00000000	36.70029000	17.59966000
92.89999466	0.00000000	35.99286000	13.00443000
93.09999465	0.00000000	35.16240000	8.44611200
93.29999464	0.00000000	34.41191000	5.29035400
93.49999463	0.00000000	33.66756000	3.75246000
93.69999461	0.00000000	33.66756000	4.17076700
93.89999460	0.00000000	34.45497000	6.86515700
94.09999459	0.00000000	35.62377000	11.04823000
94.29999458	0.00000000	37.57381000	15.27436000
94.49999457	0.00000000	39.48696000	18.35015000
94.69999455	0.00000000	41.01870000	19.50664000
94.89999454	0.00000000	41.76304000	18.35015000
95.09999453	0.00000000	40.97564000	15.32357000
95.29999452	0.00000000	39.06250000	11.46653000
95.49999451	0.00000000	36.31890000	8.02780400
95.69999449	0.00000000	33.24926000	5.70866100
95.89999448	0.00000000	30.54872000	5.33341500
96.09999447	0.00000000	29.01082000	6.82209600
96.29999446	0.00000000	29.01082000	9.51648500
96.49999445	0.00000000	30.59178000	12.58612000
96.69999444	0.00000000	33.66756000	15.27436000
96.89999442	0.00000000	37.53075000	16.81225000
97.09999441	0.00000000	41.01870000	16.85531000
97.29999440	0.00000000	43.76230000	15.69882000
97.49999439	0.00000000	45.25713000	13.79183000
97.69999438	0.00000000	44.83267000	11.46653000
97.89999436	0.00000000	42.18134000	9.55954600
98.09999435	0.00000000	38.32431000	8.40305000
98.29999434	0.00000000	34.45497000	8.40305000
98.49999433	0.00000000	30.92396000	9.47342500
98.69999432	0.00000000	28.63558000	10.62992000
98.89999430	0.00000000	27.84818000	11.42347000
99.09999429	0.00000000	29.05389000	12.21087000
99.29999428	0.00000000	32.08661000	12.58612000
99.49999427	0.00000000	35.94980000	12.62918000
99.69999426	0.00000000	39.43774000	12.62918000
99.89999425	0.00000000	42.18134000	12.67224000
100.09999423	0.00000000	43.71924000	13.04749000
100.29999422	0.00000000	43.76230000	13.79183000
100.49999421	0.00000000	42.59965000	14.16708000
100.69999420	0.00000000	40.64345000	14.11786000
100.89999419	0.00000000	37.90600000	13.37352000
101.09999417	0.00000000	34.83022000	11.84178000
101.29999416	0.00000000	32.12967000	10.67298000
101.49999415	0.00000000	30.54872000	9.42421200
101.69999414	0.00000000	30.17347000	7.98474400
101.89999413	0.00000000	30.92396000	7.24040300
102.09999411	0.00000000	32.87401000	8.02780400
102.29999410	0.00000000	35.16240000	9.93479300
102.49999409	0.00000000	37.53075000	12.62918000
102.69999408	0.00000000	39.43774000	15.32357000
102.89999407	0.00000000	40.64345000	17.27362000
103.09999406	0.00000000	41.01870000	18.39321000
103.29999404	0.00000000	40.64345000	17.97490000
103.49999403	0.00000000	39.43774000	15.69882000
103.69999402	0.00000000	37.53075000	12.62918000
103.89999401	0.00000000	35.20546000	9.51648500
104.09999400	0.00000000	33.29232000	6.82209600
104.29999398	0.00000000	32.12967000	5.33341500
104.49999397	0.00000000	32.12967000	5.70866100
104.69999396	0.00000000	33.24926000	7.98474400
104.89999395	0.00000000	34.78716000	11.00517000
105.09999394	0.00000000	36.36811000	13.74262000
105.29999392	0.00000000	37.90600000	15.69882000
105.49999391	0.00000000	39.01944000	16.85531000
105.69999390	0.00000000	39.06250000	16.85531000
105.89999389	0.00000000	38.32431000	15.69882000
106.09999388	0.00000000	37.53075000	13.74262000
106.29999387	0.00000000	36.36811000	11.09744000
106.49999385	0.00000000	35.25467000	8.82135800
106.69999384	0.00000000	34.83022000	8.02780400
106.89999383	0.00000000	34.83022000	8.35998900
107.09999382	0.00000000	35.20546000	9.51648500
107.29999381	0.00000000	35.99286000	11.04823000
107.49999379	0.00000000	36.74335000	12.62918000
107.69999378	0.00000000	37.53075000	14.11786000
107.89999377	0.00000000	37.85679000	14.85605000
108.09999376	0.00000000	37.53075000	14.11786000
108.29999375	0.00000000	36.74335000	12.62918000
108.49999374	0.00000000	35.94980000	11.09744000
108.69999372	0.00000000	34.83022000	9.93479300
108.89999371	0.00000000	34.08588000	9.51648500
109.09999370	0.00000000	34.45497000	9.51648500
109.29999369	0.00000000	35.20546000	9.93479300
109.49999368	0.00000000	36.36811000	11.09744000
109.69999366	0.00000000	37.53075000	12.62918000
109.89999365	0.00000000	38.32431000	14.16092000
110.09999364	0.00000000	39.06250000	15.27436000
110.29999363	0.00000000	39.01944000	15.27436000
110.49999362	0.00000000	37.94907000	14.16092000
110.69999360	0.00000000	36.78642000	12.62918000
110.89999359	0.00000000	35.99286000	11.04823000
111.09999358	0.00000000	35.16240000	9.51648500
111.29999357	0.00000000	34.45497000	8.40305000
111.49999356	0.00000000	34.04282000	8.35998900
111.69999355	0.00000000	34.45497000	9.09817800
111.89999353	0.00000000	35.16240000	9.89173200
112.09999352	0.00000000	35.99286000	11.04823000
112.29999351	0.00000000	36.74335000	12.16166000
112.49999350	0.00000000	37.53075000	12.58612000
112.69999349	0.00000000	37.85679000	12.62918000
112.89999347	0.00000000	37.53075000	12.62918000
113.09999346	0.00000000	36.78642000	12.62918000
113.29999345	0.00000000	36.36811000	12.58612000
113.49999344	0.00000000	35.94980000	12.21087000
113.69999343	0.00000000	35.25467000	11.46653000
113.89999341	0.00000000	35.25467000	11.09129000
114.09999340	0.00000000	35.94980000	11.04823000
114.29999339	0.00000000	36.32505000	11.00517000
114.49999338	0.00000000	36.36811000	10.62992000
114.69999337	0.00000000	36.36811000	9.89173200
114.89999336	0.00000000	36.36811000	9.56569900
115.09999334	0.00000000	36.36811000	9.89173200
115.29999333	0.00000000	36.36811000	10.62992000
115.49999332	0.00000000	36.36811000	11.00517000
115.69999331	0.00000000	36.36811000	11.14050000
115.89999330	0.00000000	36.32505000	11.84178000
116.09999328	0.00000000	35.94980000	12.99828000
116.29999327	0.00000000	35.25467000	13.37967000
116.49999326	0.00000000	35.20546000	13.79183000
116.69999325	0.00000000	35.53149000	13.74262000
116.89999324	0.00000000	35.20546000	13.00443000
117.09999322	0.00000000	35.29773000	12.25394000
117.29999321	0.00000000	36.36811000	11.42347000
117.49999320	0.00000000	37.48154000	10.67298000
117.69999319	0.00000000	37.90600000	9.89173200
117.89999318	0.00000000	37.94907000	9.51648500
118.09999317	0.00000000	37.90600000	9.51648500
118.29999315	0.00000000	37.53075000	9.89173200
118.49999314	0.00000000	36.74335000	10.67298000
118.69999313	0.00000000	35.94980000	11.42347000
118.89999312	0.00000000	34.78716000	12.25394000
119.09999311	0.00000000	33.66756000	13.00443000
119.29999309	0.00000000	33.29232000	13.79183000
119.49999308	0.00000000	33.61835000	14.11786000
119.69999307	0.00000000	34.41191000	13.79183000
119.89999306	0.00000000	35.20546000	13.04749000
120.09999305	0.00000000	36.41117000	12.62918000
120.29999303	0.00000000	37.90600000	12.21087000
120.49999302	0.00000000	39.06250000	11.46653000
120.69999301	0.00000000	39.43774000	11.09129000
120.89999300	0.00000000	39.06250000	11.04823000
121.09999299	0.00000000	37.94907000	11.00517000
121.29999298	0.00000000	36.78642000	10.67298000
121.49999296	0.00000000	35.94980000	10.31004000
121.69999295	0.00000000	34.78716000	10.67298000
121.89999294	0.00000000	33.66756000	11.04823000
122.09999293	0.00000000	33.29232000	11.46653000
122.29999292	0.00000000	33.61835000	12.21087000
122.49999290	0.00000000	34.41191000	12.62918000
122.69999289	0.00000000	35.20546000	13.04749000
122.89999288	0.00000000	36.32505000	13.74262000
123.09999287	0.00000000	37.11245000	13.74262000
123.29999286	0.00000000	37.16166000	13.00443000
123.49999284	0.00000000	37.57381000	12.25394000
123.69999283	0.00000000	37.90600000	11.46653000
123.89999282	0.00000000	37.90600000	11.09129000
124.09999281	0.00000000	37.53075000	11.04823000
124.29999280	0.00000000	36.74335000	11.04823000
124.49999279	0.00000000	35.99286000	11.04823000
124.69999277	0.00000000	35.20546000	11.04823000
124.89999276	0.00000000	34.83022000	11.09129000
125.09999275	0.00000000	34.78716000	11.46653000
125.29999274	0.00000000	34.78716000	12.21087000
125.49999273	0.00000000	34.83022000	12.58612000
125.69999271	0.00000000	35.20546000	12.62918000
125.89999270	0.00000000	35.99286000	12.62918000
126.09999269	0.00000000	36.74335000	12.62918000
126.29999268	0.00000000	37.53075000	12.62918000
126.49999267	0.00000000	37.90600000	12.58612000
126.69999265	0.00000000	37.94907000	12.21087000
126.89999264	0.00000000	37.90600000	11.46653000
127.09999263	0.00000000	37.48154000	11.09129000
127.29999262	0.00000000	36.32505000	11.04823000
127.49999261	0.00000000	34.83022000	11.04823000
127.69999260	0.00000000	33.66756000	11.04823000
127.89999258	0.00000000	33.29232000	11.04823000
128.09999257	0.00000000	33.66756000	11.09129000
128.29999256	0.00000000	34.78716000	11.46653000
128.49999255	0.00000000	35.94980000	12.21087000
128.69999254	0.00000000	36.74335000	12.58612000
128.89999252	0.00000000	37.53075000	12.62918000
129.09999251	0.00000000	37.90600000	12.58612000
129.29999250	0.00000000	37.90600000	12.21087000
129.49999249	0.00000000	37.48154000	11.46653000
129.69999248	0.00000000	36.36811000	11.09129000
129.89999246	0.00000000	35.25467000	11.04823000
130.09999245	0.00000000	34.78716000	11.04823000
130.29999244	0.00000000	34.41191000	11.04823000
130.49999243	0.00000000	34.04282000	11.04823000
130.69999242	0.00000000	34.45497000	11.09129000
130.89999241	0.00000000	35.20546000	11.42347000
131.09999239	0.00000000	36.36811000	11.79257000
131.29999238	0.00000000	37.48154000	11.46653000
131.49999237	0.00000000	37.85679000	11.46653000
131.69999236	0.00000000	37.53075000	11.74336000
131.89999235	0.00000000	36.74335000	11.00517000
132.09999233	0.00000000	35.99286000	9.98400600
132.29999232	0.00000000	35.20546000	9.93479300
132.49999231	0.00000000	34.83022000	10.62992000
132.69999230	0.00000000	34.78716000	11.00517000
132.89999229	0.00000000	34.83022000	11.09129000
133.09999227	0.00000000	35.20546000	11.46653000
133.29999226	0.00000000	35.94980000	12.21087000
133.49999225	0.00000000	36.32505000	12.58612000
133.69999224	0.00000000	36.36811000	12.62918000
133.89999223	0.00000000	36.36811000	12.62918000
134.09999222	0.00000000	36.36811000	12.58612000
134.29999220	0.00000000	36.36811000	12.21087000
134.49999219	0.00000000	36.36811000	11.42347000
134.69999218	0.00000000	36.36811000	10.67298000
134.89999217	0.00000000	36.36811000	9.89173200
135.09999216	0.00000000	36.36811000	9.51648500
135.29999214	0.00000000	36.36811000	9.51648500
135.49999213	0.00000000	36.36811000	9.89173200
135.69999212	0.00000000	36.36811000	10.67298000
135.89999211	0.00000000	36.32505000	11.42347000
136.09999210	0.00000000	35.94980000	12.21087000
136.29999208	0.00000000	35.20546000	12.58612000
136.49999207	0.00000000	34.83022000	12.62918000
136.69999206	0.00000000	34.78716000	12.62918000
136.89999205	0.00000000	34.83022000	12.58612000
137.09999204	0.00000000	35.20546000	12.21087000
137.29999203	0.00000000	35.94980000	11.46653000
137.49999201	0.00000000	36.36811000	11.09129000
137.69999200	0.00000000	36.78642000	11.00517000
137.89999199	0.00000000	37.48154000	10.67298000
138.09999198	0.00000000	37.48154000	10.31004000
138.29999197	0.00000000	36.74335000	10.67298000
138.49999195	0.00000000	35.99286000	11.00517000
138.69999194	0.00000000	35.20546000	11.09129000
138.89999193	0.00000000	34.83022000	11.46653000
139.09999192	0.00000000	34.78716000	12.21087000
139.29999191	0.00000000	34.78716000	12.58612000
139.49999189	0.00000000	34.83022000	12.62918000
139.69999188	0.00000000	35.20546000	12.62918000
139.89999187	0.00000000	35.94980000	12.62918000
140.09999186	0.00000000	36.32505000	12.58612000
140.29999185	0.00000000	36.36811000	12.21087000
140.49999184	0.00000000	36.36811000	11.42347000
140.69999182	0.00000000	36.36811000	10.67298000
140.89999181	0.00000000	36.32505000	9.89173200
141.09999180	0.00000000	35.94980000	9.56569900
141.29999179	0.00000000	35.20546000	9.89173200
141.49999178	0.00000000	34.83022000	10.67298000
141.69999176	0.00000000	34.78716000	11.42347000
141.89999175	0.00000000	34.83022000	12.25394000
142.09999174	0.00000000	35.20546000	13.00443000
142.29999173	0.00000000	35.94980000	13.74262000
142.49999172	0.00000000	36.32505000	13.74262000
142.69999170	0.00000000	36.36811000	13.00443000
142.89999169	0.00000000	36.36811000	12.25394000
143.09999168	0.00000000	36.36811000	11.42347000
143.29999167	0.00000000	36.32505000	10.67298000
143.49999166	0.00000000	35.94980000	9.89173200
143.69999165	0.00000000	35.20546000	9.51648500
143.89999163	0.00000000	34.83022000	9.51648500
144.09999162	0.00000000	34.83022000	9.89173200
144.29999161	0.00000000	35.20546000	10.67298000
144.49999160	0.00000000	35.94980000	11.42347000
144.69999159	0.00000000	36.32505000	12.21087000
144.89999157	0.00000000	36.36811000	12.62918000
145.09999156	0.00000000	36.36811000	13.00443000
145.29999155	0.00000000	36.36811000	13.32431000
145.49999154	0.00000000	36.32505000	12.58612000
145.69999153	0.00000000	35.94980000	11.51575000
145.89999151	0.00000000	35.20546000	11.04823000
146.09999150	0.00000000	34.83022000	10.62992000
146.29999149	0.00000000	34.83022000	9.93479300
146.49999148	0.00000000	35.20546000	9.93479300
146.69999147	0.00000000	35.94980000	10.62992000
146.89999146	0.00000000	36.32505000	11.00517000
147.09999144	0.00000000	36.36811000	11.04823000
147.29999143	0.00000000	36.36811000	11.09129000
147.49999142	0.00000000	36.32505000	11.46653000
147.69999141	0.00000000	35.94980000	12.21087000
147.89999140	0.00000000	35.20546000	12.58612000
148.09999138	0.00000000	34.83022000	12.62918000
148.29999137	0.00000000	34.78716000	12.62918000
148.49999136	0.00000000	34.78716000	12.58612000
148.69999135	0.00000000	34.83022000	12.21087000
148.89999134	0.00000000	35.16240000	11.46653000
149.09999132	0.00000000	35.57455000	11.09129000
149.29999131	0.00000000	35.58071000	11.04823000
149.49999130	0.00000000	35.99286000	11.04823000
149.69999129	0.00000000	36.32505000	11.04823000
149.89999128	0.00000000	36.36811000	11.04823000
150.09999127	0.00000000	36.32505000	11.04823000
150.29999125	0.00000000	35.94980000	11.09129000
150.49999124	0.00000000	35.20546000	11.46653000
150.69999123	0.00000000	34.83022000	12.21087000
150.89999122	0.00000000	34.78716000	12.53691000
151.09999121	0.00000000	34.78716000	12.21087000
151.29999119	0.00000000	34.78716000	11.46653000
151.49999118	0.00000000	34.78716000	11.09129000
151.69999117	0.00000000	34.78716000	11.04823000
151.89999116	0.00000000	34.83022000	11.04823000
152.09999115	0.00000000	35.20546000	11.04823000
152.29999113	0.00000000	35.94980000	11.04823000
152.49999112	0.00000000	36.32505000	11.04823000
152.69999111	0.00000000	36.36811000	11.04823000
152.89999110	0.00000000	36.36811000	11.04823000
153.09999109	0.00000000	36.36811000	11.09129000
153.29999108	0.00000000	36.32505000	11.46653000
153.49999106	0.00000000	35.94980000	12.21087000
153.69999105	0.00000000	35.20546000	12.58612000
153.89999104	0.00000000	34.83022000	12.62918000
154.09999103	0.00000000	34.78716000	12.62918000
154.29999102	0.00000000	34.78716000	12.58612000
154.49999100	0.00000000	34.83022000	12.21087000
154.69999099	0.00000000	35.20546000	11.46653000
154.89999098	0.00000000	35.94980000	11.09129000
155.09999097	0.00000000	36.32505000	11.04823000
155.29999096	0.00000000	36.36811000	11.04823000
155.49999094	0.00000000	36.36811000	11.04823000
155.69999093	0.00000000	36.36811000	11.04823000
155.89999092	0.00000000	36.36811000	11.09129000
156.09999091	0.00000000	36.36811000	11.46653000
156.29999090	0.00000000	36.32505000	12.21087000
156.49999089	0.00000000	35.94980000	12.58612000
156.69999087	0.00000000	35.20546000	12.62918000
156.89999086	0.00000000	34.83022000	12.62918000
157.09999085	0.00000000	34.78716000	12.62918000
157.29999084	0.00000000	34.78716000	12.58612000
157.49999083	0.00000000	34.78716000	12.21087000
157.69999081	0.00000000	34.83022000	11.46653000
157.89999080	0.00000000	35.20546000	11.09129000
158.09999079	0.00000000	35.94980000	11.04823000
158.29999078	0.00000000	36.32505000	11.04823000
158.49999077	0.00000000	36.36811000	11.04823000
158.69999075	0.00000000	36.36811000	11.04823000
158.89999074	0.00000000	36.36811000	11.04823000
159.09999073	0.00000000	36.32505000	11.04823000
159.29999072	0.00000000	35.94980000	11.09129000
159.49999071	0.00000000	35.20546000	11.46653000
159.69999070	0.00000000	34.83022000	12.21087000
159.89999068	0.00000000	34.78716000	12.58612000
160.09999067	0.00000000	34.78716000	12.62918000
160.29999066	0.00000000	34.78716000	12.58612000
160.49999065	0.00000000	34.78716000	12.16166000
160.69999064	0.00000000	34.78716000	11.09744000
160.89999062	0.00000000	34.83022000	10.35310000
161.09999061	0.00000000	35.16240000	10.67298000
161.29999060	0.00000000	35.57455000	11.00517000
161.49999059	0.00000000	35.58071000	11.04823000
161.69999058	0.00000000	35.99286000	11.04823000
161.89999056	0.00000000	36.27584000	11.04823000
162.09999055	0.00000000	35.99286000	11.04823000
162.29999054	0.00000000	35.58071000	11.04823000
162.49999053	0.00000000	35.57455000	11.04823000
162.69999052	0.00000000	35.16240000	11.04823000
162.89999051	0.00000000	34.83022000	11.04823000
163.09999049	0.00000000	34.78716000	11.04823000
163.29999048	0.00000000	34.78716000	11.04823000
163.49999047	0.00000000	34.78716000	11.04823000
163.69999046	0.00000000	34.78716000	11.04823000
163.89999045	0.00000000	34.78716000	11.04823000
164.09999043	0.00000000	34.83022000	11.04823000
164.29999042	0.00000000	35.16240000	11.00517000
164.49999041	0.00000000	35.57455000	10.67298000
164.69999040	0.00000000	35.58071000	10.31004000
164.89999039	0.00000000	35.99286000	10.67298000
165.09999037	0.00000000	36.32505000	11.00517000
165.29999036	0.00000000	36.36811000	11.04823000
165.49999035	0.00000000	36.32505000	11.04823000
165.69999034	0.00000000	35.94980000	11.04823000
165.89999033	0.00000000	35.20546000	11.09129000
166.09999032	0.00000000	34.83022000	11.42347000
166.29999030	0.00000000	34.78716000	11.79257000
166.49999029	0.00000000	34.78716000	11.42347000
166.69999028	0.00000000	34.78716000	11.09129000
166.89999027	0.00000000	34.78716000	11.04823000
167.09999026	0.00000000	34.83022000	11.04823000
167.29999024	0.00000000	35.20546000	11.04823000
167.49999023	0.00000000	35.94980000	11.04823000
167.69999022	0.00000000	36.32505000	11.04823000
167.89999021	0.00000000	36.36811000	11.04823000
168.09999020	0.00000000	36.36811000	11.04823000
168.29999018	0.00000000	36.32505000	11.04823000
168.49999017	0.00000000	35.94980000	11.04823000
168.69999016	0.00000000	35.20546000	11.04823000
168.89999015	0.00000000	34.83022000	11.09129000
169.09999014	0.00000000	34.78716000	11.42347000
169.29999013	0.00000000	34.78716000	11.79257000
169.49999011	0.00000000	34.78716000	11.42347000
169.69999010	0.00000000	34.78716000	11.09129000
169.89999009	0.00000000	34.78716000	11.04823000
170.09999008	0.00000000	34.83022000	11.04823000
170.29999007	0.00000000	35.16240000	11.04823000
170.49999005	0.00000000	35.53149000	11.04823000
170.69999004	0.00000000	35.16240000	11.04823000
170.89999003	0.00000000	34.83022000	11.04823000
171.09999002	0.00000000	34.78716000	11.04823000
171.29999001	0.00000000	34.78716000	11.04823000
171.49998999	0.00000000	34.78716000	11.04823000
171.69998998	0.00000000	34.78716000	11.04823000
171.89998997	0.00000000	34.78716000	11.04823000
172.09998996	0.00000000	34.78716000	11.04823000
172.29998995	0.00000000	34.78716000	11.04823000
172.49998994	0.00000000	34.78716000	11.04823000
172.69998992	0.00000000	34.78716000	11.04823000
172.89998991	0.00000000	34.78716000	11.04823000
173.09998990	0.00000000	34.78716000	11.04823000
173.29998989	0.00000000	34.78716000	11.04823000
173.49998988	0.00000000	34.78716000	11.04823000
173.69998986	0.00000000	34.78716000	11.04823000
173.89998985	0.00000000	34.78716000	11.04823000
174.09998984	0.00000000	34.78716000	11.04823000
174.29998983	0.00000000	34.78716000	11.04823000
174.49998982	0.00000000	34.78716000	11.04823000
174.69998980	0.00000000	34.78716000	11.04823000
174.89998979	0.00000000	34.78716000	11.04823000
175.09998978	0.00000000	34.78716000	11.04823000
175.29998977	0.00000000	34.78716000	11.04823000
175.49998976	0.00000000	34.78716000	11.04823000
175.69998975	0.00000000	34.78716000	11.04823000
175.89998973	0.00000000	34.78716000	11.04823000
176.09998972	0.00000000	34.78716000	11.04823000
176.29998971	0.00000000	34.78716000	11.04823000
176.49998970	0.00000000	34.78716000	11.04823000
176.69998969	0.00000000	34.78716000	11.04823000
176.89998967	0.00000000	34.78716000	11.04823000
177.09998966	0.00000000	34.78716000	11.04823000
177.29998965	0.00000000	34.78716000	11.04823000
177.49998964	0.00000000	34.83022000	11.04823000
177.69998963	0.00000000	35.16240000	11.04823000
177.89998961	0.00000000	35.48228000	11.04823000
178.09998960	0.00000000	34.78716000	11.04823000
178.29998959	0.00000000	34.08588000	11.04823000
178.49998958	0.00000000	34.41191000	11.04823000
178.69998957	0.00000000	34.74409000	11.04823000
178.89998956	0.00000000	34.78716000	11.04823000
179.09998954	0.00000000	34.78716000	11.04823000
179.29998953	0.00000000	34.78716000	11.04823000
179.49998952	0.00000000	34.78716000	11.04823000
179.69998951	0.00000000	34.78716000	11.04823000
179.89998950	0.00000000	34.78716000	11.04823000
180.09998948	0.00000000	34.78716000	11.04823000
180.29998947	0.00000000	34.78716000	11.04823000
180.49998946	0.00000000	34.78716000	11.04823000
180.69998945	0.00000000	34.78716000	11.04823000
180.89998944	0.00000000	34.78716000	11.04823000
181.09998942	0.00000000	34.78716000	11.09129000
181.29998941	0.00000000	34.78716000	11.46653000
181.49998940	0.00000000	34.78716000	12.16166000
181.69998939	0.00000000	34.78716000	12.16166000
181.89998938	0.00000000	34.78716000	11.46653000
182.09998937	0.00000000	34.78716000	11.09129000
182.29998935	0.00000000	34.78716000	11.04823000
182.49998934	0.00000000	34.78716000	11.04823000
182.69998933	0.00000000	34.78716000	11.04823000
182.89998932	0.00000000	34.78716000	11.04823000
183.09998931	0.00000000	34.78716000	11.04823000
183.29998929	0.00000000	34.78716000	11.04823000
183.49998928	0.00000000	34.78716000	11.04823000
183.69998927	0.00000000	34.78716000	11.04823000
183.89998926	0.00000000	34.78716000	11.04823000
184.09998925	0.00000000	34.78716000	11.04823000
184.29998923	0.00000000	34.78716000	11.09129000
184.49998922	0.00000000	34.78716000	11.46653000
184.69998921	0.00000000	34.78716000	12.21087000
184.89998920	0.00000000	34.78716000	12.58612000
185.09998919	0.00000000	34.78716000	12.58612000
185.29998918	0.00000000	34.78716000	12.21087000
185.49998916	0.00000000	34.78716000	11.46653000
185.69998915	0.00000000	34.78716000	11.09129000
185.89998914	0.00000000	34.78716000	11.04823000
186.09998913	0.00000000	34.78716000	11.00517000
186.29998912	0.00000000	34.83022000	10.62992000
186.49998910	0.00000000	35.16240000	9.93479300
186.69998909	0.00000000	35.53149000	9.93479300
186.89998908	0.00000000	35.16240000	10.62992000
187.09998907	0.00000000	34.83022000	11.00517000
187.29998906	0.00000000	34.78716000	11.09129000
187.49998904	0.00000000	34.78716000	11.42347000
187.69998903	0.00000000	34.78716000	11.83563000
187.89998902	0.00000000	34.78716000	11.79872000
188.09998901	0.00000000	34.78716000	11.83563000
188.29998900	0.00000000	34.78716000	11.42347000
188.49998899	0.00000000	34.78716000	11.09129000
188.69998897	0.00000000	34.78716000	11.04823000
188.89998896	0.00000000	34.78716000	11.04823000
189.09998895	0.00000000	34.78716000	11.00517000
189.29998894	0.00000000	34.78716000	10.67298000
189.49998893	0.00000000	34.83022000	10.31004000
189.69998891	0.00000000	35.16240000	10.67298000
189.89998890	0.00000000	35.53149000	11.00517000
190.09998889	0.00000000	35.16240000	11.04823000
190.29998888	0.00000000	34.83022000	11.09129000
190.49998887	0.00000000	34.78716000	11.42347000
190.69998885	0.00000000	34.78716000	11.79257000
190.89998884	0.00000000	34.78716000	11.42347000
191.09998883	0.00000000	34.78716000	11.14050000
191.29998882	0.00000000	34.78716000	11.42347000
191.49998881	0.00000000	34.83022000	11.79257000
191.69998880	0.00000000	35.16240000	11.42347000
191.89998878	0.00000000	35.53149000	11.09129000
192.09998877	0.00000000	35.16240000	11.00517000
192.29998876	0.00000000	34.83022000	10.62992000
192.49998875	0.00000000	34.78716000	9.93479300
192.69998874	0.00000000	34.78716000	9.93479300
192.89998872	0.00000000	34.78716000	10.62992000
193.09998871	0.00000000	34.78716000	11.00517000
193.29998870	0.00000000	34.78716000	11.04823000
193.49998869	0.00000000	34.78716000	11.04823000
193.69998868	0.00000000	34.78716000	11.04823000
193.89998866	0.00000000	34.78716000	11.04823000
194.09998865	0.00000000	34.78716000	11.09129000
194.29998864	0.00000000	34.78716000	11.42347000
194.49998863	0.00000000	34.83022000	11.83563000
194.69998862	0.00000000	35.16240000	11.75566000
194.89998861	0.00000000	35.53149000	11.46038000
195.09998859	0.00000000	35.16240000	10.68528000
195.29998858	0.00000000	34.83022000	10.72219000
195.49998857	0.00000000	34.78716000	11.00517000
195.69998856	0.00000000	34.78716000	11.04823000
195.89998855	0.00000000	34.78716000	11.04823000
196.09998853	0.00000000	34.78716000	11.04823000
