Time	Channel A	Channel B	Channel C
(us)	(V)	(mV)	(mV)

-4.49999956	0.00000000	-49.39099000	-25.26452000
-4.29999957	0.00000000	-49.05881000	-25.26452000
-4.09999958	0.00000000	-49.01575000	-25.26452000
-3.89999959	0.00000000	-49.01575000	-25.26452000
-3.69999960	0.00000000	-49.01575000	-25.26452000
-3.49999962	0.00000000	-49.01575000	-25.26452000
-3.29999963	0.00000000	-49.05881000	-25.26452000
-3.09999964	0.00000000	-49.43405000	-25.26452000
-2.89999965	0.00000000	-50.17839000	-25.26452000
-2.69999966	0.00000000	-50.50443000	-25.26452000
-2.49999968	0.00000000	-50.22145000	-25.26452000
-2.29999969	0.00000000	-49.85236000	-25.26452000
-2.09999970	0.00000000	-50.17839000	-25.26452000
-1.89999971	0.00000000	-50.17839000	-25.26452000
-1.69999972	0.00000000	-49.85236000	-25.26452000
-1.49999973	0.00000000	-50.17839000	-25.26452000
-1.29999975	0.00000000	-50.17839000	-25.26452000
-1.09999976	0.00000000	-49.85236000	-25.30758000
-0.89999977	0.00000000	-50.22145000	-25.63976000
-0.69999978	0.00000000	-50.50443000	-26.00270000
-0.49999979	0.00000000	-50.22145000	-25.63976000
-0.29999981	0.15871060	-49.85236000	-25.35679000
-0.09999982	0.63668800	-50.22145000	-25.63976000
0.10000017	0.95533960	-50.55364000	-26.04577000
0.30000016	0.95533960	-50.59670000	-26.05807000
0.50000015	0.95533960	-50.59670000	-26.46407000
0.70000013	0.31803640	-50.59670000	-26.79626000
0.90000012	-0.31803640	-50.59670000	-26.83932000
1.10000011	-1.27399100	-50.59670000	-26.79626000
1.30000010	-2.22994600	-50.59670000	-26.46407000
1.50000009	-2.70792300	-50.59670000	-26.05807000
1.70000008	-2.54859700	-50.59670000	-26.04577000
1.90000006	-1.59264300	-50.59670000	-25.63976000
2.10000005	0.31803640	-50.55364000	-25.30758000
2.30000004	2.22994600	-50.22145000	-25.30758000
2.50000003	4.14124000	-49.85236000	-25.68282000
2.70000002	5.25652100	-50.22145000	-26.42101000
2.90000000	4.93786900	-50.55364000	-26.79626000
3.09999999	3.34522600	-50.55364000	-26.83932000
3.29999998	0.47736220	-50.22145000	-26.83932000
3.49999997	-2.86724900	-49.85236000	-26.83932000
3.69999996	-6.05315000	-50.22145000	-26.83932000
3.89999994	-7.80511800	-50.55364000	-26.79626000
4.09999993	-7.64579200	-50.59670000	-26.42101000
4.29999992	-5.57517200	-50.59670000	-25.68282000
4.49999991	-1.75196900	-50.59670000	-25.30758000
4.69999990	2.70792300	-50.59670000	-25.26452000
4.89999989	6.69045300	-50.59670000	-25.30758000
5.09999987	9.07972400	-50.59670000	-25.68282000
5.29999986	9.39837600	-50.59670000	-26.42101000
5.49999985	7.16781500	-50.59670000	-26.79626000
5.69999984	3.18590100	-50.59670000	-26.83932000
5.89999983	-1.59264300	-50.59670000	-26.83932000
6.09999981	-6.05315000	-50.59670000	-26.79626000
6.29999980	-8.92039900	-50.59670000	-26.42101000
6.49999979	-9.39837600	-50.59670000	-25.68282000
6.69999978	-7.64579200	-50.59670000	-25.30758000
6.89999977	-3.98191400	-50.59670000	-25.26452000
7.09999975	0.31803640	-50.59670000	-25.26452000
7.29999974	4.30056600	-50.59670000	-25.26452000
7.49999973	7.00848900	-50.59670000	-25.30758000
7.69999972	7.80511800	-50.59670000	-25.63976000
7.89999971	6.53112700	-50.59670000	-26.04577000
8.09999970	3.98191400	-50.59670000	-26.00886000
8.29999968	0.63668800	-50.59670000	-26.04577000
8.49999967	-2.38927200	-50.59670000	-25.63976000
8.69999966	-4.45989200	-50.59670000	-25.30758000
8.89999965	-5.25652100	-50.59670000	-25.26452000
9.09999964	-4.61921700	-50.59670000	-25.26452000
9.29999962	-3.02657500	-50.59670000	-25.26452000
9.49999961	-0.95533960	-50.59670000	-25.26452000
9.69999960	0.79601380	-50.59670000	-25.26452000
9.89999959	2.07062000	-50.59670000	-25.26452000
10.09999958	2.54859700	-50.59670000	-25.26452000
10.29999956	2.22994600	-50.59670000	-25.26452000
10.49999955	1.59264300	-50.59670000	-25.26452000
10.69999954	0.63668800	-50.59670000	-25.26452000
10.89999953	-0.15871060	-50.59670000	-25.26452000
11.09999952	-0.63668800	-50.59670000	-25.26452000
11.29999951	-0.95533960	-50.59670000	-25.26452000
11.49999949	-0.95533960	-50.59670000	-25.26452000
11.69999948	-0.79601380	-50.59670000	-25.26452000
11.89999947	-0.47736220	-50.59670000	-25.26452000
12.09999946	-0.15871060	-50.59670000	-25.26452000
12.29999945	-0.15871060	-50.55364000	-25.26452000
12.49999943	0.00000000	-50.17839000	-25.30758000
12.69999942	0.00000000	-49.48326000	-25.63976000
12.89999941	0.00000000	-49.48326000	-26.00270000
13.09999940	0.00000000	-50.17839000	-25.63976000
13.29999939	0.15871060	-50.55364000	-25.30758000
13.49999937	0.00000000	-50.59670000	-25.30758000
13.69999936	0.00000000	-50.59670000	-25.63976000
13.89999935	0.00000000	-50.59670000	-26.04577000
14.09999934	-0.15871060	-50.59670000	-26.05807000
14.29999933	-0.15871060	-50.59670000	-26.42101000
14.49999932	-0.15871060	-50.59670000	-26.42101000
14.69999930	-0.15871060	-50.59670000	-26.10113000
14.89999929	0.00000000	-50.59670000	-26.46407000
15.09999928	0.00000000	-50.59670000	-26.74705000
15.29999927	0.00000000	-50.59670000	-26.46407000
15.49999926	0.00000000	-50.59670000	-26.10113000
15.69999924	0.00000000	-50.63976000	-26.46407000
15.89999923	0.00000000	-51.01501000	-26.79626000
16.09999922	0.00000000	-51.71013000	-26.83932000
16.29999921	0.00000000	-51.71013000	-26.83932000
16.49999920	-0.15871060	-51.01501000	-26.83932000
16.69999919	-0.15871060	-50.63976000	-26.83932000
16.89999917	0.00000000	-50.55364000	-26.83932000
17.09999916	0.00000000	-50.17839000	-26.83932000
17.29999915	0.00000000	-49.43405000	-26.83932000
17.49999914	0.00000000	-49.05881000	-26.83932000
17.69999913	0.00000000	-49.05881000	-26.83932000
17.89999911	0.00000000	-49.48326000	-26.83932000
18.09999910	0.00000000	-50.63976000	-26.79626000
18.29999909	0.00000000	-52.17765000	-26.46407000
18.49999908	0.00000000	-53.75861000	-26.10113000
18.69999907	0.00000000	-55.29650000	-26.46407000
18.89999905	0.00000000	-56.40993000	-26.79626000
19.09999904	-0.15871060	-56.40993000	-26.83932000
19.29999903	0.00000000	-55.20423000	-26.83932000
19.49999902	0.00000000	-52.87278000	-26.83932000
19.69999901	0.00000000	-49.39099000	-26.83932000
19.89999900	0.00000000	-45.89690000	-26.83932000
20.09999898	0.00000000	-42.78420000	-26.83932000
20.29999897	0.00000000	-40.55118000	-26.83932000
20.49999896	0.00000000	-40.63730000	-26.83932000
20.69999895	0.00000000	-43.75615000	-26.83932000
20.89999894	0.00000000	-49.56939000	-26.83932000
21.09999892	0.00000000	-56.92052000	-26.83932000
21.29999891	0.00000000	-64.27164000	-26.83932000
21.49999890	0.00000000	-69.99876000	-26.83932000
21.69999889	0.00000000	-72.23179000	-26.83932000
21.89999888	0.00000000	-69.48818000	-26.83932000
22.09999886	0.00000000	-62.09399000	-26.83932000
22.29999885	0.00000000	-51.20571000	-26.83932000
22.49999884	0.00000000	-38.45964000	-26.83932000
22.69999883	0.00000000	-26.96235000	-26.79626000
22.89999882	0.00000000	-20.07259000	-26.42101000
23.09999881	0.00000000	-20.11565000	-25.68282000
23.29999879	0.00000000	-27.51599000	-25.26452000
23.49999878	0.00000000	-41.10482000	-24.84621000
23.69999877	0.00000000	-58.50147000	-24.10187000
23.89999876	0.00000000	-75.86122000	-23.72662000
24.09999875	0.00000000	-88.89025000	-23.72662000
24.29999873	0.00000000	-93.86687000	-24.15108000
24.49999872	0.00000000	-88.79797000	-25.30758000
24.69999871	0.00000000	-74.84006000	-26.83932000
24.89999870	0.00000000	-54.31840000	-28.42027000
25.09999869	0.00000000	-31.61294000	-29.95201000
25.29999867	0.00000000	-12.72146000	-31.06545000
25.49999866	0.00000000	-2.25762800	-31.06545000
25.69999865	0.00000000	-2.30068900	-29.86589000
25.89999864	0.00000000	-13.18898000	-27.49138000
26.09999863	0.00000000	-33.28617000	-23.64050000
26.29999862	0.00000000	-57.94783000	-19.40822000
26.49999860	0.00000000	-81.16387000	-15.92027000
26.69999859	0.00000000	-97.77927000	-13.64419000
26.89999858	0.00000000	-104.29380000	-13.69340000
27.09999857	0.00000000	-98.47440000	-16.43085000
27.29999856	0.00000000	-81.53912000	-21.54281000
27.49999854	0.00000000	-57.99089000	-28.93085000
27.69999853	0.00000000	-33.28617000	-37.34006000
27.89999852	0.00000000	-13.18898000	-44.21752000
28.09999851	0.00000000	-2.30068900	-47.28715000
28.29999850	0.00000000	-2.25762800	-45.70620000
28.49999848	0.00000000	-12.67840000	-39.48080000
28.69999847	0.00000000	-31.19464000	-29.40452000
28.89999846	0.00000000	-53.20496000	-17.45817000
29.09999845	0.00000000	-73.72047000	-6.26230300
29.29999844	0.00000000	-88.47195000	1.40255900
29.49999843	0.00000000	-94.66042000	3.67864200
29.69999841	0.00000000	-91.25861000	-0.63976370
29.89999840	0.00000000	-79.34915000	-11.09129000
30.09999839	0.00000000	-62.73376000	-25.77510000
30.29999838	0.00000000	-44.86958000	-41.57234000
30.49999837	0.00000000	-29.05389000	-54.71825000
30.69999835	0.00000000	-18.95915000	-62.38927000
30.89999834	0.00000000	-16.53543000	-62.75836000
31.09999833	0.00000000	-21.14296000	-55.00122000
31.29999832	0.00000000	-31.56988000	-41.10482000
31.49999831	0.00000000	-45.52165000	-23.68356000
31.69999829	0.00000000	-59.81176000	-6.35457700
31.89999828	0.00000000	-71.81348000	6.74827700
32.09999827	0.00000000	-78.42027000	12.59842000
32.29999826	0.00000000	-78.88779000	10.27928000
32.49999825	0.00000000	-73.90501000	0.60900590
32.69999824	0.00000000	-64.60383000	-14.89911000
32.89999822	0.00000000	-53.42642000	-32.97859000
33.09999821	0.00000000	-42.55044000	-49.64936000
33.29999820	0.00000000	-34.44267000	-61.22662000
33.49999819	0.00000000	-30.54257000	-65.91412000
33.69999818	0.00000000	-31.70521000	-62.38927000
33.89999816	0.00000000	-37.43233000	-51.64862000
34.09999815	0.00000000	-45.89690000	-36.13435000
34.29999814	0.00000000	-54.78592000	-19.16830000
34.49999813	0.00000000	-62.13705000	-4.12155500
34.69999812	0.00000000	-66.37549000	5.16732200
34.89999810	0.00000000	-66.41855000	7.16658400
35.09999809	0.00000000	-62.55536000	2.18996000
35.29999808	0.00000000	-56.12696000	-8.67371900
35.49999807	0.00000000	-49.15723000	-22.93922000
35.69999806	0.00000000	-44.12524000	-37.94907000
35.89999805	0.00000000	-41.01255000	-49.47096000
36.09999803	0.00000000	-41.06176000	-54.58292000
36.29999802	0.00000000	-44.45127000	-53.09424000
36.49999801	0.00000000	-49.43405000	-45.74926000
36.69999800	0.00000000	-54.82898000	-34.22736000
36.89999799	0.00000000	-59.06127000	-21.54281000
37.09999797	0.00000000	-61.01746000	-11.17741000
37.29999796	0.00000000	-60.64222000	-5.74557000
37.49999795	0.00000000	-57.90477000	-6.48375900
37.69999794	0.00000000	-53.34030000	-12.57382000
37.89999793	0.00000000	-48.32062000	-22.14567000
38.09999791	0.00000000	-44.45127000	-32.09276000
38.29999790	0.00000000	-42.13213000	-39.43774000
38.49999789	0.00000000	-42.13213000	-42.50738000
38.69999788	0.00000000	-44.40821000	-40.55118000
38.89999787	0.00000000	-47.94537000	-33.67372000
39.09999786	0.00000000	-52.55290000	-24.15108000
39.29999784	0.00000000	-57.15428000	-15.36048000
39.49999783	0.00000000	-59.90403000	-9.97170200
39.69999782	0.00000000	-61.10974000	-9.59645700
39.89999781	0.00000000	-60.69144000	-14.15477000
40.09999780	0.00000000	-58.36614000	-22.23794000
40.29999778	0.00000000	-54.87204000	-31.48991000
40.49999777	0.00000000	-50.59670000	-39.89911000
40.69999776	0.00000000	-46.36442000	-44.82652000
40.89999775	0.00000000	-43.28863000	-44.13140000
41.09999774	0.00000000	-42.08292000	-38.74261000
41.29999772	0.00000000	-42.82726000	-30.22884000
41.49999771	0.00000000	-44.78346000	-19.87574000
41.69999770	0.00000000	-47.90231000	-11.13435000
41.89999769	0.00000000	-51.75935000	-6.85900500
42.09999768	0.00000000	-55.24729000	-7.97244000
42.29999767	0.00000000	-57.99089000	-13.69340000
42.49999765	0.00000000	-59.52879000	-22.14567000
42.69999764	0.00000000	-59.57185000	-30.97933000
42.89999763	0.00000000	-58.36614000	-37.94907000
43.09999762	0.00000000	-56.08390000	-41.48006000
43.29999761	0.00000000	-52.97121000	-41.48006000
43.49999759	0.00000000	-50.31373000	-38.03519000
43.69999758	0.00000000	-48.32062000	-31.90822000
43.89999757	0.00000000	-47.57013000	-25.35064000
44.09999756	0.00000000	-47.85310000	-19.54355000
44.29999755	0.00000000	-48.59744000	-15.73573000
44.49999753	0.00000000	-49.01575000	-15.27436000
44.69999752	0.00000000	-49.43405000	-17.50123000
44.89999751	0.00000000	-50.17839000	-20.98917000
45.09999750	0.00000000	-50.55364000	-25.26452000
45.29999749	0.00000000	-50.68897000	-29.44759000
45.49999748	0.00000000	-51.48252000	-32.18504000
45.69999746	0.00000000	-53.42642000	-33.02165000
45.89999745	0.00000000	-55.75787000	-32.64640000
46.09999744	0.00000000	-58.45841000	-31.06545000
46.29999743	0.00000000	-60.73450000	-28.42027000
46.49999742	0.00000000	-61.48499000	-25.72589000
46.69999740	0.00000000	-60.64222000	-23.77584000
46.89999739	0.00000000	-57.48031000	-22.57013000
47.09999738	0.00000000	-52.08538000	-22.19488000
47.29999737	0.00000000	-45.94611000	-22.61319000
47.49999736	0.00000000	-40.55118000	-24.19414000
47.69999734	0.00000000	-37.47539000	-26.83932000
47.89999733	0.00000000	-37.52460000	-29.53371000
48.09999732	0.00000000	-41.01255000	-31.48991000
48.29999731	0.00000000	-47.61319000	-32.64640000
48.49999730	0.00000000	-55.71481000	-32.60334000
48.69999729	0.00000000	-63.81028000	-31.06545000
48.89999727	0.00000000	-69.53740000	-28.37721000
49.09999726	0.00000000	-71.11835000	-25.26452000
49.29999725	0.00000000	-68.37475000	-22.19488000
49.49999724	0.00000000	-61.80487000	-19.91880000
49.69999723	0.00000000	-52.55290000	-19.54355000
49.89999721	0.00000000	-43.33784000	-21.08145000
50.09999720	0.00000000	-36.36196000	-24.15108000
50.29999719	0.00000000	-33.32923000	-28.00197000
50.49999718	0.00000000	-35.24237000	-31.48991000
50.69999717	0.00000000	-41.75073000	-34.18430000
50.89999715	0.00000000	-50.59670000	-35.29773000
51.09999714	0.00000000	-59.48573000	-34.18430000
51.29999713	0.00000000	-66.41855000	-31.48991000
51.49999712	0.00000000	-69.49433000	-27.95275000
51.69999711	0.00000000	-67.99950000	-23.72662000
51.89999710	0.00000000	-62.60457000	-19.91880000
52.09999708	0.00000000	-54.92125000	-18.01181000
52.29999707	0.00000000	-46.82579000	-18.33784000
52.49999706	0.00000000	-40.68651000	-20.66314000
52.69999705	0.00000000	-37.98597000	-24.10187000
52.89999704	0.00000000	-39.52387000	-28.00197000
53.09999702	0.00000000	-44.86958000	-31.39763000
53.29999701	0.00000000	-52.13459000	-33.39075000
53.49999700	0.00000000	-59.06127000	-33.35384000
53.69999699	0.00000000	-63.66880000	-31.90207000
53.89999698	0.00000000	-64.83144000	-29.17077000
54.09999696	0.00000000	-62.18011000	-26.51329000
54.29999695	0.00000000	-56.82825000	-24.14493000
54.49999694	0.00000000	-50.68897000	-22.65625000
54.69999693	0.00000000	-45.29404000	-22.65625000
54.89999692	0.00000000	-42.21825000	-24.14493000
55.09999691	0.00000000	-42.21825000	-26.42101000
55.29999689	0.00000000	-45.24483000	-28.28494000
55.49999688	0.00000000	-50.22145000	-29.07234000
55.69999687	0.00000000	-55.24729000	-28.28494000
55.89999686	0.00000000	-59.52879000	-26.42101000
56.09999685	0.00000000	-62.18011000	-24.14493000
56.29999683	0.00000000	-62.18011000	-22.61319000
56.49999682	0.00000000	-59.48573000	-22.19488000
56.69999681	0.00000000	-54.92125000	-22.65625000
56.89999680	0.00000000	-49.90157000	-24.61245000
57.09999679	0.00000000	-46.08144000	-28.04503000
57.29999677	0.00000000	-44.08833000	-31.48991000
57.49999676	0.00000000	-44.45127000	-34.13509000
57.69999675	0.00000000	-46.36442000	-34.87943000
57.89999674	0.00000000	-49.48326000	-32.93553000
58.09999673	0.00000000	-53.29109000	-29.07234000
58.29999672	0.00000000	-56.36687000	-23.68356000
58.49999670	0.00000000	-57.94783000	-18.33784000
58.69999669	0.00000000	-57.94783000	-14.84990000
58.89999668	0.00000000	-56.45300000	-13.73647000
59.09999667	0.00000000	-54.17691000	-15.73573000
59.29999666	0.00000000	-52.22071000	-21.12451000
59.49999664	0.00000000	-50.63976000	-28.37721000
59.69999663	0.00000000	-49.52633000	-35.29773000
59.89999662	0.00000000	-49.52633000	-39.94832000
60.09999661	0.00000000	-50.59670000	-41.48006000
60.29999660	0.00000000	-51.75935000	-39.53002000
60.49999658	0.00000000	-52.55290000	-34.14124000
60.69999657	0.00000000	-53.34030000	-26.83932000
60.89999656	0.00000000	-53.66634000	-19.50049000
61.09999655	0.00000000	-53.34030000	-13.73647000
61.29999654	0.00000000	-52.59596000	-11.09129000
61.49999653	0.00000000	-52.22071000	-12.62303000
61.69999651	0.00000000	-52.17765000	-18.01181000
61.89999650	0.00000000	-52.22071000	-25.68282000
62.09999649	0.00000000	-52.64517000	-33.80905000
62.29999648	0.00000000	-53.80167000	-40.32357000
62.49999647	0.00000000	-55.29650000	-43.79921000
62.69999645	0.00000000	-56.40993000	-43.06102000
62.89999644	0.00000000	-56.40993000	-38.82874000
63.09999643	0.00000000	-55.29650000	-32.27731000
63.29999642	0.00000000	-53.75861000	-24.52018000
63.49999641	0.00000000	-52.17765000	-17.63656000
63.69999639	0.00000000	-50.63976000	-12.94906000
63.89999638	0.00000000	-49.52633000	-11.82948000
64.09999637	0.00000000	-49.52633000	-14.06865000
64.29999636	0.00000000	-50.63976000	-19.12524000
64.49999635	0.00000000	-52.17765000	-25.63976000
64.69999634	0.00000000	-53.75861000	-32.22810000
64.89999632	0.00000000	-55.29650000	-37.25394000
65.09999631	0.00000000	-56.40993000	-39.99138000
65.29999630	0.00000000	-56.40993000	-39.99138000
65.49999629	0.00000000	-55.29650000	-37.34006000
65.69999628	0.00000000	-53.75861000	-33.11393000
65.89999626	0.00000000	-52.22071000	-28.42027000
66.09999625	0.00000000	-51.06422000	-23.77584000
66.29999624	0.00000000	-50.68897000	-19.91880000
66.49999623	0.00000000	-51.10728000	-17.96260000
66.69999622	0.00000000	-52.59596000	-17.87647000
66.89999620	0.00000000	-54.50295000	-19.03912000
67.09999619	0.00000000	-55.67175000	-20.98917000
67.29999618	0.00000000	-56.40993000	-23.72662000
67.49999617	0.00000000	-55.99163000	-26.83932000
67.69999616	0.00000000	-54.09079000	-29.95201000
67.89999615	0.00000000	-51.80241000	-32.69562000
68.09999613	0.00000000	-49.43405000	-34.64567000
68.29999612	0.00000000	-47.57013000	-35.75910000
68.49999611	0.00000000	-46.87500000	-35.34079000
68.69999610	0.00000000	-48.45595000	-33.06471000
68.89999609	0.00000000	-52.22071000	-29.95201000
69.09999607	0.00000000	-56.45300000	-26.37795000
69.29999606	0.00000000	-59.99015000	-22.14567000
69.49999605	0.00000000	-62.64764000	-18.29478000
69.69999604	0.00000000	-63.34276000	-16.01255000
69.89999603	0.00000000	-61.06668000	-15.60039000
70.09999601	0.00000000	-56.82825000	-17.59350000
70.29999600	0.00000000	-51.80241000	-21.40748000
70.49999599	0.00000000	-46.73966000	-26.46407000
70.69999598	0.00000000	-42.91954000	-31.48376000
70.89999597	0.00000000	-41.01255000	-35.71604000
71.09999596	0.00000000	-42.21825000	-37.99213000
71.29999594	0.00000000	-46.36442000	-37.29700000
71.49999593	0.00000000	-51.80241000	-34.60261000
71.69999592	0.00000000	-57.25270000	-30.69636000
71.89999591	0.00000000	-62.31545000	-25.68282000
72.09999590	0.00000000	-65.71727000	-21.12451000
72.29999588	0.00000000	-66.46161000	-18.38706000
72.49999587	0.00000000	-63.81028000	-17.96260000
72.69999586	0.00000000	-58.83366000	-19.45743000
72.89999585	0.00000000	-53.38336000	-22.15182000
73.09999584	0.00000000	-47.94537000	-25.21530000
73.29999582	0.00000000	-43.71309000	-27.90969000
73.49999581	0.00000000	-41.75689000	-29.49065000
73.69999580	0.00000000	-42.17519000	-29.90895000
73.89999579	0.00000000	-45.24483000	-29.53371000
74.09999578	0.00000000	-50.22145000	-28.37721000
74.29999577	0.00000000	-55.24729000	-26.93159000
74.49999575	0.00000000	-59.52879000	-26.14419000
74.69999574	0.00000000	-62.22318000	-26.51329000
74.89999573	0.00000000	-62.59842000	-27.25763000
75.09999572	0.00000000	-60.73450000	-28.42027000
75.29999571	0.00000000	-57.29576000	-29.49065000
75.49999569	0.00000000	-53.80167000	-29.49065000
75.69999568	0.00000000	-50.68897000	-28.32800000
75.89999567	0.00000000	-48.36368000	-26.37795000
76.09999566	0.00000000	-47.61319000	-23.68356000
76.29999565	0.00000000	-48.32062000	-21.03838000
76.49999563	0.00000000	-50.22145000	-19.54355000
76.69999562	0.00000000	-52.13459000	-19.96186000
76.89999561	0.00000000	-53.71555000	-22.65625000
77.09999560	0.00000000	-54.87204000	-26.88238000
77.29999559	0.00000000	-55.29650000	-31.53297000
77.49999558	0.00000000	-55.29650000	-35.75910000
77.69999556	0.00000000	-54.92125000	-38.41043000
77.89999555	0.00000000	-54.22613000	-38.41043000
78.09999554	0.00000000	-54.26919000	-35.75910000
78.29999553	0.00000000	-55.33957000	-31.48376000
78.49999552	0.00000000	-56.45300000	-26.42101000
78.69999550	0.00000000	-56.82825000	-21.03223000
78.89999549	0.00000000	-56.45300000	-16.84916000
79.09999548	0.00000000	-55.24729000	-15.31742000
79.29999547	0.00000000	-53.34030000	-16.80610000
79.49999546	0.00000000	-51.06422000	-20.61393000
79.69999544	0.00000000	-49.52633000	-25.30758000
79.89999543	0.00000000	-49.10802000	-30.32726000
80.09999542	0.00000000	-49.52633000	-34.96555000
80.29999541	0.00000000	-51.10728000	-37.67224000
80.49999540	0.00000000	-53.75861000	-38.45349000
80.69999539	0.00000000	-56.45300000	-36.92175000
80.89999537	0.00000000	-58.40920000	-33.48917000
81.09999536	0.00000000	-59.57185000	-29.62598000
81.29999535	0.00000000	-59.52879000	-25.72589000
81.49999534	0.00000000	-57.99089000	-22.61319000
81.69999533	0.00000000	-55.29650000	-20.61393000
81.89999531	0.00000000	-52.26993000	-19.50049000
82.09999530	0.00000000	-49.94463000	-19.87574000
82.29999529	0.00000000	-49.15108000	-21.77658000
82.49999528	0.00000000	-49.48326000	-24.10187000
82.69999527	0.00000000	-50.68897000	-26.83932000
82.89999525	0.00000000	-52.59596000	-29.58292000
83.09999524	0.00000000	-54.87204000	-31.90822000
83.29999523	0.00000000	-56.40993000	-33.90133000
83.49999522	0.00000000	-56.87746000	-34.97785000
83.69999521	0.00000000	-56.87746000	-35.01476000
83.89999520	0.00000000	-56.45300000	-33.39690000
84.09999518	0.00000000	-55.33957000	-30.73942000
84.29999517	0.00000000	-54.17691000	-27.21457000
84.49999516	0.00000000	-53.42642000	-23.77584000
84.69999515	0.00000000	-53.01427000	-20.98917000
84.89999514	0.00000000	-53.38336000	-19.08218000
85.09999512	0.00000000	-53.71555000	-18.33784000
85.29999511	0.00000000	-53.75861000	-19.54355000
85.49999510	0.00000000	-53.71555000	-22.61319000
85.69999509	0.00000000	-53.34030000	-26.83932000
85.89999508	0.00000000	-52.59596000	-31.11466000
86.09999506	0.00000000	-52.22071000	-34.55955000
86.29999505	0.00000000	-52.22071000	-36.45423000
86.49999504	0.00000000	-52.64517000	-35.71604000
86.69999503	0.00000000	-53.80167000	-33.02165000
86.89999502	0.00000000	-55.29650000	-29.11540000
87.09999501	0.00000000	-56.45300000	-24.15108000
87.29999499	0.00000000	-56.82825000	-19.91880000
87.49999498	0.00000000	-56.45300000	-17.59350000
87.69999497	0.00000000	-55.29650000	-17.18135000
87.89999496	0.00000000	-53.80167000	-19.16830000
88.09999495	0.00000000	-52.59596000	-22.98843000
88.29999493	0.00000000	-51.80241000	-28.00197000
88.49999492	0.00000000	-51.06422000	-32.60334000
88.69999491	0.00000000	-51.06422000	-35.67298000
88.89999490	0.00000000	-51.80241000	-36.45423000
89.09999489	0.00000000	-52.59596000	-34.55955000
89.29999487	0.00000000	-53.80167000	-31.11466000
89.49999486	0.00000000	-55.29650000	-26.79626000
89.69999485	0.00000000	-56.45300000	-22.23794000
89.89999484	0.00000000	-56.82825000	-18.80536000
90.09999483	0.00000000	-56.50221000	-18.05487000
90.29999482	0.00000000	-55.71481000	-19.91880000
90.49999480	0.00000000	-54.92125000	-23.77584000
90.69999479	0.00000000	-53.80167000	-28.37721000
90.89999478	0.00000000	-53.01427000	-32.64640000
91.09999477	0.00000000	-53.00812000	-35.67298000
91.29999476	0.00000000	-52.97121000	-36.41117000
91.49999474	0.00000000	-53.38336000	-34.14124000
91.69999473	0.00000000	-53.71555000	-29.95817000
91.89999472	0.00000000	-53.75861000	-25.35679000
92.09999471	0.00000000	-53.75861000	-21.49975000
92.29999470	0.00000000	-53.75861000	-19.54355000
92.49999468	0.00000000	-53.80167000	-19.54355000
92.69999467	0.00000000	-54.17691000	-21.49975000
92.89999466	0.00000000	-54.96432000	-25.35679000
93.09999465	0.00000000	-55.71481000	-29.95817000
93.29999464	0.00000000	-56.54527000	-34.14124000
93.49999463	0.00000000	-57.25270000	-36.45423000
93.69999461	0.00000000	-57.61565000	-36.09129000
93.89999460	0.00000000	-56.82825000	-33.80905000
94.09999459	0.00000000	-55.33957000	-29.90895000
94.29999458	0.00000000	-53.71555000	-25.35679000
94.49999457	0.00000000	-51.80241000	-21.54281000
94.69999455	0.00000000	-49.90157000	-20.01107000
94.89999454	0.00000000	-49.15108000	-21.12451000
95.09999453	0.00000000	-49.52633000	-24.15108000
95.29999452	0.00000000	-51.10728000	-28.00197000
95.49999451	0.00000000	-53.80167000	-31.48991000
95.69999449	0.00000000	-56.87746000	-34.18430000
95.89999448	0.00000000	-59.61491000	-35.29773000
96.09999447	0.00000000	-61.48499000	-34.18430000
96.29999446	0.00000000	-61.89714000	-31.48991000
96.49999445	0.00000000	-60.32234000	-28.04503000
96.69999444	0.00000000	-57.66486000	-24.61245000
96.89999442	0.00000000	-54.13385000	-22.69931000
97.09999441	0.00000000	-50.68897000	-22.61319000
97.29999440	0.00000000	-47.94537000	-23.77584000
97.49999439	0.00000000	-46.45054000	-25.68282000
97.69999438	0.00000000	-46.82579000	-28.00197000
97.89999436	0.00000000	-49.10802000	-29.90895000
98.09999435	0.00000000	-52.22071000	-31.06545000
98.29999434	0.00000000	-55.75787000	-31.06545000
98.49999433	0.00000000	-59.57185000	-29.95201000
98.69999432	0.00000000	-62.27239000	-28.46333000
98.89999430	0.00000000	-63.06594000	-27.30684000
99.09999429	0.00000000	-62.31545000	-26.88238000
99.29999428	0.00000000	-59.94709000	-26.83932000
99.49999427	0.00000000	-56.50221000	-26.83932000
99.69999426	0.00000000	-52.59596000	-26.79626000
99.89999425	0.00000000	-49.19414000	-26.42101000
100.09999423	0.00000000	-47.20103000	-25.68282000
100.29999422	0.00000000	-47.19488000	-25.26452000
100.49999421	0.00000000	-48.32062000	-24.88927000
100.69999420	0.00000000	-50.68897000	-24.56939000
100.89999419	0.00000000	-53.71555000	-25.35064000
101.09999417	0.00000000	-56.45300000	-26.83932000
101.29999416	0.00000000	-58.45841000	-28.42027000
101.49999415	0.00000000	-59.99015000	-29.95201000
101.69999414	0.00000000	-60.73450000	-31.11466000
101.89999413	0.00000000	-59.99015000	-31.48376000
102.09999411	0.00000000	-58.45841000	-31.06545000
102.29999410	0.00000000	-56.45300000	-29.49065000
102.49999409	0.00000000	-53.75861000	-26.83932000
102.69999408	0.00000000	-51.10728000	-24.14493000
102.89999407	0.00000000	-49.52633000	-22.19488000
103.09999406	0.00000000	-49.10802000	-21.03838000
103.29999404	0.00000000	-49.52633000	-21.08145000
103.49999403	0.00000000	-51.06422000	-22.65625000
103.69999402	0.00000000	-53.34030000	-25.72589000
103.89999401	0.00000000	-55.29650000	-29.53371000
104.09999400	0.00000000	-56.82825000	-32.60334000
104.29999398	0.00000000	-57.66486000	-34.18430000
104.49999397	0.00000000	-57.67101000	-34.18430000
104.69999396	0.00000000	-57.66486000	-32.64640000
104.89999395	0.00000000	-56.82825000	-29.95201000
105.09999394	0.00000000	-55.33957000	-26.88853000
105.29999392	0.00000000	-53.80167000	-24.19414000
105.49999391	0.00000000	-52.64517000	-22.65625000
105.69999390	0.00000000	-52.26993000	-22.61319000
105.89999389	0.00000000	-52.64517000	-23.77584000
106.09999388	0.00000000	-53.80167000	-25.72589000
106.29999387	0.00000000	-55.29650000	-28.37721000
106.49999385	0.00000000	-56.45300000	-30.64714000
106.69999384	0.00000000	-56.82825000	-31.44069000
106.89999383	0.00000000	-56.50221000	-31.11466000
107.09999382	0.00000000	-55.71481000	-29.95201000
107.29999381	0.00000000	-54.96432000	-28.42027000
107.49999379	0.00000000	-54.17691000	-26.83932000
107.69999378	0.00000000	-53.80167000	-25.35064000
107.89999377	0.00000000	-53.80167000	-24.61245000
108.09999376	0.00000000	-54.17691000	-25.35064000
108.29999375	0.00000000	-54.96432000	-26.83932000
108.49999374	0.00000000	-55.75787000	-28.42027000
108.69999372	0.00000000	-56.92052000	-29.95201000
108.89999371	0.00000000	-57.99089000	-31.06545000
109.09999370	0.00000000	-57.99089000	-31.06545000
109.29999369	0.00000000	-56.92052000	-29.95201000
109.49999368	0.00000000	-55.75787000	-28.46333000
109.69999366	0.00000000	-54.92125000	-27.25763000
109.89999365	0.00000000	-53.75861000	-26.46407000
110.09999364	0.00000000	-52.68823000	-25.68282000
110.29999363	0.00000000	-52.68823000	-25.35679000
110.49999362	0.00000000	-53.75861000	-25.72589000
110.69999360	0.00000000	-54.92125000	-26.88853000
110.89999359	0.00000000	-55.71481000	-28.37721000
111.09999358	0.00000000	-56.50221000	-29.58292000
111.29999357	0.00000000	-56.87746000	-30.37647000
111.49999356	0.00000000	-56.92052000	-31.11466000
111.69999355	0.00000000	-56.87746000	-31.06545000
111.89999353	0.00000000	-56.50221000	-30.00123000
112.09999352	0.00000000	-55.71481000	-28.83858000
112.29999351	0.00000000	-54.96432000	-28.04503000
112.49999350	0.00000000	-54.17691000	-27.25763000
112.69999349	0.00000000	-53.80167000	-26.88238000
112.89999347	0.00000000	-53.80167000	-26.83932000
113.09999346	0.00000000	-54.17691000	-26.83932000
113.29999345	0.00000000	-54.92125000	-26.83932000
113.49999344	0.00000000	-55.29650000	-26.88238000
113.69999343	0.00000000	-55.33957000	-27.25763000
113.89999341	0.00000000	-55.33957000	-28.00197000
114.09999340	0.00000000	-55.33957000	-28.37721000
114.29999339	0.00000000	-55.33957000	-28.42027000
114.49999338	0.00000000	-55.33957000	-28.42027000
114.69999337	0.00000000	-55.33957000	-28.42027000
114.89999336	0.00000000	-55.29650000	-28.46333000
115.09999334	0.00000000	-54.96432000	-28.79552000
115.29999333	0.00000000	-54.59522000	-29.16461000
115.49999332	0.00000000	-54.96432000	-28.75246000
115.69999331	0.00000000	-55.29650000	-28.04503000
115.89999330	0.00000000	-55.33957000	-27.21457000
116.09999328	0.00000000	-55.33957000	-26.46407000
116.29999327	0.00000000	-55.38263000	-25.68282000
116.49999326	0.00000000	-55.71481000	-25.30758000
116.69999325	0.00000000	-56.08390000	-25.30758000
116.89999324	0.00000000	-55.71481000	-25.68282000
117.09999322	0.00000000	-55.38263000	-26.46407000
117.29999321	0.00000000	-55.29650000	-27.21457000
117.49999320	0.00000000	-54.92125000	-28.00197000
117.69999319	0.00000000	-54.17691000	-28.42027000
117.89999318	0.00000000	-53.75861000	-28.83858000
118.09999317	0.00000000	-53.38336000	-29.53371000
118.29999315	0.00000000	-53.06348000	-29.53371000
118.49999314	0.00000000	-53.80167000	-28.79552000
118.69999313	0.00000000	-54.92125000	-28.04503000
118.89999312	0.00000000	-55.75787000	-27.21457000
119.09999311	0.00000000	-56.92052000	-26.46407000
119.29999309	0.00000000	-57.99089000	-25.68282000
119.49999308	0.00000000	-58.03395000	-25.30758000
119.69999307	0.00000000	-57.29576000	-25.30758000
119.89999306	0.00000000	-56.50221000	-25.68282000
120.09999305	0.00000000	-55.29650000	-26.42101000
120.29999303	0.00000000	-53.80167000	-26.83932000
120.49999302	0.00000000	-52.64517000	-27.25763000
120.69999301	0.00000000	-52.22071000	-28.00197000
120.89999300	0.00000000	-52.26993000	-28.42027000
121.09999299	0.00000000	-53.01427000	-28.79552000
121.29999298	0.00000000	-54.54601000	-29.16461000
121.49999296	0.00000000	-55.71481000	-28.79552000
121.69999295	0.00000000	-56.92052000	-28.46333000
121.89999294	0.00000000	-58.03395000	-28.37721000
122.09999293	0.00000000	-58.45841000	-28.00197000
122.29999292	0.00000000	-58.45841000	-27.25763000
122.49999290	0.00000000	-58.03395000	-26.88238000
122.69999289	0.00000000	-56.92052000	-26.83932000
122.89999288	0.00000000	-55.75787000	-26.83932000
123.09999287	0.00000000	-54.96432000	-26.83932000
123.29999286	0.00000000	-54.17691000	-26.88238000
123.49999284	0.00000000	-53.80167000	-27.25763000
123.69999283	0.00000000	-53.75861000	-28.04503000
123.89999282	0.00000000	-53.80167000	-28.79552000
124.09999281	0.00000000	-54.17691000	-29.58292000
124.29999280	0.00000000	-54.96432000	-29.95817000
124.49999279	0.00000000	-55.71481000	-30.00123000
124.69999277	0.00000000	-56.54527000	-29.95817000
124.89999276	0.00000000	-57.29576000	-29.58292000
125.09999275	0.00000000	-58.03395000	-28.83858000
125.29999274	0.00000000	-58.03395000	-28.42027000
125.49999273	0.00000000	-57.33883000	-28.00197000
125.69999271	0.00000000	-56.92052000	-27.25763000
125.89999270	0.00000000	-56.50221000	-26.93159000
126.09999269	0.00000000	-55.71481000	-27.25763000
126.29999268	0.00000000	-54.96432000	-28.00197000
126.49999267	0.00000000	-54.17691000	-28.37721000
126.69999265	0.00000000	-53.85088000	-28.42027000
126.89999264	0.00000000	-54.17691000	-28.46333000
127.09999263	0.00000000	-54.96432000	-28.83858000
127.29999262	0.00000000	-55.75787000	-29.58292000
127.49999261	0.00000000	-56.92052000	-29.95817000
127.69999260	0.00000000	-58.03395000	-29.95817000
127.89999258	0.00000000	-58.45841000	-29.58292000
128.09999257	0.00000000	-58.45841000	-28.83858000
128.29999256	0.00000000	-58.03395000	-28.42027000
128.49999255	0.00000000	-56.92052000	-28.04503000
128.69999254	0.00000000	-55.75787000	-27.67593000
128.89999252	0.00000000	-54.96432000	-28.00197000
129.09999251	0.00000000	-54.17691000	-28.00197000
129.29999250	0.00000000	-53.85088000	-27.67593000
129.49999249	0.00000000	-54.22613000	-28.04503000
129.69999248	0.00000000	-55.33957000	-28.37721000
129.89999246	0.00000000	-56.50221000	-28.42027000
130.09999245	0.00000000	-57.29576000	-28.42027000
130.29999244	0.00000000	-58.03395000	-28.42027000
130.49999243	0.00000000	-58.03395000	-28.37721000
130.69999242	0.00000000	-57.29576000	-28.00197000
130.89999241	0.00000000	-56.54527000	-27.25763000
131.09999239	0.00000000	-55.71481000	-26.88238000
131.29999238	0.00000000	-54.96432000	-26.88238000
131.49999237	0.00000000	-54.17691000	-27.25763000
131.69999236	0.00000000	-53.85088000	-28.00197000
131.89999235	0.00000000	-54.22613000	-28.37721000
132.09999233	0.00000000	-55.29650000	-28.42027000
132.29999232	0.00000000	-56.08390000	-28.42027000
132.49999231	0.00000000	-56.13312000	-28.42027000
132.69999230	0.00000000	-56.54527000	-28.42027000
132.89999229	0.00000000	-56.87746000	-28.37721000
133.09999227	0.00000000	-56.87746000	-28.00197000
133.29999226	0.00000000	-56.50221000	-27.21457000
133.49999225	0.00000000	-55.75787000	-26.51329000
133.69999224	0.00000000	-55.38263000	-26.10113000
133.89999223	0.00000000	-55.38263000	-26.46407000
134.09999222	0.00000000	-55.75787000	-26.83932000
134.29999220	0.00000000	-56.45300000	-27.25763000
134.49999219	0.00000000	-56.45300000	-28.04503000
134.69999218	0.00000000	-55.75787000	-28.79552000
134.89999217	0.00000000	-55.38263000	-29.58292000
135.09999216	0.00000000	-55.33957000	-29.90895000
135.29999214	0.00000000	-55.33957000	-29.58292000
135.49999213	0.00000000	-55.33957000	-28.83858000
135.69999212	0.00000000	-55.33957000	-28.42027000
135.89999211	0.00000000	-55.38263000	-28.00197000
136.09999210	0.00000000	-55.75787000	-27.25763000
136.29999208	0.00000000	-56.50221000	-26.88238000
136.49999207	0.00000000	-56.87746000	-26.83932000
136.69999206	0.00000000	-56.96358000	-26.83932000
136.89999205	0.00000000	-57.29576000	-26.88238000
137.09999204	0.00000000	-57.61565000	-27.25763000
137.29999203	0.00000000	-56.87746000	-28.04503000
137.49999201	0.00000000	-55.75787000	-28.79552000
137.69999200	0.00000000	-55.00738000	-29.58292000
137.89999199	0.00000000	-54.59522000	-29.95817000
138.09999198	0.00000000	-54.96432000	-30.00123000
138.29999197	0.00000000	-55.33957000	-30.00123000
138.49999195	0.00000000	-55.75787000	-29.95817000
138.69999194	0.00000000	-56.54527000	-29.58292000
138.89999193	0.00000000	-57.29576000	-28.83858000
139.09999192	0.00000000	-58.08316000	-28.42027000
139.29999191	0.00000000	-58.40920000	-28.00197000
139.49999189	0.00000000	-58.08316000	-27.25763000
139.69999188	0.00000000	-57.29576000	-26.93159000
139.89999187	0.00000000	-56.54527000	-27.25763000
140.09999186	0.00000000	-55.75787000	-28.00197000
140.29999185	0.00000000	-55.38263000	-28.42027000
140.49999184	0.00000000	-55.33957000	-28.83858000
140.69999182	0.00000000	-55.38263000	-29.58292000
140.89999181	0.00000000	-55.75787000	-29.95817000
141.09999180	0.00000000	-56.50221000	-30.00123000
141.29999179	0.00000000	-56.87746000	-29.95817000
141.49999178	0.00000000	-56.92052000	-29.58292000
141.69999176	0.00000000	-56.92052000	-28.79552000
141.89999175	0.00000000	-56.92052000	-28.04503000
142.09999174	0.00000000	-56.92052000	-27.25763000
142.29999173	0.00000000	-56.92052000	-26.88238000
142.49999172	0.00000000	-56.87746000	-26.88238000
142.69999170	0.00000000	-56.54527000	-27.25763000
142.89999169	0.00000000	-56.17618000	-28.04503000
143.09999168	0.00000000	-56.54527000	-28.79552000
143.29999167	0.00000000	-56.87746000	-29.58292000
143.49999166	0.00000000	-56.92052000	-29.95817000
143.69999165	0.00000000	-56.92052000	-30.00123000
143.89999163	0.00000000	-56.87746000	-29.95817000
144.09999162	0.00000000	-56.54527000	-29.58292000
144.29999161	0.00000000	-56.13312000	-28.83858000
144.49999160	0.00000000	-56.12696000	-28.42027000
144.69999159	0.00000000	-55.71481000	-28.00197000
144.89999157	0.00000000	-55.43184000	-27.25763000
145.09999156	0.00000000	-55.75787000	-26.88238000
145.29999155	0.00000000	-56.50221000	-26.88238000
145.49999154	0.00000000	-56.87746000	-27.25763000
145.69999153	0.00000000	-56.92052000	-28.00197000
145.89999151	0.00000000	-56.92052000	-28.42027000
146.09999150	0.00000000	-56.92052000	-28.83858000
146.29999149	0.00000000	-56.92052000	-29.53371000
146.49999148	0.00000000	-56.87746000	-29.53371000
146.69999147	0.00000000	-56.54527000	-28.83858000
146.89999146	0.00000000	-56.13312000	-28.46333000
147.09999144	0.00000000	-56.12696000	-28.37721000
147.29999143	0.00000000	-55.75787000	-28.00197000
147.49999142	0.00000000	-55.80708000	-27.25763000
147.69999141	0.00000000	-56.50221000	-26.88238000
147.89999140	0.00000000	-56.87746000	-26.83932000
148.09999138	0.00000000	-56.92052000	-26.83932000
148.29999137	0.00000000	-56.92052000	-26.88238000
148.49999136	0.00000000	-56.92052000	-27.25763000
148.69999135	0.00000000	-56.92052000	-28.00197000
148.89999134	0.00000000	-56.92052000	-28.37721000
149.09999132	0.00000000	-56.87746000	-28.42027000
149.29999131	0.00000000	-56.50221000	-28.42027000
149.49999130	0.00000000	-55.75787000	-28.42027000
149.69999129	0.00000000	-55.43184000	-28.42027000
149.89999128	0.00000000	-55.75787000	-28.37721000
150.09999127	0.00000000	-56.50221000	-28.00197000
150.29999125	0.00000000	-56.87746000	-27.25763000
150.49999124	0.00000000	-56.92052000	-26.88238000
150.69999123	0.00000000	-56.92052000	-26.83932000
150.89999122	0.00000000	-56.92052000	-26.88238000
151.09999121	0.00000000	-56.92052000	-27.25763000
151.29999119	0.00000000	-56.92052000	-28.00197000
151.49999118	0.00000000	-56.92052000	-28.37721000
151.69999117	0.00000000	-56.92052000	-28.42027000
151.89999116	0.00000000	-56.92052000	-28.42027000
152.09999115	0.00000000	-56.87746000	-28.42027000
152.29999113	0.00000000	-56.54527000	-28.46333000
152.49999112	0.00000000	-56.13312000	-28.75246000
152.69999111	0.00000000	-56.17002000	-28.78937000
152.89999110	0.00000000	-56.09006000	-28.05118000
153.09999109	0.00000000	-56.17002000	-28.08809000
153.29999108	0.00000000	-56.13312000	-28.37721000
153.49999106	0.00000000	-56.54527000	-28.42027000
153.69999105	0.00000000	-56.92052000	-28.42027000
153.89999104	0.00000000	-57.33883000	-28.42027000
154.09999103	0.00000000	-58.08316000	-28.42027000
154.29999102	0.00000000	-58.45841000	-28.46333000
154.49999100	0.00000000	-58.50147000	-28.79552000
154.69999099	0.00000000	-58.50147000	-29.16461000
154.89999098	0.00000000	-58.45841000	-28.79552000
155.09999097	0.00000000	-58.03395000	-28.51255000
155.29999096	0.00000000	-56.92052000	-28.83858000
155.49999094	0.00000000	-55.85014000	-29.58292000
155.69999093	0.00000000	-55.80708000	-29.95817000
155.89999092	0.00000000	-56.50221000	-29.95817000
156.09999091	0.00000000	-56.87746000	-29.58292000
156.29999090	0.00000000	-56.92052000	-28.83858000
156.49999089	0.00000000	-56.96358000	-28.46333000
156.69999087	0.00000000	-57.33883000	-28.42027000
156.89999086	0.00000000	-58.08316000	-28.42027000
157.09999085	0.00000000	-58.45841000	-28.42027000
157.29999084	0.00000000	-58.50147000	-28.42027000
157.49999083	0.00000000	-58.50147000	-28.46333000
157.69999081	0.00000000	-58.50147000	-28.83858000
157.89999080	0.00000000	-58.45841000	-29.58292000
158.09999079	0.00000000	-58.08316000	-29.95817000
158.29999078	0.00000000	-57.33883000	-30.00123000
158.49999077	0.00000000	-56.96358000	-30.00123000
158.69999075	0.00000000	-56.92052000	-29.95817000
158.89999074	0.00000000	-56.92052000	-29.58292000
159.09999073	0.00000000	-56.92052000	-28.83858000
159.29999072	0.00000000	-56.92052000	-28.46333000
159.49999071	0.00000000	-56.96358000	-28.42027000
159.69999070	0.00000000	-57.33883000	-28.37721000
159.89999068	0.00000000	-58.08316000	-28.04503000
160.09999067	0.00000000	-58.45841000	-27.67593000
160.29999066	0.00000000	-58.50147000	-28.04503000
160.49999065	0.00000000	-58.45841000	-28.37721000
160.69999064	0.00000000	-58.08316000	-28.42027000
160.89999062	0.00000000	-57.33883000	-28.46333000
161.09999061	0.00000000	-56.96358000	-28.79552000
161.29999060	0.00000000	-56.92052000	-29.16461000
161.49999059	0.00000000	-56.92052000	-28.79552000
161.69999058	0.00000000	-56.92052000	-28.46333000
161.89999056	0.00000000	-56.92052000	-28.42027000
162.09999055	0.00000000	-56.92052000	-28.42027000
162.29999054	0.00000000	-56.92052000	-28.37721000
162.49999053	0.00000000	-56.92052000	-28.00197000
162.69999052	0.00000000	-56.92052000	-27.25763000
162.89999051	0.00000000	-56.96358000	-26.88238000
163.09999049	0.00000000	-57.33883000	-26.83932000
163.29999048	0.00000000	-58.08316000	-26.83932000
163.49999047	0.00000000	-58.45841000	-26.83932000
163.69999046	0.00000000	-58.50147000	-26.88238000
163.89999045	0.00000000	-58.45841000	-27.25763000
164.09999043	0.00000000	-58.08316000	-27.95275000
164.29999042	0.00000000	-57.33883000	-28.00197000
164.49999041	0.00000000	-56.96358000	-27.67593000
164.69999040	0.00000000	-56.92052000	-28.04503000
164.89999039	0.00000000	-56.92052000	-28.37721000
165.09999037	0.00000000	-56.92052000	-28.42027000
165.29999036	0.00000000	-56.92052000	-28.42027000
165.49999035	0.00000000	-56.92052000	-28.42027000
165.69999034	0.00000000	-56.92052000	-28.42027000
165.89999033	0.00000000	-56.96358000	-28.42027000
166.09999032	0.00000000	-57.33883000	-28.42027000
166.29999030	0.00000000	-58.08316000	-28.42027000
166.49999029	0.00000000	-58.45841000	-28.42027000
166.69999028	0.00000000	-58.45841000	-28.42027000
166.89999027	0.00000000	-58.12622000	-28.42027000
167.09999026	0.00000000	-57.75713000	-28.42027000
167.29999024	0.00000000	-58.08316000	-28.42027000
167.49999023	0.00000000	-58.03395000	-28.42027000
167.69999022	0.00000000	-57.33883000	-28.42027000
167.89999021	0.00000000	-56.96358000	-28.42027000
168.09999020	0.00000000	-56.92052000	-28.46333000
168.29999018	0.00000000	-56.92052000	-28.83858000
168.49999017	0.00000000	-56.92052000	-29.53371000
168.69999016	0.00000000	-56.92052000	-29.53371000
168.89999015	0.00000000	-56.96358000	-28.83858000
169.09999014	0.00000000	-57.33883000	-28.46333000
169.29999013	0.00000000	-58.08316000	-28.46333000
169.49999011	0.00000000	-58.45841000	-28.83858000
169.69999010	0.00000000	-58.50147000	-29.53371000
169.89999009	0.00000000	-58.50147000	-29.58292000
170.09999008	0.00000000	-58.50147000	-29.21383000
170.29999007	0.00000000	-58.50147000	-29.25074000
170.49999005	0.00000000	-58.50147000	-29.17077000
170.69999004	0.00000000	-58.50147000	-29.25074000
170.89999003	0.00000000	-58.50147000	-29.21383000
171.09999002	0.00000000	-58.50147000	-29.62598000
171.29999001	0.00000000	-58.45841000	-29.95817000
171.49998999	0.00000000	-58.12622000	-30.00123000
171.69998998	0.00000000	-57.75713000	-30.00123000
171.89998997	0.00000000	-58.12622000	-30.00123000
172.09998996	0.00000000	-58.45841000	-30.00123000
172.29998995	0.00000000	-58.50147000	-30.00123000
172.49998994	0.00000000	-58.50147000	-29.95817000
172.69998992	0.00000000	-58.50147000	-29.58292000
172.89998991	0.00000000	-58.50147000	-28.83858000
173.09998990	0.00000000	-58.50147000	-28.46333000
173.29998989	0.00000000	-58.50147000	-28.42027000
173.49998988	0.00000000	-58.50147000	-28.42027000
173.69998986	0.00000000	-58.50147000	-28.46333000
173.89998985	0.00000000	-58.50147000	-28.79552000
174.09998984	0.00000000	-58.45841000	-29.20767000
174.29998983	0.00000000	-58.12622000	-29.17077000
174.49998982	0.00000000	-57.75713000	-29.20767000
174.69998980	0.00000000	-58.12622000	-28.79552000
174.89998979	0.00000000	-58.45841000	-28.46333000
175.09998978	0.00000000	-58.50147000	-28.42027000
175.29998977	0.00000000	-58.45841000	-28.42027000
175.49998976	0.00000000	-58.12622000	-28.42027000
175.69998975	0.00000000	-57.71407000	-28.42027000
175.89998973	0.00000000	-57.75098000	-28.42027000
176.09998972	0.00000000	-57.71407000	-28.42027000
176.29998971	0.00000000	-58.08316000	-28.42027000
176.49998970	0.00000000	-58.03395000	-28.42027000
176.69998969	0.00000000	-57.33883000	-28.42027000
176.89998967	0.00000000	-57.01279000	-28.42027000
177.09998966	0.00000000	-57.33883000	-28.42027000
177.29998965	0.00000000	-58.08316000	-28.42027000
177.49998964	0.00000000	-58.45841000	-28.42027000
177.69998963	0.00000000	-58.50147000	-28.42027000
177.89998961	0.00000000	-58.50147000	-28.42027000
178.09998960	0.00000000	-58.50147000	-28.42027000
178.29998959	0.00000000	-58.50147000	-28.42027000
178.49998958	0.00000000	-58.50147000	-28.42027000
178.69998957	0.00000000	-58.45841000	-28.42027000
178.89998956	0.00000000	-58.12622000	-28.42027000
179.09998954	0.00000000	-57.71407000	-28.42027000
179.29998953	0.00000000	-57.70792000	-28.42027000
179.49998952	0.00000000	-57.33883000	-28.42027000
179.69998951	0.00000000	-57.33883000	-28.42027000
179.89998950	0.00000000	-57.70792000	-28.42027000
180.09998948	0.00000000	-57.71407000	-28.46333000
180.29998947	0.00000000	-58.12622000	-28.79552000
180.49998946	0.00000000	-58.45841000	-29.16461000
180.69998945	0.00000000	-58.50147000	-28.79552000
180.89998944	0.00000000	-58.50147000	-28.46333000
181.09998942	0.00000000	-58.50147000	-28.42027000
181.29998941	0.00000000	-58.50147000	-28.42027000
181.49998940	0.00000000	-58.50147000	-28.42027000
181.69998939	0.00000000	-58.45841000	-28.42027000
181.89998938	0.00000000	-58.12622000	-28.42027000
182.09998937	0.00000000	-57.71407000	-28.42027000
182.29998935	0.00000000	-57.75098000	-28.42027000
182.49998934	0.00000000	-57.71407000	-28.46333000
182.69998933	0.00000000	-58.12622000	-28.83858000
182.89998932	0.00000000	-58.45841000	-29.58292000
183.09998931	0.00000000	-58.50147000	-29.95817000
183.29998929	0.00000000	-58.50147000	-30.00123000
183.49998928	0.00000000	-58.50147000	-30.00123000
183.69998927	0.00000000	-58.50147000	-29.95817000
183.89998926	0.00000000	-58.50147000	-29.58292000
184.09998925	0.00000000	-58.50147000	-28.83858000
184.29998923	0.00000000	-58.50147000	-28.46333000
184.49998922	0.00000000	-58.50147000	-28.42027000
184.69998921	0.00000000	-58.50147000	-28.42027000
184.89998920	0.00000000	-58.50147000	-28.42027000
185.09998919	0.00000000	-58.50147000	-28.42027000
185.29998918	0.00000000	-58.50147000	-28.42027000
185.49998916	0.00000000	-58.50147000	-28.46333000
185.69998915	0.00000000	-58.50147000	-28.83858000
185.89998914	0.00000000	-58.50147000	-29.58292000
186.09998913	0.00000000	-58.50147000	-29.95817000
186.29998912	0.00000000	-58.50147000	-30.00123000
186.49998910	0.00000000	-58.50147000	-30.00123000
186.69998909	0.00000000	-58.50147000	-30.00123000
186.89998908	0.00000000	-58.50147000	-29.95817000
187.09998907	0.00000000	-58.50147000	-29.58292000
187.29998906	0.00000000	-58.50147000	-28.83858000
187.49998904	0.00000000	-58.50147000	-28.46333000
187.69998903	0.00000000	-58.50147000	-28.42027000
187.89998902	0.00000000	-58.50147000	-28.42027000
188.09998901	0.00000000	-58.50147000	-28.42027000
188.29998900	0.00000000	-58.50147000	-28.46333000
188.49998899	0.00000000	-58.50147000	-28.83858000
188.69998897	0.00000000	-58.50147000	-29.58292000
188.89998896	0.00000000	-58.50147000	-29.95817000
189.09998895	0.00000000	-58.50147000	-30.00123000
189.29998894	0.00000000	-58.50147000	-30.00123000
189.49998893	0.00000000	-58.50147000	-30.00123000
189.69998891	0.00000000	-58.50147000	-30.00123000
189.89998890	0.00000000	-58.50147000	-30.00123000
190.09998889	0.00000000	-58.50147000	-30.00123000
190.29998888	0.00000000	-58.50147000	-29.95817000
190.49998887	0.00000000	-58.50147000	-29.58292000
190.69998885	0.00000000	-58.50147000	-28.83858000
190.89998884	0.00000000	-58.50147000	-28.46333000
191.09998883	0.00000000	-58.50147000	-28.42027000
191.29998882	0.00000000	-58.50147000	-28.42027000
191.49998881	0.00000000	-58.50147000	-28.42027000
191.69998880	0.00000000	-58.50147000	-28.42027000
191.89998878	0.00000000	-58.50147000	-28.42027000
192.09998877	0.00000000	-58.50147000	-28.42027000
192.29998876	0.00000000	-58.50147000	-28.46333000
192.49998875	0.00000000	-58.50147000	-28.79552000
192.69998874	0.00000000	-58.50147000	-29.16461000
192.89998872	0.00000000	-58.50147000	-28.79552000
193.09998871	0.00000000	-58.54454000	-28.46333000
193.29998870	0.00000000	-58.87672000	-28.42027000
193.49998869	0.00000000	-59.24582000	-28.42027000
193.69998868	0.00000000	-58.87672000	-28.42027000
193.89998866	0.00000000	-58.54454000	-28.42027000
194.09998865	0.00000000	-58.50147000	-28.42027000
194.29998864	0.00000000	-58.50147000	-28.42027000
194.49998863	0.00000000	-58.50147000	-28.42027000
194.69998862	0.00000000	-58.50147000	-28.42027000
194.89998861	0.00000000	-58.50147000	-28.42027000
195.09998859	0.00000000	-58.50147000	-28.42027000
195.29998858	0.00000000	-58.50147000	-28.42027000
195.49998857	0.00000000	-58.50147000	-28.42027000
195.69998856	0.00000000	-58.54454000	-28.42027000
195.89998855	0.00000000	-58.87672000	-28.42027000
196.09998853	0.00000000	-59.24582000	-28.42027000
