Time	Channel A	Channel B	Channel C
(us)	(V)	(mV)	(mV)

-4.49999956	0.00000000	33.20005000	18.94685000
-4.29999957	0.00000000	33.15699000	18.94685000
-4.09999958	0.00000000	32.82480000	18.94685000
-3.89999959	0.00000000	32.45571000	18.94685000
-3.69999960	0.00000000	32.82480000	18.94685000
-3.49999962	0.00000000	33.15699000	18.94685000
-3.29999963	0.00000000	33.20005000	18.94685000
-3.09999964	0.00000000	33.20005000	18.94685000
-2.89999965	0.00000000	33.20005000	18.94685000
-2.69999966	0.00000000	33.20005000	18.94685000
-2.49999968	0.00000000	33.20005000	18.94685000
-2.29999969	0.00000000	33.20005000	18.94685000
-2.09999970	0.00000000	33.20005000	18.94685000
-1.89999971	0.00000000	33.20005000	18.94685000
-1.69999972	0.00000000	33.20005000	18.94685000
-1.49999973	0.00000000	33.20005000	18.94685000
-1.29999975	0.00000000	33.20005000	18.98991000
-1.09999976	0.00000000	33.20005000	19.32210000
-0.89999977	0.00000000	33.24311000	19.69119000
-0.69999978	0.00000000	33.57529000	19.36516000
-0.49999979	0.00000000	33.98745000	19.41437000
-0.29999981	0.31803640	33.95054000	20.10950000
-0.09999982	0.63668800	33.98745000	20.43553000
0.10000017	0.95533960	33.57529000	20.10950000
0.30000016	0.95533960	33.24311000	19.36516000
0.50000015	0.79601380	33.20005000	18.98991000
0.70000013	0.31803640	33.20005000	18.94685000
0.90000012	-0.47736220	33.20005000	18.94685000
1.10000011	-1.43331700	33.20005000	18.94685000
1.30000010	-2.38927200	33.24311000	18.94685000
1.50000009	-2.70792300	33.61835000	18.98991000
1.70000008	-2.38927200	34.31963000	19.36516000
1.90000006	-1.27399100	34.31963000	20.10950000
2.10000005	0.63668800	33.61835000	20.43553000
2.30000004	2.70792300	33.24311000	20.10950000
2.50000003	4.45989200	33.20005000	19.36516000
2.70000002	5.41584600	33.24311000	18.98991000
2.90000000	4.77854300	33.57529000	18.94685000
3.09999999	2.86724900	33.94439000	18.94685000
3.29999998	-0.15871060	33.61835000	18.94685000
3.49999997	-3.50393700	33.61835000	18.94685000
3.69999996	-6.53112700	33.94439000	18.98991000
3.89999994	-7.96444400	33.61835000	19.36516000
4.09999993	-7.48646600	33.66756000	20.10950000
4.29999992	-4.93786900	34.31963000	20.48474000
4.49999991	-1.11466500	34.36884000	20.52780000
4.69999990	3.34522600	34.04282000	20.48474000
4.89999989	7.16781500	34.36884000	20.10950000
5.09999987	9.23905000	34.36884000	19.36516000
5.29999986	9.07972400	33.99975000	18.98991000
5.49999985	6.53112700	34.03666000	18.94685000
5.69999984	2.38927200	33.99975000	18.94685000
5.89999983	-2.54859700	34.41191000	18.94685000
6.09999981	-6.69045300	34.74409000	18.98991000
6.29999980	-9.07972400	34.78716000	19.36516000
6.49999979	-9.23905000	34.78716000	20.10950000
6.69999978	-7.16781500	34.78716000	20.48474000
6.89999977	-3.34522600	34.78716000	20.52780000
7.09999975	1.11466500	34.78716000	20.52780000
7.29999974	4.93786900	34.74409000	20.48474000
7.49999973	7.32714100	34.41191000	20.10950000
7.69999972	7.64579200	33.99975000	19.36516000
7.89999971	6.21247500	33.98745000	18.98991000
8.09999970	3.34522600	33.57529000	18.94685000
8.29999968	0.15871060	33.24311000	18.94685000
8.49999967	-2.86724900	33.24311000	18.94685000
8.69999966	-4.61921700	33.61835000	18.94685000
8.89999965	-5.25652100	34.36884000	18.94685000
9.09999964	-4.30056600	34.74409000	18.94685000
9.29999962	-2.70792300	34.74409000	18.94685000
9.49999961	-0.63668800	34.41191000	18.94685000
9.69999960	1.11466500	34.04282000	18.94685000
9.89999959	2.22994600	34.41191000	18.94685000
10.09999958	2.54859700	34.69488000	18.94685000
10.29999956	2.22994600	34.41191000	18.94685000
10.49999955	1.43331700	33.99975000	18.94685000
10.69999954	0.47736220	33.98745000	18.94685000
10.89999953	-0.31803640	33.57529000	18.94685000
11.09999952	-0.79601380	33.29232000	18.94685000
11.29999951	-0.95533960	33.61835000	18.94685000
11.49999949	-0.95533960	34.36884000	18.94685000
11.69999948	-0.79601380	34.74409000	18.94685000
11.89999947	-0.47736220	34.78716000	18.94685000
12.09999946	-0.15871060	34.78716000	18.94685000
12.29999945	-0.15871060	34.78716000	18.94685000
12.49999943	0.00000000	34.78716000	18.94685000
12.69999942	0.00000000	34.78716000	18.94685000
12.89999941	0.00000000	34.78716000	18.94685000
13.09999940	0.15871060	34.78716000	18.94685000
13.29999939	0.00000000	34.78716000	18.94685000
13.49999937	0.00000000	34.74409000	18.94685000
13.69999936	0.00000000	34.41191000	18.98991000
13.89999935	0.00000000	34.04282000	19.32210000
14.09999934	-0.15871060	34.41191000	19.69119000
14.29999933	-0.15871060	34.74409000	19.36516000
14.49999932	-0.15871060	34.78716000	19.41437000
14.69999930	0.00000000	34.78716000	20.10950000
14.89999929	0.00000000	34.78716000	20.43553000
15.09999928	0.00000000	34.78716000	20.15256000
15.29999927	0.00000000	34.78716000	19.78346000
15.49999926	0.00000000	34.78716000	20.15256000
15.69999924	0.00000000	34.78716000	20.48474000
15.89999923	0.00000000	34.78716000	20.52780000
16.09999922	0.00000000	34.78716000	20.52780000
16.29999921	0.00000000	34.78716000	20.52780000
16.49999920	-0.15871060	34.78716000	20.48474000
16.69999919	-0.15871060	34.83022000	20.15256000
16.89999917	-0.15871060	35.20546000	19.74040000
17.09999916	0.00000000	35.94980000	19.73425000
17.29999915	0.00000000	36.32505000	19.36516000
17.49999914	0.00000000	36.36811000	19.41437000
17.69999913	0.00000000	36.32505000	20.10950000
17.89999911	0.00000000	35.90059000	20.48474000
18.09999910	0.00000000	34.73794000	20.52780000
18.29999909	0.00000000	33.20005000	20.52780000
18.49999908	0.00000000	31.66215000	20.52780000
18.69999907	0.00000000	30.45644000	20.52780000
18.89999905	0.00000000	29.70595000	20.48474000
19.09999904	0.00000000	29.38607000	20.15256000
19.29999903	0.00000000	30.63484000	19.74040000
19.49999902	0.00000000	33.66756000	19.73425000
19.69999901	0.00000000	37.57381000	19.36516000
19.89999900	0.00000000	41.44316000	19.41437000
20.09999898	0.00000000	44.88189000	20.06029000
20.29999897	0.00000000	46.37057000	20.06029000
20.49999896	0.00000000	45.20792000	19.36516000
20.69999895	0.00000000	41.67076000	18.98991000
20.89999894	0.00000000	35.81446000	18.94685000
21.09999892	0.00000000	28.45718000	18.94685000
21.29999891	0.00000000	21.14911000	18.94685000
21.49999890	0.00000000	15.80339000	18.94685000
21.69999889	0.00000000	14.30856000	18.94685000
21.89999888	0.00000000	17.47047000	18.94685000
22.09999886	0.00000000	25.28912000	18.94685000
22.29999885	0.00000000	36.87869000	18.94685000
22.49999884	0.00000000	49.57554000	18.94685000
22.69999883	0.00000000	60.00246000	18.94685000
22.89999882	0.00000000	65.72957000	18.98991000
23.09999881	0.00000000	64.84375000	19.36516000
23.29999879	0.00000000	56.28690000	20.10950000
23.49999878	0.00000000	41.57849000	20.48474000
23.69999877	0.00000000	23.80659000	20.57087000
23.89999876	0.00000000	6.87130900	20.90305000
24.09999875	0.00000000	-4.66904500	21.26599000
24.29999873	0.00000000	-7.73868000	20.85384000
24.49999872	0.00000000	-1.45792300	20.10950000
24.69999871	0.00000000	13.66265000	18.85458000
24.89999870	0.00000000	34.92249000	16.99065000
25.09999869	0.00000000	57.25885000	15.08981000
25.29999867	0.00000000	75.39985000	14.34547000
25.49999866	0.00000000	84.62106000	14.67150000
25.69999865	0.00000000	82.66486000	15.92027000
25.89999864	0.00000000	69.49433000	18.29478000
26.09999863	0.00000000	47.90846000	22.14567000
26.29999862	0.00000000	23.15453000	26.32874000
26.49999860	0.00000000	0.77509840	29.44759000
26.69999859	0.00000000	-14.29626000	30.97933000
26.89999858	0.00000000	-18.11639000	30.51181000
27.09999857	0.00000000	-10.01476000	27.35605000
27.29999856	0.00000000	8.49532500	21.54897000
27.49999854	0.00000000	32.78174000	14.21014000
27.69999853	0.00000000	56.74828000	6.86515700
27.89999852	0.00000000	75.35678000	1.15034400
28.09999851	0.00000000	84.62106000	-1.07652500
28.29999850	0.00000000	82.75098000	1.66092500
28.49999848	0.00000000	70.38017000	8.99975300
28.69999847	0.00000000	50.73819000	19.45743000
28.89999846	0.00000000	28.31570000	31.06545000
29.09999845	0.00000000	8.58759800	41.48006000
29.29999844	0.00000000	-4.61983300	48.40059000
29.49999843	0.00000000	-8.90132800	49.84621000
29.69999841	0.00000000	-3.54945900	44.73425000
29.89999840	0.00000000	9.52263600	33.16314000
30.09999839	0.00000000	26.92544000	17.74114000
30.29999838	0.00000000	44.74040000	2.31299200
30.49999837	0.00000000	59.49188000	-10.03937000
30.69999835	0.00000000	68.42396000	-16.17864000
30.89999834	0.00000000	70.00491000	-14.64075000
31.09999833	0.00000000	64.23473000	-5.72096400
31.29999832	0.00000000	52.69439000	8.95669300
31.49999831	0.00000000	38.41043000	26.37795000
31.69999829	0.00000000	24.82775000	42.96875000
31.89999828	0.00000000	14.30856000	55.32111000
32.09999827	0.00000000	8.49532500	60.29773000
32.29999826	0.00000000	8.49532500	56.85900000
32.49999825	0.00000000	14.26550000	45.66314000
32.69999824	0.00000000	24.26796000	29.44759000
32.89999822	0.00000000	35.85752000	11.65108000
33.09999821	0.00000000	46.32751000	-4.18922200
33.29999820	0.00000000	53.72170000	-14.64075000
33.49999819	0.00000000	56.79134000	-17.75344000
33.69999818	0.00000000	54.88435000	-13.10900000
33.89999816	0.00000000	48.36983000	-1.53789400
34.09999815	0.00000000	39.53002000	14.30241000
34.29999814	0.00000000	30.64099000	30.88705000
34.49999813	0.00000000	23.70817000	44.82037000
34.69999812	0.00000000	20.58932000	52.91584000
34.89999810	0.00000000	21.65969000	53.74631000
35.09999809	0.00000000	25.89198000	47.19488000
35.29999808	0.00000000	32.03740000	35.25467000
35.49999807	0.00000000	38.60113000	20.57087000
35.69999806	0.00000000	43.58390000	6.31151500
35.89999805	0.00000000	45.95226000	-4.09694900
36.09999803	0.00000000	45.16486000	-8.37229300
36.29999802	0.00000000	41.76304000	-5.72096400
36.49999801	0.00000000	36.74335000	2.73129900
36.69999800	0.00000000	31.75443000	14.62844000
36.89999799	0.00000000	27.84818000	26.93774000
37.09999797	0.00000000	25.98425000	36.18971000
37.29999796	0.00000000	26.73474000	40.45890000
37.49999795	0.00000000	30.17347000	38.92716000
37.69999794	0.00000000	34.78716000	32.04970000
37.89999793	0.00000000	39.43774000	22.10261000
38.09999791	0.00000000	43.30093000	12.11245000
38.29999790	0.00000000	45.20792000	4.85974400
38.49999789	0.00000000	44.83267000	2.54675200
38.69999788	0.00000000	42.13828000	5.97933100
38.89999787	0.00000000	37.89985000	13.60113000
39.09999786	0.00000000	33.24926000	23.17298000
39.29999784	0.00000000	29.01082000	31.58218000
39.49999783	0.00000000	26.26722000	36.18971000
39.69999782	0.00000000	25.47367000	35.81446000
39.89999781	0.00000000	26.26722000	30.42569000
40.09999780	0.00000000	29.01082000	21.63509000
40.29999778	0.00000000	33.20005000	12.02018000
40.49999777	0.00000000	37.48154000	4.39837600
40.69999776	0.00000000	41.01870000	0.92273620
40.89999775	0.00000000	43.76230000	2.86663400
41.09999774	0.00000000	45.25713000	9.33193800
41.29999772	0.00000000	44.88189000	18.61466000
41.49999771	0.00000000	42.55659000	28.19882000
41.69999770	0.00000000	39.11171000	35.90674000
41.89999769	0.00000000	35.20546000	39.34547000
42.09999768	0.00000000	31.71137000	37.81373000
42.29999767	0.00000000	28.96776000	31.67446000
42.49999765	0.00000000	27.47293000	22.52091000
42.69999764	0.00000000	27.80512000	13.69340000
42.89999763	0.00000000	29.70595000	7.46801100
43.09999762	0.00000000	32.03740000	4.68134800
43.29999761	0.00000000	34.78716000	5.46875000
43.49999759	0.00000000	37.43848000	9.33193800
43.69999758	0.00000000	39.01944000	15.87721000
43.89999757	0.00000000	39.48696000	23.08686000
44.09999756	0.00000000	39.48696000	28.51870000
44.29999755	0.00000000	39.11171000	30.93627000
44.49999753	0.00000000	38.36737000	30.97933000
44.69999752	0.00000000	37.99213000	29.02928000
44.89999751	0.00000000	37.94907000	25.17224000
45.09999750	0.00000000	37.94907000	20.61393000
45.29999749	0.00000000	37.85679000	16.71383000
45.49999748	0.00000000	37.02018000	14.38853000
45.69999746	0.00000000	34.69488000	13.55807000
45.89999745	0.00000000	31.66830000	14.34547000
46.09999744	0.00000000	28.92470000	16.25246000
46.29999743	0.00000000	27.01156000	18.94685000
46.49999742	0.00000000	26.26722000	21.64124000
46.69999740	0.00000000	27.56521000	23.59129000
46.89999739	0.00000000	31.43455000	24.75394000
47.09999738	0.00000000	37.57381000	24.79700000
47.29999737	0.00000000	43.71924000	24.01575000
47.49999736	0.00000000	48.41904000	22.80389000
47.69999734	0.00000000	51.07037000	20.47859000
47.89999733	0.00000000	50.60285000	17.83341000
48.09999732	0.00000000	46.37057000	15.92027000
48.29999731	0.00000000	39.39468000	15.13902000
48.49999730	0.00000000	31.29306000	15.87721000
48.69999729	0.00000000	23.57283000	17.45817000
48.89999727	0.00000000	18.59006000	19.78346000
49.09999726	0.00000000	17.47047000	22.84695000
49.29999725	0.00000000	20.96457000	25.17224000
49.49999724	0.00000000	28.63558000	26.75320000
49.69999723	0.00000000	37.89985000	27.39911000
49.89999721	0.00000000	46.78888000	25.86737000
50.09999720	0.00000000	53.30339000	22.43479000
50.29999719	0.00000000	55.25959000	18.57160000
50.49999718	0.00000000	52.55905000	14.72072000
50.69999717	0.00000000	45.99532000	12.06939000
50.89999715	0.00000000	36.78642000	11.64493000
51.09999714	0.00000000	27.94045000	13.13976000
51.29999713	0.00000000	21.70891000	15.87721000
51.49999712	0.00000000	19.05143000	19.40822000
51.69999711	0.00000000	21.00763000	23.64050000
51.89999710	0.00000000	27.47908000	27.40526000
52.09999708	0.00000000	35.90059000	28.93701000
52.29999707	0.00000000	43.62696000	27.86663000
52.49999706	0.00000000	49.02190000	25.17224000
52.69999705	0.00000000	50.55979000	21.68430000
52.89999704	0.00000000	47.90846000	17.83341000
53.09999702	0.00000000	42.13828000	14.76378000
53.29999701	0.00000000	34.83022000	13.18282000
53.49999700	0.00000000	27.98966000	13.18282000
53.69999699	0.00000000	24.12647000	14.72072000
53.89999698	0.00000000	24.44636000	17.41511000
54.09999696	0.00000000	27.84818000	20.43553000
54.29999695	0.00000000	33.29232000	22.75467000
54.49999694	0.00000000	39.39468000	23.54823000
54.69999693	0.00000000	44.45743000	23.21604000
54.89999692	0.00000000	47.12106000	22.01649000
55.09999691	0.00000000	47.11491000	20.15256000
55.29999689	0.00000000	43.62696000	18.25172000
55.49999688	0.00000000	37.94907000	17.50123000
55.69999687	0.00000000	32.17273000	17.87647000
55.89999686	0.00000000	27.94045000	19.45743000
56.09999685	0.00000000	26.35950000	22.05955000
56.29999683	0.00000000	27.47293000	24.29257000
56.49999682	0.00000000	30.54872000	24.71087000
56.69999681	0.00000000	34.83022000	23.54823000
56.89999680	0.00000000	39.43774000	21.22293000
57.09999679	0.00000000	43.25172000	17.74114000
57.29999677	0.00000000	44.78961000	14.34547000
57.49999676	0.00000000	43.71924000	12.02018000
57.69999675	0.00000000	41.06791000	11.69414000
57.89999674	0.00000000	37.94907000	13.64419000
58.09999673	0.00000000	34.83022000	17.91953000
58.29999672	0.00000000	32.17273000	23.64050000
58.49999670	0.00000000	31.01009000	28.98007000
58.69999669	0.00000000	31.71137000	32.04970000
58.89999668	0.00000000	33.24926000	32.09276000
59.09999667	0.00000000	35.20546000	29.35531000
59.29999666	0.00000000	37.48154000	24.29257000
59.49999664	0.00000000	39.01944000	17.41511000
59.69999663	0.00000000	39.48696000	10.90674000
59.89999662	0.00000000	39.48696000	7.04970500
60.09999661	0.00000000	39.06250000	6.26230300
60.29999660	0.00000000	37.90600000	8.99975300
60.49999658	0.00000000	36.46038000	14.80684000
60.69999657	0.00000000	35.67298000	22.47785000
60.89999656	0.00000000	36.03592000	30.13656000
61.09999655	0.00000000	36.74335000	35.16240000
61.29999654	0.00000000	37.53075000	36.73720000
61.49999653	0.00000000	37.90600000	34.74409000
61.69999651	0.00000000	37.90600000	28.98007000
61.89999650	0.00000000	37.53075000	20.94611000
62.09999649	0.00000000	36.74335000	13.22589000
62.29999648	0.00000000	35.94980000	7.37573800
62.49999647	0.00000000	34.78716000	4.35531500
62.69999645	0.00000000	33.71063000	5.14886800
62.89999644	0.00000000	33.71063000	10.11319000
63.09999643	0.00000000	34.83022000	17.36589000
63.29999642	0.00000000	36.36811000	24.75394000
63.49999641	0.00000000	37.94907000	30.97933000
63.69999639	0.00000000	39.43774000	35.16240000
63.89999638	0.00000000	40.22515000	35.94980000
64.09999637	0.00000000	39.86220000	32.88632000
64.29999636	0.00000000	39.11171000	27.54060000
64.49999635	0.00000000	37.90600000	20.94611000
64.69999634	0.00000000	36.36811000	14.76378000
64.89999632	0.00000000	34.83022000	10.11319000
65.09999631	0.00000000	33.71063000	7.79404500
65.29999630	0.00000000	33.71063000	8.53223400
65.49999629	0.00000000	34.83022000	11.55881000
65.69999628	0.00000000	36.36811000	15.83415000
65.89999626	0.00000000	37.90600000	20.47859000
66.09999625	0.00000000	39.01944000	24.79700000
66.29999624	0.00000000	39.06250000	28.24188000
66.49999623	0.00000000	38.28125000	30.18578000
66.69999622	0.00000000	37.15551000	29.86589000
66.89999620	0.00000000	35.58071000	28.37721000
67.09999619	0.00000000	34.49803000	26.37795000
67.29999618	0.00000000	34.08588000	23.64050000
67.49999617	0.00000000	34.92249000	20.52780000
67.69999616	0.00000000	36.78642000	17.36589000
67.89999615	0.00000000	39.15477000	14.29626000
68.09999613	0.00000000	41.39394000	11.97711000
68.29999612	0.00000000	42.92569000	11.22662000
68.49999611	0.00000000	42.51353000	11.93405000
68.69999610	0.00000000	40.60039000	13.92101000
68.89999609	0.00000000	37.48154000	16.67077000
69.09999607	0.00000000	33.61835000	20.61393000
69.29999606	0.00000000	30.17347000	25.17224000
69.49999605	0.00000000	27.84818000	29.02928000
69.69999604	0.00000000	27.52214000	30.97933000
69.89999603	0.00000000	29.47835000	30.97933000
70.09999601	0.00000000	33.71063000	29.02928000
70.29999600	0.00000000	39.11171000	25.12918000
70.49999599	0.00000000	44.13755000	20.15256000
70.69999598	0.00000000	47.99458000	15.13902000
70.89999597	0.00000000	49.44020000	11.65108000
71.09999596	0.00000000	47.57627000	10.07013000
71.29999594	0.00000000	42.97490000	10.48843000
71.49999593	0.00000000	37.53075000	13.18282000
71.69999592	0.00000000	31.71137000	17.40895000
71.89999591	0.00000000	26.73474000	22.05955000
72.09999590	0.00000000	24.40330000	26.28568000
72.29999588	0.00000000	24.73548000	28.98007000
72.49999587	0.00000000	27.47293000	29.40452000
72.69999586	0.00000000	32.12967000	27.90969000
72.89999585	0.00000000	37.94907000	25.21530000
73.09999584	0.00000000	43.71924000	22.15182000
73.29999582	0.00000000	47.90846000	19.45743000
73.49999581	0.00000000	49.11417000	17.87647000
73.69999580	0.00000000	47.25640000	17.45817000
73.89999579	0.00000000	43.76230000	17.83341000
74.09999578	0.00000000	39.11171000	18.98991000
74.29999577	0.00000000	34.08588000	20.43553000
74.49999575	0.00000000	30.26575000	21.22293000
74.69999574	0.00000000	28.27264000	20.85384000
74.89999573	0.00000000	28.63558000	20.10950000
75.09999572	0.00000000	30.54872000	18.94685000
75.29999571	0.00000000	33.66756000	17.87647000
75.49999569	0.00000000	37.48154000	17.91953000
75.69999568	0.00000000	40.55733000	19.45743000
75.89999567	0.00000000	42.18134000	22.15182000
76.09999566	0.00000000	42.59965000	25.21530000
76.29999565	0.00000000	42.22441000	27.86663000
76.49999563	0.00000000	41.06791000	28.98007000
76.69999562	0.00000000	39.53002000	27.86663000
76.89999561	0.00000000	37.99213000	25.12918000
77.09999560	0.00000000	36.83563000	21.22293000
77.29999559	0.00000000	36.41117000	16.25246000
77.49999558	0.00000000	36.36811000	12.06939000
77.69999556	0.00000000	36.36811000	10.11319000
77.89999555	0.00000000	36.36811000	10.48843000
78.09999554	0.00000000	36.32505000	13.22589000
78.29999553	0.00000000	35.94980000	17.83341000
78.49999552	0.00000000	35.20546000	23.26525000
78.69999550	0.00000000	34.87943000	28.24188000
78.89999549	0.00000000	35.25467000	31.71752000
79.09999548	0.00000000	36.46038000	32.51107000
79.29999547	0.00000000	38.36737000	30.97933000
79.49999546	0.00000000	40.69267000	27.49138000
79.69999544	0.00000000	42.55659000	22.47785000
79.89999543	0.00000000	43.34399000	17.50123000
80.09999542	0.00000000	42.55659000	13.60113000
80.29999541	0.00000000	40.64345000	11.64493000
80.49999540	0.00000000	37.94907000	11.60187000
80.69999539	0.00000000	35.24852000	13.18282000
80.89999537	0.00000000	33.29232000	16.25246000
81.09999536	0.00000000	32.12967000	20.10950000
81.29999535	0.00000000	32.17273000	23.59129000
81.49999534	0.00000000	33.71063000	26.37795000
81.69999533	0.00000000	36.41117000	28.28494000
81.89999531	0.00000000	39.48696000	29.07234000
82.09999530	0.00000000	42.18134000	28.32800000
82.29999529	0.00000000	43.67618000	26.79626000
82.49999528	0.00000000	43.34399000	24.79700000
82.69999527	0.00000000	41.44316000	22.05955000
82.89999525	0.00000000	39.15477000	18.98991000
83.09999524	0.00000000	36.78642000	16.25246000
83.29999523	0.00000000	34.92249000	14.29626000
83.49999522	0.00000000	34.08588000	13.13976000
83.69999521	0.00000000	34.45497000	13.18282000
83.89999520	0.00000000	35.20546000	14.76378000
84.09999518	0.00000000	36.36811000	17.83341000
84.29999517	0.00000000	37.53075000	21.68430000
84.49999516	0.00000000	38.28125000	25.17224000
84.69999515	0.00000000	38.69341000	27.90969000
84.89999514	0.00000000	38.32431000	29.44759000
85.09999512	0.00000000	37.99213000	29.40452000
85.29999511	0.00000000	37.94907000	27.49138000
85.49999510	0.00000000	37.99213000	23.96653000
85.69999509	0.00000000	38.36737000	19.73425000
85.89999508	0.00000000	39.11171000	15.08981000
86.09999506	0.00000000	39.43774000	11.69414000
86.29999505	0.00000000	39.11171000	10.48843000
86.49999504	0.00000000	38.32431000	11.65108000
86.69999503	0.00000000	37.57381000	14.72072000
86.89999502	0.00000000	36.74335000	18.98991000
87.09999501	0.00000000	35.99286000	23.64050000
87.29999499	0.00000000	35.25467000	27.86663000
87.49999498	0.00000000	35.29773000	30.51181000
87.69999497	0.00000000	36.41117000	30.51181000
87.89999496	0.00000000	37.90600000	27.86663000
88.09999495	0.00000000	39.11171000	23.64050000
88.29999493	0.00000000	39.90526000	18.98991000
88.49999492	0.00000000	40.64345000	14.76378000
88.69999491	0.00000000	40.60039000	12.06939000
88.89999490	0.00000000	39.48696000	11.69414000
89.09999489	0.00000000	37.99213000	13.60113000
89.29999487	0.00000000	36.78642000	17.45817000
89.49999486	0.00000000	35.99286000	22.05955000
89.69999485	0.00000000	35.25467000	26.28568000
89.89999484	0.00000000	35.25467000	28.98007000
90.09999483	0.00000000	35.99286000	29.40452000
90.29999482	0.00000000	36.78642000	27.82357000
90.49999480	0.00000000	37.94907000	24.33563000
90.69999479	0.00000000	39.06250000	19.36516000
90.89999478	0.00000000	39.48696000	14.80684000
91.09999477	0.00000000	39.48696000	12.11245000
91.29999476	0.00000000	39.15477000	12.11245000
91.49999474	0.00000000	38.78568000	14.80684000
91.69999473	0.00000000	39.15477000	19.36516000
91.89999472	0.00000000	39.48696000	24.37869000
92.09999471	0.00000000	39.53002000	28.24188000
92.29999470	0.00000000	39.53002000	30.56102000
92.49999468	0.00000000	39.48696000	30.51181000
92.69999467	0.00000000	39.11171000	27.82357000
92.89999466	0.00000000	38.32431000	23.26525000
93.09999465	0.00000000	37.53075000	18.29478000
93.29999464	0.00000000	36.36811000	14.80684000
93.49999463	0.00000000	35.29773000	13.27510000
93.69999461	0.00000000	35.29773000	14.01944000
93.89999460	0.00000000	36.41117000	17.08292000
94.09999459	0.00000000	37.99213000	20.94611000
94.29999458	0.00000000	39.94832000	25.17224000
94.49999457	0.00000000	42.22441000	28.56176000
94.69999455	0.00000000	43.76230000	29.35531000
94.89999454	0.00000000	44.18061000	27.86663000
95.09999453	0.00000000	43.76230000	24.79700000
95.29999452	0.00000000	42.13828000	20.94611000
95.49999451	0.00000000	39.06250000	17.50123000
95.69999449	0.00000000	35.29773000	15.18209000
95.89999448	0.00000000	32.59719000	14.80684000
96.09999447	0.00000000	31.75443000	16.29552000
96.29999446	0.00000000	32.12967000	18.98991000
96.49999445	0.00000000	33.71063000	22.05955000
96.69999444	0.00000000	36.45423000	24.75394000
96.89999442	0.00000000	39.94832000	26.28568000
97.09999441	0.00000000	43.76230000	26.32874000
97.29999440	0.00000000	46.46284000	25.17224000
97.49999439	0.00000000	47.25640000	23.22219000
97.69999438	0.00000000	46.50590000	20.57087000
97.89999436	0.00000000	44.13755000	18.29478000
98.09999435	0.00000000	40.64345000	17.50123000
98.29999434	0.00000000	36.41117000	17.78420000
98.49999433	0.00000000	32.54798000	18.57160000
98.69999432	0.00000000	30.21653000	19.36516000
98.89999430	0.00000000	29.42913000	20.52780000
99.09999429	0.00000000	30.63484000	21.64124000
99.29999428	0.00000000	33.66756000	22.05955000
99.49999427	0.00000000	37.53075000	22.10261000
99.69999426	0.00000000	41.01870000	22.10261000
99.89999425	0.00000000	43.76230000	22.10261000
100.09999423	0.00000000	45.30019000	22.14567000
100.29999422	0.00000000	45.34325000	22.52091000
100.49999421	0.00000000	44.18061000	23.21604000
100.69999420	0.00000000	42.22441000	23.21604000
100.89999419	0.00000000	39.48696000	22.43479000
101.09999417	0.00000000	36.41117000	21.26599000
101.29999416	0.00000000	33.71063000	19.32210000
101.49999415	0.00000000	32.17273000	17.45817000
101.69999414	0.00000000	32.12967000	16.29552000
101.89999413	0.00000000	33.29232000	16.29552000
102.09999411	0.00000000	35.20546000	17.45817000
102.29999410	0.00000000	37.57381000	19.40822000
102.49999409	0.00000000	39.90526000	22.10261000
102.69999408	0.00000000	42.22441000	24.79700000
102.89999407	0.00000000	43.71924000	26.70398000
103.09999406	0.00000000	43.76230000	27.49138000
103.29999404	0.00000000	42.64886000	26.70398000
103.49999403	0.00000000	41.11097000	24.79700000
103.69999402	0.00000000	39.48696000	22.05955000
103.89999401	0.00000000	37.57381000	18.98991000
104.09999400	0.00000000	35.67298000	16.29552000
104.29999398	0.00000000	34.87943000	14.80684000
104.49999397	0.00000000	34.83022000	15.18209000
104.69999396	0.00000000	35.29773000	17.45817000
104.89999395	0.00000000	36.83563000	20.52780000
105.09999394	0.00000000	39.06250000	23.59129000
105.29999392	0.00000000	40.64345000	25.91043000
105.49999391	0.00000000	41.44316000	26.70398000
105.69999390	0.00000000	41.85531000	26.37795000
105.89999389	0.00000000	41.44316000	25.17224000
106.09999388	0.00000000	40.69267000	23.22219000
106.29999387	0.00000000	39.48696000	20.57087000
106.49999385	0.00000000	37.99213000	18.29478000
106.69999384	0.00000000	36.87869000	17.50123000
106.89999383	0.00000000	36.87869000	17.87647000
107.09999382	0.00000000	37.94907000	19.40822000
107.29999381	0.00000000	39.11171000	21.68430000
107.49999379	0.00000000	39.90526000	23.59129000
107.69999378	0.00000000	40.69267000	24.79700000
107.89999377	0.00000000	41.01870000	25.17224000
108.09999376	0.00000000	40.64345000	24.75394000
108.29999375	0.00000000	39.48696000	23.22219000
108.49999374	0.00000000	37.99213000	20.98917000
108.69999372	0.00000000	36.83563000	19.45743000
108.89999371	0.00000000	36.46038000	18.98991000
109.09999370	0.00000000	36.83563000	18.98991000
109.29999369	0.00000000	37.99213000	19.45743000
109.49999368	0.00000000	39.48696000	20.94611000
109.69999366	0.00000000	40.64345000	22.84695000
109.89999365	0.00000000	41.11097000	24.01575000
110.09999364	0.00000000	41.48622000	24.79700000
110.29999363	0.00000000	41.80610000	24.75394000
110.49999362	0.00000000	41.01870000	23.64050000
110.69999360	0.00000000	39.57308000	22.10261000
110.89999359	0.00000000	38.36737000	20.52780000
111.09999358	0.00000000	37.57381000	19.03912000
111.29999357	0.00000000	36.83563000	18.25172000
111.49999356	0.00000000	36.83563000	18.57160000
111.69999355	0.00000000	37.57381000	18.94685000
111.89999353	0.00000000	38.32431000	19.41437000
112.09999352	0.00000000	39.11171000	20.52780000
112.29999351	0.00000000	39.53002000	21.68430000
112.49999350	0.00000000	39.94832000	22.47785000
112.69999349	0.00000000	40.64345000	23.21604000
112.89999347	0.00000000	40.64345000	23.21604000
113.09999346	0.00000000	39.94832000	22.52091000
113.29999345	0.00000000	39.53002000	22.14567000
113.49999344	0.00000000	39.11171000	22.10261000
113.69999343	0.00000000	38.36737000	22.05955000
113.89999341	0.00000000	37.99213000	21.68430000
114.09999340	0.00000000	37.99213000	20.94611000
114.29999339	0.00000000	38.36737000	20.57087000
114.49999338	0.00000000	39.11171000	20.52780000
114.69999337	0.00000000	39.48696000	20.48474000
114.89999336	0.00000000	39.53002000	20.15256000
115.09999334	0.00000000	39.53002000	19.78346000
115.29999333	0.00000000	39.53002000	20.15256000
115.49999332	0.00000000	39.53002000	20.52780000
115.69999331	0.00000000	39.53002000	20.98917000
115.89999330	0.00000000	39.48696000	22.10261000
116.09999328	0.00000000	39.11171000	23.21604000
116.29999327	0.00000000	38.36737000	23.64050000
116.49999326	0.00000000	37.99213000	23.68356000
116.69999325	0.00000000	37.99213000	23.64050000
116.89999324	0.00000000	38.36737000	23.21604000
117.09999322	0.00000000	39.11171000	22.10261000
117.29999321	0.00000000	39.53002000	20.98917000
117.49999320	0.00000000	39.94832000	20.52780000
117.69999319	0.00000000	40.69267000	20.10950000
117.89999318	0.00000000	41.06791000	19.36516000
118.09999317	0.00000000	41.11097000	19.03912000
118.29999315	0.00000000	41.06791000	19.41437000
118.49999314	0.00000000	40.64345000	20.52780000
118.69999313	0.00000000	39.53002000	21.68430000
118.89999312	0.00000000	38.36737000	22.47785000
119.09999311	0.00000000	37.57381000	23.26525000
119.29999309	0.00000000	36.83563000	23.64050000
119.49999308	0.00000000	36.83563000	23.68356000
119.69999307	0.00000000	37.57381000	23.64050000
119.89999306	0.00000000	38.36737000	23.26525000
120.09999305	0.00000000	39.57308000	22.52091000
120.29999303	0.00000000	41.06791000	22.10261000
120.49999302	0.00000000	42.22441000	21.68430000
120.69999301	0.00000000	42.59965000	20.94611000
120.89999300	0.00000000	42.27362000	20.57087000
121.09999299	0.00000000	41.48622000	20.52780000
121.29999298	0.00000000	40.69267000	20.52780000
121.49999296	0.00000000	39.53002000	20.57087000
121.69999295	0.00000000	38.36737000	20.94611000
121.89999294	0.00000000	37.57381000	21.68430000
122.09999293	0.00000000	36.83563000	22.10261000
122.29999292	0.00000000	36.83563000	22.52091000
122.49999290	0.00000000	37.57381000	23.26525000
122.69999289	0.00000000	38.36737000	23.64050000
122.89999288	0.00000000	39.53002000	23.68356000
123.09999287	0.00000000	40.69267000	23.64050000
123.29999286	0.00000000	41.48622000	23.26525000
123.49999284	0.00000000	42.22441000	22.52091000
123.69999283	0.00000000	42.22441000	22.10261000
123.89999282	0.00000000	41.52928000	21.68430000
124.09999281	0.00000000	41.11097000	20.94611000
124.29999280	0.00000000	40.69267000	20.57087000
124.49999279	0.00000000	39.90526000	20.57087000
124.69999277	0.00000000	39.15477000	20.94611000
124.89999276	0.00000000	38.36737000	21.68430000
125.09999275	0.00000000	37.99213000	22.05955000
125.29999274	0.00000000	37.99213000	22.14567000
125.49999273	0.00000000	38.36737000	22.52091000
125.69999271	0.00000000	39.15477000	23.26525000
125.89999270	0.00000000	39.90526000	23.64050000
126.09999269	0.00000000	40.69267000	23.68356000
126.29999268	0.00000000	41.11097000	23.64050000
126.49999267	0.00000000	41.52928000	23.26525000
126.69999265	0.00000000	42.22441000	22.52091000
126.89999264	0.00000000	42.18134000	22.10261000
127.09999263	0.00000000	41.11097000	21.68430000
127.29999262	0.00000000	39.94832000	20.94611000
127.49999261	0.00000000	39.15477000	20.57087000
127.69999260	0.00000000	38.36737000	20.57087000
127.89999258	0.00000000	37.99213000	20.94611000
128.09999257	0.00000000	37.99213000	21.68430000
128.29999256	0.00000000	38.41658000	22.05955000
128.49999255	0.00000000	39.53002000	22.10261000
128.69999254	0.00000000	40.64345000	22.10261000
128.89999252	0.00000000	41.11097000	22.10261000
129.09999251	0.00000000	41.48622000	22.10261000
129.29999250	0.00000000	41.80610000	22.05955000
129.49999249	0.00000000	41.06791000	21.68430000
129.69999248	0.00000000	39.94832000	20.94611000
129.89999246	0.00000000	39.15477000	20.57087000
130.09999245	0.00000000	38.36737000	20.57087000
130.29999244	0.00000000	37.99213000	20.94611000
130.49999243	0.00000000	37.99213000	21.68430000
130.69999242	0.00000000	38.36737000	22.05955000
130.89999241	0.00000000	39.15477000	22.10261000
131.09999239	0.00000000	39.90526000	22.10261000
131.29999238	0.00000000	40.69267000	22.05955000
131.49999237	0.00000000	41.06791000	21.68430000
131.69999236	0.00000000	41.06791000	20.94611000
131.89999235	0.00000000	40.69267000	20.57087000
132.09999233	0.00000000	39.94832000	20.52780000
132.29999232	0.00000000	39.57308000	20.52780000
132.49999231	0.00000000	39.48696000	20.52780000
132.69999230	0.00000000	39.15477000	20.57087000
132.89999229	0.00000000	38.78568000	20.94611000
133.09999227	0.00000000	39.15477000	21.68430000
133.29999226	0.00000000	39.48696000	22.10261000
133.49999225	0.00000000	39.53002000	22.52091000
133.69999224	0.00000000	39.53002000	23.21604000
133.89999223	0.00000000	39.53002000	23.21604000
134.09999222	0.00000000	39.53002000	22.47785000
134.29999220	0.00000000	39.53002000	21.72736000
134.49999219	0.00000000	39.53002000	20.94611000
134.69999218	0.00000000	39.57308000	20.52780000
134.89999217	0.00000000	39.94832000	20.15256000
135.09999216	0.00000000	40.69267000	19.78346000
135.29999214	0.00000000	41.06791000	20.19562000
135.49999213	0.00000000	41.11097000	20.90305000
135.69999212	0.00000000	41.06791000	21.68430000
135.89999211	0.00000000	40.69267000	22.10261000
136.09999210	0.00000000	39.90526000	22.52091000
136.29999208	0.00000000	39.15477000	23.26525000
136.49999207	0.00000000	38.36737000	23.59129000
136.69999206	0.00000000	38.04134000	23.30832000
136.89999205	0.00000000	38.36737000	22.89616000
137.09999204	0.00000000	39.15477000	22.84695000
137.29999203	0.00000000	39.90526000	22.05955000
137.49999201	0.00000000	40.73573000	20.98917000
137.69999200	0.00000000	41.48622000	20.57087000
137.89999199	0.00000000	42.22441000	20.52780000
138.09999198	0.00000000	42.22441000	20.52780000
138.29999197	0.00000000	41.48622000	20.57087000
138.49999195	0.00000000	40.73573000	20.94611000
138.69999194	0.00000000	39.94832000	21.68430000
138.89999193	0.00000000	39.57308000	22.10261000
139.09999192	0.00000000	39.53002000	22.52091000
139.29999191	0.00000000	39.53002000	23.26525000
139.49999189	0.00000000	39.57308000	23.64050000
139.69999188	0.00000000	39.94832000	23.68356000
139.89999187	0.00000000	40.69267000	23.64050000
140.09999186	0.00000000	41.06791000	23.26525000
140.29999185	0.00000000	41.11097000	22.47785000
140.49999184	0.00000000	41.11097000	21.72736000
140.69999182	0.00000000	41.11097000	20.94611000
140.89999181	0.00000000	41.06791000	20.57087000
141.09999180	0.00000000	40.69267000	20.57087000
141.29999179	0.00000000	39.94832000	20.98917000
141.49999178	0.00000000	39.57308000	22.05955000
141.69999176	0.00000000	39.53002000	22.84695000
141.89999175	0.00000000	39.57308000	22.89616000
142.09999174	0.00000000	39.94832000	23.30832000
142.29999173	0.00000000	40.69267000	23.64050000
142.49999172	0.00000000	41.06791000	23.68356000
142.69999170	0.00000000	41.11097000	23.64050000
142.89999169	0.00000000	41.11097000	23.21604000
143.09999168	0.00000000	41.06791000	22.10261000
143.29999167	0.00000000	40.69267000	20.98917000
143.49999166	0.00000000	39.99754000	20.57087000
143.69999165	0.00000000	39.94832000	20.52780000
143.89999163	0.00000000	40.31742000	20.57087000
144.09999162	0.00000000	40.32357000	20.94611000
144.29999161	0.00000000	40.73573000	21.72736000
144.49999160	0.00000000	41.06791000	22.47785000
144.69999159	0.00000000	41.15403000	23.26525000
144.89999157	0.00000000	41.48622000	23.64050000
145.09999156	0.00000000	41.85531000	23.64050000
145.29999155	0.00000000	41.48622000	23.26525000
145.49999154	0.00000000	41.11097000	22.52091000
145.69999153	0.00000000	40.69267000	22.10261000
145.89999151	0.00000000	39.94832000	21.68430000
146.09999150	0.00000000	39.57308000	20.94611000
146.29999149	0.00000000	39.57308000	20.57087000
146.49999148	0.00000000	39.94832000	20.57087000
146.69999147	0.00000000	40.69267000	20.94611000
146.89999146	0.00000000	41.06791000	21.68430000
147.09999144	0.00000000	41.11097000	22.05955000
147.29999143	0.00000000	41.11097000	22.10261000
147.49999142	0.00000000	41.11097000	22.14567000
147.69999141	0.00000000	41.11097000	22.47785000
147.89999140	0.00000000	41.11097000	22.89001000
148.09999138	0.00000000	41.06791000	22.85310000
148.29999137	0.00000000	40.69267000	22.89001000
148.49999136	0.00000000	39.94832000	22.47785000
148.69999135	0.00000000	39.62229000	22.14567000
148.89999134	0.00000000	39.94832000	22.05955000
149.09999132	0.00000000	40.69267000	21.68430000
149.29999131	0.00000000	41.06791000	20.98917000
149.49999130	0.00000000	41.11097000	20.98917000
149.69999129	0.00000000	41.11097000	21.68430000
149.89999128	0.00000000	41.11097000	22.05955000
150.09999127	0.00000000	41.11097000	22.14567000
150.29999125	0.00000000	41.11097000	22.52091000
150.49999124	0.00000000	41.11097000	23.21604000
150.69999123	0.00000000	41.11097000	23.26525000
150.89999122	0.00000000	41.06791000	22.89616000
151.09999121	0.00000000	40.73573000	22.89001000
151.29999119	0.00000000	40.36663000	22.47785000
151.49999118	0.00000000	40.73573000	22.14567000
151.69999117	0.00000000	41.06791000	22.10261000
151.89999116	0.00000000	41.11097000	22.10261000
152.09999115	0.00000000	41.11097000	22.10261000
152.29999113	0.00000000	41.15403000	22.10261000
152.49999112	0.00000000	41.48622000	22.10261000
152.69999111	0.00000000	41.89838000	22.10261000
152.89999110	0.00000000	41.90453000	22.10261000
153.09999109	0.00000000	42.27362000	22.14567000
153.29999108	0.00000000	42.22441000	22.52091000
153.49999106	0.00000000	41.52928000	23.26525000
153.69999105	0.00000000	41.15403000	23.64050000
153.89999104	0.00000000	41.11097000	23.68356000
154.09999103	0.00000000	41.06791000	23.68356000
154.29999102	0.00000000	40.73573000	23.64050000
154.49999100	0.00000000	40.36663000	23.26525000
154.69999099	0.00000000	40.73573000	22.52091000
154.89999098	0.00000000	41.06791000	22.14567000
155.09999097	0.00000000	41.15403000	22.10261000
155.29999096	0.00000000	41.52928000	22.10261000
155.49999094	0.00000000	42.27362000	22.10261000
155.69999093	0.00000000	42.64886000	22.10261000
155.89999092	0.00000000	42.64886000	22.10261000
156.09999091	0.00000000	42.27362000	22.14567000
156.29999090	0.00000000	41.52928000	22.52091000
156.49999089	0.00000000	41.15403000	23.26525000
156.69999087	0.00000000	41.11097000	23.64050000
156.89999086	0.00000000	41.06791000	23.68356000
157.09999085	0.00000000	40.73573000	23.68356000
157.29999084	0.00000000	40.36663000	23.68356000
157.49999083	0.00000000	40.73573000	23.64050000
157.69999081	0.00000000	41.06791000	23.26525000
157.89999080	0.00000000	41.15403000	22.52091000
158.09999079	0.00000000	41.52928000	22.14567000
158.29999078	0.00000000	42.27362000	22.10261000
158.49999077	0.00000000	42.64886000	22.10261000
158.69999075	0.00000000	42.69193000	22.10261000
158.89999074	0.00000000	42.64886000	22.10261000
159.09999073	0.00000000	42.27362000	22.14567000
159.29999072	0.00000000	41.52928000	22.52091000
159.49999071	0.00000000	41.15403000	23.26525000
159.69999070	0.00000000	41.11097000	23.64050000
159.89999068	0.00000000	41.11097000	23.64050000
160.09999067	0.00000000	41.11097000	23.26525000
160.29999066	0.00000000	41.11097000	22.52091000
160.49999065	0.00000000	41.11097000	22.14567000
160.69999064	0.00000000	41.11097000	22.10261000
160.89999062	0.00000000	41.11097000	22.10261000
161.09999061	0.00000000	41.11097000	22.10261000
161.29999060	0.00000000	41.11097000	22.10261000
161.49999059	0.00000000	41.11097000	22.10261000
161.69999058	0.00000000	41.11097000	22.10261000
161.89999056	0.00000000	41.15403000	22.10261000
162.09999055	0.00000000	41.48622000	22.10261000
162.29999054	0.00000000	41.85531000	22.10261000
162.49999053	0.00000000	41.48622000	22.10261000
162.69999052	0.00000000	41.15403000	22.10261000
162.89999051	0.00000000	41.11097000	22.10261000
163.09999049	0.00000000	41.11097000	22.10261000
163.29999048	0.00000000	41.11097000	22.10261000
163.49999047	0.00000000	41.11097000	22.10261000
163.69999046	0.00000000	41.11097000	22.10261000
163.89999045	0.00000000	41.11097000	22.10261000
164.09999043	0.00000000	41.11097000	22.10261000
164.29999042	0.00000000	41.11097000	22.10261000
164.49999041	0.00000000	41.11097000	22.05955000
164.69999040	0.00000000	41.15403000	21.72736000
164.89999039	0.00000000	41.57849000	21.36442000
165.09999037	0.00000000	42.59965000	21.72736000
165.29999036	0.00000000	42.96875000	22.05955000
165.49999035	0.00000000	41.90453000	22.10261000
165.69999034	0.00000000	41.20325000	22.10261000
165.89999033	0.00000000	41.11097000	22.10261000
166.09999032	0.00000000	41.11097000	22.10261000
166.29999030	0.00000000	41.11097000	22.10261000
166.49999029	0.00000000	41.11097000	22.14567000
166.69999028	0.00000000	41.11097000	22.47785000
166.89999027	0.00000000	41.11097000	22.84695000
167.09999026	0.00000000	41.11097000	22.47785000
167.29999024	0.00000000	41.15403000	22.14567000
167.49999023	0.00000000	41.52928000	22.10261000
167.69999022	0.00000000	42.27362000	22.14567000
167.89999021	0.00000000	42.64886000	22.47785000
168.09999020	0.00000000	42.69193000	22.84695000
168.29999018	0.00000000	42.69193000	22.52091000
168.49999017	0.00000000	42.64886000	22.52091000
168.69999016	0.00000000	42.31668000	22.89001000
168.89999015	0.00000000	41.90453000	22.89616000
169.09999014	0.00000000	41.94144000	23.30832000
169.29999013	0.00000000	41.86147000	23.64050000
169.49999011	0.00000000	41.89838000	23.68356000
169.69999010	0.00000000	41.48622000	23.68356000
169.89999009	0.00000000	41.15403000	23.68356000
170.09999008	0.00000000	41.15403000	23.68356000
170.29999007	0.00000000	41.52928000	23.64050000
170.49999005	0.00000000	42.22441000	23.26525000
170.69999004	0.00000000	42.27362000	22.52091000
170.89999003	0.00000000	41.94759000	22.14567000
171.09999002	0.00000000	42.31668000	22.10261000
171.29999001	0.00000000	42.64886000	22.10261000
171.49998999	0.00000000	42.69193000	22.10261000
171.69998998	0.00000000	42.64886000	22.10261000
171.89998997	0.00000000	42.31668000	22.10261000
172.09998996	0.00000000	41.94759000	22.10261000
172.29998995	0.00000000	42.27362000	22.10261000
172.49998994	0.00000000	42.22441000	22.10261000
172.69998992	0.00000000	41.52928000	22.10261000
172.89998991	0.00000000	41.20325000	22.14567000
173.09998990	0.00000000	41.52928000	22.47785000
173.29998989	0.00000000	42.27362000	22.84695000
173.49998988	0.00000000	42.59965000	22.47785000
173.69998986	0.00000000	42.27362000	22.14567000
173.89998985	0.00000000	41.57849000	22.10261000
174.09998984	0.00000000	41.57849000	22.10261000
174.29998983	0.00000000	42.27362000	22.10261000
174.49998982	0.00000000	42.59965000	22.10261000
174.69998980	0.00000000	42.31668000	22.10261000
174.89998979	0.00000000	41.94759000	22.10261000
175.09998978	0.00000000	42.27362000	22.14567000
175.29998977	0.00000000	42.27362000	22.47785000
175.49998976	0.00000000	41.94759000	22.89001000
175.69998975	0.00000000	42.31668000	22.89616000
175.89998973	0.00000000	42.64886000	23.30832000
176.09998972	0.00000000	42.69193000	23.59129000
176.29998971	0.00000000	42.69193000	23.26525000
176.49998970	0.00000000	42.69193000	22.57013000
176.69998969	0.00000000	42.69193000	22.52091000
176.89998967	0.00000000	42.69193000	22.84695000
177.09998966	0.00000000	42.69193000	22.47785000
177.29998965	0.00000000	42.69193000	22.14567000
177.49998964	0.00000000	42.64886000	22.10261000
177.69998963	0.00000000	42.31668000	22.10261000
177.89998961	0.00000000	41.94759000	22.10261000
178.09998960	0.00000000	42.27362000	22.10261000
178.29998959	0.00000000	42.27362000	22.10261000
178.49998958	0.00000000	41.94759000	22.10261000
178.69998957	0.00000000	42.27362000	22.14567000
178.89998956	0.00000000	42.27362000	22.47785000
179.09998954	0.00000000	41.94759000	22.84695000
179.29998953	0.00000000	42.27362000	22.47785000
179.49998952	0.00000000	42.27362000	22.14567000
179.69998951	0.00000000	41.94759000	22.10261000
179.89998950	0.00000000	42.31668000	22.10261000
180.09998948	0.00000000	42.64886000	22.10261000
180.29998947	0.00000000	42.69193000	22.10261000
180.49998946	0.00000000	42.64886000	22.10261000
180.69998945	0.00000000	42.31668000	22.10261000
180.89998944	0.00000000	41.90453000	22.10261000
181.09998942	0.00000000	41.94144000	22.14567000
181.29998941	0.00000000	41.90453000	22.47785000
181.49998940	0.00000000	42.31668000	22.89001000
181.69998939	0.00000000	42.64886000	22.85310000
181.89998938	0.00000000	42.69193000	22.93307000
182.09998937	0.00000000	42.69193000	22.85310000
182.29998935	0.00000000	42.69193000	22.89001000
182.49998934	0.00000000	42.69193000	22.47785000
182.69998933	0.00000000	42.69193000	22.14567000
182.89998932	0.00000000	42.69193000	22.10261000
183.09998931	0.00000000	42.69193000	22.10261000
183.29998929	0.00000000	42.69193000	22.10261000
183.49998928	0.00000000	42.69193000	22.14567000
183.69998927	0.00000000	42.64886000	22.52091000
183.89998926	0.00000000	42.31668000	23.26525000
184.09998925	0.00000000	41.94759000	23.64050000
184.29998923	0.00000000	42.31668000	23.68356000
184.49998922	0.00000000	42.64886000	23.68356000
184.69998921	0.00000000	42.69193000	23.68356000
184.89998920	0.00000000	42.69193000	23.68356000
185.09998919	0.00000000	42.73499000	23.68356000
185.29998918	0.00000000	43.06717000	23.68356000
185.49998916	0.00000000	43.43627000	23.68356000
185.69998915	0.00000000	43.06717000	23.68356000
185.89998914	0.00000000	42.73499000	23.64050000
186.09998913	0.00000000	42.69193000	23.26525000
186.29998912	0.00000000	42.69193000	22.52091000
186.49998910	0.00000000	42.69193000	22.19488000
186.69998909	0.00000000	42.69193000	22.52091000
186.89998908	0.00000000	42.69193000	23.26525000
187.09998907	0.00000000	42.69193000	23.64050000
187.29998906	0.00000000	42.69193000	23.72662000
187.49998904	0.00000000	42.69193000	24.05881000
187.69998903	0.00000000	42.69193000	24.47096000
187.89998902	0.00000000	42.69193000	24.43405000
188.09998901	0.00000000	42.69193000	24.47096000
188.29998900	0.00000000	42.73499000	24.05881000
188.49998899	0.00000000	43.06717000	23.72662000
188.69998897	0.00000000	43.43627000	23.64050000
188.89998896	0.00000000	43.06717000	23.26525000
189.09998895	0.00000000	42.73499000	22.52091000
189.29998894	0.00000000	42.69193000	22.14567000
189.49998893	0.00000000	42.69193000	22.10261000
189.69998891	0.00000000	42.69193000	22.14567000
189.89998890	0.00000000	42.69193000	22.52091000
190.09998889	0.00000000	42.69193000	23.26525000
190.29998888	0.00000000	42.69193000	23.64050000
190.49998887	0.00000000	42.69193000	23.68356000
190.69998885	0.00000000	42.69193000	23.68356000
190.89998884	0.00000000	42.69193000	23.68356000
191.09998883	0.00000000	42.69193000	23.68356000
191.29998882	0.00000000	42.69193000	23.68356000
191.49998881	0.00000000	42.69193000	23.64050000
191.69998880	0.00000000	42.69193000	23.26525000
191.89998878	0.00000000	42.69193000	22.52091000
192.09998877	0.00000000	42.69193000	22.14567000
192.29998876	0.00000000	42.69193000	22.10261000
192.49998875	0.00000000	42.69193000	22.10261000
192.69998874	0.00000000	42.69193000	22.10261000
192.89998872	0.00000000	42.69193000	22.10261000
193.09998871	0.00000000	42.69193000	22.10261000
193.29998870	0.00000000	42.69193000	22.14567000
193.49998869	0.00000000	42.69193000	22.52091000
193.69998868	0.00000000	42.69193000	23.26525000
193.89998866	0.00000000	42.69193000	23.64050000
194.09998865	0.00000000	42.69193000	23.68356000
194.29998864	0.00000000	42.69193000	23.68356000
194.49998863	0.00000000	42.69193000	23.68356000
194.69998862	0.00000000	42.69193000	23.64050000
194.89998861	0.00000000	42.69193000	23.26525000
195.09998859	0.00000000	42.69193000	22.52091000
195.29998858	0.00000000	42.69193000	22.14567000
195.49998857	0.00000000	42.69193000	22.10261000
195.69998856	0.00000000	42.69193000	22.10261000
195.89998855	0.00000000	42.69193000	22.14567000
196.09998853	0.00000000	42.69193000	22.47785000
