Time	Channel A	Channel B	Channel C
(us)	(V)	(mV)	(mV)

-4.49999956	0.00000000	7.90477300	7.89247000
-4.29999957	0.00000000	7.94783400	7.89247000
-4.09999958	0.00000000	8.28001900	7.89247000
-3.89999959	0.00000000	8.64911400	7.89247000
-3.69999960	0.00000000	8.28001900	7.89247000
-3.49999962	0.00000000	7.94783400	7.89247000
-3.29999963	0.00000000	7.90477300	7.89247000
-3.09999964	0.00000000	7.94783400	7.89247000
-2.89999965	0.00000000	8.28001900	7.89247000
-2.69999966	0.00000000	8.64911400	7.89247000
-2.49999968	0.00000000	8.28001900	7.89247000
-2.29999969	0.00000000	7.94783400	7.89247000
-2.09999970	0.00000000	7.94783400	7.89247000
-1.89999971	0.00000000	8.28001900	7.89247000
-1.69999972	0.00000000	8.64911400	7.89247000
-1.49999973	0.00000000	8.28001900	7.89247000
-1.29999975	0.00000000	7.94783400	7.89247000
-1.09999976	0.00000000	7.90477300	7.89247000
-0.89999977	0.00000000	7.90477300	7.89247000
-0.69999978	0.00000000	7.90477300	7.89247000
-0.49999979	0.00000000	7.90477300	7.89247000
-0.29999981	0.15871060	7.90477300	7.89247000
-0.09999982	0.63668800	7.90477300	7.89247000
0.10000017	0.95533960	7.90477300	7.89247000
0.30000016	1.11466500	7.90477300	7.89247000
0.50000015	0.95533960	7.90477300	7.89247000
0.70000013	0.47736220	7.90477300	7.89247000
0.90000012	-0.31803640	7.90477300	7.89247000
1.10000011	-1.27399100	7.90477300	7.89247000
1.30000010	-2.22994600	7.90477300	7.89247000
1.50000009	-2.70792300	7.90477300	7.89247000
1.70000008	-2.54859700	7.94783400	7.89247000
1.90000006	-1.59264300	8.28001900	7.89247000
2.10000005	0.15871060	8.64911400	7.89247000
2.30000004	2.38927200	8.28001900	7.89247000
2.50000003	4.14124000	7.94783400	7.89247000
2.70000002	5.25652100	7.90477300	7.84940900
2.90000000	4.93786900	7.90477300	7.47416300
3.09999999	3.34522600	7.90477300	6.72982200
3.29999998	0.47736220	7.90477300	6.40378900
3.49999997	-2.86724900	7.90477300	6.72982200
3.69999996	-6.05315000	7.90477300	7.47416300
3.89999994	-7.80511800	7.94783400	7.84940900
4.09999993	-7.64579200	8.32308000	7.89247000
4.29999992	-5.57517200	9.06742000	7.89247000
4.49999991	-1.91129400	9.44266700	7.89247000
4.69999990	2.54859700	9.44266700	7.89247000
4.89999989	6.69045300	9.06742000	7.89247000
5.09999987	9.07972400	8.32308000	7.84940900
5.29999986	9.23905000	7.94783400	7.47416300
5.49999985	7.16781500	7.86171200	6.72982200
5.69999984	3.18590100	7.52952700	6.35457700
5.89999983	-1.59264300	7.20964500	6.35457700
6.09999981	-6.05315000	7.90477300	6.72982200
6.29999980	-8.76107300	8.64911400	7.47416300
6.49999979	-9.39837600	8.65526600	7.84940900
6.69999978	-7.64579200	8.69217500	7.89247000
6.89999977	-4.14124000	8.28001900	7.89247000
7.09999975	0.31803640	7.94783400	7.89247000
7.29999974	4.14124000	7.90477300	7.89247000
7.49999973	7.00848900	7.90477300	7.89247000
7.69999972	7.80511800	7.90477300	7.84940900
7.89999971	6.53112700	7.90477300	7.47416300
8.09999970	3.98191400	7.90477300	6.77903500
8.29999968	0.79601380	7.90477300	6.77903500
8.49999967	-2.38927200	7.90477300	7.47416300
8.69999966	-4.45989200	7.90477300	7.84940900
8.89999965	-5.25652100	7.90477300	7.89247000
9.09999964	-4.61921700	7.90477300	7.89247000
9.29999962	-3.02657500	7.90477300	7.89247000
9.49999961	-0.95533960	7.94783400	7.89247000
9.69999960	0.79601380	8.28001900	7.89247000
9.89999959	2.07062000	8.64911400	7.89247000
10.09999958	2.54859700	8.28001900	7.89247000
10.29999956	2.38927200	7.94783400	7.89247000
10.49999955	1.59264300	7.90477300	7.84940900
10.69999954	0.63668800	7.90477300	7.51722400
10.89999953	-0.15871060	7.90477300	7.14812900
11.09999952	-0.63668800	7.90477300	7.51722400
11.29999951	-0.95533960	7.90477300	7.84940900
11.49999949	-0.95533960	7.90477300	7.89247000
11.69999948	-0.79601380	7.90477300	7.89247000
11.89999947	-0.47736220	7.90477300	7.89247000
12.09999946	-0.15871060	7.90477300	7.89247000
12.29999945	-0.15871060	7.90477300	7.89247000
12.49999943	-0.15871060	7.90477300	7.89247000
12.69999942	0.00000000	7.90477300	7.89247000
12.89999941	0.00000000	7.90477300	7.89247000
13.09999940	0.00000000	7.90477300	7.89247000
13.29999939	0.00000000	7.90477300	7.89247000
13.49999937	0.00000000	7.90477300	7.89247000
13.69999936	0.00000000	7.90477300	7.89247000
13.89999935	0.00000000	7.94783400	7.89247000
14.09999934	-0.15871060	8.28001900	7.89247000
14.29999933	-0.15871060	8.64911400	7.89247000
14.49999932	-0.15871060	8.28001900	7.89247000
14.69999930	-0.15871060	7.94783400	7.89247000
14.89999929	0.00000000	7.90477300	7.89247000
15.09999928	0.00000000	7.90477300	7.89247000
15.29999927	0.00000000	7.94783400	7.89247000
15.49999926	0.00000000	8.28001900	7.89247000
15.69999924	0.00000000	8.64911400	7.89247000
15.89999923	0.00000000	8.28001900	7.89247000
16.09999922	0.00000000	7.94783400	7.89247000
16.29999921	0.00000000	7.94783400	7.89247000
16.49999920	-0.15871060	8.32308000	7.89247000
16.69999919	-0.15871060	9.06742000	7.89247000
16.89999917	-0.15871060	9.44266700	7.89247000
17.09999916	0.00000000	9.48572700	7.89247000
17.29999915	0.00000000	9.52879000	7.89247000
17.49999914	0.00000000	9.86097400	7.89247000
17.69999913	0.00000000	10.23007000	7.89247000
17.89999911	0.00000000	9.81791200	7.89247000
18.09999910	0.00000000	9.06742000	7.89247000
18.29999909	0.00000000	7.86171200	7.89247000
18.49999908	0.00000000	6.32381900	7.89247000
18.69999907	0.00000000	4.78592500	7.89247000
18.89999905	0.00000000	3.67249000	7.89247000
19.09999904	0.00000000	3.67249000	7.89247000
19.29999903	0.00000000	4.83513700	7.89247000
19.49999902	0.00000000	6.83439900	7.89247000
19.69999901	0.00000000	9.95324800	7.89247000
19.89999900	0.00000000	13.81028000	7.89247000
20.09999898	0.00000000	17.25517000	7.89247000
20.29999897	0.00000000	19.53125000	7.89247000
20.49999896	0.00000000	19.44513000	7.89247000
20.69999895	0.00000000	16.32628000	7.89247000
20.89999894	0.00000000	10.51304000	7.89247000
21.09999892	0.00000000	3.16190900	7.89247000
21.29999891	0.00000000	-4.18922200	7.89247000
21.49999890	0.00000000	-9.95939900	7.89247000
21.69999889	0.00000000	-12.56767000	7.89247000
21.89999888	0.00000000	-10.51919000	7.89247000
22.09999886	0.00000000	-3.12500000	7.89247000
22.29999885	0.00000000	8.41535400	7.89247000
22.49999884	0.00000000	21.20448000	7.89247000
22.69999883	0.00000000	32.37574000	7.89247000
22.89999882	0.00000000	39.63459000	7.89247000
23.09999881	-0.15871060	39.91757000	7.93553100
23.29999879	0.00000000	32.56643000	8.31077700
23.49999878	0.00000000	18.97761000	9.05511800
23.69999877	0.00000000	1.58095500	9.43036400
23.89999876	0.00000000	-15.77264000	9.47342500
24.09999875	0.00000000	-28.85088000	9.43036400
24.29999873	0.00000000	-34.19660000	9.00590400
24.49999872	0.00000000	-29.87205000	7.84940900
24.69999871	0.00000000	-16.28937000	6.31151500
24.89999870	0.00000000	4.22613100	4.73671200
25.09999869	0.00000000	27.30684000	3.19881900
25.29999867	0.00000000	46.98573000	2.08538400
25.49999866	0.00000000	58.15699000	2.08538400
25.69999865	-0.15871060	58.52608000	3.29109200
25.89999864	0.00000000	47.26870000	5.61638700
26.09999863	0.00000000	26.79626000	9.14124000
26.29999862	0.00000000	1.67322800	12.96137000
26.49999860	0.00000000	-22.57013000	16.48622000
26.69999859	0.00000000	-39.54847000	18.71924000
26.89999858	0.00000000	-45.04183000	19.04527000
27.09999857	0.00000000	-38.85334000	16.25861000
27.29999856	0.00000000	-22.19488000	10.49459000
27.49999854	0.00000000	1.71628900	3.15575800
27.69999853	0.00000000	26.79626000	-4.18307100
27.89999852	0.00000000	47.31176000	-9.99015700
28.09999851	0.00000000	58.89518000	-12.96752000
28.29999850	0.00000000	58.94439000	-11.75566000
28.49999848	0.00000000	47.77928000	-5.49335600
28.69999847	0.00000000	28.51255000	4.50295200
28.89999846	0.00000000	5.71481200	16.52928000
29.09999845	0.00000000	-15.16978000	27.63902000
29.29999844	0.00000000	-29.92126000	35.34695000
29.49999843	0.00000000	-35.78371000	37.26009000
29.69999841	0.00000000	-31.92052000	32.94168000
29.89999840	0.00000000	-19.58661000	22.85310000
30.09999839	0.00000000	-1.48868100	8.13238100
30.29999838	0.00000000	17.44587000	-7.62180000
30.49999837	0.00000000	32.98474000	-21.13681000
30.69999835	0.00000000	42.70423000	-28.80782000
30.89999834	0.00000000	44.66043000	-28.80782000
31.09999833	0.00000000	38.93332000	-21.05069000
31.29999832	0.00000000	27.34990000	-6.74212600
31.49999831	0.00000000	12.69070000	11.00517000
31.69999829	0.00000000	-1.63016700	28.38337000
31.89999828	0.00000000	-12.51845000	41.52928000
32.09999827	0.00000000	-18.38090000	47.71161000
32.29999826	0.00000000	-18.38090000	45.76156000
32.49999825	0.00000000	-12.61073000	35.72219000
32.69999824	0.00000000	-2.56520700	19.92495000
32.89999822	0.00000000	9.35039300	2.08538400
33.09999821	0.00000000	20.18332000	-14.54847000
33.29999820	0.00000000	27.16535000	-26.85777000
33.49999819	0.00000000	29.58292000	-31.45915000
33.69999818	0.00000000	27.25763000	-27.31914000
33.89999816	0.00000000	21.11220000	-16.12328000
34.09999815	0.00000000	12.60458000	-0.64591530
34.29999814	0.00000000	3.75861200	16.35089000
34.49999813	0.00000000	-3.16806100	30.98548000
34.69999812	0.00000000	-6.28690900	39.95448000
34.89999810	0.00000000	-5.16732200	41.90453000
35.09999809	0.00000000	-0.60900590	36.84178000
35.29999808	0.00000000	5.94857300	25.31373000
35.49999807	0.00000000	12.46924000	10.31004000
35.69999806	0.00000000	17.48893000	-3.95546200
35.89999805	0.00000000	19.39591000	-14.86836000
36.09999803	0.00000000	17.95029000	-20.21407000
36.29999802	0.00000000	14.09326000	-19.09449000
36.49999801	0.00000000	9.11048200	-11.38656000
36.69999800	0.00000000	4.09079700	0.46751960
36.89999799	-0.15871060	0.59670270	13.14591000
37.09999797	0.00000000	-0.93503930	23.13607000
37.29999796	0.00000000	-0.09842519	27.82972000
37.49999795	0.00000000	3.71555100	26.71629000
37.69999794	0.00000000	9.01820900	20.57702000
37.89999793	0.00000000	13.63189000	11.00517000
38.09999791	0.00000000	16.41855000	1.06422200
38.29999790	0.00000000	17.21210000	-6.23154500
38.49999789	0.00000000	16.41855000	-8.92593500
38.69999788	0.00000000	13.71801000	-6.23154500
38.89999787	0.00000000	9.86097400	1.01501000
39.09999786	0.00000000	5.99163300	10.54380000
39.29999784	0.00000000	2.46678100	19.00221000
39.49999783	0.00000000	0.17839570	23.97884000
39.69999782	0.00000000	-0.60900590	24.34178000
39.89999781	0.00000000	0.55364170	19.32825000
40.09999780	0.00000000	3.20497000	10.54380000
40.29999778	0.00000000	6.36687900	0.59670270
40.49999777	0.00000000	9.90403500	-7.43725300
40.69999776	0.00000000	13.71801000	-10.92520000
40.89999775	0.00000000	16.41855000	-9.38730200
41.09999774	0.00000000	17.25517000	-3.21112200
41.29999772	0.00000000	16.87992000	6.36072800
41.49999771	0.00000000	15.29897000	16.30167000
41.69999770	0.00000000	12.60458000	23.64665000
41.89999769	0.00000000	9.48572700	26.75935000
42.09999768	0.00000000	6.36687900	25.22145000
42.29999767	0.00000000	3.67249000	19.46358000
42.49999765	0.00000000	2.09153500	11.00517000
42.69999764	0.00000000	1.71628900	2.17765700
42.89999763	0.00000000	2.46678100	-4.78592500
43.09999762	0.00000000	4.41067900	-8.27386800
43.29999761	0.00000000	6.69906400	-7.89862200
43.49999759	0.00000000	9.06742000	-3.67249000
43.69999758	0.00000000	10.97441000	3.15575800
43.89999757	0.00000000	12.18012000	10.07628000
44.09999756	0.00000000	12.60458000	15.14518000
44.29999755	0.00000000	12.64764000	17.92569000
44.49999753	0.00000000	12.60458000	18.30093000
44.69999752	0.00000000	12.22933000	16.39395000
44.89999751	0.00000000	11.48499000	12.53691000
45.09999750	0.00000000	11.06668000	7.98474400
45.29999749	0.00000000	10.59916000	4.08464600
45.49999748	0.00000000	9.39345400	1.75319900
45.69999746	0.00000000	7.43725300	0.92888770
45.89999745	0.00000000	4.69980300	1.71013800
46.09999744	0.00000000	1.67322800	3.61712600
46.29999743	0.00000000	-0.65206690	6.31151500
46.49999742	0.00000000	-1.35334600	9.00590400
46.69999740	0.00000000	-0.14148620	10.96211000
46.89999739	0.00000000	3.75861200	12.16166000
47.09999738	0.00000000	9.52879000	12.53691000
47.29999737	0.00000000	15.71727000	12.11860000
47.49999736	0.00000000	21.11220000	10.53765000
47.69999734	0.00000000	24.18799000	7.89247000
47.89999733	0.00000000	24.13878000	5.19808000
48.09999732	0.00000000	20.60162000	3.24803100
48.29999731	0.00000000	13.63189000	2.08538400
48.49999730	0.00000000	4.78592500	2.12844500
48.69999729	0.00000000	-3.67864200	3.66633800
48.89999727	0.00000000	-9.44881800	6.36072800
49.09999726	0.00000000	-10.98671000	9.42421200
49.29999725	0.00000000	-7.86786400	12.16781000
49.49999724	0.00000000	-0.51673230	14.07480000
49.69999723	0.00000000	9.44266700	14.81299000
49.89999721	0.00000000	19.11294000	13.65650000
50.09999720	0.00000000	26.05192000	10.96211000
50.29999719	0.00000000	29.15846000	7.47416300
50.49999718	0.00000000	27.16535000	3.62327700
50.69999717	0.00000000	20.65084000	0.59670270
50.89999715	0.00000000	11.02362000	-0.60285430
51.09999714	0.00000000	1.06422200	0.17839570
51.29999713	0.00000000	-6.28690900	2.50369100
51.49999712	0.00000000	-9.40575800	6.35457700
51.69999711	0.00000000	-7.86786400	10.58686000
51.89999710	0.00000000	-2.09768700	14.07480000
52.09999708	0.00000000	6.32381900	16.35089000
52.29999707	0.00000000	14.78838000	16.35089000
52.49999706	0.00000000	20.97687000	14.07480000
52.69999705	0.00000000	23.67741000	10.62992000
52.89999704	0.00000000	22.09646000	6.72982200
53.09999702	0.00000000	16.41855000	3.29109200
53.29999701	0.00000000	8.74138700	0.97194880
53.49999700	0.00000000	1.80856300	0.59670270
53.69999699	0.00000000	-3.21112200	2.08538400
53.89999698	0.00000000	-4.66289300	4.77977300
54.09999696	0.00000000	-1.67938000	7.84940900
54.29999695	0.00000000	4.41067900	10.49459000
54.49999694	0.00000000	10.93135000	11.70029000
54.69999693	0.00000000	16.36934000	11.33120000
54.89999692	0.00000000	19.44513000	10.21161000
55.09999691	0.00000000	19.44513000	8.26771600
55.29999689	0.00000000	16.36934000	6.40378900
55.49999688	0.00000000	11.02362000	5.29035400
55.69999687	0.00000000	5.25344500	5.66560000
55.89999686	0.00000000	0.64591530	7.56643700
56.09999685	0.00000000	-1.67938000	9.79945900
56.29999683	0.00000000	-0.89197830	11.74951000
56.49999682	0.00000000	2.50984200	12.45079000
56.69999681	0.00000000	7.52952700	11.65723000
56.89999680	0.00000000	12.51230000	8.96284400
57.09999679	0.00000000	16.36934000	5.19808000
57.29999677	0.00000000	17.95029000	2.08538400
57.49999676	0.00000000	17.16289000	0.13533460
57.69999675	0.00000000	14.50541000	-0.55979330
57.89999674	0.00000000	10.23622000	1.06422200
58.09999673	0.00000000	6.04084600	5.29035400
58.29999672	0.00000000	2.55290300	11.00517000
58.49999670	0.00000000	1.06422200	16.35089000
58.69999669	0.00000000	2.13459600	19.46358000
58.89999668	0.00000000	4.78592500	19.83883000
59.09999667	0.00000000	7.86171200	17.46432000
59.29999666	0.00000000	10.59916000	12.07554000
59.49999664	0.00000000	12.51230000	5.20423200
59.69999663	0.00000000	13.29970000	-0.97810030
59.89999662	0.00000000	12.55536000	-5.20423200
60.09999661	0.00000000	11.02362000	-6.32381900
60.29999660	0.00000000	9.06742000	-3.62942900
60.49999658	0.00000000	6.79133800	2.12844500
60.69999657	0.00000000	5.29650500	9.47342500
60.89999656	0.00000000	5.25344500	16.76919000
61.09999655	0.00000000	6.36687900	22.15797000
61.29999654	0.00000000	7.90477300	24.06496000
61.49999653	0.00000000	9.48572700	22.10876000
61.69999651	0.00000000	10.97441000	16.35089000
61.89999650	0.00000000	11.71875000	8.31077700
62.09999649	0.00000000	10.97441000	0.59670270
62.29999648	0.00000000	9.48572700	-5.25344500
62.49999647	0.00000000	7.90477300	-8.27386800
62.69999645	0.00000000	6.36687900	-7.52952700
62.89999644	0.00000000	5.25344500	-2.88508800
63.09999643	0.00000000	5.25344500	3.99237200
63.29999642	0.00000000	6.41609200	11.74951000
63.49999641	0.00000000	8.32308000	18.25787000
63.69999639	0.00000000	10.59916000	22.15797000
63.89999638	0.00000000	12.13706000	22.53322000
64.09999637	0.00000000	12.55536000	19.50664000
64.29999636	0.00000000	12.18012000	14.11786000
64.49999635	0.00000000	11.02362000	7.93553100
64.69999634	0.00000000	9.48572700	2.12844500
64.89999632	0.00000000	7.90477300	-2.14074800
65.09999631	0.00000000	6.41609200	-4.09079700
65.29999630	0.00000000	5.62869100	-3.76476400
65.49999629	0.00000000	6.04084600	-1.39640700
65.69999628	0.00000000	7.16043300	2.41756900
65.89999626	0.00000000	9.06742000	7.05585600
66.09999625	0.00000000	10.55610000	10.96211000
66.29999624	0.00000000	10.97441000	14.11786000
66.49999623	0.00000000	10.59916000	16.39395000
66.69999622	0.00000000	9.44266700	16.81225000
66.89999620	0.00000000	7.94783400	15.74188000
67.09999619	0.00000000	6.79133800	14.16092000
67.29999618	0.00000000	6.41609200	12.16781000
67.49999617	0.00000000	6.79133800	9.38115100
67.69999616	0.00000000	7.99704600	5.93626900
67.89999615	0.00000000	9.90403500	2.41141700
68.09999613	0.00000000	12.18012000	-0.28297240
68.29999612	0.00000000	13.71801000	-2.22687000
68.49999611	0.00000000	14.09326000	-2.55905500
68.69999610	0.00000000	13.25664000	-0.97810030
68.89999609	0.00000000	10.55610000	2.50369100
69.09999607	0.00000000	6.74212600	7.51722400
69.29999606	0.00000000	3.25418300	12.53691000
69.49999605	0.00000000	0.55364170	16.85531000
69.69999604	0.00000000	-0.51673230	19.88189000
69.89999603	0.00000000	1.02116100	20.57702000
70.09999601	0.00000000	4.92125900	17.92569000
70.29999600	0.00000000	10.27928000	12.96137000
70.49999599	0.00000000	16.04331000	7.51722400
70.69999598	0.00000000	19.86343000	2.04232300
70.89999597	0.00000000	21.11220000	-2.51599400
71.09999596	0.00000000	19.90650000	-4.82898600
71.29999594	0.00000000	16.36934000	-4.04773600
71.49999593	0.00000000	10.59916000	-0.64591530
71.69999592	0.00000000	4.09079700	4.41067900
71.89999591	0.00000000	-0.98425190	9.75639700
72.09999590	0.00000000	-4.09694900	14.43775000
72.29999588	0.00000000	-4.79207600	17.09523000
72.49999587	0.00000000	-2.09768700	17.55044000
72.69999586	0.00000000	3.25418300	15.60654000
72.89999585	0.00000000	9.44266700	12.21087000
73.09999584	0.00000000	15.25591000	8.35998900
73.29999582	0.00000000	19.48819000	5.29035400
73.49999581	0.00000000	21.06914000	3.70939900
73.69999580	0.00000000	19.90650000	3.66633800
73.89999579	0.00000000	16.41855000	4.77977300
74.09999578	0.00000000	11.02362000	6.31151500
74.29999577	0.00000000	5.29650500	7.84940900
74.49999575	0.00000000	1.06422200	8.96284400
74.69999574	0.00000000	-0.55979330	8.91978400
74.89999573	0.00000000	0.13533460	7.47416300
75.09999572	0.00000000	2.09153500	5.61638700
75.29999571	0.00000000	5.21038300	4.82898600
75.49999569	0.00000000	9.06742000	4.82898600
75.69999568	0.00000000	12.51230000	5.66560000
75.89999567	0.00000000	14.83760000	8.02780400
76.09999566	0.00000000	15.25591000	11.42347000
76.29999565	0.00000000	14.13632000	14.81299000
76.49999563	0.00000000	12.22933000	16.30167000
76.69999562	0.00000000	9.90403500	15.18824000
76.89999561	0.00000000	8.04010800	12.11860000
77.09999560	0.00000000	7.20964500	7.84940900
77.29999559	0.00000000	7.52952700	3.20497000
77.49999558	0.00000000	7.90477300	-0.97810030
77.69999556	0.00000000	8.28001900	-3.29724400
77.89999555	0.00000000	8.64911400	-2.93430100
78.09999554	0.00000000	8.23695900	-0.55979330
78.29999553	0.00000000	7.52952700	4.08464600
78.49999552	0.00000000	6.74212600	10.16855000
78.69999550	0.00000000	6.41609200	15.18824000
78.89999549	0.00000000	6.79133800	18.35015000
79.09999548	0.00000000	7.94783400	19.46358000
79.29999547	0.00000000	9.48572700	17.93184000
79.49999546	0.00000000	11.06668000	14.07480000
79.69999544	0.00000000	12.60458000	9.09817800
79.89999543	0.00000000	13.71801000	4.04158400
80.09999542	0.00000000	13.67495000	0.22760820
80.29999541	0.00000000	12.13706000	-1.76550200
80.49999540	0.00000000	9.44266700	-1.39640700
80.69999539	0.00000000	6.41609200	0.46751960
80.89999537	0.00000000	4.04773600	3.19881900
81.09999536	0.00000000	2.92199800	6.31151500
81.29999535	0.00000000	2.92814900	9.42421200
81.49999534	0.00000000	4.83513700	12.16781000
81.69999533	0.00000000	7.52952700	14.11786000
81.89999531	0.00000000	10.23622000	15.27436000
82.09999530	0.00000000	12.92446000	15.23130000
82.29999529	0.00000000	14.05020000	13.74262000
82.49999528	0.00000000	13.76107000	11.42347000
82.69999527	0.00000000	12.55536000	9.05511800
82.89999525	0.00000000	10.64838000	6.31151500
83.09999524	0.00000000	8.32308000	3.61712600
83.29999523	0.00000000	6.41609200	1.66707700
83.49999522	0.00000000	5.25344500	0.51058070
83.69999521	0.00000000	5.21038300	0.51058070
83.89999520	0.00000000	5.94857300	1.71013800
84.09999518	0.00000000	6.74212600	4.03543200
84.29999517	0.00000000	7.90477300	7.51722400
84.49999516	0.00000000	9.01820900	11.00517000
84.69999515	0.00000000	9.44266700	14.11786000
84.89999514	0.00000000	9.48572700	16.39395000
85.09999512	0.00000000	9.48572700	16.76919000
85.29999511	0.00000000	9.48572700	15.23130000
85.49999510	0.00000000	9.48572700	12.11860000
85.69999509	0.00000000	9.52879000	7.84940900
85.89999508	0.00000000	9.86097400	3.24803100
86.09999506	0.00000000	10.23007000	-0.55979330
86.29999505	0.00000000	9.81791200	-2.13459600
86.49999504	0.00000000	9.06742000	-1.35334600
86.69999503	0.00000000	7.90477300	1.34719500
86.89999502	0.00000000	6.74212600	5.93626900
87.09999501	0.00000000	5.99163300	10.53765000
87.29999499	0.00000000	5.57947800	14.07480000
87.49999498	0.00000000	6.04084600	16.39395000
87.69999497	0.00000000	7.16043300	16.71998000
87.89999496	0.00000000	9.06742000	14.81299000
88.09999495	0.00000000	10.59916000	10.95595000
88.29999493	0.00000000	11.44193000	6.35457700
88.49999492	0.00000000	12.18012000	2.12844500
88.69999491	0.00000000	12.13706000	-0.51673230
88.89999490	0.00000000	11.02362000	-0.51673230
89.09999489	0.00000000	9.48572700	2.12844500
89.29999487	0.00000000	7.94783400	6.31151500
89.49999486	0.00000000	6.79133800	10.58686000
89.69999485	0.00000000	6.36687900	14.07480000
89.89999484	0.00000000	6.36687900	16.35089000
90.09999483	0.00000000	6.79133800	16.30167000
90.29999482	0.00000000	7.94783400	13.65650000
90.49999480	0.00000000	9.44266700	9.43036400
90.69999479	0.00000000	10.59916000	4.82898600
90.89999478	0.00000000	10.97441000	0.97194880
91.09999477	0.00000000	10.64838000	-0.93503930
91.29999476	0.00000000	9.90403500	-0.55979330
91.49999474	0.00000000	9.52879000	2.17765700
91.69999473	0.00000000	9.48572700	6.72982200
91.89999472	0.00000000	9.44266700	11.70029000
92.09999471	0.00000000	9.11048200	15.18824000
92.29999470	0.00000000	8.74138700	16.71998000
92.49999468	0.00000000	9.11048200	15.92642000
92.69999467	0.00000000	9.39345400	12.49385000
92.89999466	0.00000000	9.01820900	7.93553100
93.09999465	0.00000000	7.90477300	3.62327700
93.29999464	0.00000000	6.79133800	0.22145670
93.49999463	0.00000000	6.36687900	-1.29798200
93.69999461	0.00000000	6.36687900	0.22145670
93.89999460	0.00000000	6.79133800	3.62327700
94.09999459	0.00000000	7.99704600	7.89247000
94.29999458	0.00000000	9.90403500	12.11860000
94.49999457	0.00000000	12.22933000	15.18824000
94.69999455	0.00000000	14.09326000	16.30167000
94.89999454	0.00000000	14.88066000	14.76993000
95.09999453	0.00000000	14.09326000	11.00517000
95.29999452	0.00000000	12.18012000	6.77903500
95.49999451	0.00000000	9.44266700	3.29109200
95.69999449	0.00000000	6.36687900	0.97194880
95.89999448	0.00000000	3.62942900	0.59670270
96.09999447	0.00000000	1.71628900	2.12844500
96.29999446	0.00000000	1.02116100	5.19808000
96.49999445	0.00000000	2.55290300	9.00590400
96.69999444	0.00000000	5.99163300	12.07554000
96.89999442	0.00000000	9.86097400	13.61343000
97.09999441	0.00000000	13.76107000	13.28125000
97.29999440	0.00000000	16.79380000	11.38041000
97.49999439	0.00000000	17.95029000	9.09817800
97.69999438	0.00000000	16.83686000	6.72982200
97.89999436	0.00000000	14.13632000	4.82283400
98.09999435	0.00000000	10.64838000	3.66633800
98.29999434	0.00000000	6.74212600	3.66633800
98.49999433	0.00000000	3.29724400	4.77977300
98.69999432	0.00000000	0.97194880	6.31151500
98.89999430	0.00000000	0.55364170	7.84940900
99.09999429	0.00000000	1.71628900	9.00590400
99.29999428	0.00000000	4.09079700	9.43036400
99.49999427	0.00000000	7.90477300	9.47342500
99.69999426	0.00000000	11.76181000	9.47342500
99.89999425	0.00000000	14.51156000	9.47342500
100.09999423	0.00000000	16.46161000	9.47342500
100.29999422	0.00000000	16.79380000	9.47342500
100.49999421	0.00000000	15.29897000	9.47342500
100.69999420	0.00000000	12.60458000	9.43036400
100.89999419	0.00000000	9.52879000	9.00590400
101.09999417	0.00000000	6.79133800	7.84940900
101.29999416	0.00000000	4.78592500	6.31151500
101.49999415	0.00000000	3.25418300	4.77977300
101.69999414	0.00000000	2.50984200	3.62327700
101.89999413	0.00000000	3.29724400	3.29109200
102.09999411	0.00000000	5.16117100	4.08464600
102.29999410	0.00000000	7.52952700	6.36072800
102.49999409	0.00000000	9.86097400	9.05511800
102.69999408	0.00000000	12.18012000	11.38041000
102.89999407	0.00000000	13.67495000	13.32431000
103.09999406	0.00000000	13.71801000	13.98253000
103.29999404	0.00000000	12.64764000	12.95522000
103.49999403	0.00000000	11.44193000	10.59916000
103.69999402	0.00000000	10.23007000	8.26156400
103.89999401	0.00000000	8.28001900	5.15501900
104.09999400	0.00000000	6.41609200	2.54675200
104.29999398	0.00000000	5.21038300	1.71013800
104.49999397	0.00000000	4.83513700	2.08538400
104.69999396	0.00000000	5.21038300	3.66633800
104.89999395	0.00000000	6.41609200	6.36072800
105.09999394	0.00000000	8.28001900	9.42421200
105.29999392	0.00000000	10.18086000	12.07554000
105.49999391	0.00000000	10.97441000	13.23819000
105.69999390	0.00000000	11.06668000	12.53691000
105.89999389	0.00000000	11.02362000	11.00517000
106.09999388	0.00000000	10.59916000	9.05511800
106.29999387	0.00000000	9.44266700	6.72982200
106.49999385	0.00000000	7.94783400	4.87204700
106.69999384	0.00000000	6.83439900	4.04158400
106.89999383	0.00000000	6.83439900	4.45374000
107.09999382	0.00000000	7.90477300	5.57332700
107.29999381	0.00000000	9.06742000	7.51722400
107.49999379	0.00000000	9.81791200	9.38115100
107.69999378	0.00000000	10.23007000	10.53765000
107.89999377	0.00000000	9.86097400	10.53765000
108.09999376	0.00000000	9.48572700	9.42421200
108.29999375	0.00000000	9.06742000	7.89247000
108.49999374	0.00000000	8.28001900	6.36072800
108.69999372	0.00000000	7.52952700	5.19808000
108.89999371	0.00000000	6.79133800	4.82898600
109.09999370	0.00000000	6.83439900	5.19808000
109.29999369	0.00000000	7.90477300	6.36072800
109.49999368	0.00000000	9.06742000	7.89247000
109.69999366	0.00000000	9.86097400	9.42421200
109.89999365	0.00000000	10.64838000	10.58686000
110.09999364	0.00000000	11.02362000	10.95595000
110.29999363	0.00000000	11.02362000	10.58686000
110.49999362	0.00000000	10.59916000	9.42421200
110.69999360	0.00000000	9.48572700	7.93553100
110.89999359	0.00000000	8.32308000	6.72982200
111.09999358	0.00000000	7.52952700	5.93626900
111.29999357	0.00000000	6.79133800	5.15501900
111.49999356	0.00000000	6.79133800	4.82898600
111.69999355	0.00000000	7.52952700	5.19808000
111.89999353	0.00000000	8.28001900	6.31151500
112.09999352	0.00000000	9.06742000	7.47416300
112.29999351	0.00000000	9.44266700	8.26771600
112.49999350	0.00000000	9.48572700	9.05511800
112.69999349	0.00000000	9.48572700	9.43036400
112.89999347	0.00000000	9.48572700	9.47342500
113.09999346	0.00000000	9.44266700	9.43036400
113.29999345	0.00000000	9.11048200	9.05511800
113.49999344	0.00000000	8.69832600	8.31077700
113.69999343	0.00000000	8.69217500	7.93553100
113.89999341	0.00000000	8.28001900	7.84940900
114.09999340	0.00000000	7.99704600	7.47416300
114.29999339	0.00000000	8.32308000	6.72982200
114.49999338	0.00000000	9.06742000	6.35457700
114.69999337	0.00000000	9.44266700	6.31151500
114.89999336	0.00000000	9.48572700	6.31151500
115.09999334	0.00000000	9.48572700	6.31151500
115.29999333	0.00000000	9.48572700	6.35457700
115.49999332	0.00000000	9.48572700	6.72982200
115.69999331	0.00000000	9.48572700	7.51722400
115.89999330	0.00000000	9.44266700	8.26771600
116.09999328	0.00000000	9.06742000	9.05511800
116.29999327	0.00000000	8.32308000	9.43036400
116.49999326	0.00000000	7.94783400	9.47342500
116.69999325	0.00000000	7.90477300	9.43036400
116.89999324	0.00000000	7.94783400	9.05511800
117.09999322	0.00000000	8.32308000	8.26771600
117.29999321	0.00000000	9.06742000	7.51722400
117.49999320	0.00000000	9.48572700	6.68676100
117.69999319	0.00000000	9.90403500	5.98548200
117.89999318	0.00000000	10.64838000	5.57332700
118.09999317	0.00000000	10.97441000	5.93626900
118.29999315	0.00000000	10.64838000	6.31151500
118.49999314	0.00000000	9.86097400	6.77903500
118.69999313	0.00000000	9.06742000	7.89247000
118.89999312	0.00000000	7.90477300	9.00590400
119.09999311	0.00000000	6.79133800	9.43036400
119.29999309	0.00000000	6.36687900	9.47342500
119.49999308	0.00000000	6.36687900	9.47342500
119.69999307	0.00000000	6.74212600	9.43036400
119.89999306	0.00000000	7.57258800	9.05511800
120.09999305	0.00000000	8.69832600	8.31077700
120.29999303	0.00000000	10.27313000	7.89247000
120.49999302	0.00000000	11.34966000	7.47416300
120.69999301	0.00000000	11.81102000	6.72982200
120.89999300	0.00000000	11.39887000	6.35457700
121.09999299	0.00000000	10.69144000	6.31151500
121.29999298	0.00000000	9.86097400	6.35457700
121.49999296	0.00000000	9.06742000	6.72982200
121.69999295	0.00000000	7.90477300	7.47416300
121.89999294	0.00000000	6.79133800	7.84940900
122.09999293	0.00000000	6.36687900	7.89247000
122.29999292	0.00000000	6.36687900	7.89247000
122.49999290	0.00000000	6.79133800	7.93553100
122.69999289	0.00000000	7.90477300	8.31077700
122.89999288	0.00000000	9.06742000	9.05511800
123.09999287	0.00000000	9.86097400	9.38115100
123.29999286	0.00000000	10.64838000	9.05511800
123.49999284	0.00000000	11.02362000	8.31077700
123.69999283	0.00000000	11.06668000	7.93553100
123.89999282	0.00000000	11.02362000	7.84940900
124.09999281	0.00000000	10.64838000	7.47416300
124.29999280	0.00000000	9.86097400	6.77903500
124.49999279	0.00000000	9.06742000	6.72982200
124.69999277	0.00000000	7.90477300	7.09891700
124.89999276	0.00000000	6.79133800	7.10506800
125.09999275	0.00000000	6.36687900	7.51722400
125.29999274	0.00000000	6.36687900	7.84940900
125.49999273	0.00000000	6.74212600	7.93553100
125.69999271	0.00000000	7.52952700	8.31077700
125.89999270	0.00000000	8.32308000	9.05511800
126.09999269	0.00000000	9.48572700	9.38115100
126.29999268	0.00000000	10.59916000	9.05511800
126.49999267	0.00000000	11.02362000	8.31077700
126.69999265	0.00000000	11.06668000	7.93553100
126.89999264	0.00000000	11.02362000	7.84940900
127.09999263	0.00000000	10.59916000	7.47416300
127.29999262	0.00000000	9.44266700	6.72982200
127.49999261	0.00000000	7.94783400	6.35457700
127.69999260	0.00000000	6.79133800	6.35457700
127.89999258	0.00000000	6.41609200	6.72982200
128.09999257	0.00000000	6.79133800	7.47416300
128.29999256	0.00000000	7.90477300	7.84940900
128.49999255	0.00000000	9.06742000	7.93553100
128.69999254	0.00000000	9.86097400	8.26771600
128.89999252	0.00000000	10.64838000	8.63681000
129.09999251	0.00000000	11.02362000	8.26771600
129.29999250	0.00000000	11.02362000	7.93553100
129.49999249	0.00000000	10.59916000	7.84940900
129.69999248	0.00000000	9.44266700	7.47416300
129.89999246	0.00000000	7.94783400	6.72982200
130.09999245	0.00000000	6.79133800	6.40378900
130.29999244	0.00000000	6.41609200	6.72982200
130.49999243	0.00000000	6.74212600	7.47416300
130.69999242	0.00000000	7.52952700	7.84940900
130.89999241	0.00000000	8.32308000	7.89247000
131.09999239	0.00000000	9.48572700	7.89247000
131.29999238	0.00000000	10.59916000	7.89247000
131.49999237	0.00000000	11.02362000	7.89247000
131.69999236	0.00000000	11.02362000	7.84940900
131.89999235	0.00000000	10.64838000	7.47416300
132.09999233	0.00000000	9.86097400	6.72982200
132.29999232	0.00000000	9.11048200	6.35457700
132.49999231	0.00000000	8.32308000	6.35457700
132.69999230	0.00000000	7.94783400	6.72982200
132.89999229	0.00000000	7.94783400	7.51722400
133.09999227	0.00000000	8.32308000	8.26771600
133.29999226	0.00000000	9.06742000	9.05511800
133.49999225	0.00000000	9.44266700	9.43036400
133.69999224	0.00000000	9.48572700	9.47342500
133.89999223	0.00000000	9.48572700	9.43036400
134.09999222	0.00000000	9.48572700	9.05511800
134.29999220	0.00000000	9.44266700	8.26771600
134.49999219	0.00000000	9.11048200	7.51722400
134.69999218	0.00000000	8.74138700	6.72982200
134.89999217	0.00000000	9.11048200	6.35457700
135.09999216	0.00000000	9.44266700	6.31151500
135.29999214	0.00000000	9.52879000	6.35457700
135.49999213	0.00000000	9.86097400	6.72982200
135.69999212	0.00000000	10.23007000	7.47416300
135.89999211	0.00000000	9.81791200	7.89247000
136.09999210	0.00000000	9.11048200	8.31077700
136.29999208	0.00000000	8.32308000	9.05511800
136.49999207	0.00000000	7.94783400	9.38115100
136.69999206	0.00000000	7.90477300	9.05511800
136.89999205	0.00000000	7.94783400	8.31077700
137.09999204	0.00000000	8.32308000	7.93553100
137.29999203	0.00000000	9.11048200	7.89247000
137.49999201	0.00000000	9.86097400	7.84940900
137.69999200	0.00000000	10.64838000	7.47416300
137.89999199	0.00000000	10.97441000	6.72982200
138.09999198	0.00000000	10.64838000	6.35457700
138.29999197	0.00000000	9.86097400	6.35457700
138.49999195	0.00000000	9.11048200	6.72982200
138.69999194	0.00000000	8.32308000	7.47416300
138.89999193	0.00000000	7.94783400	7.84940900
139.09999192	0.00000000	7.90477300	7.93553100
139.29999191	0.00000000	7.90477300	8.31077700
139.49999189	0.00000000	7.94783400	9.05511800
139.69999188	0.00000000	8.32308000	9.43036400
139.89999187	0.00000000	9.06742000	9.43036400
140.09999186	0.00000000	9.44266700	9.05511800
140.29999185	0.00000000	9.48572700	8.26771600
140.49999184	0.00000000	9.48572700	7.51722400
140.69999182	0.00000000	9.48572700	6.68676100
140.89999181	0.00000000	9.44266700	5.98548200
141.09999180	0.00000000	9.06742000	5.57332700
141.29999179	0.00000000	8.32308000	5.98548200
141.49999178	0.00000000	7.99704600	6.68676100
141.69999176	0.00000000	8.32308000	7.51722400
141.89999175	0.00000000	9.06742000	8.26771600
142.09999174	0.00000000	9.44266700	9.05511800
142.29999173	0.00000000	9.48572700	9.43036400
142.49999172	0.00000000	9.48572700	9.47342500
142.69999170	0.00000000	9.48572700	9.43036400
142.89999169	0.00000000	9.44266700	9.00590400
143.09999168	0.00000000	9.11048200	7.89247000
143.29999167	0.00000000	8.74138700	6.77903500
143.49999166	0.00000000	9.06742000	6.35457700
143.69999165	0.00000000	9.06742000	6.31151500
143.89999163	0.00000000	8.74138700	6.35457700
144.09999162	0.00000000	9.11048200	6.72982200
144.29999161	0.00000000	9.44266700	7.51722400
144.49999160	0.00000000	9.48572700	8.26771600
144.69999159	0.00000000	9.48572700	9.05511800
144.89999157	0.00000000	9.48572700	9.43036400
145.09999156	0.00000000	9.48572700	9.47342500
145.29999155	0.00000000	9.44266700	9.43036400
145.49999154	0.00000000	9.06742000	9.05511800
145.69999153	0.00000000	8.32308000	8.31077700
145.89999151	0.00000000	7.94783400	7.89247000
146.09999150	0.00000000	7.94783400	7.47416300
146.29999149	0.00000000	8.32308000	6.72982200
146.49999148	0.00000000	9.06742000	6.40378900
146.69999147	0.00000000	9.44266700	6.72982200
146.89999146	0.00000000	9.52879000	7.47416300
147.09999144	0.00000000	9.86097400	7.84940900
147.29999143	0.00000000	10.23007000	7.93553100
147.49999142	0.00000000	9.86097400	8.26771600
147.69999141	0.00000000	9.52879000	8.67987200
147.89999140	0.00000000	9.44266700	8.64296200
148.09999138	0.00000000	9.06742000	8.67987200
148.29999137	0.00000000	8.32308000	8.26771600
148.49999136	0.00000000	7.94783400	7.89247000
148.69999135	0.00000000	7.90477300	7.47416300
148.89999134	0.00000000	7.94783400	6.77903500
149.09999132	0.00000000	8.32308000	6.72982200
149.29999131	0.00000000	9.06742000	7.05585600
149.49999130	0.00000000	9.44266700	6.72982200
149.69999129	0.00000000	9.48572700	6.77903500
149.89999128	0.00000000	9.48572700	7.47416300
150.09999127	0.00000000	9.48572700	7.84940900
150.29999125	0.00000000	9.48572700	7.93553100
150.49999124	0.00000000	9.44266700	8.31077700
150.69999123	0.00000000	9.06742000	9.00590400
150.89999122	0.00000000	8.32308000	9.00590400
151.09999121	0.00000000	7.94783400	8.31077700
151.29999119	0.00000000	7.94783400	7.93553100
151.49999118	0.00000000	8.32308000	7.89247000
151.69999117	0.00000000	9.06742000	7.89247000
151.89999116	0.00000000	9.44266700	7.84940900
152.09999115	0.00000000	9.48572700	7.51722400
152.29999113	0.00000000	9.48572700	7.14812900
152.49999112	0.00000000	9.48572700	7.51722400
152.69999111	0.00000000	9.52879000	7.89247000
152.89999110	0.00000000	9.86097400	8.26771600
153.09999109	0.00000000	10.23007000	8.63681000
153.29999108	0.00000000	9.81791200	8.26771600
153.49999106	0.00000000	9.11048200	7.98474400
153.69999105	0.00000000	8.32308000	8.26771600
153.89999104	0.00000000	7.94783400	8.63681000
154.09999103	0.00000000	7.90477300	8.26771600
154.29999102	0.00000000	7.90477300	7.93553100
154.49999100	0.00000000	7.90477300	7.89247000
154.69999099	0.00000000	7.94783400	7.89247000
154.89999098	0.00000000	8.32308000	7.89247000
155.09999097	0.00000000	9.06742000	7.89247000
155.29999096	0.00000000	9.48572700	7.89247000
155.49999094	0.00000000	9.90403500	7.89247000
155.69999093	0.00000000	10.59916000	7.89247000
155.89999092	0.00000000	10.59916000	7.93553100
156.09999091	0.00000000	9.90403500	8.26771600
156.29999090	0.00000000	9.52879000	8.67987200
156.49999089	0.00000000	9.44266700	8.68602300
156.69999087	0.00000000	9.06742000	9.05511800
156.89999086	0.00000000	8.32308000	9.00590400
157.09999085	0.00000000	7.94783400	8.31077700
157.29999084	0.00000000	7.90477300	7.93553100
157.49999083	0.00000000	7.94783400	7.89247000
157.69999081	0.00000000	8.32308000	7.89247000
157.89999080	0.00000000	9.06742000	7.84940900
158.09999079	0.00000000	9.44266700	7.47416300
158.29999078	0.00000000	9.48572700	6.72982200
158.49999077	0.00000000	9.48572700	6.40378900
158.69999075	0.00000000	9.48572700	6.72982200
158.89999074	0.00000000	9.48572700	7.47416300
159.09999073	0.00000000	9.48572700	7.84940900
159.29999072	0.00000000	9.48572700	7.93553100
159.49999071	0.00000000	9.44266700	8.26771600
159.69999070	0.00000000	9.06742000	8.67987200
159.89999068	0.00000000	8.32308000	8.64296200
160.09999067	0.00000000	7.94783400	8.67987200
160.29999066	0.00000000	7.94783400	8.26771600
160.49999065	0.00000000	8.32308000	7.93553100
160.69999064	0.00000000	9.06742000	7.89247000
160.89999062	0.00000000	9.44266700	7.89247000
161.09999061	0.00000000	9.48572700	7.84940900
161.29999060	0.00000000	9.48572700	7.51722400
161.49999059	0.00000000	9.48572700	7.14812900
161.69999058	0.00000000	9.48572700	7.51722400
161.89999056	0.00000000	9.48572700	7.84940900
162.09999055	0.00000000	9.48572700	7.89247000
162.29999054	0.00000000	9.48572700	7.89247000
162.49999053	0.00000000	9.48572700	7.93553100
162.69999052	0.00000000	9.44266700	8.26771600
162.89999051	0.00000000	9.06742000	8.63681000
163.09999049	0.00000000	8.32308000	8.26771600
163.29999048	0.00000000	7.94783400	7.93553100
163.49999047	0.00000000	7.90477300	7.89247000
163.69999046	0.00000000	7.90477300	7.89247000
163.89999045	0.00000000	7.94783400	7.89247000
164.09999043	0.00000000	8.32308000	7.89247000
164.29999042	0.00000000	9.06742000	7.89247000
164.49999041	0.00000000	9.44266700	7.89247000
164.69999040	0.00000000	9.48572700	7.89247000
164.89999039	0.00000000	9.48572700	7.89247000
165.09999037	0.00000000	9.48572700	7.89247000
165.29999036	0.00000000	9.48572700	7.89247000
165.49999035	0.00000000	9.48572700	7.89247000
165.69999034	0.00000000	9.44266700	7.89247000
165.89999033	0.00000000	9.06742000	7.89247000
166.09999032	0.00000000	8.37229300	7.93553100
166.29999030	0.00000000	8.32308000	8.26771600
166.49999029	0.00000000	8.64911400	8.63681000
166.69999028	0.00000000	8.32308000	8.26771600
166.89999027	0.00000000	8.37229300	7.93553100
167.09999026	0.00000000	9.06742000	7.89247000
167.29999024	0.00000000	9.44266700	7.89247000
167.49999023	0.00000000	9.48572700	7.89247000
167.69999022	0.00000000	9.48572700	7.89247000
167.89999021	0.00000000	9.48572700	7.89247000
168.09999020	0.00000000	9.48572700	7.89247000
168.29999018	0.00000000	9.48572700	7.89247000
168.49999017	0.00000000	9.48572700	7.89247000
168.69999016	0.00000000	9.48572700	7.89247000
168.89999015	0.00000000	9.48572700	7.89247000
169.09999014	0.00000000	9.48572700	7.89247000
169.29999013	0.00000000	9.48572700	7.93553100
169.49999011	0.00000000	9.48572700	8.26771600
169.69999010	0.00000000	9.48572700	8.63681000
169.89999009	0.00000000	9.48572700	8.26771600
170.09999008	0.00000000	9.48572700	7.93553100
170.29999007	0.00000000	9.48572700	7.89247000
170.49999005	0.00000000	9.48572700	7.89247000
170.69999004	0.00000000	9.48572700	7.89247000
170.89999003	0.00000000	9.48572700	7.89247000
171.09999002	0.00000000	9.48572700	7.89247000
171.29999001	0.00000000	9.48572700	7.89247000
171.49998999	0.00000000	9.48572700	7.89247000
171.69998998	0.00000000	9.48572700	7.89247000
171.89998997	0.00000000	9.48572700	7.89247000
172.09998996	0.00000000	9.48572700	7.89247000
172.29998995	0.00000000	9.48572700	7.89247000
172.49998994	0.00000000	9.48572700	7.89247000
172.69998992	0.00000000	9.44266700	7.89247000
172.89998991	0.00000000	9.06742000	7.89247000
173.09998990	0.00000000	8.37229300	7.89247000
173.29998989	0.00000000	8.37229300	7.89247000
173.49998988	0.00000000	9.06742000	7.89247000
173.69998986	0.00000000	9.44266700	7.89247000
173.89998985	0.00000000	9.48572700	7.89247000
174.09998984	0.00000000	9.48572700	7.89247000
174.29998983	0.00000000	9.48572700	7.89247000
174.49998982	0.00000000	9.48572700	7.89247000
174.69998980	0.00000000	9.48572700	7.89247000
174.89998979	0.00000000	9.48572700	7.89247000
175.09998978	0.00000000	9.48572700	7.89247000
175.29998977	0.00000000	9.48572700	7.89247000
175.49998976	0.00000000	9.48572700	7.89247000
175.69998975	0.00000000	9.48572700	7.89247000
175.89998973	0.00000000	9.48572700	7.89247000
176.09998972	0.00000000	9.48572700	7.89247000
176.29998971	0.00000000	9.48572700	7.89247000
176.49998970	0.00000000	9.48572700	7.89247000
176.69998969	0.00000000	9.48572700	7.89247000
176.89998967	0.00000000	9.48572700	7.89247000
177.09998966	0.00000000	9.48572700	7.89247000
177.29998965	0.00000000	9.48572700	7.89247000
177.49998964	0.00000000	9.48572700	7.89247000
177.69998963	0.00000000	9.48572700	7.89247000
177.89998961	0.00000000	9.48572700	7.89247000
178.09998960	0.00000000	9.48572700	7.89247000
178.29998959	0.00000000	9.48572700	7.89247000
178.49998958	0.00000000	9.48572700	7.89247000
178.69998957	0.00000000	9.48572700	7.89247000
178.89998956	0.00000000	9.48572700	7.89247000
179.09998954	0.00000000	9.48572700	7.89247000
179.29998953	0.00000000	9.48572700	7.89247000
179.49998952	0.00000000	9.48572700	7.89247000
179.69998951	0.00000000	9.48572700	7.89247000
179.89998950	0.00000000	9.48572700	7.89247000
180.09998948	0.00000000	9.48572700	7.89247000
180.29998947	0.00000000	9.48572700	7.89247000
180.49998946	0.00000000	9.48572700	7.89247000
180.69998945	0.00000000	9.48572700	7.89247000
180.89998944	0.00000000	9.48572700	7.89247000
181.09998942	0.00000000	9.48572700	7.89247000
181.29998941	0.00000000	9.48572700	7.89247000
181.49998940	0.00000000	9.48572700	7.89247000
181.69998939	0.00000000	9.48572700	7.89247000
181.89998938	0.00000000	9.48572700	7.89247000
182.09998937	0.00000000	9.48572700	7.89247000
182.29998935	0.00000000	9.48572700	7.89247000
182.49998934	0.00000000	9.48572700	7.89247000
182.69998933	0.00000000	9.48572700	7.84940900
182.89998932	0.00000000	9.48572700	7.51722400
183.09998931	0.00000000	9.48572700	7.14812900
183.29998929	0.00000000	9.48572700	7.51722400
183.49998928	0.00000000	9.48572700	7.84940900
183.69998927	0.00000000	9.48572700	7.89247000
183.89998926	0.00000000	9.48572700	7.89247000
184.09998925	0.00000000	9.48572700	7.89247000
184.29998923	0.00000000	9.48572700	7.89247000
184.49998922	0.00000000	9.48572700	7.93553100
184.69998921	0.00000000	9.48572700	8.26771600
184.89998920	0.00000000	9.48572700	8.63681000
185.09998919	0.00000000	9.48572700	8.26771600
185.29998918	0.00000000	9.48572700	7.93553100
185.49998916	0.00000000	9.48572700	7.89247000
185.69998915	0.00000000	9.48572700	7.89247000
185.89998914	0.00000000	9.48572700	7.84940900
186.09998913	0.00000000	9.48572700	7.51722400
186.29998912	0.00000000	9.48572700	7.14812900
186.49998910	0.00000000	9.48572700	7.47416300
186.69998909	0.00000000	9.48572700	7.47416300
186.89998908	0.00000000	9.48572700	7.19734200
187.09998907	0.00000000	9.44266700	7.89247000
187.29998906	0.00000000	9.06742000	8.63681000
187.49998904	0.00000000	8.37229300	8.64296200
187.69998903	0.00000000	8.37229300	8.67987200
187.89998902	0.00000000	9.06742000	8.26771600
188.09998901	0.00000000	9.44266700	7.93553100
188.29998900	0.00000000	9.48572700	7.89247000
188.49998899	0.00000000	9.48572700	7.89247000
188.69998897	0.00000000	9.48572700	7.89247000
188.89998896	0.00000000	9.48572700	7.84940900
189.09998895	0.00000000	9.48572700	7.51722400
189.29998894	0.00000000	9.48572700	7.14812900
189.49998893	0.00000000	9.48572700	7.51722400
189.69998891	0.00000000	9.48572700	7.84940900
189.89998890	0.00000000	9.48572700	7.89247000
190.09998889	0.00000000	9.44266700	7.89247000
190.29998888	0.00000000	9.11048200	7.89247000
190.49998887	0.00000000	8.74138700	7.89247000
190.69998885	0.00000000	9.11048200	7.89247000
190.89998884	0.00000000	9.44266700	7.89247000
191.09998883	0.00000000	9.48572700	7.89247000
191.29998882	0.00000000	9.48572700	7.89247000
191.49998881	0.00000000	9.48572700	7.89247000
191.69998880	0.00000000	9.48572700	7.89247000
191.89998878	0.00000000	9.48572700	7.89247000
192.09998877	0.00000000	9.48572700	7.89247000
192.29998876	0.00000000	9.48572700	7.89247000
192.49998875	0.00000000	9.48572700	7.89247000
192.69998874	0.00000000	9.48572700	7.89247000
192.89998872	0.00000000	9.48572700	7.89247000
193.09998871	0.00000000	9.48572700	7.89247000
193.29998870	0.00000000	9.48572700	7.89247000
193.49998869	0.00000000	9.48572700	7.89247000
193.69998868	0.00000000	9.48572700	7.89247000
193.89998866	0.00000000	9.48572700	7.89247000
194.09998865	0.00000000	9.48572700	7.89247000
194.29998864	0.00000000	9.48572700	7.89247000
194.49998863	0.00000000	9.48572700	7.89247000
194.69998862	0.00000000	9.48572700	7.89247000
194.89998861	0.00000000	9.48572700	7.89247000
195.09998859	0.00000000	9.48572700	7.89247000
195.29998858	0.00000000	9.48572700	7.89247000
195.49998857	0.00000000	9.48572700	7.89247000
195.69998856	0.00000000	9.44266700	7.89247000
195.89998855	0.00000000	9.11048200	7.89247000
196.09998853	0.00000000	8.69832600	7.89247000
