Time	Channel A	Channel B	Channel C
(us)	(V)	(mV)	(mV)

-4.49999956	0.00000000	1.11343500	4.73671200
-4.29999957	0.00000000	1.16264800	4.73671200
-4.09999958	0.00000000	0.79355310	4.73671200
-3.89999959	0.00000000	0.83046260	4.73671200
-3.69999960	0.00000000	0.75049200	4.73671200
-3.49999962	0.00000000	0.78740150	4.73671200
-3.29999963	0.00000000	0.41830710	4.73671200
-3.09999964	0.00000000	0.46751960	4.73671200
-2.89999965	0.00000000	1.16264800	4.73671200
-2.69999966	0.00000000	1.48868100	4.73671200
-2.49999968	0.00000000	1.16264800	4.73671200
-2.29999969	0.00000000	0.46751960	4.73671200
-2.09999970	0.00000000	0.41830710	4.73671200
-1.89999971	0.00000000	0.74434050	4.73671200
-1.69999972	0.00000000	0.37524600	4.73671200
-1.49999973	0.00000000	0.04306102	4.73671200
-1.29999975	0.00000000	0.00000000	4.73671200
-1.09999976	0.00000000	0.04306102	4.73671200
-0.89999977	0.00000000	0.37524600	4.73671200
-0.69999978	0.00000000	0.78740150	4.73671200
-0.49999979	0.00000000	0.79355310	4.73671200
-0.29999981	0.31803640	1.16264800	4.73671200
-0.09999982	0.63668800	1.11343500	4.73671200
0.10000017	0.95533960	0.46751960	4.73671200
0.30000016	0.95533960	0.41830710	4.73671200
0.50000015	0.79601380	0.74434050	4.73671200
0.70000013	0.31803640	0.37524600	4.73671200
0.90000012	-0.63668800	0.09227362	4.73671200
1.10000011	-1.59264300	0.37524600	4.73671200
1.30000010	-2.38927200	0.74434050	4.73671200
1.50000009	-2.86724900	0.41830710	4.73671200
1.70000008	-2.38927200	0.41830710	4.73671200
1.90000006	-1.11466500	0.78740150	4.73671200
2.10000005	0.63668800	0.79355310	4.73671200
2.30000004	2.86724900	1.16264800	4.73671200
2.50000003	4.61921700	1.11343500	4.73671200
2.70000002	5.41584600	0.41830710	4.73671200
2.90000000	4.77854300	0.04306102	4.69365100
3.09999999	2.70792300	0.00000000	4.36146600
3.29999998	-0.31803640	0.00000000	3.99237200
3.49999997	-3.82258900	0.00000000	4.36146600
3.69999996	-6.69045300	0.04306102	4.69365100
3.89999994	-7.96444400	0.37524600	4.73671200
4.09999993	-7.32714100	0.78740150	4.77977300
4.29999992	-4.77854300	0.79355310	5.11195900
4.49999991	-0.79601380	1.20570900	5.47490100
4.69999990	3.66326300	1.53789400	5.11195900
4.89999989	7.48646600	1.53789400	4.77977300
5.09999987	9.39837600	1.16264800	4.69365100
5.29999986	8.92039900	0.41830710	4.31840500
5.49999985	6.21247500	0.04306102	3.57406500
5.69999984	1.91129400	0.00000000	3.19881900
5.89999983	-2.86724900	0.04306102	3.19881900
6.09999981	-7.00848900	0.41830710	3.57406500
6.29999980	-9.23905000	1.16264800	4.31840500
6.49999979	-9.23905000	1.53789400	4.73671200
6.69999978	-6.84916400	1.58095500	5.11195900
6.89999977	-3.02657500	1.58095500	5.47490100
7.09999975	1.43331700	1.58095500	5.11195900
7.29999974	5.09719500	1.58095500	4.77977300
7.49999973	7.32714100	1.53789400	4.73671200
7.69999972	7.64579200	1.16264800	4.73671200
7.89999971	6.05315000	0.41830710	4.73671200
8.09999970	3.18590100	0.04306102	4.73671200
8.29999968	-0.15871060	0.04306102	4.73671200
8.49999967	-3.02657500	0.41830710	4.73671200
8.69999966	-4.77854300	1.16264800	4.73671200
8.89999965	-5.09719500	1.53789400	4.73671200
9.09999964	-4.30056600	1.58095500	4.73671200
9.29999962	-2.54859700	1.58095500	4.73671200
9.49999961	-0.47736220	1.53789400	4.73671200
9.69999960	1.11466500	1.16264800	4.73671200
9.89999959	2.22994600	0.46751960	4.73671200
10.09999958	2.54859700	0.46751960	4.73671200
10.29999956	2.07062000	1.16264800	4.73671200
10.49999955	1.43331700	1.48868100	4.73671200
10.69999954	0.47736220	1.16264800	4.73671200
10.89999953	-0.31803640	0.46751960	4.73671200
11.09999952	-0.79601380	0.41830710	4.73671200
11.29999951	-0.95533960	0.74434050	4.73671200
11.49999949	-0.95533960	0.37524600	4.73671200
11.69999948	-0.79601380	0.09227362	4.73671200
11.89999947	-0.47736220	0.41830710	4.73671200
12.09999946	-0.15871060	1.11343500	4.73671200
12.29999945	-0.15871060	1.16264800	4.73671200
12.49999943	0.00000000	0.83661410	4.73671200
12.69999942	0.00000000	1.20570900	4.73671200
12.89999941	0.00000000	1.53789400	4.73671200
13.09999940	0.00000000	1.53789400	4.73671200
13.29999939	0.00000000	1.16264800	4.73671200
13.49999937	0.00000000	0.41830710	4.73671200
13.69999936	0.00000000	0.04306102	4.73671200
13.89999935	-0.15871060	0.04306102	4.73671200
14.09999934	-0.15871060	0.37524600	4.73671200
14.29999933	-0.15871060	0.74434050	4.73671200
14.49999932	-0.15871060	0.37524600	4.73671200
14.69999930	-0.15871060	0.09227362	4.73671200
14.89999929	0.00000000	0.41830710	4.73671200
15.09999928	0.00000000	1.11343500	4.73671200
15.29999927	0.00000000	1.11343500	4.73671200
15.49999926	0.00000000	0.41830710	4.73671200
15.69999924	0.00000000	0.04306102	4.73671200
15.89999923	0.00000000	0.00000000	4.73671200
16.09999922	0.00000000	0.00000000	4.73671200
16.29999921	-0.15871060	0.04306102	4.73671200
16.49999920	0.00000000	0.37524600	4.73671200
16.69999919	-0.15871060	0.78740150	4.73671200
16.89999917	0.00000000	0.83661410	4.73671200
17.09999916	0.00000000	1.62401600	4.73671200
17.29999915	0.00000000	2.69439000	4.73671200
17.49999914	0.00000000	3.06963600	4.73671200
17.69999913	0.00000000	2.74360200	4.73671200
17.89999911	0.00000000	1.95620100	4.73671200
18.09999910	0.00000000	1.16264800	4.73671200
18.29999909	0.00000000	-0.04306102	4.73671200
18.49999908	0.00000000	-1.58095500	4.73671200
18.69999907	-0.15871060	-3.11884800	4.73671200
18.89999905	0.00000000	-4.23228400	4.73671200
19.09999904	-0.15871060	-4.18922200	4.73671200
19.29999903	0.00000000	-2.65132900	4.73671200
19.49999902	0.00000000	0.09227362	4.73671200
19.69999901	0.00000000	3.58021600	4.73671200
19.89999900	0.00000000	7.43725300	4.73671200
20.09999898	0.00000000	10.51304000	4.73671200
20.29999897	0.00000000	12.00172000	4.73671200
20.49999896	0.00000000	11.16511000	4.73671200
20.69999895	0.00000000	7.25885800	4.73671200
20.89999894	0.00000000	1.07037400	4.73671200
21.09999892	-0.15871060	-6.32381900	4.73671200
21.29999891	0.00000000	-13.63189000	4.73671200
21.49999890	-0.15871060	-18.93455000	4.73671200
21.69999889	0.00000000	-20.04798000	4.73671200
21.89999888	0.00000000	-16.14788000	4.73671200
22.09999886	0.00000000	-7.95398600	4.73671200
22.29999885	0.00000000	3.67249000	4.73671200
22.49999884	0.00000000	16.36934000	4.73671200
22.69999883	0.00000000	26.74705000	4.73671200
22.89999882	0.00000000	32.09892000	4.77977300
23.09999881	-0.15871060	30.51796000	5.15501900
23.29999879	0.00000000	21.91806000	5.89320800
23.49999878	0.00000000	7.53567900	6.26845500
23.69999877	0.00000000	-10.55610000	6.35457700
23.89999876	0.00000000	-27.44832000	6.68676100
24.09999875	0.00000000	-38.29355000	7.00664300
24.29999873	0.00000000	-40.94488000	6.26845500
24.49999872	0.00000000	-34.24581000	5.11195900
24.69999871	0.00000000	-18.38090000	3.90009800
24.89999870	0.00000000	3.20497000	1.99311000
25.09999869	0.00000000	25.21530000	0.46136810
25.29999867	0.00000000	42.56889000	-0.32603340
25.49999866	0.00000000	51.03962000	-0.64591530
25.69999865	0.00000000	48.25295000	0.55364170
25.89999864	-0.15871060	34.33809000	3.24803100
26.09999863	0.00000000	11.95866000	6.72982200
26.29999862	0.00000000	-13.12131000	10.62992000
26.49999860	0.00000000	-35.17470000	14.07480000
26.69999859	0.00000000	-49.45866000	16.30167000
26.89999858	0.00000000	-52.52829000	15.84030000
27.09999857	0.00000000	-43.63927000	11.98327000
27.29999856	0.00000000	-24.70472000	5.80708600
27.49999854	0.00000000	0.00000000	-1.58095500
27.69999853	0.00000000	24.70472000	-8.87057000
27.89999852	0.00000000	43.63927000	-14.25935000
28.09999851	0.00000000	52.52829000	-16.08022000
28.29999850	0.00000000	49.50172000	-13.33046000
28.49999848	0.00000000	35.64222000	-5.57947800
28.69999847	0.00000000	14.83760000	5.20423200
28.89999846	0.00000000	-8.00319800	16.85531000
29.09999845	0.00000000	-27.73130000	27.22072000
29.29999844	0.00000000	-40.52657000	33.72293000
29.49999843	0.00000000	-43.68848000	34.05511000
29.69999841	0.00000000	-37.17397000	27.82972000
29.89999840	0.00000000	-23.25910000	15.84030000
30.09999839	0.00000000	-4.74286400	0.41830710
30.29999838	0.00000000	13.81644000	-14.63459000
30.49999837	0.00000000	28.19882000	-26.24877000
30.69999835	0.00000000	36.33735000	-31.96973000
30.89999834	0.00000000	36.38041000	-30.01353000
31.09999833	0.00000000	28.75246000	-20.34941000
31.29999832	0.00000000	16.36934000	-5.25344500
31.49999831	0.00000000	1.62401600	12.54306000
31.69999829	0.00000000	-12.65379000	29.49680000
31.89999828	0.00000000	-23.07455000	41.44316000
32.09999827	0.00000000	-27.39911000	45.71235000
32.29999826	0.00000000	-25.12303000	41.44316000
32.49999825	0.00000000	-17.48893000	29.49680000
32.69999824	0.00000000	-6.65600300	12.49385000
32.89999822	0.00000000	4.56446800	-5.67175200
33.09999821	0.00000000	14.27780000	-21.55512000
33.29999820	0.00000000	20.42323000	-31.92052000
33.49999819	0.00000000	21.62893000	-34.23966000
33.69999818	0.00000000	17.81496000	-27.78666000
33.89999816	0.00000000	10.55610000	-15.05290000
34.09999815	0.00000000	2.04847400	0.83661410
34.29999814	0.00000000	-5.67790300	17.46432000
34.49999813	0.00000000	-11.11590000	30.94242000
34.69999812	0.00000000	-13.02903000	38.33046000
34.89999810	0.00000000	-11.16511000	38.33046000
35.09999809	0.00000000	-6.18848400	31.03469000
35.29999808	0.00000000	-0.04306102	18.30093000
35.49999807	0.00000000	5.77017700	3.24803100
35.69999806	0.00000000	10.00246000	-11.01132000
35.89999805	0.00000000	11.54035000	-21.00148000
36.09999803	0.00000000	10.00246000	-24.16338000
36.29999802	0.00000000	5.81323800	-20.34941000
36.49999801	0.00000000	0.41830710	-11.14665000
36.69999800	0.00000000	-4.56446800	1.20570900
36.89999799	0.00000000	-8.00319800	13.47810000
37.09999797	0.00000000	-8.42150500	22.71777000
37.29999796	0.00000000	-6.14542300	26.20571000
37.49999795	0.00000000	-2.27608300	23.55438000
37.69999794	0.00000000	2.74360200	15.93258000
37.89999793	0.00000000	7.30807100	5.57332700
38.09999791	0.00000000	10.04552000	-4.00467500
38.29999790	0.00000000	10.46998000	-10.54995000
38.49999789	0.00000000	8.93208600	-12.03863000
38.69999788	0.00000000	5.81323800	-7.85556000
38.89999787	0.00000000	1.58095500	0.51058070
39.09999786	0.00000000	-2.65132900	10.07628000
39.29999784	0.00000000	-5.77017700	17.74729000
39.49999783	0.00000000	-7.35113100	21.55512000
39.69999782	0.00000000	-7.35113100	20.02337000
39.89999781	0.00000000	-5.81323800	13.52116000
40.09999780	0.00000000	-3.11884800	4.31840500
40.29999778	0.00000000	0.04306102	-5.25344500
40.49999777	0.00000000	3.53715500	-12.12475000
40.69999776	0.00000000	6.97588500	-14.08095000
40.89999775	0.00000000	8.93208600	-11.01132000
41.09999774	0.00000000	9.35039300	-3.72170300
41.29999772	0.00000000	8.59990100	5.89320800
41.49999771	0.00000000	6.60679100	15.14518000
41.69999770	0.00000000	3.94931100	22.06570000
41.89999769	0.00000000	0.75049200	24.71703000
42.09999768	0.00000000	-2.28838600	22.06570000
42.29999767	0.00000000	-5.01968500	15.14518000
42.49999765	0.00000000	-6.14542300	5.93626900
42.69999764	0.00000000	-5.85629900	-3.25418300
42.89999763	0.00000000	-4.65059000	-9.43036400
43.09999762	0.00000000	-2.69439000	-11.42962000
43.29999761	0.00000000	0.00000000	-9.56569900
43.49999759	0.00000000	2.65132900	-4.55831700
43.69999758	0.00000000	4.23228400	1.95004900
43.89999757	0.00000000	4.69980300	8.54453700
44.09999756	0.00000000	4.74286400	13.52116000
44.29999755	0.00000000	4.74286400	15.88336000
44.49999753	0.00000000	4.69980300	15.14518000
44.69999752	0.00000000	4.36761800	12.16166000
44.89999751	0.00000000	3.95546200	8.26771600
45.09999750	0.00000000	3.90625000	4.36146600
45.29999749	0.00000000	3.06963600	0.51058070
45.49999748	0.00000000	1.48868100	-2.14074800
45.69999746	0.00000000	-0.83661410	-2.55905500
45.89999745	0.00000000	-3.94931100	-1.11343500
46.09999744	0.00000000	-6.60679100	1.20570900
46.29999743	0.00000000	-8.55684000	3.57406500
46.49999742	0.00000000	-8.83981200	6.31151500
46.69999740	0.00000000	-6.88361200	8.91978400
46.89999739	0.00000000	-2.60826800	10.07628000
47.09999738	0.00000000	3.20497000	9.38115100
47.29999737	0.00000000	9.39345400	7.89247000
47.49999736	0.00000000	14.74532000	6.26845500
47.69999734	0.00000000	17.39665000	4.31840500
47.89999733	0.00000000	16.23400000	1.99311000
48.09999732	0.00000000	11.54035000	0.09227362
48.29999731	0.00000000	3.81397600	-1.06422200
48.49999730	0.00000000	-5.43799200	-0.97810030
48.69999729	0.00000000	-13.49655000	0.92888770
48.89999727	0.00000000	-18.51624000	4.36146600
49.09999726	0.00000000	-18.84227000	7.80019600
49.29999725	0.00000000	-14.23474000	10.53765000
49.49999724	0.00000000	-5.77017700	12.07554000
49.69999723	0.00000000	4.27534400	12.07554000
49.89999721	0.00000000	13.53962000	10.49459000
50.09999720	0.00000000	20.04798000	7.42495000
50.29999719	0.00000000	21.58587000	3.57406500
50.49999718	0.00000000	17.77190000	0.09227362
50.69999717	0.00000000	10.09473000	-2.60211600
50.89999715	0.00000000	0.41830710	-3.71555100
51.09999714	0.00000000	-8.79675100	-2.55905500
51.29999713	0.00000000	-15.35433000	0.51058070
51.49999712	0.00000000	-17.26132000	4.73671200
51.69999711	0.00000000	-14.23474000	8.96284400
51.89999710	0.00000000	-7.30807100	12.07554000
52.09999708	0.00000000	1.53789400	13.61343000
52.29999707	0.00000000	9.95939900	13.18898000
52.49999706	0.00000000	15.35433000	10.49459000
52.69999705	0.00000000	16.19094000	6.31151500
52.89999704	0.00000000	13.12131000	2.08538400
53.09999702	0.00000000	6.97588500	-1.02116100
53.29999701	0.00000000	-0.69512790	-2.55905500
53.49999700	0.00000000	-7.21579700	-2.18380900
53.69999699	0.00000000	-11.07283000	0.09227362
53.89999698	0.00000000	-11.07283000	3.11269700
54.09999696	0.00000000	-7.30807100	5.85014700
54.29999695	0.00000000	-1.53789400	7.75713500
54.49999694	0.00000000	4.65059000	8.54453700
54.69999693	0.00000000	10.00246000	7.80019600
54.89999692	0.00000000	12.65379000	6.31151500
55.09999691	0.00000000	11.54035000	4.73671200
55.29999689	0.00000000	7.35113100	3.24803100
55.49999688	0.00000000	1.58095500	2.50369100
55.69999687	0.00000000	-4.18922200	3.29109200
55.89999686	0.00000000	-8.42150500	5.15501900
56.09999685	0.00000000	-9.95939900	7.43110200
56.29999683	0.00000000	-8.42150500	8.91978400
56.49999682	0.00000000	-4.23228400	8.91978400
56.69999681	0.00000000	1.16264800	7.38188900
56.89999680	0.00000000	6.14542300	4.68750000
57.09999679	0.00000000	9.62721400	1.58095500
57.29999677	0.00000000	10.42077000	-1.48868100
57.49999676	0.00000000	8.93208600	-3.71555100
57.69999675	0.00000000	5.81323800	-3.67249000
57.89999674	0.00000000	1.58095500	-0.97810030
58.09999673	0.00000000	-2.60826800	3.62327700
58.29999672	0.00000000	-5.30265700	9.00590400
58.49999670	0.00000000	-5.72711600	13.61343000
58.69999669	0.00000000	-4.23228400	16.30167000
58.89999668	0.00000000	-1.53789400	16.25861000
59.09999667	0.00000000	1.53789400	13.14591000
59.29999666	0.00000000	4.23228400	7.38188900
59.49999664	0.00000000	5.77017700	0.46751960
59.69999663	0.00000000	5.81323800	-5.62253900
59.89999662	0.00000000	4.69980300	-9.14739100
60.09999661	0.00000000	3.11884800	-9.11048200
60.29999660	0.00000000	1.20570900	-5.99163300
60.49999658	0.00000000	-0.74434050	0.55364170
60.69999657	0.00000000	-1.82086600	8.54453700
60.89999656	0.00000000	-1.85777500	15.14518000
61.09999655	0.00000000	-0.33218500	19.42052000
61.29999654	0.00000000	1.53789400	20.48474000
61.49999653	0.00000000	3.06963600	17.42126000
61.69999651	0.00000000	3.85703700	10.91289000
61.89999650	0.00000000	3.49409400	3.19881900
62.09999649	0.00000000	2.74360200	-4.14000900
62.29999648	0.00000000	1.53789400	-9.52263600
62.49999647	0.00000000	0.00000000	-11.42962000
62.69999645	0.00000000	-1.53789400	-9.52263600
62.89999644	0.00000000	-2.65132900	-4.14000900
63.09999643	0.00000000	-2.60826800	3.15575800
63.29999642	0.00000000	-1.11343500	10.49459000
63.49999641	0.00000000	1.16264800	16.30167000
63.69999639	0.00000000	3.11884800	19.37131000
63.89999638	0.00000000	4.65059000	19.00221000
64.09999637	0.00000000	5.39493100	15.18824000
64.29999636	0.00000000	4.65059000	9.42421200
64.49999635	0.00000000	3.11884800	3.24803100
64.69999634	0.00000000	1.16264800	-2.18380900
64.89999632	0.00000000	-1.11343500	-5.67175200
65.09999631	0.00000000	-2.60826800	-6.87130900
65.29999630	0.00000000	-2.65132900	-5.75787400
65.49999629	0.00000000	-1.53789400	-3.06348400
65.69999628	0.00000000	0.00000000	0.46751960
65.89999626	0.00000000	1.58095500	4.73671200
66.09999625	0.00000000	3.06963600	8.96284400
66.29999624	0.00000000	3.81397600	12.07554000
66.49999623	0.00000000	3.06963600	13.65650000
66.69999622	0.00000000	1.58095500	13.69956000
66.89999620	0.00000000	0.04306102	12.53691000
67.09999619	0.00000000	-1.11343500	10.58686000
67.29999618	0.00000000	-1.48868100	7.84940900
67.49999617	0.00000000	-1.07037400	4.73671200
67.69999616	0.00000000	0.51058070	1.58095500
67.89999615	0.00000000	3.16190900	-1.53174200
68.09999613	0.00000000	5.81323800	-4.18307100
68.29999612	0.00000000	7.35113100	-5.33956700
68.49999611	0.00000000	7.30807100	-4.60137700
68.69999610	0.00000000	5.35187000	-2.64517700
68.89999609	0.00000000	1.53789400	0.55364170
69.09999607	0.00000000	-2.65132900	5.19808000
69.29999606	0.00000000	-5.81323800	10.53765000
69.49999605	0.00000000	-7.72637700	14.81299000
69.69999604	0.00000000	-8.04626000	17.09523000
69.89999603	0.00000000	-5.67790300	17.08907000
70.09999601	0.00000000	-1.11343500	13.98253000
70.29999600	0.00000000	4.27534400	9.00590400
70.49999599	0.00000000	8.93208600	3.15575800
70.69999598	0.00000000	12.05093000	-2.55905500
70.89999597	0.00000000	13.16437000	-6.45300100
71.09999596	0.00000000	11.58341000	-7.62180000
71.29999594	0.00000000	7.35113100	-6.45300100
71.49999593	0.00000000	1.53789400	-2.60211600
71.69999592	0.00000000	-4.60752900	2.73745100
71.89999591	0.00000000	-9.62721400	7.80019600
72.09999590	0.00000000	-11.95866000	12.03248000
72.29999588	0.00000000	-11.58341000	14.35162000
72.49999587	0.00000000	-8.42150500	13.98253000
72.69999586	0.00000000	-2.69439000	11.74951000
72.89999585	0.00000000	3.85703700	8.26771600
73.09999584	0.00000000	9.25812000	4.82283400
73.29999582	0.00000000	12.78912000	2.08538400
73.49999581	0.00000000	13.53962000	0.55364170
73.69999580	0.00000000	11.62648000	0.55364170
73.89999579	0.00000000	7.39419200	2.04232300
74.09999578	0.00000000	1.99926200	4.26919300
74.29999577	0.00000000	-3.02657500	5.75787400
74.49999575	0.00000000	-6.88361200	5.80093500
74.69999574	0.00000000	-8.46456700	4.68750000
74.89999573	0.00000000	-7.72637700	3.19881900
75.09999572	0.00000000	-5.39493100	2.04232300
75.29999571	0.00000000	-1.53789400	1.66707700
75.49999569	0.00000000	2.65132900	2.08538400
75.69999568	0.00000000	5.77017700	3.66633800
75.89999567	0.00000000	7.35113100	6.36072800
76.09999566	0.00000000	7.35113100	9.42421200
76.29999565	0.00000000	5.85629900	12.07554000
76.49999563	0.00000000	3.58021600	13.18898000
76.69999562	0.00000000	1.67322800	12.03248000
76.89999561	0.00000000	0.37524600	8.87672100
77.09999560	0.00000000	-0.65821850	3.94315900
77.29999559	0.00000000	-1.06422200	-1.43331700
77.49999558	0.00000000	0.41215550	-4.88435000
77.69999556	0.00000000	1.44562000	-6.50221400
77.89999555	0.00000000	1.53789400	-5.62253900
78.09999554	0.00000000	1.11343500	-2.18380900
78.29999553	0.00000000	0.00000000	3.20497000
78.49999552	0.00000000	-1.11343500	8.96284400
78.69999550	0.00000000	-1.48868100	13.61343000
78.89999549	0.00000000	-1.11343500	16.35089000
79.09999548	0.00000000	0.09227362	16.67692000
79.29999547	0.00000000	1.99926200	14.39468000
79.49999546	0.00000000	4.32455700	9.79945900
79.69999544	0.00000000	6.18848400	4.77977300
79.89999543	0.00000000	6.97588500	0.09227362
80.09999542	0.00000000	6.18848400	-3.71555100
80.29999541	0.00000000	4.27534400	-5.29650500
80.49999540	0.00000000	1.53789400	-4.60137700
80.69999539	0.00000000	-1.53789400	-2.64517700
80.89999537	0.00000000	-4.18922200	0.46751960
81.09999536	0.00000000	-5.30265700	4.31840500
81.29999535	0.00000000	-4.23228400	7.80019600
81.49999534	0.00000000	-1.95620100	10.53765000
81.69999533	0.00000000	0.41830710	12.07554000
81.89999531	0.00000000	3.16190900	12.11860000
82.09999530	0.00000000	5.81323800	11.00517000
82.29999529	0.00000000	7.30807100	9.42421200
82.49999528	0.00000000	6.97588500	7.47416300
82.69999527	0.00000000	5.07504900	5.11195900
82.89999525	0.00000000	2.78666300	2.78051200
83.09999524	0.00000000	0.46751960	0.41830710
83.29999523	0.00000000	-1.11343500	-1.48868100
83.49999522	0.00000000	-1.91314000	-2.64517700
83.69999521	0.00000000	-2.27608300	-2.60211600
83.89999520	0.00000000	-1.48868100	-1.07037400
84.09999518	0.00000000	-0.04306102	1.66707700
84.29999517	0.00000000	1.16264800	5.15501900
84.49999516	0.00000000	1.95620100	9.00590400
84.69999515	0.00000000	2.74360200	12.07554000
84.89999514	0.00000000	3.06963600	13.61343000
85.09999512	0.00000000	2.74360200	13.23819000
85.29999511	0.00000000	2.04847400	10.91289000
85.49999510	0.00000000	2.04847400	7.43110200
85.69999509	0.00000000	2.74360200	3.15575800
85.89999508	0.00000000	3.11884800	-1.07037400
86.09999506	0.00000000	3.11884800	-4.13385800
86.29999505	0.00000000	2.69439000	-5.29650500
86.49999504	0.00000000	1.58095500	-4.13385800
86.69999503	0.00000000	0.41830710	-1.02116100
86.89999502	0.00000000	-0.37524600	3.57406500
87.09999501	0.00000000	-1.16264800	8.54453700
87.29999499	0.00000000	-1.48868100	12.03248000
87.49999498	0.00000000	-1.11343500	13.61343000
87.69999497	0.00000000	0.04306102	13.18898000
87.89999496	0.00000000	1.62401600	10.49459000
88.09999495	0.00000000	3.49409400	6.26845500
88.29999493	0.00000000	5.01968500	1.66707700
88.49999492	0.00000000	5.02583600	-2.14074800
88.69999491	0.00000000	4.32455700	-3.71555100
88.89999490	0.00000000	3.11884800	-2.97736200
89.09999489	0.00000000	1.58095500	-0.64591530
89.29999487	0.00000000	0.04306102	3.24803100
89.49999486	0.00000000	-1.11343500	7.80019600
89.69999485	0.00000000	-1.48868100	11.61417000
89.89999484	0.00000000	-1.16264800	13.14591000
90.09999483	0.00000000	-0.37524600	12.03248000
90.29999482	0.00000000	0.41830710	8.96284400
90.49999480	0.00000000	1.58095500	4.73671200
90.69999479	0.00000000	2.69439000	0.51058070
90.89999478	0.00000000	3.06963600	-2.55905500
91.09999477	0.00000000	2.74360200	-3.71555100
91.29999476	0.00000000	1.99926200	-2.55905500
91.49999474	0.00000000	1.62401600	0.51058070
91.69999473	0.00000000	1.58095500	4.77977300
91.89999472	0.00000000	1.58095500	9.33809000
92.09999471	0.00000000	1.58095500	12.77067000
92.29999470	0.00000000	1.58095500	13.56422000
92.49999468	0.00000000	1.58095500	12.03248000
92.69999467	0.00000000	1.53789400	8.58759800
92.89999466	0.00000000	1.11343500	3.94931100
93.09999465	0.00000000	0.00000000	-0.23991140
93.29999464	0.00000000	-1.11343500	-3.34645700
93.49999463	0.00000000	-1.53789400	-4.04773600
93.69999461	0.00000000	-1.53789400	-2.18380900
93.89999460	0.00000000	-1.07037400	1.66707700
94.09999459	0.00000000	0.46751960	6.21924200
94.29999458	0.00000000	2.74360200	10.07628000
94.49999457	0.00000000	4.69980300	12.03248000
94.69999455	0.00000000	6.23154500	12.03248000
94.89999454	0.00000000	6.97588500	10.07628000
95.09999453	0.00000000	6.18848400	6.26845500
95.29999452	0.00000000	4.23228400	2.08538400
95.49999451	0.00000000	1.16264800	-1.02116100
95.69999449	0.00000000	-2.27608300	-2.55905500
95.89999448	0.00000000	-4.60752900	-2.18380900
96.09999447	0.00000000	-5.81323800	0.09227362
96.29999446	0.00000000	-5.72711600	3.15575800
96.49999445	0.00000000	-3.81397600	6.26845500
96.69999444	0.00000000	-0.33218500	8.96284400
96.89999442	0.00000000	3.49409400	10.45152000
97.09999441	0.00000000	7.01894700	10.11934000
97.29999440	0.00000000	9.30733200	8.21850300
97.49999439	0.00000000	10.09473000	5.93626900
97.69999438	0.00000000	8.93208600	3.57406500
97.89999436	0.00000000	6.23154500	1.71013800
98.09999435	0.00000000	2.69439000	0.92888770
98.29999434	0.00000000	-1.53789400	1.66707700
98.49999433	0.00000000	-5.35187000	3.11269700
98.69999432	0.00000000	-7.30807100	4.31840500
98.89999430	0.00000000	-7.35113100	5.11195900
99.09999429	0.00000000	-5.77017700	5.89320800
99.29999428	0.00000000	-2.69439000	6.26845500
99.49999427	0.00000000	1.16264800	6.31151500
99.69999426	0.00000000	4.65059000	6.31151500
99.89999425	0.00000000	7.39419200	6.31151500
100.09999423	0.00000000	8.93208600	6.35457700
100.29999422	0.00000000	8.93208600	6.72982200
100.49999421	0.00000000	7.39419200	7.42495000
100.69999420	0.00000000	4.69980300	7.38188900
100.89999419	0.00000000	1.58095500	6.26845500
101.09999417	0.00000000	-1.48868100	4.73671200
101.29999416	0.00000000	-3.81397600	3.15575800
101.49999415	0.00000000	-4.60752900	1.62401600
101.69999414	0.00000000	-4.27534400	0.51058070
101.89999413	0.00000000	-3.06963600	0.55364170
102.09999411	0.00000000	-1.16264800	2.04232300
102.29999410	0.00000000	1.20570900	4.40452700
102.49999409	0.00000000	3.49409400	7.06200700
102.69999408	0.00000000	5.43799200	9.79330600
102.89999407	0.00000000	6.23154500	11.24508000
103.09999406	0.00000000	6.23154500	11.32505000
103.29999404	0.00000000	5.43799200	9.71333600
103.49999403	0.00000000	3.53715500	7.09891700
103.69999402	0.00000000	1.62401600	3.94931100
103.89999401	0.00000000	0.00000000	1.29183100
104.09999400	0.00000000	-1.53789400	-0.69512790
104.29999398	0.00000000	-2.65132900	-1.39640700
104.49999397	0.00000000	-2.65132900	-0.64591530
104.69999396	0.00000000	-1.53789400	1.66707700
104.89999395	0.00000000	0.00000000	4.68750000
105.09999394	0.00000000	1.58095500	7.43110200
105.29999392	0.00000000	3.06963600	9.33809000
105.49999391	0.00000000	3.85703700	10.11934000
105.69999390	0.00000000	3.53715500	9.33809000
105.89999389	0.00000000	3.16190900	7.47416300
106.09999388	0.00000000	2.69439000	5.15501900
106.29999387	0.00000000	1.58095500	3.19881900
106.49999385	0.00000000	0.46751960	1.66707700
106.69999384	0.00000000	0.09227362	0.92888770
106.89999383	0.00000000	0.41830710	1.66707700
107.09999382	0.00000000	1.11343500	3.15575800
107.29999381	0.00000000	1.20570900	4.68750000
107.49999379	0.00000000	1.26107300	5.89320800
107.69999378	0.00000000	2.32529500	6.64370100
107.89999377	0.00000000	2.65132900	7.00664300
108.09999376	0.00000000	1.95620100	6.22539300
108.29999375	0.00000000	1.20570900	4.77977300
108.49999374	0.00000000	0.37524600	3.57406500
108.69999372	0.00000000	-0.33218500	2.78051200
108.89999371	0.00000000	-0.74434050	2.04232300
109.09999370	0.00000000	-0.33218500	2.08538400
109.29999369	0.00000000	0.41830710	3.19881900
109.49999368	0.00000000	1.58095500	4.73671200
109.69999366	0.00000000	2.69439000	6.26845500
109.89999365	0.00000000	3.11884800	7.42495000
110.09999364	0.00000000	3.16190900	7.84940900
110.29999363	0.00000000	3.11884800	7.80019600
110.49999362	0.00000000	2.69439000	7.01279500
110.69999360	0.00000000	1.58095500	5.11195900
110.89999359	0.00000000	0.41830710	3.24803100
111.09999358	0.00000000	-0.33218500	2.04232300
111.29999357	0.00000000	-0.74434050	1.61786400
111.49999356	0.00000000	-0.33218500	1.61786400
111.69999355	0.00000000	0.37524600	2.04232300
111.89999353	0.00000000	1.20570900	3.19881900
112.09999352	0.00000000	1.95620100	4.68750000
112.29999351	0.00000000	2.74360200	5.85014700
112.49999350	0.00000000	3.11884800	6.26845500
112.69999349	0.00000000	3.11884800	6.31151500
112.89999347	0.00000000	2.74360200	6.26845500
113.09999346	0.00000000	1.99926200	5.89320800
113.29999345	0.00000000	1.62401600	5.15501900
113.49999344	0.00000000	1.53789400	4.77977300
113.69999343	0.00000000	1.20570900	4.73671200
113.89999341	0.00000000	0.83661410	4.69365100
114.09999340	0.00000000	1.20570900	4.31840500
114.29999339	0.00000000	1.53789400	3.57406500
114.49999338	0.00000000	1.58095500	3.19881900
114.69999337	0.00000000	1.58095500	3.15575800
114.89999336	0.00000000	1.58095500	3.15575800
115.09999334	0.00000000	1.62401600	3.19881900
115.29999333	0.00000000	1.95620100	3.57406500
115.49999332	0.00000000	2.32529500	4.31840500
115.69999331	0.00000000	1.95620100	4.73671200
115.89999330	0.00000000	1.62401600	5.15501900
116.09999328	0.00000000	1.53789400	5.89320800
116.29999327	0.00000000	1.20570900	6.31151500
116.49999326	0.00000000	0.83661410	6.68676100
116.69999325	0.00000000	1.20570900	7.05585600
116.89999324	0.00000000	1.53789400	6.64370100
117.09999322	0.00000000	1.62401600	5.89320800
117.29999321	0.00000000	1.99926200	4.73671200
117.49999320	0.00000000	2.74360200	3.57406500
117.69999319	0.00000000	3.11884800	2.82357300
117.89999318	0.00000000	3.16190900	2.41141700
118.09999317	0.00000000	3.16190900	2.78051200
118.29999315	0.00000000	3.11884800	3.15575800
118.49999314	0.00000000	2.69439000	3.62327700
118.69999313	0.00000000	1.58095500	4.77977300
118.89999312	0.00000000	0.41830710	6.22539300
119.09999311	0.00000000	-0.37524600	7.05585600
119.29999309	0.00000000	-1.11343500	7.06200700
119.49999308	0.00000000	-1.07037400	7.09891700
119.69999307	0.00000000	0.00000000	6.64370100
119.89999306	0.00000000	1.16264800	5.93626900
120.09999305	0.00000000	1.99926200	5.15501900
120.29999303	0.00000000	3.16190900	4.73671200
120.49999302	0.00000000	4.27534400	4.31840500
120.69999301	0.00000000	4.65059000	3.62327700
120.89999300	0.00000000	4.27534400	3.62327700
121.09999299	0.00000000	3.16190900	4.31840500
121.29999298	0.00000000	1.99926200	4.69365100
121.49999296	0.00000000	1.20570900	4.73671200
121.69999295	0.00000000	0.37524600	4.73671200
121.89999294	0.00000000	-0.37524600	4.73671200
122.09999293	0.00000000	-1.11343500	4.77977300
122.29999292	0.00000000	-1.07037400	5.19808000
122.49999290	0.00000000	0.00000000	6.26845500
122.69999289	0.00000000	1.16264800	7.00664300
122.89999288	0.00000000	1.95620100	6.68676100
123.09999287	0.00000000	2.74360200	6.31151500
123.29999286	0.00000000	3.11884800	5.89320800
123.49999284	0.00000000	3.16190900	5.15501900
123.69999283	0.00000000	3.16190900	4.77977300
123.89999282	0.00000000	3.11884800	4.73671200
124.09999281	0.00000000	2.74360200	4.69365100
124.29999280	0.00000000	1.95620100	4.36146600
124.49999279	0.00000000	1.20570900	3.99237200
124.69999277	0.00000000	0.41830710	4.36146600
124.89999276	0.00000000	0.04306102	4.69365100
125.09999275	0.00000000	0.00000000	4.77977300
125.29999274	0.00000000	0.00000000	5.15501900
125.49999273	0.00000000	0.04306102	5.89320800
125.69999271	0.00000000	0.46751960	6.26845500
125.89999270	0.00000000	1.58095500	6.31151500
126.09999269	0.00000000	2.74360200	6.31151500
126.29999268	0.00000000	3.53715500	6.26845500
126.49999267	0.00000000	4.27534400	5.89320800
126.69999265	0.00000000	4.27534400	5.15501900
126.89999264	0.00000000	3.53715500	4.77977300
127.09999263	0.00000000	2.74360200	4.73671200
127.29999262	0.00000000	1.58095500	4.69365100
127.49999261	0.00000000	0.41830710	4.36146600
127.69999260	0.00000000	-0.33218500	3.99237200
127.89999258	0.00000000	-0.74434050	4.36146600
128.09999257	0.00000000	-0.33218500	4.73671200
128.29999256	0.00000000	0.41830710	5.15501900
128.49999255	0.00000000	1.58095500	5.89320800
128.69999254	0.00000000	2.74360200	6.21924200
128.89999252	0.00000000	3.53715500	5.89320800
129.09999251	0.00000000	4.27534400	5.15501900
129.29999250	0.00000000	4.23228400	4.77977300
129.49999249	0.00000000	3.11884800	4.73671200
129.69999248	0.00000000	1.62401600	4.73671200
129.89999246	0.00000000	0.46751960	4.73671200
130.09999245	0.00000000	0.04306102	4.73671200
130.29999244	0.00000000	0.00000000	4.77977300
130.49999243	0.00000000	0.04306102	5.11195900
130.69999242	0.00000000	0.46751960	5.51796200
130.89999241	0.00000000	1.58095500	5.48105300
131.09999239	0.00000000	2.69439000	5.51796200
131.29999238	0.00000000	3.16190900	5.11195900
131.49999237	0.00000000	3.53715500	4.77977300
131.69999236	0.00000000	3.85703700	4.69365100
131.89999235	0.00000000	3.11884800	4.31840500
132.09999233	0.00000000	2.04847400	3.62327700
132.29999232	0.00000000	1.58095500	3.57406500
132.49999231	0.00000000	1.16264800	3.94315900
132.69999230	0.00000000	0.46751960	3.99237200
132.89999229	0.00000000	0.46751960	4.77977300
133.09999227	0.00000000	1.16264800	5.85014700
133.29999226	0.00000000	1.53789400	6.26845500
133.49999225	0.00000000	1.58095500	6.31151500
133.69999224	0.00000000	1.58095500	6.26845500
133.89999223	0.00000000	1.58095500	5.89320800
134.09999222	0.00000000	1.58095500	5.15501900
134.29999220	0.00000000	1.58095500	4.73671200
134.49999219	0.00000000	1.58095500	4.31840500
134.69999218	0.00000000	1.58095500	3.57406500
134.89999217	0.00000000	1.62401600	3.19881900
135.09999216	0.00000000	1.99926200	3.15575800
135.29999214	0.00000000	2.74360200	3.19881900
135.49999213	0.00000000	3.06963600	3.57406500
135.69999212	0.00000000	2.74360200	4.36146600
135.89999211	0.00000000	1.95620100	5.11195900
136.09999210	0.00000000	1.20570900	5.89320800
136.29999208	0.00000000	0.41830710	6.26845500
136.49999207	0.00000000	0.04306102	6.26845500
136.69999206	0.00000000	0.04306102	5.89320800
136.89999205	0.00000000	0.41830710	5.15501900
137.09999204	0.00000000	1.20570900	4.77977300
137.29999203	0.00000000	1.95620100	4.73671200
137.49999201	0.00000000	2.74360200	4.69365100
137.69999200	0.00000000	3.11884800	4.31840500
137.89999199	0.00000000	3.16190900	3.57406500
138.09999198	0.00000000	3.11884800	3.24803100
138.29999197	0.00000000	2.69439000	3.57406500
138.49999195	0.00000000	1.58095500	4.31840500
138.69999194	0.00000000	0.46751960	4.69365100
138.89999193	0.00000000	0.04306102	4.77977300
139.09999192	0.00000000	0.04306102	5.15501900
139.29999191	0.00000000	0.41830710	5.89320800
139.49999189	0.00000000	1.16264800	6.26845500
139.69999188	0.00000000	1.58095500	6.31151500
139.89999187	0.00000000	1.99926200	6.26845500
140.09999186	0.00000000	2.74360200	5.89320800
140.29999185	0.00000000	3.11884800	5.11195900
140.49999184	0.00000000	3.11884800	4.36146600
140.69999182	0.00000000	2.74360200	3.57406500
140.89999181	0.00000000	1.99926200	3.19881900
141.09999180	0.00000000	1.62401600	3.19881900
141.29999179	0.00000000	1.58095500	3.57406500
141.49999178	0.00000000	1.58095500	4.36146600
141.69999176	0.00000000	1.58095500	5.11195900
141.89999175	0.00000000	1.58095500	5.89320800
142.09999174	0.00000000	1.58095500	6.31151500
142.29999173	0.00000000	1.62401600	6.68676100
142.49999172	0.00000000	1.99926200	7.05585600
142.69999170	0.00000000	2.69439000	6.64370100
142.89999169	0.00000000	2.69439000	5.93626900
143.09999168	0.00000000	1.99926200	5.11195900
143.29999167	0.00000000	1.62401600	4.36146600
143.49999166	0.00000000	1.53789400	3.57406500
143.69999165	0.00000000	1.20570900	3.19881900
143.89999163	0.00000000	0.83661410	3.19881900
144.09999162	0.00000000	1.20570900	3.57406500
144.29999161	0.00000000	1.53789400	4.36146600
144.49999160	0.00000000	1.62401600	5.11195900
144.69999159	0.00000000	1.99926200	5.89320800
144.89999157	0.00000000	2.69439000	6.26845500
145.09999156	0.00000000	2.69439000	6.26845500
145.29999155	0.00000000	1.99926200	5.89320800
145.49999154	0.00000000	1.62401600	5.15501900
145.69999153	0.00000000	1.58095500	4.73671200
145.89999151	0.00000000	1.58095500	4.36146600
146.09999150	0.00000000	1.58095500	3.99237200
146.29999149	0.00000000	1.58095500	4.31840500
146.49999148	0.00000000	1.58095500	4.31840500
146.69999147	0.00000000	1.62401600	3.99237200
146.89999146	0.00000000	1.99926200	4.36146600
147.09999144	0.00000000	2.74360200	4.73671200
147.29999143	0.00000000	3.06963600	5.15501900
147.49999142	0.00000000	2.74360200	5.89320800
147.69999141	0.00000000	1.99926200	6.26845500
147.89999140	0.00000000	1.62401600	6.31151500
148.09999138	0.00000000	1.58095500	6.26845500
148.29999137	0.00000000	1.58095500	5.89320800
148.49999136	0.00000000	1.58095500	5.15501900
148.69999135	0.00000000	1.58095500	4.77977300
148.89999134	0.00000000	1.62401600	4.73671200
149.09999132	0.00000000	1.95620100	4.69365100
149.29999131	0.00000000	2.36835600	4.31840500
149.49999130	0.00000000	2.37450800	3.62327700
149.69999129	0.00000000	2.78666300	3.62327700
149.89999128	0.00000000	3.11884800	4.31840500
150.09999127	0.00000000	3.11884800	4.73671200
150.29999125	0.00000000	2.74360200	5.15501900
150.49999124	0.00000000	1.99926200	5.89320800
150.69999123	0.00000000	1.62401600	6.26845500
150.89999122	0.00000000	1.58095500	6.31151500
151.09999121	0.00000000	1.58095500	6.26845500
151.29999119	0.00000000	1.58095500	5.89320800
151.49999118	0.00000000	1.58095500	5.15501900
151.69999117	0.00000000	1.58095500	4.77977300
151.89999116	0.00000000	1.62401600	4.73671200
152.09999115	0.00000000	1.95620100	4.73671200
152.29999113	0.00000000	2.36835600	4.73671200
152.49999112	0.00000000	2.37450800	4.73671200
152.69999111	0.00000000	2.74360200	4.73671200
152.89999110	0.00000000	2.74360200	4.73671200
153.09999109	0.00000000	2.37450800	4.73671200
153.29999108	0.00000000	2.36835600	4.77977300
153.49999106	0.00000000	1.95620100	5.11195900
153.69999105	0.00000000	1.62401600	5.51796200
153.89999104	0.00000000	1.53789400	5.53026500
154.09999103	0.00000000	1.20570900	5.93626900
154.29999102	0.00000000	0.83661410	6.21924200
154.49999100	0.00000000	1.20570900	5.89320800
154.69999099	0.00000000	1.53789400	5.15501900
154.89999098	0.00000000	1.58095500	4.77977300
155.09999097	0.00000000	1.62401600	4.73671200
155.29999096	0.00000000	1.99926200	4.73671200
155.49999094	0.00000000	2.74360200	4.73671200
155.69999093	0.00000000	3.11884800	4.73671200
155.89999092	0.00000000	3.11884800	4.73671200
156.09999091	0.00000000	2.74360200	4.73671200
156.29999090	0.00000000	1.99926200	4.77977300
156.49999089	0.00000000	1.62401600	5.15501900
156.69999087	0.00000000	1.58095500	5.89320800
156.89999086	0.00000000	1.58095500	6.26845500
157.09999085	0.00000000	1.58095500	6.31151500
157.29999084	0.00000000	1.58095500	6.26845500
157.49999083	0.00000000	1.58095500	5.89320800
157.69999081	0.00000000	1.58095500	5.15501900
157.89999080	0.00000000	1.62401600	4.77977300
158.09999079	0.00000000	1.99926200	4.73671200
158.29999078	0.00000000	2.74360200	4.73671200
158.49999077	0.00000000	3.06963600	4.73671200
158.69999075	0.00000000	2.74360200	4.73671200
158.89999074	0.00000000	1.99926200	4.73671200
159.09999073	0.00000000	1.62401600	4.77977300
159.29999072	0.00000000	1.58095500	5.15501900
159.49999071	0.00000000	1.58095500	5.89320800
159.69999070	0.00000000	1.58095500	6.26845500
159.89999068	0.00000000	1.58095500	6.31151500
160.09999067	0.00000000	1.58095500	6.26845500
160.29999066	0.00000000	1.58095500	5.89320800
160.49999065	0.00000000	1.58095500	5.15501900
160.69999064	0.00000000	1.58095500	4.77977300
160.89999062	0.00000000	1.58095500	4.73671200
161.09999061	0.00000000	1.58095500	4.73671200
161.29999060	0.00000000	1.58095500	4.73671200
161.49999059	0.00000000	1.62401600	4.73671200
161.69999058	0.00000000	1.99926200	4.73671200
161.89999056	0.00000000	2.74360200	4.73671200
162.09999055	0.00000000	3.11884800	4.77977300
162.29999054	0.00000000	3.11884800	5.15501900
162.49999053	0.00000000	2.74360200	5.89320800
162.69999052	0.00000000	1.99926200	6.26845500
162.89999051	0.00000000	1.62401600	6.26845500
163.09999049	0.00000000	1.53789400	5.89320800
163.29999048	0.00000000	1.20570900	5.15501900
163.49999047	0.00000000	0.83661410	4.77977300
163.69999046	0.00000000	1.20570900	4.73671200
163.89999045	0.00000000	1.53789400	4.73671200
164.09999043	0.00000000	1.58095500	4.73671200
164.29999042	0.00000000	1.62401600	4.73671200
164.49999041	0.00000000	1.99926200	4.73671200
164.69999040	0.00000000	2.74360200	4.73671200
164.89999039	0.00000000	3.11884800	4.73671200
165.09999037	0.00000000	3.16190900	4.77977300
165.29999036	0.00000000	3.16190900	5.15501900
165.49999035	0.00000000	3.16190900	5.89320800
165.69999034	0.00000000	3.11884800	6.21924200
165.89999033	0.00000000	2.74360200	5.93626900
166.09999032	0.00000000	1.99926200	5.53026500
166.29999030	0.00000000	1.62401600	5.51796200
166.49999029	0.00000000	1.58095500	5.11195900
166.69999028	0.00000000	1.58095500	4.77977300
166.89999027	0.00000000	1.58095500	4.73671200
167.09999026	0.00000000	1.58095500	4.73671200
167.29999024	0.00000000	1.58095500	4.73671200
167.49999023	0.00000000	1.58095500	4.73671200
167.69999022	0.00000000	1.62401600	4.73671200
167.89999021	0.00000000	1.95620100	4.69365100
168.09999020	0.00000000	2.32529500	4.36146600
168.29999018	0.00000000	1.95620100	3.99237200
168.49999017	0.00000000	1.62401600	4.36146600
168.69999016	0.00000000	1.58095500	4.69365100
168.89999015	0.00000000	1.58095500	4.73671200
169.09999014	0.00000000	1.58095500	4.73671200
169.29999013	0.00000000	1.58095500	4.73671200
169.49999011	0.00000000	1.58095500	4.73671200
169.69999010	0.00000000	1.58095500	4.73671200
169.89999009	0.00000000	1.58095500	4.73671200
170.09999008	0.00000000	1.58095500	4.73671200
170.29999007	0.00000000	1.62401600	4.73671200
170.49999005	0.00000000	1.99926200	4.73671200
170.69999004	0.00000000	2.69439000	4.73671200
170.89999003	0.00000000	2.69439000	4.73671200
171.09999002	0.00000000	1.99926200	4.73671200
171.29999001	0.00000000	1.62401600	4.73671200
171.49998999	0.00000000	1.58095500	4.73671200
171.69998998	0.00000000	1.58095500	4.73671200
171.89998997	0.00000000	1.58095500	4.73671200
172.09998996	0.00000000	1.58095500	4.73671200
172.29998995	0.00000000	1.58095500	4.73671200
172.49998994	0.00000000	1.58095500	4.73671200
172.69998992	0.00000000	1.58095500	4.73671200
172.89998991	0.00000000	1.58095500	4.73671200
173.09998990	0.00000000	1.58095500	4.73671200
173.29998989	0.00000000	1.58095500	4.73671200
173.49998988	0.00000000	1.58095500	4.73671200
173.69998986	0.00000000	1.58095500	4.73671200
173.89998985	0.00000000	1.58095500	4.73671200
174.09998984	0.00000000	1.58095500	4.73671200
174.29998983	0.00000000	1.58095500	4.73671200
174.49998982	0.00000000	1.58095500	4.73671200
174.69998980	0.00000000	1.58095500	4.73671200
174.89998979	0.00000000	1.58095500	4.73671200
175.09998978	0.00000000	1.58095500	4.73671200
175.29998977	0.00000000	1.58095500	4.73671200
175.49998976	0.00000000	1.62401600	4.73671200
175.69998975	0.00000000	1.95620100	4.73671200
175.89998973	0.00000000	2.36835600	4.73671200
176.09998972	0.00000000	2.33144700	4.73671200
176.29998971	0.00000000	2.36835600	4.73671200
176.49998970	0.00000000	1.95620100	4.73671200
176.69998969	0.00000000	1.62401600	4.73671200
176.89998967	0.00000000	1.58095500	4.73671200
177.09998966	0.00000000	1.58095500	4.73671200
177.29998965	0.00000000	1.58095500	4.73671200
177.49998964	0.00000000	1.58095500	4.73671200
177.69998963	0.00000000	1.58095500	4.73671200
177.89998961	0.00000000	1.58095500	4.73671200
178.09998960	0.00000000	1.58095500	4.73671200
178.29998959	0.00000000	1.58095500	4.73671200
178.49998958	0.00000000	1.58095500	4.73671200
178.69998957	0.00000000	1.58095500	4.73671200
178.89998956	0.00000000	1.58095500	4.73671200
179.09998954	0.00000000	1.58095500	4.73671200
179.29998953	0.00000000	1.58095500	4.73671200
179.49998952	0.00000000	1.58095500	4.73671200
179.69998951	0.00000000	1.58095500	4.73671200
179.89998950	0.00000000	1.58095500	4.73671200
180.09998948	0.00000000	1.58095500	4.73671200
180.29998947	0.00000000	1.58095500	4.73671200
180.49998946	0.00000000	1.58095500	4.73671200
180.69998945	0.00000000	1.58095500	4.73671200
180.89998944	0.00000000	1.58095500	4.73671200
181.09998942	0.00000000	1.58095500	4.73671200
181.29998941	0.00000000	1.58095500	4.77977300
181.49998940	0.00000000	1.58095500	5.15501900
181.69998939	0.00000000	1.58095500	5.85014700
181.89998938	0.00000000	1.58095500	5.85014700
182.09998937	0.00000000	1.58095500	5.15501900
182.29998935	0.00000000	1.58095500	4.77977300
182.49998934	0.00000000	1.58095500	4.73671200
182.69998933	0.00000000	1.62401600	4.73671200
182.89998932	0.00000000	1.95620100	4.73671200
183.09998931	0.00000000	2.32529500	4.73671200
183.29998929	0.00000000	1.95620100	4.73671200
183.49998928	0.00000000	1.62401600	4.73671200
183.69998927	0.00000000	1.58095500	4.73671200
183.89998926	0.00000000	1.58095500	4.73671200
184.09998925	0.00000000	1.62401600	4.77977300
184.29998923	0.00000000	1.95620100	5.15501900
184.49998922	0.00000000	2.32529500	5.89320800
184.69998921	0.00000000	1.95620100	6.26845500
184.89998920	0.00000000	1.62401600	6.26845500
185.09998919	0.00000000	1.58095500	5.89320800
185.29998918	0.00000000	1.58095500	5.15501900
185.49998916	0.00000000	1.62401600	4.77977300
185.69998915	0.00000000	1.99926200	4.73671200
185.89998914	0.00000000	2.74360200	4.73671200
186.09998913	0.00000000	3.06963600	4.73671200
186.29998912	0.00000000	2.78666300	4.73671200
186.49998910	0.00000000	2.37450800	4.73671200
186.69998909	0.00000000	2.36835600	4.73671200
186.89998908	0.00000000	1.95620100	4.77977300
187.09998907	0.00000000	1.62401600	5.15501900
187.29998906	0.00000000	1.58095500	5.89320800
187.49998904	0.00000000	1.58095500	6.26845500
187.69998903	0.00000000	1.58095500	6.31151500
187.89998902	0.00000000	1.58095500	6.26845500
188.09998901	0.00000000	1.58095500	5.89320800
188.29998900	0.00000000	1.62401600	5.15501900
188.49998899	0.00000000	1.99926200	4.77977300
188.69998897	0.00000000	2.74360200	4.73671200
188.89998896	0.00000000	3.06963600	4.73671200
189.09998895	0.00000000	2.78666300	4.73671200
189.29998894	0.00000000	2.37450800	4.73671200
189.49998893	0.00000000	2.36835600	4.73671200
189.69998891	0.00000000	1.95620100	4.73671200
189.89998890	0.00000000	1.62401600	4.73671200
190.09998889	0.00000000	1.58095500	4.73671200
190.29998888	0.00000000	1.58095500	4.77977300
190.49998887	0.00000000	1.58095500	5.15501900
190.69998885	0.00000000	1.58095500	5.85014700
190.89998884	0.00000000	1.58095500	5.85014700
191.09998883	0.00000000	1.58095500	5.15501900
191.29998882	0.00000000	1.62401600	4.77977300
191.49998881	0.00000000	1.99926200	4.73671200
191.69998880	0.00000000	2.74360200	4.73671200
191.89998878	0.00000000	3.06963600	4.73671200
192.09998877	0.00000000	2.74360200	4.73671200
192.29998876	0.00000000	1.99926200	4.73671200
192.49998875	0.00000000	1.62401600	4.73671200
192.69998874	0.00000000	1.58095500	4.73671200
192.89998872	0.00000000	1.58095500	4.73671200
193.09998871	0.00000000	1.58095500	4.73671200
193.29998870	0.00000000	1.58095500	4.73671200
193.49998869	0.00000000	1.58095500	4.73671200
193.69998868	0.00000000	1.58095500	4.73671200
193.89998866	0.00000000	1.58095500	4.73671200
194.09998865	0.00000000	1.62401600	4.73671200
194.29998864	0.00000000	1.99926200	4.73671200
194.49998863	0.00000000	2.74360200	4.73671200
194.69998862	0.00000000	3.11884800	4.73671200
194.89998861	0.00000000	3.16190900	4.73671200
195.09998859	0.00000000	3.11884800	4.73671200
195.29998858	0.00000000	2.74360200	4.73671200
195.49998857	0.00000000	1.99926200	4.73671200
195.69998856	0.00000000	1.62401600	4.73671200
195.89998855	0.00000000	1.58095500	4.73671200
196.09998853	0.00000000	1.58095500	4.73671200
