Time	Channel A	Channel B	Channel C
(us)	(V)	(mV)	(mV)

-4.59999956	0.00000000	39.53002000	12.67224000
-4.39999957	0.00000000	39.53002000	12.67224000
-4.19999958	0.00000000	39.53002000	13.00443000
-3.99999959	0.00000000	39.53002000	13.37352000
-3.79999960	0.00000000	39.53002000	13.00443000
-3.59999962	0.00000000	39.53002000	12.67224000
-3.39999963	0.00000000	39.53002000	12.67224000
-3.19999964	0.00000000	39.53002000	13.04749000
-2.99999965	0.00000000	39.53002000	13.74262000
-2.79999966	0.00000000	39.53002000	13.74262000
-2.59999968	0.00000000	39.53002000	13.09670000
-2.39999969	0.00000000	39.53002000	13.04749000
-2.19999970	0.00000000	39.53002000	13.37352000
-1.99999971	0.00000000	39.53002000	13.00443000
-1.79999972	0.00000000	39.53002000	12.67224000
-1.59999973	0.00000000	39.53002000	12.62918000
-1.39999975	0.00000000	39.53002000	12.62918000
-1.19999976	0.00000000	39.53002000	12.67224000
-0.99999977	0.00000000	39.53002000	13.00443000
-0.79999978	0.00000000	39.53002000	13.37352000
-0.59999979	0.00000000	39.53002000	13.00443000
-0.39999981	0.00000000	39.53002000	12.67224000
-0.19999982	0.31803640	39.53002000	12.67224000
0.00000017	0.79601380	39.53002000	13.00443000
0.20000016	0.95533960	39.53002000	13.37352000
0.40000015	0.95533960	39.53002000	13.00443000
0.60000013	0.79601380	39.53002000	12.72146000
0.80000012	0.15871060	39.53002000	13.00443000
1.00000011	-0.79601380	39.53002000	13.41658000
1.20000010	-1.75196900	39.53002000	13.42274000
1.40000009	-2.54859700	39.53002000	13.83489000
1.60000008	-2.70792300	39.53002000	14.16708000
1.80000006	-2.22994600	39.53002000	14.21014000
2.00000005	-0.95533960	39.53002000	14.21014000
2.20000004	0.95533960	39.53002000	14.16708000
2.40000003	3.02657500	39.53002000	13.79183000
2.60000002	4.77854300	39.53002000	13.04749000
2.80000000	5.41584600	39.53002000	12.67224000
2.99999999	4.61921700	39.53002000	12.62918000
3.19999998	2.38927200	39.53002000	12.67224000
3.39999997	-0.79601380	39.53002000	13.04749000
3.59999996	-4.14124000	39.53002000	13.74262000
3.79999994	-6.84916400	39.53002000	13.79183000
3.99999993	-7.96444400	39.53002000	13.46580000
4.19999992	-7.16781500	39.53002000	13.83489000
4.39999991	-4.30056600	39.53002000	14.16708000
4.59999990	-0.15871060	39.53002000	14.21014000
4.79999989	4.14124000	39.53002000	14.21014000
4.99999987	7.64579200	39.53002000	14.16708000
5.19999986	9.39837600	39.53002000	13.79183000
5.39999985	8.76107300	39.53002000	13.04749000
5.59999984	5.89382400	39.53002000	12.67224000
5.79999983	1.43331700	39.53002000	12.62918000
5.99999981	-3.18590100	39.57308000	12.67224000
6.19999980	-7.16781500	39.90526000	13.04749000
6.39999979	-9.23905000	40.27436000	13.79183000
6.59999978	-9.07972400	39.90526000	14.16708000
6.79999977	-6.53112700	39.57308000	14.21014000
6.99999975	-2.70792300	39.53002000	14.21014000
7.19999974	1.75196900	39.53002000	14.21014000
7.39999973	5.41584600	39.53002000	14.16708000
7.59999972	7.48646600	39.53002000	13.79183000
7.79999971	7.48646600	39.53002000	13.04749000
7.99999970	5.89382400	39.53002000	12.67224000
8.19999968	2.86724900	39.53002000	12.62918000
8.39999967	-0.47736220	39.53002000	12.62918000
8.59999966	-3.34522600	39.53002000	12.67224000
8.79999965	-4.93786900	39.53002000	13.00443000
8.99999964	-5.09719500	39.53002000	13.37352000
9.19999962	-4.14124000	39.53002000	13.04749000
9.39999961	-2.22994600	39.53002000	13.04749000
9.59999960	-0.31803640	39.53002000	13.41658000
9.79999959	1.27399100	39.53002000	13.42274000
9.99999958	2.38927200	39.53002000	13.79183000
10.19999956	2.54859700	39.53002000	13.74262000
10.39999955	2.07062000	39.53002000	13.04749000
10.59999954	1.27399100	39.53002000	12.67224000
10.79999953	0.31803640	39.53002000	12.62918000
10.99999952	-0.31803640	39.53002000	12.62918000
11.19999951	-0.79601380	39.53002000	12.62918000
11.39999949	-0.95533960	39.53002000	12.67224000
11.59999948	-0.95533960	39.53002000	13.00443000
11.79999947	-0.63668800	39.53002000	13.41658000
11.99999946	-0.31803640	39.53002000	13.42274000
12.19999945	-0.15871060	39.53002000	13.79183000
12.39999943	-0.15871060	39.53002000	13.79183000
12.59999942	0.00000000	39.53002000	13.46580000
12.79999941	0.00000000	39.53002000	13.79183000
12.99999940	0.00000000	39.53002000	13.79183000
13.19999939	0.15871060	39.53002000	13.42274000
13.39999937	0.00000000	39.53002000	13.41658000
13.59999936	0.00000000	39.53002000	13.00443000
13.79999935	0.00000000	39.53002000	12.72146000
13.99999934	0.00000000	39.53002000	13.04749000
14.19999933	-0.15871060	39.53002000	13.74262000
14.39999932	-0.15871060	39.53002000	13.79183000
14.59999930	-0.15871060	39.53002000	13.42274000
14.79999929	0.00000000	39.53002000	13.41658000
14.99999928	0.00000000	39.53002000	13.04749000
15.19999927	0.00000000	39.53002000	13.09670000
15.39999926	0.00000000	39.53002000	13.74262000
15.59999924	0.00000000	39.53002000	13.79183000
15.79999923	0.00000000	39.53002000	13.46580000
15.99999922	0.00000000	39.53002000	13.83489000
16.19999921	0.00000000	39.53002000	14.11786000
16.39999920	0.00000000	39.53002000	13.79183000
16.59999919	-0.15871060	39.53002000	13.04749000
16.79999917	0.00000000	39.57308000	12.76452000
16.99999916	0.00000000	39.94832000	13.37967000
17.19999915	0.00000000	40.69267000	14.15477000
17.39999914	0.00000000	41.06791000	13.79798000
17.59999913	0.00000000	41.11097000	13.83489000
17.79999911	0.00000000	41.06791000	13.74262000
17.99999910	0.00000000	40.64345000	13.04749000
18.19999909	0.00000000	39.48696000	12.67224000
18.39999908	0.00000000	37.94907000	12.67224000
18.59999907	0.00000000	36.36811000	13.04749000
18.79999905	0.00000000	34.87328000	13.79183000
18.99999904	0.00000000	34.08588000	14.16708000
19.19999903	0.00000000	34.49803000	14.16708000
19.39999902	0.00000000	35.71604000	13.79183000
19.59999901	0.00000000	38.45964000	13.04749000
19.79999900	0.00000000	42.31668000	12.72146000
19.99999898	0.00000000	46.18602000	13.00443000
20.19999897	0.00000000	49.62475000	13.41658000
20.39999896	0.00000000	51.11343000	13.42274000
20.59999895	0.00000000	49.90772000	13.79183000
20.79999894	0.00000000	45.99532000	13.79183000
20.99999892	0.00000000	39.39468000	13.42274000
21.19999891	0.00000000	31.71137000	13.41658000
21.39999890	0.00000000	24.73548000	13.00443000
21.59999889	0.00000000	20.12795000	12.67224000
21.79999888	0.00000000	19.05143000	12.62918000
21.99999886	0.00000000	22.63779000	12.62918000
22.19999885	0.00000000	31.19464000	12.62918000
22.39999884	0.00000000	43.11023000	12.62918000
22.59999883	0.00000000	55.52411000	12.62918000
22.79999882	0.00000000	65.53887000	12.67224000
22.99999881	0.00000000	71.21062000	13.04749000
23.19999879	0.00000000	69.54355000	13.79183000
23.39999878	0.00000000	59.91018000	14.16708000
23.59999877	0.00000000	44.83267000	14.25320000
23.79999876	0.00000000	27.38681000	14.62844000
23.99999875	0.00000000	11.19587000	15.32357000
24.19999873	0.00000000	0.03075787	15.32357000
24.39999872	0.00000000	-2.95275600	14.58538000
24.59999871	0.00000000	3.70324800	13.79183000
24.79999870	0.00000000	19.56816000	12.58612000
24.99999869	0.00000000	41.15403000	11.04823000
25.19999867	0.00000000	63.16436000	9.51648500
25.39999866	0.00000000	80.51796000	8.40305000
25.59999865	0.00000000	88.98868000	8.40305000
25.79999864	0.00000000	86.24507000	9.60875900
25.99999863	0.00000000	72.65625000	11.93405000
26.19999862	0.00000000	50.69513000	15.45891000
26.39999860	0.00000000	25.57210000	19.27288000
26.59999859	0.00000000	3.60482300	22.75467000
26.79999858	0.00000000	-10.71604000	24.61860000
26.99999857	0.00000000	-13.41658000	24.20029000
27.19999856	0.00000000	-4.57677100	21.03838000
27.39999854	0.00000000	13.66265000	15.23130000
27.59999853	0.00000000	37.94907000	7.89247000
27.79999852	0.00000000	62.23548000	0.55364170
27.99999851	0.00000000	80.43184000	-5.16117100
28.19999850	0.00000000	88.98868000	-7.43725300
28.39999848	0.00000000	86.33734000	-5.06889700
28.59999847	0.00000000	73.63435000	1.57480300
28.79999846	0.00000000	54.27534000	12.02633000
28.99999845	0.00000000	32.22195000	24.33563000
29.19999844	0.00000000	12.16781000	35.11934000
29.39999843	0.00000000	-0.99655500	42.03986000
29.59999841	0.00000000	-4.57677100	43.11023000
29.79999840	0.00000000	1.14419300	37.30315000
29.99999839	0.00000000	14.26550000	25.68897000
30.19999838	0.00000000	31.66830000	10.58686000
30.39999837	0.00000000	49.48326000	-5.21038300
30.59999835	0.00000000	64.23473000	-17.88878000
30.79999834	0.00000000	73.16682000	-24.07111000
30.99999833	0.00000000	74.70472000	-22.49016000
31.19999832	0.00000000	68.60851000	-13.20128000
31.39999831	0.00000000	56.64985000	2.26993100
31.59999829	0.00000000	42.31668000	20.39247000
31.79999828	0.00000000	27.94045000	37.39542000
31.99999827	0.00000000	16.35704000	49.37868000
32.19999826	0.00000000	10.16855000	53.98622000
32.39999825	0.00000000	10.50074000	50.12303000
32.59999824	0.00000000	17.05217000	38.13976000
32.79999822	0.00000000	27.76206000	21.17372000
32.99999821	0.00000000	39.84990000	2.59596400
33.19999820	0.00000000	50.65821000	-13.57037000
33.39999819	0.00000000	58.78444000	-23.69586000
33.59999818	0.00000000	61.44808000	-26.02731000
33.79999816	0.00000000	58.50763000	-20.63238000
33.99999815	0.00000000	51.58095000	-8.23080600
34.19999814	0.00000000	42.69193000	8.35998900
34.39999813	0.00000000	33.80290000	25.73203000
34.59999812	0.00000000	26.82701000	39.99754000
34.79999810	0.00000000	23.37598000	47.76082000
34.99999809	0.00000000	24.12647000	47.80388000
35.19999808	0.00000000	29.06004000	40.50812000
35.39999807	0.00000000	35.94980000	27.77436000
35.59999806	0.00000000	42.55659000	12.72146000
35.79999805	0.00000000	47.95152000	-1.53789400
35.99999803	0.00000000	50.60285000	-11.57726000
36.19999802	0.00000000	49.48942000	-15.10827000
36.39999801	0.00000000	45.30019000	-12.03863000
36.59999800	0.00000000	39.57308000	-3.21112200
36.79999799	0.00000000	34.17815000	9.09817800
36.99999797	0.00000000	30.63484000	21.37057000
37.19999796	0.00000000	29.10310000	30.65330000
37.39999795	0.00000000	29.89665000	34.51648000
37.59999794	0.00000000	33.37844000	32.65256000
37.79999793	0.00000000	38.36737000	25.68897000
37.99999791	0.00000000	43.71924000	15.40969000
38.19999790	0.00000000	47.57627000	5.05659400
38.39999789	0.00000000	48.78814000	-1.82701800
38.59999788	0.00000000	48.04380000	-3.76476400
38.79999787	0.00000000	45.30019000	0.04306102
38.99999786	-0.15871060	41.06791000	8.02780400
39.19999784	0.00000000	36.45423000	17.23056000
39.39999783	0.00000000	32.54798000	25.31373000
39.59999782	0.00000000	30.21653000	29.87205000
39.79999781	0.00000000	29.42913000	29.45374000
39.99999780	0.00000000	30.59178000	23.68971000
40.19999778	0.00000000	33.29232000	14.16708000
40.39999777	0.00000000	36.78642000	4.17691900
40.59999776	0.00000000	40.64345000	-3.49409400
40.79999775	0.00000000	43.76230000	-6.92667200
40.99999774	0.00000000	45.76156000	-4.60752900
41.19999772	0.00000000	46.92421000	2.63902500
41.39999771	0.00000000	46.88115000	12.62918000
41.59999770	0.00000000	45.34325000	22.61934000
41.79999769	0.00000000	42.64886000	29.95817000
41.99999768	0.00000000	39.53002000	33.02780000
42.19999767	0.00000000	36.41117000	31.07775000
42.39999765	0.00000000	33.71063000	24.20029000
42.59999764	0.00000000	32.17273000	14.67766000
42.79999763	0.00000000	32.12967000	5.80093500
42.99999762	0.00000000	33.24926000	-0.42445860
43.19999761	0.00000000	34.83022000	-3.16190900
43.39999759	0.00000000	36.78642000	-2.00541300
43.59999758	0.00000000	39.11171000	2.55290300
43.79999757	0.00000000	41.01870000	9.09817800
43.99999756	0.00000000	42.22441000	15.64960000
44.19999755	0.00000000	42.64886000	21.08760000
44.39999753	0.00000000	42.69193000	24.15723000
44.59999752	0.00000000	42.69193000	24.20029000
44.79999751	0.00000000	42.64886000	21.54897000
44.99999750	0.00000000	42.27362000	17.36589000
45.19999749	0.00000000	41.48622000	13.04749000
45.39999748	0.00000000	40.64345000	9.23351300
45.59999746	0.00000000	39.06250000	6.50221400
45.79999745	0.00000000	36.74335000	6.12081600
45.99999744	0.00000000	34.36884000	7.14812900
46.19999743	0.00000000	31.66830000	9.14124000
46.39999742	0.00000000	29.42913000	11.46653000
46.59999740	0.00000000	29.10310000	14.21014000
46.79999739	0.00000000	31.01624000	16.85531000
46.99999738	0.00000000	34.96555000	18.43627000
47.19999737	0.00000000	40.36663000	18.81152000
47.39999736	0.00000000	46.54896000	18.01796000
47.59999734	0.00000000	51.53174000	15.69882000
47.79999733	0.00000000	54.23228000	12.67224000
47.99999732	0.00000000	53.76476000	9.93479300
48.19999731	0.00000000	49.48942000	7.98474400
48.39999730	0.00000000	42.22441000	6.82209600
48.59999729	0.00000000	34.04282000	6.86515700
48.79999727	0.00000000	26.72859000	8.44611200
48.99999726	0.00000000	21.33981000	11.46653000
49.19999725	0.00000000	20.26329000	14.90526000
49.39999724	0.00000000	23.70817000	17.32283000
49.59999723	0.00000000	31.05930000	19.27288000
49.79999721	0.00000000	40.64345000	20.71235000
49.99999720	0.00000000	49.53248000	19.88189000
50.19999719	0.00000000	55.72096000	16.85531000
50.39999718	0.00000000	57.99704000	12.62918000
50.59999717	0.00000000	55.30265000	8.40305000
50.79999715	0.00000000	48.41904000	5.33341500
50.99999714	0.00000000	39.53002000	4.17691900
51.19999713	0.00000000	30.68405000	5.33341500
51.39999712	0.00000000	24.12647000	8.40305000
51.59999711	0.00000000	21.79503000	12.67224000
51.79999710	0.00000000	23.70817000	17.27362000
51.99999708	0.00000000	29.52141000	21.08760000
52.19999707	0.00000000	37.89985000	22.61934000
52.39999706	0.00000000	45.95226000	21.54897000
52.59999705	0.00000000	51.02116000	18.85458000
52.79999704	0.00000000	52.60211000	15.36663000
52.99999702	0.00000000	50.64591000	11.51575000
53.19999701	0.00000000	45.30019000	8.44611200
53.39999700	0.00000000	38.41043000	6.90821800
53.59999699	0.00000000	32.22195000	7.28346400
53.79999698	0.00000000	27.98351000	9.55954600
53.99999696	0.00000000	26.91314000	12.58612000
54.19999695	0.00000000	29.89665000	15.27436000
54.39999694	0.00000000	35.61762000	16.85531000
54.59999693	0.00000000	41.39394000	17.23056000
54.79999692	0.00000000	46.46284000	16.43701000
54.99999691	0.00000000	49.44020000	14.16092000
55.19999689	0.00000000	49.06496000	11.55881000
55.39999688	0.00000000	45.30019000	10.02707000
55.59999687	0.00000000	39.94832000	9.98400600
55.79999686	0.00000000	34.92249000	11.14050000
55.99999685	0.00000000	31.01624000	13.09055000
56.19999683	0.00000000	29.10310000	15.78494000
56.39999682	0.00000000	29.47835000	18.39321000
56.59999681	0.00000000	32.22195000	19.46358000
56.79999680	0.00000000	36.78642000	17.93184000
56.99999679	0.00000000	41.76304000	14.11786000
57.19999677	0.00000000	45.20792000	9.56569900
57.39999676	0.00000000	46.46284000	5.66560000
57.59999675	0.00000000	45.67544000	3.38336600
57.79999674	0.00000000	43.38705000	3.01427100
57.99999673	0.00000000	39.94832000	5.42568800
58.19999672	0.00000000	36.87869000	10.35310000
58.39999670	0.00000000	34.87328000	16.52928000
58.59999669	0.00000000	33.71063000	21.88115000
58.79999668	0.00000000	33.71063000	25.35679000
58.99999667	0.00000000	34.87328000	25.68897000
59.19999666	0.00000000	36.74335000	22.61934000
59.39999664	0.00000000	38.69341000	16.81225000
59.59999663	0.00000000	39.86220000	9.55954600
59.79999662	0.00000000	40.64345000	3.01427100
59.99999661	0.00000000	40.60039000	-0.88582670
60.19999660	0.00000000	39.53002000	-2.00541300
60.39999658	0.00000000	38.36737000	0.36909450
60.59999657	0.00000000	37.61687000	6.53912400
60.79999656	0.00000000	37.20472000	14.53617000
60.99999655	0.00000000	37.61687000	22.29331000
61.19999654	0.00000000	38.32431000	27.63902000
61.39999653	0.00000000	39.15477000	29.58907000
61.59999651	0.00000000	39.86220000	27.22072000
61.79999650	0.00000000	40.27436000	21.13066000
61.99999649	0.00000000	39.81299000	13.04749000
62.19999648	0.00000000	38.69341000	5.33341500
62.39999647	0.00000000	36.78642000	-0.46751960
62.59999645	0.00000000	35.29773000	-3.16190900
62.79999644	0.00000000	34.83022000	-2.00541300
62.99999643	0.00000000	34.87943000	2.59596400
63.19999642	0.00000000	35.67298000	9.55954600
63.39999641	0.00000000	37.61687000	17.23056000
63.59999639	0.00000000	39.90526000	23.82505000
63.79999638	0.00000000	42.18134000	27.68824000
63.99999637	0.00000000	43.34399000	28.47564000
64.19999636	0.00000000	43.02411000	25.73203000
64.39999635	0.00000000	42.22441000	20.01722000
64.59999634	0.00000000	40.60039000	13.09670000
64.79999632	0.00000000	37.94907000	6.90821800
64.99999631	0.00000000	35.29773000	2.59596400
65.19999630	0.00000000	33.75369000	0.63976370
65.39999629	0.00000000	33.71063000	1.01501000
65.59999628	0.00000000	34.87328000	3.75246000
65.79999626	0.00000000	36.78642000	8.31077700
65.99999625	0.00000000	39.06250000	13.32431000
66.19999624	0.00000000	40.60039000	17.23056000
66.39999623	0.00000000	41.01870000	20.01722000
66.59999622	0.00000000	40.64345000	21.59203000
66.79999620	0.00000000	39.48696000	21.96727000
66.99999619	0.00000000	37.94907000	21.22293000
67.19999618	0.00000000	36.41117000	19.27288000
67.39999617	0.00000000	35.29773000	16.90453000
67.59999616	0.00000000	35.34079000	13.74262000
67.79999615	0.00000000	36.87869000	9.93479300
67.99999613	0.00000000	39.53002000	6.82209600
68.19999612	0.00000000	42.18134000	4.82283400
68.39999611	0.00000000	43.76230000	3.66633800
68.59999610	0.00000000	44.13755000	3.75246000
68.79999609	0.00000000	43.30093000	5.66560000
68.99999607	0.00000000	40.55733000	9.19045200
69.19999606	0.00000000	36.36811000	13.42274000
69.39999605	0.00000000	32.12967000	18.11024000
69.59999604	0.00000000	29.10310000	21.92421000
69.79999603	0.00000000	28.31570000	24.24335000
69.99999601	0.00000000	30.26575000	24.20029000
70.19999600	0.00000000	34.12894000	21.50590000
70.39999599	0.00000000	39.57308000	16.89837000
70.59999598	0.00000000	45.30019000	11.46653000
70.79999597	0.00000000	49.53248000	6.48991100
70.99999596	0.00000000	51.07037000	2.96505900
71.19999594	0.00000000	49.53248000	1.80241100
71.39999593	0.00000000	45.30019000	2.54675200
71.59999592	0.00000000	39.48080000	5.29035400
71.79999591	0.00000000	33.29232000	9.51648500
71.99999590	0.00000000	27.89739000	14.16708000
72.19999588	0.00000000	24.82160000	18.39321000
72.39999587	0.00000000	24.82160000	21.03838000
72.59999586	0.00000000	27.89739000	21.08760000
72.79999585	0.00000000	33.29232000	18.85458000
72.99999584	0.00000000	39.48080000	15.78494000
73.19999582	0.00000000	45.30019000	12.72146000
73.39999581	0.00000000	49.53248000	10.40231000
73.59999580	0.00000000	51.07037000	9.60875900
73.79999579	0.00000000	49.57554000	9.93479300
73.99999578	0.00000000	45.71850000	11.09744000
74.19999577	0.00000000	40.69267000	12.58612000
74.39999575	0.00000000	35.29773000	13.69956000
74.59999574	0.00000000	31.05930000	13.69956000
74.79999573	0.00000000	29.05389000	12.58612000
74.99999572	0.00000000	29.01082000	11.04823000
75.19999571	0.00000000	30.59178000	9.51648500
75.39999569	0.00000000	33.71063000	8.44611200
75.59999568	0.00000000	37.89985000	8.82135800
75.79999567	0.00000000	41.71998000	10.76525000
75.99999566	0.00000000	43.71924000	13.46580000
76.19999565	0.00000000	44.13755000	16.99065000
76.39999563	0.00000000	43.38705000	20.34941000
76.59999562	0.00000000	41.48622000	22.24409000
76.79999561	0.00000000	39.62229000	21.46284000
76.99999560	0.00000000	38.36737000	18.39321000
77.19999559	0.00000000	37.61687000	13.69956000
77.39999558	0.00000000	37.20472000	7.98474400
77.59999556	0.00000000	37.57381000	3.01427100
77.79999555	0.00000000	37.90600000	0.68897630
77.99999554	0.00000000	37.90600000	1.01501000
78.19999553	0.00000000	37.53075000	3.75246000
78.39999552	0.00000000	36.74335000	8.40305000
78.59999550	0.00000000	36.03592000	14.21014000
78.79999549	0.00000000	35.62377000	19.97416000
78.99999548	0.00000000	36.08513000	24.20029000
79.19999547	0.00000000	37.20472000	25.73203000
79.39999546	0.00000000	39.15477000	24.20029000
79.59999544	0.00000000	41.06791000	20.01722000
79.79999543	0.00000000	42.64886000	14.62844000
79.99999542	0.00000000	43.71924000	9.56569900
80.19999541	0.00000000	43.30093000	5.29035400
80.39999540	0.00000000	41.01870000	2.59596400
80.59999539	0.00000000	37.99213000	2.17150600
80.79999537	0.00000000	35.24852000	3.70939900
80.99999536	0.00000000	33.29232000	6.82209600
81.19999535	0.00000000	32.12967000	11.04823000
81.39999534	0.00000000	32.17273000	15.27436000
81.59999533	0.00000000	33.71063000	18.43627000
81.79999531	0.00000000	36.41117000	20.43553000
81.99999530	0.00000000	39.48696000	21.54897000
82.19999529	0.00000000	42.18134000	21.17372000
82.39999528	0.00000000	43.71924000	19.27288000
82.59999527	0.00000000	43.76230000	16.90453000
82.79999525	0.00000000	42.59965000	13.79183000
82.99999524	0.00000000	40.64345000	10.31004000
83.19999523	0.00000000	37.99213000	7.56643700
83.39999522	0.00000000	35.71604000	5.19808000
83.59999521	0.00000000	34.87943000	3.70939900
83.79999520	0.00000000	34.83022000	3.75246000
83.99999518	0.00000000	35.25467000	5.66560000
84.19999517	0.00000000	36.41117000	9.14124000
84.39999516	0.00000000	37.90600000	13.00443000
84.59999515	0.00000000	39.06250000	16.90453000
84.79999514	0.00000000	39.43774000	19.97416000
84.99999512	0.00000000	39.11171000	21.59203000
85.19999511	0.00000000	38.36737000	21.88115000
85.39999510	0.00000000	37.99213000	20.33710000
85.59999509	0.00000000	37.99213000	16.44316000
85.79999508	0.00000000	38.36737000	11.87869000
85.99999506	0.00000000	39.11171000	7.24040300
86.19999505	0.00000000	39.48696000	4.12770700
86.39999504	0.00000000	39.48696000	2.91584600
86.59999503	0.00000000	39.11171000	3.01427100
86.79999502	0.00000000	38.32431000	5.75172200
86.99999501	0.00000000	37.53075000	10.67298000
87.19999499	0.00000000	36.36811000	15.64960000
87.39999498	0.00000000	35.25467000	19.54970000
87.59999497	0.00000000	34.92249000	21.54897000
87.79999496	0.00000000	35.62377000	21.92421000
87.99999495	0.00000000	37.15551000	20.66314000
88.19999493	0.00000000	38.32431000	16.81225000
88.39999492	0.00000000	39.53002000	11.51575000
88.59999491	0.00000000	40.64345000	6.90821800
88.79999490	0.00000000	41.01870000	4.17076700
88.99999489	0.00000000	40.64345000	3.80167300
89.19999487	0.00000000	39.48696000	5.70866100
89.39999486	0.00000000	37.94907000	9.56569900
89.59999485	0.00000000	36.41117000	14.16708000
89.79999484	0.00000000	35.25467000	18.39321000
89.99999483	0.00000000	34.87943000	21.08760000
90.19999482	0.00000000	35.25467000	21.46284000
90.39999480	0.00000000	36.41117000	19.54970000
90.59999479	0.00000000	37.90600000	15.69882000
90.79999478	0.00000000	39.06250000	11.14050000
90.99999477	0.00000000	39.48696000	7.24040300
91.19999476	0.00000000	39.53002000	4.91510800
91.39999474	0.00000000	39.48696000	4.17691900
91.59999473	0.00000000	39.11171000	5.80093500
91.79999472	0.00000000	38.36737000	9.93479300
91.99999471	0.00000000	37.99213000	14.90526000
92.19999470	0.00000000	37.94907000	18.71924000
92.39999468	0.00000000	37.94907000	20.66929000
92.59999467	0.00000000	37.94907000	19.92495000
92.79999466	0.00000000	37.90600000	17.23056000
92.99999465	0.00000000	37.53075000	13.37352000
93.19999464	0.00000000	36.74335000	8.77829600
93.39999463	0.00000000	35.99286000	5.37647600
93.59999461	0.00000000	35.25467000	4.17691900
93.79999460	0.00000000	35.25467000	5.33341500
93.99999459	0.00000000	36.03592000	8.40305000
94.19999458	0.00000000	37.20472000	12.62918000
94.39999457	0.00000000	39.15477000	16.81225000
94.59999455	0.00000000	41.01870000	19.55585000
94.79999454	0.00000000	42.22441000	20.30020000
94.99999453	0.00000000	42.59965000	19.13140000
95.19999452	0.00000000	42.18134000	15.69882000
95.39999451	0.00000000	40.60039000	11.51575000
95.59999449	0.00000000	37.90600000	8.02780400
95.79999448	0.00000000	34.83022000	5.70866100
95.99999447	0.00000000	32.12967000	5.33341500
96.19999446	0.00000000	30.59178000	6.86515700
96.39999445	0.00000000	30.59178000	9.93479300
96.59999444	0.00000000	32.17273000	13.79183000
96.79999442	0.00000000	35.24852000	17.18750000
96.99999441	0.00000000	39.11171000	19.13140000
97.19999440	0.00000000	42.59965000	18.76845000
97.39999439	0.00000000	45.30019000	16.94759000
97.59999438	0.00000000	46.46284000	14.58538000
97.79999436	0.00000000	45.67544000	12.25394000
97.99999435	0.00000000	43.38705000	9.98400600
98.19999434	0.00000000	39.86220000	8.82135800
98.39999433	0.00000000	36.03592000	9.19045200
98.59999432	0.00000000	32.50492000	10.26698000
98.79999430	0.00000000	30.21653000	11.83563000
98.99999429	0.00000000	29.42913000	12.96137000
99.19999428	0.00000000	30.59178000	13.79183000
99.39999427	0.00000000	33.29232000	14.16708000
99.59999426	0.00000000	36.78642000	14.16708000
99.79999425	0.00000000	40.64345000	13.83489000
99.99999423	0.00000000	43.71924000	13.46580000
100.19999422	0.00000000	45.30019000	13.83489000
100.39999421	0.00000000	45.34325000	14.21014000
100.59999420	0.00000000	44.18061000	14.62844000
100.79999419	0.00000000	42.22441000	15.27436000
100.99999417	0.00000000	39.48696000	14.85605000
101.19999416	0.00000000	36.41117000	13.00443000
101.39999415	0.00000000	33.71063000	11.09744000
101.59999414	0.00000000	32.12967000	9.51648500
101.79999413	0.00000000	31.71137000	8.35998900
101.99999411	0.00000000	32.12967000	7.98474400
102.19999410	0.00000000	33.66756000	8.40305000
102.39999409	0.00000000	35.99286000	9.98400600
102.59999408	0.00000000	38.32431000	12.67224000
102.79999407	0.00000000	40.64345000	15.69882000
102.99999406	0.00000000	42.18134000	18.01796000
103.19999404	0.00000000	42.59965000	18.81152000
103.39999403	0.00000000	42.18134000	18.39321000
103.59999402	0.00000000	40.64345000	16.43701000
103.79999401	0.00000000	38.36737000	13.00443000
103.99999400	0.00000000	36.41117000	9.55954600
104.19999398	0.00000000	34.83022000	6.86515700
104.39999397	0.00000000	33.66756000	5.70866100
104.59999396	0.00000000	33.29232000	6.44685000
104.79999395	0.00000000	33.66756000	8.35383800
104.99999394	0.00000000	34.83022000	11.04823000
105.19999392	0.00000000	36.36811000	13.79183000
105.39999391	0.00000000	37.90600000	16.11712000
105.59999390	0.00000000	39.06250000	18.01796000
105.79999389	0.00000000	39.43774000	18.35015000
105.99999388	0.00000000	39.11171000	16.85531000
106.19999387	0.00000000	38.32431000	14.21014000
106.39999385	0.00000000	37.57381000	11.55881000
106.59999384	0.00000000	36.78642000	9.93479300
106.79999383	0.00000000	36.41117000	9.14124000
106.99999382	0.00000000	36.41117000	8.77829600
107.19999381	0.00000000	36.78642000	9.60875900
107.39999379	0.00000000	37.57381000	11.46653000
107.59999378	0.00000000	38.32431000	13.74262000
107.79999377	0.00000000	39.11171000	15.27436000
107.99999376	0.00000000	39.43774000	15.69267000
108.19999375	0.00000000	39.06250000	15.32357000
108.39999374	0.00000000	37.90600000	14.16092000
108.59999372	0.00000000	36.41117000	12.62918000
108.79999371	0.00000000	35.25467000	11.09744000
108.99999370	0.00000000	34.83022000	9.98400600
109.19999369	0.00000000	34.87943000	9.98400600
109.39999368	0.00000000	35.67298000	11.09744000
109.59999366	0.00000000	37.53075000	12.62918000
109.79999365	0.00000000	39.06250000	14.16092000
109.99999364	0.00000000	39.86220000	15.32357000
110.19999363	0.00000000	40.27436000	15.69267000
110.39999362	0.00000000	39.86220000	15.32357000
110.59999360	0.00000000	39.15477000	14.21014000
110.79999359	0.00000000	38.32431000	13.00443000
110.99999358	0.00000000	37.53075000	11.83563000
111.19999357	0.00000000	36.36811000	10.31004000
111.39999356	0.00000000	35.25467000	9.56569900
111.59999355	0.00000000	34.87943000	9.51648500
111.79999353	0.00000000	35.25467000	9.93479300
111.99999352	0.00000000	36.36811000	11.04823000
112.19999351	0.00000000	37.53075000	12.21087000
112.39999350	0.00000000	38.32431000	13.00443000
112.59999349	0.00000000	39.11171000	13.79183000
112.79999347	0.00000000	39.48696000	14.16708000
112.99999346	0.00000000	39.48696000	14.16708000
113.19999345	0.00000000	39.11171000	13.79183000
113.39999344	0.00000000	38.32431000	13.04749000
113.59999343	0.00000000	37.57381000	12.67224000
113.79999341	0.00000000	36.78642000	12.62918000
113.99999340	0.00000000	36.41117000	12.58612000
114.19999339	0.00000000	36.36811000	12.21087000
114.39999338	0.00000000	36.41117000	11.46653000
114.59999337	0.00000000	36.78642000	11.09129000
114.79999336	0.00000000	37.53075000	11.04823000
114.99999334	0.00000000	37.90600000	11.04823000
115.19999333	0.00000000	37.94907000	11.00517000
115.39999332	0.00000000	37.94907000	10.67298000
115.59999331	0.00000000	37.94907000	10.35310000
115.79999330	0.00000000	37.90600000	11.14050000
115.99999328	0.00000000	37.53075000	12.58612000
116.19999327	0.00000000	36.78642000	13.74262000
116.39999326	0.00000000	36.41117000	14.16708000
116.59999325	0.00000000	36.36811000	14.21014000
116.79999324	0.00000000	36.36811000	14.16708000
116.99999322	0.00000000	36.36811000	13.79183000
117.19999321	0.00000000	36.41117000	13.00443000
117.39999320	0.00000000	36.83563000	12.25394000
117.59999319	0.00000000	37.94907000	11.42347000
117.79999318	0.00000000	39.06250000	10.67298000
117.99999317	0.00000000	39.48696000	9.93479300
118.19999315	0.00000000	39.48696000	9.93479300
118.39999314	0.00000000	39.11171000	10.67298000
118.59999313	0.00000000	38.32431000	11.42347000
118.79999312	0.00000000	37.53075000	12.21087000
118.99999311	0.00000000	36.36811000	12.58612000
119.19999309	0.00000000	35.25467000	12.67224000
119.39999308	0.00000000	34.83022000	13.04749000
119.59999307	0.00000000	34.83022000	13.79183000
119.79999306	0.00000000	35.25467000	14.11786000
119.99999305	0.00000000	36.36811000	13.79183000
120.19999303	0.00000000	37.53075000	13.04749000
120.39999302	0.00000000	38.36737000	12.67224000
120.59999301	0.00000000	39.53002000	12.62918000
120.79999300	0.00000000	40.60039000	12.58612000
120.99999299	0.00000000	40.60039000	12.21087000
121.19999298	0.00000000	39.48696000	11.46653000
121.39999296	0.00000000	37.94907000	11.09129000
121.59999295	0.00000000	36.41117000	11.09129000
121.79999294	0.00000000	35.25467000	11.46653000
121.99999293	0.00000000	34.83022000	12.21087000
122.19999292	0.00000000	34.83022000	12.58612000
122.39999290	0.00000000	35.20546000	12.67224000
122.59999289	0.00000000	35.99286000	13.04749000
122.79999288	0.00000000	36.78642000	13.79183000
122.99999287	0.00000000	37.94907000	14.16708000
123.19999286	0.00000000	39.06250000	14.16708000
123.39999284	0.00000000	39.48696000	13.79183000
123.59999283	0.00000000	39.48696000	13.04749000
123.79999282	0.00000000	39.11171000	12.62918000
123.99999281	0.00000000	38.36737000	12.21087000
124.19999280	0.00000000	37.99213000	11.46653000
124.39999279	0.00000000	37.90600000	11.09129000
124.59999277	0.00000000	37.48154000	11.04823000
124.79999276	0.00000000	36.36811000	11.09129000
124.99999275	0.00000000	35.25467000	11.46653000
125.19999274	0.00000000	34.83022000	12.21087000
125.39999273	0.00000000	34.83022000	12.58612000
125.59999271	0.00000000	35.20546000	12.67224000
125.79999270	0.00000000	35.99286000	13.04749000
125.99999269	0.00000000	36.74335000	13.79183000
126.19999268	0.00000000	37.57381000	14.11786000
126.39999267	0.00000000	38.32431000	13.79183000
126.59999265	0.00000000	39.11171000	13.04749000
126.79999264	0.00000000	39.43774000	12.62918000
126.99999263	0.00000000	39.11171000	12.25394000
127.19999262	0.00000000	38.32431000	11.84178000
127.39999261	0.00000000	37.57381000	11.87869000
127.59999260	0.00000000	36.74335000	11.79872000
127.79999258	0.00000000	35.99286000	11.87869000
127.99999257	0.00000000	35.25467000	11.84178000
128.19999256	0.00000000	35.25467000	12.25394000
128.39999255	0.00000000	35.99286000	12.58612000
128.59999254	0.00000000	36.78642000	12.62918000
128.79999252	0.00000000	37.94907000	12.62918000
128.99999251	0.00000000	39.06250000	12.62918000
129.19999250	0.00000000	39.43774000	12.62918000
129.39999249	0.00000000	39.06250000	12.58612000
129.59999248	0.00000000	37.94907000	12.25394000
129.79999246	0.00000000	36.83563000	11.88484000
129.99999245	0.00000000	36.36811000	12.25394000
130.19999244	0.00000000	35.94980000	12.58612000
130.39999243	0.00000000	35.25467000	12.62918000
130.59999242	0.00000000	35.25467000	12.62918000
130.79999241	0.00000000	35.99286000	12.62918000
130.99999239	0.00000000	36.78642000	12.62918000
131.19999238	0.00000000	37.94907000	12.62918000
131.39999237	0.00000000	39.06250000	12.62918000
131.59999236	0.00000000	39.43774000	12.58612000
131.79999235	0.00000000	39.11171000	12.21087000
131.99999233	0.00000000	38.32431000	11.46653000
132.19999232	0.00000000	37.57381000	11.09129000
132.39999231	0.00000000	36.78642000	11.04823000
132.59999230	0.00000000	36.41117000	11.09129000
132.79999229	0.00000000	36.36811000	11.46653000
132.99999227	0.00000000	36.36811000	12.21087000
133.19999226	0.00000000	36.36811000	12.62918000
133.39999225	0.00000000	36.41117000	13.04749000
133.59999224	0.00000000	36.78642000	13.79183000
133.79999223	0.00000000	37.53075000	14.16708000
133.99999222	0.00000000	37.90600000	14.16708000
134.19999220	0.00000000	37.90600000	13.74262000
134.39999219	0.00000000	37.53075000	12.62918000
134.59999218	0.00000000	36.78642000	11.51575000
134.79999217	0.00000000	36.46038000	11.04823000
134.99999216	0.00000000	36.78642000	10.67298000
135.19999214	0.00000000	37.53075000	10.31004000
135.39999213	0.00000000	37.90600000	10.72219000
135.59999212	0.00000000	37.94907000	11.42347000
135.79999211	0.00000000	37.90600000	12.21087000
135.99999210	0.00000000	37.53075000	12.62918000
136.19999208	0.00000000	36.78642000	13.04749000
136.39999207	0.00000000	36.36811000	13.79183000
136.59999206	0.00000000	35.99286000	14.16708000
136.79999205	0.00000000	35.62377000	14.16708000
136.99999204	0.00000000	35.99286000	13.79183000
137.19999203	0.00000000	36.36811000	13.04749000
137.39999201	0.00000000	36.78642000	12.62918000
137.59999200	0.00000000	37.57381000	12.21087000
137.79999199	0.00000000	38.32431000	11.46653000
137.99999198	0.00000000	39.06250000	11.09129000
138.19999197	0.00000000	39.06250000	11.04823000
138.39999195	0.00000000	38.32431000	11.04823000
138.59999194	0.00000000	37.57381000	11.09129000
138.79999193	0.00000000	36.74335000	11.46653000
138.99999192	0.00000000	35.99286000	12.21087000
139.19999191	0.00000000	35.20546000	12.58612000
139.39999189	0.00000000	34.87943000	12.67224000
139.59999188	0.00000000	35.20546000	13.04749000
139.79999187	0.00000000	35.99286000	13.79183000
139.99999186	0.00000000	36.74335000	14.11786000
140.19999185	0.00000000	37.53075000	13.74262000
140.39999184	0.00000000	37.90600000	12.62918000
140.59999182	0.00000000	37.94907000	11.51575000
140.79999181	0.00000000	37.94907000	11.04823000
140.99999180	0.00000000	37.90600000	10.62992000
141.19999179	0.00000000	37.53075000	9.93479300
141.39999178	0.00000000	36.78642000	9.93479300
141.59999176	0.00000000	36.41117000	10.67298000
141.79999175	0.00000000	36.36811000	11.46653000
141.99999174	0.00000000	36.41117000	12.67224000
142.19999173	0.00000000	36.78642000	14.11786000
142.39999172	0.00000000	37.53075000	14.85605000
142.59999170	0.00000000	37.90600000	14.21014000
142.79999169	0.00000000	37.94907000	13.46580000
142.99999168	0.00000000	37.90600000	13.37352000
143.19999167	0.00000000	37.53075000	12.53691000
143.39999166	0.00000000	36.78642000	11.09744000
143.59999165	0.00000000	36.41117000	9.93479300
143.79999163	0.00000000	36.36811000	9.56569900
143.99999162	0.00000000	36.41117000	9.93479300
144.19999161	0.00000000	36.78642000	11.04823000
144.39999160	0.00000000	37.53075000	12.16166000
144.59999159	0.00000000	37.90600000	12.62918000
144.79999157	0.00000000	37.94907000	13.04749000
144.99999156	0.00000000	37.94907000	13.79183000
145.19999155	0.00000000	37.90600000	14.11786000
145.39999154	0.00000000	37.53075000	13.79183000
145.59999153	0.00000000	36.78642000	13.04749000
145.79999151	0.00000000	36.41117000	12.62918000
145.99999150	0.00000000	36.36811000	12.21087000
146.19999149	0.00000000	36.36811000	11.46653000
146.39999148	0.00000000	36.36811000	11.09129000
146.59999147	0.00000000	36.41117000	11.09129000
146.79999146	0.00000000	36.78642000	11.46653000
146.99999144	0.00000000	37.53075000	12.21087000
147.19999143	0.00000000	37.90600000	12.58612000
147.39999142	0.00000000	37.94907000	12.62918000
147.59999141	0.00000000	37.90600000	12.62918000
147.79999140	0.00000000	37.53075000	12.62918000
147.99999138	0.00000000	36.78642000	12.62918000
148.19999137	0.00000000	36.41117000	12.62918000
148.39999136	0.00000000	36.36811000	12.62918000
148.59999135	0.00000000	36.36811000	12.62918000
148.79999134	0.00000000	36.36811000	12.62918000
148.99999132	0.00000000	36.41117000	12.58612000
149.19999131	0.00000000	36.74335000	12.21087000
149.39999130	0.00000000	37.15551000	11.46653000
149.59999129	0.00000000	37.16166000	11.09129000
149.79999128	0.00000000	37.57381000	11.09129000
149.99999127	0.00000000	37.85679000	11.46653000
150.19999125	0.00000000	37.53075000	12.21087000
150.39999124	0.00000000	36.78642000	12.58612000
150.59999123	0.00000000	36.41117000	12.62918000
150.79999122	0.00000000	36.36811000	12.62918000
150.99999121	0.00000000	36.36811000	12.62918000
151.19999119	0.00000000	36.36811000	12.62918000
151.39999118	0.00000000	36.36811000	12.62918000
151.59999117	0.00000000	36.36811000	12.58612000
151.79999116	0.00000000	36.36811000	12.21087000
151.99999115	0.00000000	36.36811000	11.46653000
152.19999113	0.00000000	36.41117000	11.09129000
152.39999112	0.00000000	36.78642000	11.09129000
152.59999111	0.00000000	37.53075000	11.46653000
152.79999110	0.00000000	37.90600000	12.21087000
152.99999109	0.00000000	37.94907000	12.58612000
153.19999108	0.00000000	37.90600000	12.62918000
153.39999106	0.00000000	37.53075000	12.62918000
153.59999105	0.00000000	36.78642000	12.62918000
153.79999104	0.00000000	36.41117000	12.62918000
153.99999103	0.00000000	36.36811000	12.62918000
154.19999102	0.00000000	36.36811000	12.62918000
154.39999100	0.00000000	36.36811000	12.62918000
154.59999099	0.00000000	36.36811000	12.62918000
154.79999098	0.00000000	36.36811000	12.62918000
154.99999097	0.00000000	36.36811000	12.62918000
155.19999096	0.00000000	36.41117000	12.62918000
155.39999094	0.00000000	36.78642000	12.58612000
155.59999093	0.00000000	37.53075000	12.21087000
155.79999092	0.00000000	37.90600000	11.46653000
155.99999091	0.00000000	37.90600000	11.14050000
156.19999090	0.00000000	37.53075000	11.46653000
156.39999089	0.00000000	36.78642000	12.21087000
156.59999087	0.00000000	36.41117000	12.58612000
156.79999086	0.00000000	36.36811000	12.67224000
156.99999085	0.00000000	36.32505000	13.00443000
157.19999084	0.00000000	35.99286000	13.37352000
157.39999083	0.00000000	35.62377000	13.00443000
157.59999081	0.00000000	35.99286000	12.62918000
157.79999080	0.00000000	36.36811000	12.21087000
157.99999079	0.00000000	36.74335000	11.46653000
158.19999078	0.00000000	37.15551000	11.14050000
158.39999077	0.00000000	37.16166000	11.42347000
158.59999075	0.00000000	37.57381000	11.79257000
158.79999074	0.00000000	37.90600000	11.42347000
158.99999073	0.00000000	37.94907000	11.14050000
159.19999072	0.00000000	37.90600000	11.46653000
159.39999071	0.00000000	37.53075000	12.21087000
159.59999070	0.00000000	36.78642000	12.58612000
159.79999068	0.00000000	36.41117000	12.67224000
159.99999067	0.00000000	36.32505000	13.00443000
160.19999066	0.00000000	35.99286000	13.37352000
160.39999065	0.00000000	35.62377000	13.00443000
160.59999064	0.00000000	35.99286000	12.67224000
160.79999062	0.00000000	36.32505000	12.58612000
160.99999061	0.00000000	36.36811000	12.21087000
161.19999060	0.00000000	36.36811000	11.46653000
161.39999059	0.00000000	36.36811000	11.09129000
161.59999058	0.00000000	36.36811000	11.04823000
161.79999056	0.00000000	36.36811000	11.04823000
161.99999055	0.00000000	36.36811000	11.09129000
162.19999054	0.00000000	36.41117000	11.46653000
162.39999053	0.00000000	36.74335000	12.21087000
162.59999052	0.00000000	37.11245000	12.58612000
162.79999051	0.00000000	36.74335000	12.62918000
162.99999049	0.00000000	36.41117000	12.62918000
163.19999048	0.00000000	36.36811000	12.62918000
163.39999047	0.00000000	36.32505000	12.62918000
163.59999046	0.00000000	35.94980000	12.58612000
163.79999045	0.00000000	35.25467000	12.25394000
163.99999043	0.00000000	35.25467000	11.84178000
164.19999042	0.00000000	35.94980000	11.87869000
164.39999041	0.00000000	36.32505000	11.79872000
164.59999040	0.00000000	36.36811000	11.83563000
164.79999039	0.00000000	36.41117000	11.42347000
164.99999037	0.00000000	36.78642000	11.09129000
165.19999036	0.00000000	37.48154000	11.09129000
165.39999035	0.00000000	37.48154000	11.46653000
165.59999034	0.00000000	36.78642000	12.21087000
165.79999033	0.00000000	36.41117000	12.58612000
165.99999032	0.00000000	36.36811000	12.62918000
166.19999030	0.00000000	36.36811000	12.62918000
166.39999029	0.00000000	36.36811000	12.62918000
166.59999028	0.00000000	36.36811000	12.62918000
166.79999027	0.00000000	36.36811000	12.62918000
166.99999026	0.00000000	36.36811000	12.62918000
167.19999024	0.00000000	36.36811000	12.58612000
167.39999023	0.00000000	36.36811000	12.21087000
167.59999022	0.00000000	36.36811000	11.46653000
167.79999021	0.00000000	36.36811000	11.09129000
167.99999020	0.00000000	36.41117000	11.09129000
168.19999018	0.00000000	36.74335000	11.46653000
168.39999017	0.00000000	37.11245000	12.21087000
168.59999016	0.00000000	36.74335000	12.53691000
168.79999015	0.00000000	36.41117000	12.25394000
168.99999014	0.00000000	36.36811000	11.84178000
169.19999013	0.00000000	36.36811000	11.87869000
169.39999011	0.00000000	36.36811000	11.79872000
169.59999010	0.00000000	36.36811000	11.87869000
169.79999009	0.00000000	36.36811000	11.79872000
169.99999008	0.00000000	36.36811000	11.87869000
170.19999007	0.00000000	36.36811000	11.84178000
170.39999005	0.00000000	36.36811000	12.25394000
170.59999004	0.00000000	36.36811000	12.58612000
170.79999003	0.00000000	36.36811000	12.62918000
170.99999002	0.00000000	36.36811000	12.62918000
171.19999001	0.00000000	36.36811000	12.58612000
171.39998999	0.00000000	36.36811000	12.21087000
171.59998998	0.00000000	36.36811000	11.42347000
171.79998997	0.00000000	36.36811000	10.72219000
171.99998996	0.00000000	36.36811000	10.35310000
172.19998995	0.00000000	36.36811000	11.09744000
172.39998994	0.00000000	36.36811000	12.11860000
172.59998992	0.00000000	36.36811000	12.16166000
172.79998991	0.00000000	36.36811000	11.51575000
172.99998990	0.00000000	36.36811000	11.51575000
173.19998989	0.00000000	36.36811000	12.21087000
173.39998988	0.00000000	36.36811000	12.58612000
173.59998986	0.00000000	36.36811000	12.62918000
173.79998985	0.00000000	36.41117000	12.62918000
173.99998984	0.00000000	36.74335000	12.62918000
174.19998983	0.00000000	37.11245000	12.62918000
174.39998982	0.00000000	36.74335000	12.62918000
174.59998980	0.00000000	36.41117000	12.58612000
174.79998979	0.00000000	36.36811000	12.25394000
174.99998978	0.00000000	36.36811000	11.88484000
175.19998977	0.00000000	36.36811000	12.25394000
175.39998976	0.00000000	36.36811000	12.53691000
175.59998975	0.00000000	36.36811000	12.21087000
175.79998973	0.00000000	36.36811000	11.46653000
175.99998972	0.00000000	36.36811000	11.14050000
176.19998971	0.00000000	36.36811000	11.46653000
176.39998970	0.00000000	36.36811000	12.16166000
176.59998969	0.00000000	36.36811000	12.16166000
176.79998967	0.00000000	36.36811000	11.46653000
176.99998966	0.00000000	36.36811000	11.09129000
177.19998965	0.00000000	36.36811000	11.04823000
177.39998964	0.00000000	36.36811000	11.04823000
177.59998963	0.00000000	36.32505000	11.04823000
177.79998961	0.00000000	35.99286000	11.04823000
177.99998960	0.00000000	35.62377000	11.04823000
178.19998959	0.00000000	35.99286000	11.09129000
178.39998958	0.00000000	36.32505000	11.46653000
178.59998957	0.00000000	36.36811000	12.21087000
178.79998956	0.00000000	36.36811000	12.58612000
178.99998954	0.00000000	36.36811000	12.62918000
179.19998953	0.00000000	36.36811000	12.62918000
179.39998952	0.00000000	36.36811000	12.62918000
179.59998951	0.00000000	36.36811000	12.62918000
179.79998950	0.00000000	36.36811000	12.58612000
179.99998948	0.00000000	36.36811000	12.21087000
180.19998947	0.00000000	36.36811000	11.51575000
180.39998946	0.00000000	36.36811000	11.51575000
180.59998945	0.00000000	36.36811000	12.16166000
180.79998944	0.00000000	36.36811000	12.21087000
180.99998942	0.00000000	36.36811000	11.88484000
181.19998941	0.00000000	36.36811000	12.25394000
181.39998940	0.00000000	36.36811000	12.58612000
181.59998939	0.00000000	36.36811000	12.62918000
181.79998938	0.00000000	36.36811000	12.62918000
181.99998937	0.00000000	36.36811000	12.62918000
182.19998935	0.00000000	36.36811000	12.62918000
182.39998934	0.00000000	36.41117000	12.62918000
182.59998933	0.00000000	36.74335000	12.62918000
182.79998932	0.00000000	37.11245000	12.58612000
182.99998931	0.00000000	36.74335000	12.21087000
183.19998929	0.00000000	36.41117000	11.46653000
183.39998928	0.00000000	36.36811000	11.09129000
183.59998927	0.00000000	36.36811000	11.04823000
183.79998926	0.00000000	36.36811000	11.09129000
183.99998925	0.00000000	36.36811000	11.46653000
184.19998923	0.00000000	36.36811000	12.21087000
184.39998922	0.00000000	36.36811000	12.58612000
184.59998921	0.00000000	36.36811000	12.62918000
184.79998920	0.00000000	36.36811000	12.67224000
184.99998919	0.00000000	36.36811000	13.00443000
185.19998918	0.00000000	36.36811000	13.32431000
185.39998916	0.00000000	36.36811000	12.58612000
185.59998915	0.00000000	36.36811000	11.51575000
185.79998914	0.00000000	36.36811000	11.09129000
185.99998913	0.00000000	36.36811000	11.04823000
186.19998912	0.00000000	36.36811000	11.04823000
186.39998910	0.00000000	36.36811000	11.04823000
186.59998909	0.00000000	36.36811000	11.04823000
186.79998908	0.00000000	36.32505000	11.04823000
186.99998907	0.00000000	35.99286000	11.04823000
187.19998906	0.00000000	35.58071000	11.09129000
187.39998904	0.00000000	35.61762000	11.46653000
187.59998903	0.00000000	35.58071000	12.21087000
187.79998902	0.00000000	35.99286000	12.58612000
187.99998901	0.00000000	36.32505000	12.62918000
188.19998900	0.00000000	36.36811000	12.62918000
188.39998899	0.00000000	36.36811000	12.58612000
188.59998897	0.00000000	36.36811000	12.21087000
188.79998896	0.00000000	36.36811000	11.46653000
188.99998895	0.00000000	36.36811000	11.09129000
189.19998894	0.00000000	36.36811000	11.04823000
189.39998893	0.00000000	36.36811000	11.04823000
189.59998891	0.00000000	36.36811000	11.04823000
189.79998890	0.00000000	36.36811000	11.04823000
189.99998889	0.00000000	36.36811000	11.04823000
190.19998888	0.00000000	36.36811000	11.09129000
190.39998887	0.00000000	36.36811000	11.46653000
190.59998885	0.00000000	36.36811000	12.21087000
190.79998884	0.00000000	36.36811000	12.58612000
190.99998883	0.00000000	36.36811000	12.62918000
191.19998882	0.00000000	36.36811000	12.62918000
191.39998881	0.00000000	36.36811000	12.62918000
191.59998880	0.00000000	36.36811000	12.62918000
191.79998878	0.00000000	36.36811000	12.58612000
191.99998877	0.00000000	36.36811000	12.21087000
192.19998876	0.00000000	36.36811000	11.46653000
192.39998875	0.00000000	36.36811000	11.09129000
192.59998874	0.00000000	36.36811000	11.04823000
192.79998872	0.00000000	36.36811000	11.04823000
192.99998871	0.00000000	36.32505000	11.04823000
193.19998870	0.00000000	35.99286000	11.09129000
193.39998869	0.00000000	35.62377000	11.46653000
193.59998868	0.00000000	35.99286000	12.21087000
193.79998866	0.00000000	36.27584000	12.58612000
193.99998865	0.00000000	35.99286000	12.62918000
194.19998864	0.00000000	35.62377000	12.62918000
194.39998863	0.00000000	35.99286000	12.62918000
194.59998862	0.00000000	36.32505000	12.62918000
194.79998861	0.00000000	36.36811000	12.62918000
194.99998859	0.00000000	36.36811000	12.58612000
195.19998858	0.00000000	36.36811000	12.21087000
195.39998857	0.00000000	36.36811000	11.46653000
195.59998856	0.00000000	36.36811000	11.09129000
195.79998855	0.00000000	36.36811000	11.04823000
195.99998853	0.00000000	36.32505000	11.04823000
