Time	Channel A	Channel B	Channel C
(us)	(V)	(mV)	(mV)

-4.59999956	0.00000000	83.33538000	34.31963000
-4.39999957	0.00000000	82.68947000	33.57529000
-4.19999958	0.00000000	82.64025000	33.20005000
-3.99999959	0.00000000	83.00935000	33.15699000
-3.79999960	0.00000000	83.01550000	33.20005000
-3.59999962	0.00000000	83.42766000	33.53223000
-3.39999963	0.00000000	83.75984000	33.94439000
-3.19999964	0.00000000	83.80289000	33.95054000
-2.99999965	0.00000000	83.75984000	34.31963000
-2.79999966	0.00000000	83.38459000	34.27042000
-2.59999968	0.00000000	82.68947000	33.57529000
-2.39999969	0.00000000	82.64025000	33.20005000
-2.19999970	0.00000000	82.96629000	33.20005000
-1.99999971	0.00000000	82.64025000	33.53223000
-1.79999972	0.00000000	82.64025000	33.90133000
-1.59999973	0.00000000	82.96629000	33.53223000
-1.39999975	0.00000000	82.64025000	33.20005000
-1.19999976	0.00000000	82.64025000	33.15699000
-0.99999977	0.00000000	82.96629000	33.15699000
-0.79999978	0.00000000	82.59719000	33.15699000
-0.59999979	0.00000000	82.26501000	33.15699000
-0.39999981	0.00000000	82.22194000	33.15699000
-0.19999982	0.31803640	82.22194000	33.15699000
0.00000017	0.79601380	82.22194000	33.15699000
0.20000016	0.95533960	82.22194000	33.11393000
0.40000015	0.95533960	82.22194000	32.82480000
0.60000013	0.79601380	82.22194000	32.78789000
0.80000012	0.15871060	82.26501000	33.52608000
1.00000011	-0.63668800	82.59719000	33.48917000
1.20000010	-1.59264300	82.96629000	33.20005000
1.40000009	-2.54859700	82.59719000	33.15699000
1.60000008	-2.70792300	82.26501000	33.15699000
1.80000006	-2.22994600	82.22194000	33.15699000
2.00000005	-0.95533960	82.22194000	33.15699000
2.20000004	0.79601380	82.26501000	33.20005000
2.40000003	3.02657500	82.59719000	33.53223000
2.60000002	4.61921700	82.96629000	33.90133000
2.80000000	5.41584600	82.59719000	33.53223000
2.99999999	4.61921700	82.26501000	33.20005000
3.19999998	2.54859700	82.22194000	33.15699000
3.39999997	-0.63668800	82.22194000	33.15699000
3.59999996	-4.14124000	82.22194000	33.15699000
3.79999994	-6.84916400	82.22194000	33.15699000
3.99999993	-7.96444400	82.22194000	33.20005000
4.19999992	-7.16781500	82.22194000	33.57529000
4.39999991	-4.45989200	82.22194000	34.31963000
4.59999990	-0.31803640	82.22194000	34.69488000
4.79999989	4.14124000	82.22194000	34.69488000
4.99999987	7.64579200	82.22194000	34.31963000
5.19999986	9.39837600	82.22194000	33.57529000
5.39999985	8.76107300	82.22194000	33.20005000
5.59999984	5.89382400	82.22194000	33.15699000
5.79999983	1.59264300	82.22194000	33.15699000
5.99999981	-3.18590100	82.22194000	33.15699000
6.19999980	-7.16781500	82.22194000	33.15699000
6.39999979	-9.23905000	82.22194000	33.15699000
6.59999978	-9.07972400	82.22194000	33.20005000
6.79999977	-6.53112700	82.22194000	33.53223000
6.99999975	-2.70792300	82.22194000	33.90133000
7.19999974	1.59264300	82.22194000	33.53223000
7.39999973	5.41584600	82.22194000	33.20005000
7.59999972	7.48646600	82.22194000	33.15699000
7.79999971	7.48646600	82.22194000	33.15699000
7.99999970	5.89382400	82.22194000	33.11393000
8.19999968	2.86724900	82.22194000	32.78174000
8.39999967	-0.31803640	82.22194000	32.41265000
8.59999966	-3.18590100	82.22194000	32.78174000
8.79999965	-4.93786900	82.22194000	33.11393000
8.99999964	-5.09719500	82.22194000	33.15699000
9.19999962	-4.14124000	82.22194000	33.15699000
9.39999961	-2.38927200	82.22194000	33.15699000
9.59999960	-0.31803640	82.22194000	33.15699000
9.79999959	1.27399100	82.22194000	33.15699000
9.99999958	2.38927200	82.22194000	33.15699000
10.19999956	2.54859700	82.22194000	33.15699000
10.39999955	2.07062000	82.22194000	33.15699000
10.59999954	1.27399100	82.22194000	33.15699000
10.79999953	0.47736220	82.22194000	33.15699000
10.99999952	-0.31803640	82.22194000	33.15699000
11.19999951	-0.79601380	82.22194000	33.15699000
11.39999949	-0.95533960	82.22194000	33.15699000
11.59999948	-0.95533960	82.26501000	33.15699000
11.79999947	-0.63668800	82.59719000	33.15699000
11.99999946	-0.31803640	82.96629000	33.15699000
12.19999945	-0.15871060	82.59719000	33.15699000
12.39999943	-0.15871060	82.26501000	33.15699000
12.59999942	0.00000000	82.22194000	33.15699000
12.79999941	0.00000000	82.22194000	33.15699000
12.99999940	0.00000000	82.22194000	33.15699000
13.19999939	0.15871060	82.22194000	33.15699000
13.39999937	0.00000000	82.22194000	33.15699000
13.59999936	0.00000000	82.22194000	33.15699000
13.79999935	0.00000000	82.22194000	33.15699000
13.99999934	0.00000000	82.22194000	33.15699000
14.19999933	-0.15871060	82.22194000	33.15699000
14.39999932	-0.15871060	82.22194000	33.15699000
14.59999930	-0.15871060	82.22194000	33.15699000
14.79999929	0.00000000	82.22194000	33.15699000
14.99999928	0.00000000	82.22194000	33.15699000
15.19999927	0.00000000	82.17889000	33.15699000
15.39999926	0.00000000	81.84669000	33.15699000
15.59999924	0.00000000	81.47760000	33.15699000
15.79999923	0.00000000	81.84669000	33.15699000
15.99999922	0.00000000	82.17889000	33.15699000
16.19999921	0.00000000	82.22194000	33.20005000
16.39999920	0.00000000	82.26501000	33.53223000
16.59999919	-0.15871060	82.64025000	33.90133000
16.79999917	0.00000000	83.38459000	33.53223000
16.99999916	0.00000000	83.75984000	33.20005000
17.19999915	0.00000000	83.80289000	33.15699000
17.39999914	0.00000000	83.80289000	33.15699000
17.59999913	0.00000000	83.80289000	33.15699000
17.79999911	0.00000000	83.75984000	33.15699000
17.99999910	0.00000000	83.33538000	33.15699000
18.19999909	0.00000000	82.17889000	33.15699000
18.39999908	0.00000000	80.64099000	33.15699000
18.59999907	0.00000000	79.06004000	33.15699000
18.79999905	0.00000000	77.52214000	33.15699000
18.99999904	0.00000000	76.40871000	33.15699000
19.19999903	0.00000000	76.45177000	33.15699000
19.39999902	0.00000000	78.03272000	33.15699000
19.59999901	0.00000000	81.10851000	33.15699000
19.79999900	0.00000000	85.00861000	33.15699000
19.99999898	0.00000000	88.87794000	33.15699000
20.19999897	0.00000000	92.35974000	33.15699000
20.39999896	0.00000000	94.13754000	33.15699000
20.59999895	0.00000000	92.96874000	33.15699000
20.79999894	0.00000000	88.36737000	33.15699000
20.99999892	0.00000000	82.12967000	33.15699000
21.19999891	0.00000000	75.10458000	33.15699000
21.39999890	0.00000000	67.80266000	33.15699000
21.59999889	0.00000000	62.86294000	33.15699000
21.79999888	0.00000000	61.74335000	33.15699000
21.99999886	0.00000000	65.32972000	33.11393000
22.19999885	0.00000000	73.84350000	32.78174000
22.39999884	0.00000000	85.47613000	32.41265000
22.59999883	0.00000000	97.85310000	32.78174000
22.79999882	0.00000000	108.59990000	33.11393000
22.99999881	0.00000000	114.28400000	33.15699000
23.19999879	0.00000000	112.65380000	33.15699000
23.39999878	0.00000000	103.34650000	33.20005000
23.59999877	0.00000000	87.89984000	33.57529000
23.79999876	0.00000000	70.08488000	34.31963000
23.99999875	0.00000000	53.51254000	34.69488000
24.19999873	0.00000000	41.97834000	34.69488000
24.39999872	0.00000000	39.36393000	34.27042000
24.59999871	0.00000000	46.35211000	33.11393000
24.79999870	0.00000000	62.26008000	31.57603000
24.99999869	0.00000000	83.84596000	30.00123000
25.19999867	0.00000000	105.85630000	28.46333000
25.39999866	0.00000000	123.25910000	27.34990000
25.59999865	0.00000000	132.05580000	27.39296000
25.79999864	0.00000000	129.68130000	28.93085000
25.99999863	0.00000000	115.77260000	31.66830000
26.19999862	0.00000000	93.80536000	35.19931000
26.39999860	0.00000000	69.05757000	39.43159000
26.59999859	0.00000000	46.99803000	43.23941000
26.79999858	0.00000000	32.38804000	45.14640000
26.99999857	0.00000000	28.90010000	44.72810000
27.19999856	0.00000000	37.78297000	41.56618000
27.39999854	0.00000000	56.26230000	35.71604000
27.59999853	0.00000000	80.26574000	28.00197000
27.79999852	0.00000000	104.18920000	19.96186000
27.99999851	0.00000000	122.79160000	14.20399000
28.19999850	0.00000000	132.05580000	12.29085000
28.39999848	0.00000000	130.14270000	14.66535000
28.59999847	0.00000000	117.43970000	21.67815000
28.79999846	0.00000000	97.43479000	32.12967000
28.99999845	0.00000000	75.38139000	44.11909000
29.19999844	0.00000000	55.97933000	55.27190000
29.39999843	0.00000000	42.81496000	62.52460000
29.59999841	0.00000000	38.53346000	63.63803000
29.79999840	0.00000000	43.88533000	57.83095000
29.99999839	0.00000000	56.95743000	46.21678000
30.19999838	0.00000000	74.36023000	31.11466000
30.39999837	0.00000000	92.18134000	15.31742000
30.59999835	0.00000000	106.92670000	2.63287400
30.79999834	0.00000000	115.86490000	-3.54330700
30.99999833	0.00000000	117.44590000	-2.01156500
31.19999832	0.00000000	111.67570000	6.95127900
31.39999831	0.00000000	100.08610000	22.01033000
31.59999829	0.00000000	85.43307000	40.16978000
31.79999828	0.00000000	71.09989000	57.13583000
31.99999827	0.00000000	60.21161000	69.48818000
32.19999826	0.00000000	54.34916000	74.09571000
32.39999825	0.00000000	54.34916000	69.90649000
32.59999824	0.00000000	60.11934000	58.29232000
32.79999822	0.00000000	70.17101000	41.65846000
32.99999821	0.00000000	82.12967000	23.12377000
33.19999820	0.00000000	93.34399000	6.90821800
33.39999819	0.00000000	101.07040000	-3.54330700
33.59999818	0.00000000	103.85700000	-6.28075700
33.79999816	0.00000000	101.53790000	-0.89812980
33.99999815	0.00000000	95.01106000	11.09129000
34.19999814	0.00000000	85.75910000	27.34990000
34.39999813	0.00000000	76.54404000	44.68504000
34.59999812	0.00000000	69.51894000	58.95053000
34.79999810	0.00000000	66.07406000	66.75073000
34.99999809	0.00000000	66.81841000	67.16904000
35.19999808	0.00000000	71.79503000	60.56840000
35.39999807	0.00000000	79.01697000	47.84079000
35.59999806	0.00000000	85.99286000	32.08661000
35.79999805	0.00000000	91.01869000	17.44587000
35.99999803	0.00000000	93.38705000	7.36958600
36.19999802	0.00000000	92.55659000	3.83858300
36.39999801	0.00000000	88.77952000	6.90821800
36.59999800	0.00000000	83.01550000	15.77879000
36.79999799	0.00000000	77.65748000	28.42027000
36.99999797	0.00000000	73.75738000	41.10482000
37.19999796	0.00000000	72.21949000	50.35679000
37.39999795	0.00000000	73.33292000	54.25689000
37.59999794	0.00000000	76.45177000	51.98080000
37.79999793	0.00000000	81.05930000	44.72810000
37.99999791	0.00000000	86.07898000	34.78100000
38.19999790	0.00000000	89.89911000	25.16609000
38.39999789	0.00000000	91.84916000	18.65157000
38.59999788	0.00000000	91.06176000	16.70768000
38.79999787	0.00000000	88.03519000	20.14641000
38.99999786	0.00000000	83.80289000	27.39296000
39.19999784	0.00000000	79.52755000	36.26968000
39.39999783	0.00000000	75.99039000	44.63582000
39.59999782	0.00000000	73.28986000	49.56323000
39.79999781	0.00000000	72.17642000	48.81889000
39.99999780	0.00000000	73.28986000	43.06102000
40.19999778	0.00000000	75.99039000	33.85211000
40.39999777	0.00000000	79.47834000	23.54207000
40.59999776	0.00000000	83.38459000	15.91412000
40.79999775	0.00000000	86.82947000	13.17667000
40.99999774	0.00000000	89.19783000	15.87106000
41.19999772	0.00000000	89.99139000	23.12377000
41.39999771	0.00000000	89.61613000	32.78174000
41.59999770	0.00000000	88.03519000	42.40895000
41.79999769	0.00000000	85.29158000	50.06767000
41.99999768	0.00000000	81.84669000	53.13730000
42.19999767	0.00000000	78.36491000	50.86122000
42.39999765	0.00000000	76.03346000	44.35285000
42.59999764	0.00000000	74.82775000	35.11319000
42.79999763	0.00000000	74.82775000	25.90428000
42.99999762	0.00000000	75.99039000	18.94070000
43.19999761	0.00000000	77.89738000	15.87106000
43.39999759	0.00000000	80.26574000	17.35974000
43.59999758	0.00000000	82.55412000	22.65625000
43.79999757	0.00000000	84.49802000	29.58292000
43.99999756	0.00000000	85.29158000	36.17741000
44.19999755	0.00000000	85.38385000	41.61540000
44.39999753	0.00000000	85.38385000	44.68504000
44.59999752	0.00000000	85.38385000	44.72810000
44.79999751	0.00000000	85.38385000	42.07677000
44.99999750	0.00000000	85.34079000	37.89370000
45.19999749	0.00000000	84.91634000	33.62450000
45.39999748	0.00000000	83.75984000	30.08735000
45.59999746	0.00000000	82.17889000	27.39296000
45.79999745	0.00000000	80.17347000	26.23647000
45.99999744	0.00000000	77.43602000	26.97465000
46.19999743	0.00000000	74.40945000	28.88164000
46.39999742	0.00000000	72.12721000	31.62524000
46.59999740	0.00000000	71.80117000	34.68873000
46.79999739	0.00000000	73.75738000	37.38312000
46.99999738	0.00000000	78.03272000	38.92101000
47.19999737	0.00000000	83.80289000	38.96407000
47.39999736	0.00000000	89.61613000	37.80142000
47.59999734	0.00000000	94.27287000	35.85138000
47.79999733	0.00000000	96.92421000	33.15699000
47.99999732	0.00000000	96.45669000	30.46260000
48.19999731	0.00000000	92.22440000	28.51255000
48.39999730	0.00000000	85.24852000	27.30684000
48.59999729	0.00000000	77.10384000	27.01772000
48.79999727	0.00000000	69.05757000	28.18651000
48.99999726	0.00000000	63.70570000	31.25000000
49.19999725	0.00000000	62.90600000	34.64567000
49.39999724	0.00000000	66.35703000	37.43233000
49.59999723	0.00000000	73.37598000	39.33932000
49.79999721	0.00000000	82.59719000	40.03444000
49.99999720	0.00000000	91.84916000	38.50270000
50.19999719	0.00000000	98.36982000	35.06397000
50.39999718	0.00000000	100.73820000	31.20078000
50.59999717	0.00000000	98.36982000	27.34990000
50.79999715	0.00000000	91.84916000	24.65551000
50.99999714	0.00000000	82.59719000	23.86196000
51.19999713	0.00000000	73.42519000	24.65551000
51.39999712	0.00000000	66.81841000	27.39296000
51.59999711	0.00000000	64.48695000	31.57603000
51.79999710	0.00000000	66.40009000	35.85138000
51.99999708	0.00000000	72.17027000	39.29626000
52.19999707	0.00000000	80.22269000	41.19709000
52.39999706	0.00000000	87.85679000	40.40969000
52.59999705	0.00000000	92.96874000	37.43233000
52.79999704	0.00000000	94.51279000	33.57529000
52.99999702	0.00000000	92.96874000	30.08735000
53.19999701	0.00000000	87.94906000	27.34990000
53.39999700	0.00000000	81.10851000	25.86122000
53.59999699	0.00000000	74.91387000	26.23647000
53.79999698	0.00000000	70.68159000	28.51255000
53.99999696	0.00000000	69.56815000	31.53297000
54.19999695	0.00000000	72.21949000	34.27042000
54.39999694	0.00000000	77.57135000	36.17741000
54.59999693	0.00000000	83.71062000	36.92175000
54.79999692	0.00000000	89.06249000	35.75910000
54.99999691	0.00000000	91.75688000	33.15699000
55.19999689	0.00000000	91.06176000	30.51181000
55.39999688	0.00000000	87.99212000	28.97392000
55.59999687	0.00000000	83.33538000	28.97392000
55.79999686	0.00000000	77.98966000	30.51181000
55.99999685	0.00000000	73.75738000	33.15699000
56.19999683	0.00000000	71.80117000	35.85138000
56.39999682	0.00000000	72.17642000	37.75836000
56.59999681	0.00000000	74.91387000	38.50270000
56.79999680	0.00000000	79.47834000	37.29700000
56.99999679	0.00000000	84.45496000	34.22736000
57.19999677	0.00000000	87.94906000	30.00123000
57.39999676	0.00000000	89.53001000	25.81816000
57.59999675	0.00000000	89.15477000	23.16683000
57.79999674	0.00000000	86.82947000	23.16683000
57.99999673	0.00000000	83.38459000	25.86122000
58.19999672	0.00000000	79.57062000	30.51181000
58.39999670	0.00000000	76.87007000	36.26968000
58.59999669	0.00000000	76.03346000	41.65846000
58.79999668	0.00000000	76.40871000	45.10334000
58.99999667	0.00000000	77.94660000	45.84153000
59.19999666	0.00000000	80.22269000	43.10408000
59.39999664	0.00000000	82.12967000	37.34006000
59.59999663	0.00000000	83.33538000	30.04429000
59.79999662	0.00000000	83.71062000	23.12377000
59.99999661	0.00000000	83.33538000	18.51624000
60.19999660	0.00000000	82.22194000	17.35974000
60.39999658	0.00000000	81.05930000	20.09719000
60.59999657	0.00000000	80.30881000	26.23647000
60.79999656	0.00000000	79.89664000	34.31963000
60.99999655	0.00000000	80.30881000	41.99065000
61.19999654	0.00000000	81.05930000	47.42249000
61.39999653	0.00000000	82.22194000	49.32948000
61.59999651	0.00000000	83.33538000	47.37327000
61.79999650	0.00000000	83.71062000	41.56618000
61.99999649	0.00000000	83.33538000	33.15699000
62.19999648	0.00000000	82.12967000	24.69857000
62.39999647	0.00000000	80.26574000	18.52239000
62.59999645	0.00000000	78.31569000	15.77879000
62.79999644	0.00000000	77.23917000	16.94144000
62.99999643	0.00000000	77.15920000	21.58587000
63.19999642	0.00000000	78.35260000	28.88779000
63.39999641	0.00000000	79.89664000	36.96481000
63.59999639	0.00000000	82.26501000	43.52239000
63.79999638	0.00000000	84.87327000	47.42249000
63.99999637	0.00000000	86.41116000	47.79773000
64.19999636	0.00000000	86.45423000	44.72810000
64.39999635	0.00000000	85.29158000	39.00713000
64.59999634	0.00000000	83.33538000	32.41265000
64.79999632	0.00000000	80.64099000	26.59941000
64.99999631	0.00000000	77.98966000	21.96112000
65.19999630	0.00000000	76.45177000	20.01107000
65.39999629	0.00000000	76.40871000	20.70620000
65.59999628	0.00000000	77.57135000	23.03149000
65.79999626	0.00000000	79.47834000	26.93159000
65.99999625	0.00000000	81.80363000	31.53297000
66.19999624	0.00000000	83.66756000	35.80217000
66.39999623	0.00000000	84.45496000	38.96407000
66.59999622	0.00000000	83.71062000	40.92027000
66.79999620	0.00000000	82.17889000	41.70152000
66.99999619	0.00000000	80.26574000	40.92027000
67.19999618	0.00000000	78.31569000	39.00713000
67.39999617	0.00000000	77.23917000	36.26968000
67.59999616	0.00000000	77.24532000	33.15699000
67.79999615	0.00000000	79.19537000	30.00123000
67.99999613	0.00000000	82.17889000	26.88853000
68.19999612	0.00000000	84.87327000	24.19414000
68.39999611	0.00000000	86.41116000	22.69931000
68.59999610	0.00000000	86.41116000	23.07455000
68.79999609	0.00000000	84.87327000	25.39985000
68.99999607	0.00000000	82.12967000	28.88779000
69.19999606	0.00000000	78.64173000	33.20005000
69.39999605	0.00000000	74.78469000	37.80142000
69.59999604	0.00000000	71.75196000	41.65846000
69.79999603	0.00000000	70.63853000	43.56545000
69.99999601	0.00000000	72.21949000	43.23941000
70.19999600	0.00000000	76.45177000	40.87721000
70.39999599	0.00000000	82.22194000	37.01402000
70.59999598	0.00000000	87.99212000	31.95128000
70.79999597	0.00000000	92.22440000	26.97465000
70.99999596	0.00000000	93.80536000	23.12377000
71.19999594	0.00000000	92.59965000	21.58587000
71.39999593	0.00000000	88.73031000	22.70546000
71.59999592	0.00000000	82.55412000	25.77510000
71.79999591	0.00000000	76.03346000	30.04429000
71.99999590	0.00000000	70.58932000	34.64567000
72.19999588	0.00000000	67.51968000	38.50270000
72.39999587	0.00000000	67.47047000	40.45890000
72.59999586	0.00000000	70.21407000	40.50196000
72.79999585	0.00000000	75.24606000	38.96407000
72.99999584	0.00000000	81.75443000	36.26968000
73.19999582	0.00000000	87.57381000	33.20005000
73.39999581	0.00000000	91.48006000	30.51181000
73.59999580	0.00000000	93.38705000	29.01698000
73.79999579	0.00000000	92.22440000	29.34916000
73.99999578	0.00000000	88.41042000	31.15772000
74.19999577	0.00000000	83.38459000	32.64640000
74.39999575	0.00000000	77.98966000	33.11393000
74.59999574	0.00000000	73.75738000	33.11393000
74.79999573	0.00000000	71.75196000	32.64640000
74.99999572	0.00000000	71.70891000	31.11466000
75.19999571	0.00000000	73.28986000	28.93085000
75.39999569	0.00000000	76.36565000	27.81127000
75.59999568	0.00000000	80.22269000	28.55561000
75.79999567	0.00000000	83.71062000	30.51181000
75.99999566	0.00000000	86.36810000	33.62450000
76.19999565	0.00000000	87.19856000	37.43233000
76.39999563	0.00000000	86.09129000	40.45275000
76.59999562	0.00000000	84.59030000	41.65846000
76.79999561	0.00000000	82.64025000	40.82800000
76.99999560	0.00000000	81.10851000	38.12746000
77.19999559	0.00000000	80.26574000	33.43996000
77.39999558	0.00000000	79.52755000	28.08809000
77.59999556	0.00000000	79.52755000	23.07455000
77.79999555	0.00000000	80.22269000	20.05413000
77.99999554	0.00000000	80.54871000	20.05413000
78.19999553	0.00000000	80.22269000	23.12377000
78.39999552	0.00000000	79.43528000	28.51255000
78.59999550	0.00000000	78.72785000	34.69488000
78.79999549	0.00000000	78.31569000	40.50196000
78.99999548	0.00000000	78.77706000	44.72810000
79.19999547	0.00000000	79.89664000	46.25984000
79.39999546	0.00000000	81.84669000	44.72810000
79.59999544	0.00000000	83.75984000	40.50196000
79.79999543	0.00000000	85.29158000	34.73794000
79.99999542	0.00000000	86.03592000	28.93085000
80.19999541	0.00000000	85.24852000	24.28026000
80.39999540	0.00000000	83.33538000	21.54281000
80.59999539	0.00000000	80.64099000	21.12451000
80.79999537	0.00000000	77.94660000	22.65625000
80.99999536	0.00000000	75.99039000	25.77510000
81.19999535	0.00000000	74.82775000	30.00123000
81.39999534	0.00000000	74.87081000	34.27042000
81.59999533	0.00000000	76.40871000	37.80758000
81.79999531	0.00000000	79.10310000	40.50196000
81.99999530	0.00000000	82.17889000	41.65846000
82.19999529	0.00000000	84.87327000	40.92027000
82.39999528	0.00000000	86.41116000	39.00713000
82.59999527	0.00000000	86.41116000	36.26968000
82.79999525	0.00000000	84.87327000	33.15699000
82.99999524	0.00000000	82.22194000	30.00123000
83.19999523	0.00000000	79.52755000	26.93159000
83.39999522	0.00000000	77.61442000	24.61245000
83.59999521	0.00000000	76.78395000	23.81890000
83.79999520	0.00000000	77.14690000	24.19414000
83.99999518	0.00000000	77.89738000	25.77510000
84.19999517	0.00000000	79.10310000	28.51255000
84.39999516	0.00000000	80.54871000	31.99434000
84.59999515	0.00000000	81.38533000	35.89444000
84.79999514	0.00000000	81.43454000	39.33932000
84.99999512	0.00000000	81.80363000	41.65846000
85.19999511	0.00000000	81.75443000	41.99065000
85.39999510	0.00000000	81.05930000	40.07751000
85.59999509	0.00000000	80.73326000	36.22662000
85.79999508	0.00000000	81.05930000	31.57603000
85.99999506	0.00000000	81.80363000	26.93159000
86.19999505	0.00000000	82.17889000	23.12377000
86.39999504	0.00000000	82.17889000	21.58587000
86.59999503	0.00000000	81.75443000	22.70546000
86.79999502	0.00000000	80.59792000	25.77510000
86.99999501	0.00000000	79.10310000	30.09350000
87.19999499	0.00000000	77.94660000	35.07013000
87.39999498	0.00000000	77.57135000	39.65920000
87.59999497	0.00000000	77.89738000	41.99065000
87.79999496	0.00000000	78.68478000	42.03371000
87.99999495	0.00000000	79.47834000	40.07751000
88.19999493	0.00000000	80.68405000	36.22662000
88.39999492	0.00000000	82.17889000	31.61909000
88.59999491	0.00000000	83.33538000	27.34990000
88.79999490	0.00000000	83.71062000	24.28026000
88.99999489	0.00000000	83.33538000	23.16683000
89.19999487	0.00000000	82.17889000	24.69857000
89.39999486	0.00000000	80.64099000	28.51255000
89.59999485	0.00000000	79.10310000	33.11393000
89.79999484	0.00000000	77.94660000	37.34006000
89.99999483	0.00000000	77.57135000	40.03444000
90.19999482	0.00000000	77.94660000	40.45890000
90.39999480	0.00000000	79.06004000	38.92101000
90.59999479	0.00000000	80.22269000	35.80217000
90.79999478	0.00000000	81.01624000	31.57603000
90.99999477	0.00000000	81.80363000	27.39296000
91.19999476	0.00000000	82.17889000	24.74778000
91.39999474	0.00000000	82.17889000	24.69857000
91.59999473	0.00000000	81.80363000	26.97465000
91.79999472	0.00000000	81.05930000	30.46260000
91.99999471	0.00000000	80.68405000	34.73794000
92.19999470	0.00000000	80.64099000	38.87795000
92.39999468	0.00000000	80.64099000	41.14788000
92.59999467	0.00000000	80.59792000	40.40969000
92.79999466	0.00000000	80.22269000	37.38312000
92.99999465	0.00000000	79.47834000	33.15699000
93.19999464	0.00000000	79.10310000	28.93085000
93.39999463	0.00000000	79.01697000	25.81816000
93.59999461	0.00000000	78.68478000	24.28026000
93.79999460	0.00000000	78.31569000	24.69857000
93.99999459	0.00000000	78.77706000	27.39296000
94.19999458	0.00000000	79.89664000	31.57603000
94.39999457	0.00000000	81.84669000	35.80217000
94.59999455	0.00000000	83.71062000	38.87795000
94.79999454	0.00000000	84.91634000	40.03444000
94.99999453	0.00000000	85.29158000	38.87795000
95.19999452	0.00000000	84.87327000	35.80217000
95.39999451	0.00000000	83.29231000	31.57603000
95.59999449	0.00000000	80.59792000	27.39296000
95.79999448	0.00000000	77.52214000	24.69857000
95.99999447	0.00000000	74.82775000	24.32948000
96.19999446	0.00000000	73.28986000	26.19340000
96.39999445	0.00000000	73.28986000	29.62598000
96.59999444	0.00000000	74.82775000	33.06471000
96.79999442	0.00000000	77.57135000	35.80217000
96.99999441	0.00000000	81.05930000	37.34006000
97.19999440	0.00000000	84.91634000	37.34006000
97.39999439	0.00000000	87.94906000	35.85138000
97.59999438	0.00000000	89.10555000	33.53223000
97.79999436	0.00000000	87.99212000	31.20078000
97.99999435	0.00000000	85.29158000	28.88164000
98.19999434	0.00000000	81.80363000	27.39296000
98.39999433	0.00000000	77.89738000	27.34990000
98.59999432	0.00000000	74.45251000	28.46333000
98.79999430	0.00000000	72.08414000	30.00123000
98.99999429	0.00000000	71.33366000	31.57603000
99.19999428	0.00000000	72.12721000	33.06471000
99.39999427	0.00000000	74.82775000	33.85211000
99.59999426	0.00000000	78.64173000	33.53223000
99.79999425	0.00000000	82.17889000	33.20005000
99.99999423	0.00000000	85.29158000	33.15699000
100.19999422	0.00000000	87.57381000	33.15699000
100.39999421	0.00000000	87.94906000	33.15699000
100.59999420	0.00000000	86.45423000	33.15699000
100.79999419	0.00000000	83.75984000	33.15699000
100.99999417	0.00000000	80.68405000	33.11393000
101.19999416	0.00000000	77.94660000	32.68946000
101.39999415	0.00000000	75.99039000	31.53297000
101.59999414	0.00000000	74.78469000	30.00123000
101.79999413	0.00000000	74.40945000	28.51255000
101.99999411	0.00000000	74.82775000	27.76821000
102.19999410	0.00000000	76.36565000	28.51255000
102.39999409	0.00000000	78.68478000	30.08735000
102.59999408	0.00000000	81.01624000	32.41265000
102.79999407	0.00000000	83.33538000	35.47613000
102.99999406	0.00000000	84.87327000	37.71530000
103.19999404	0.00000000	85.29158000	38.54576000
103.39999403	0.00000000	84.87327000	37.75836000
103.59999402	0.00000000	83.33538000	35.85138000
103.79999401	0.00000000	81.05930000	33.11393000
103.99999400	0.00000000	79.10310000	30.04429000
104.19999398	0.00000000	77.52214000	27.34990000
104.39999397	0.00000000	76.36565000	25.81816000
104.59999396	0.00000000	76.03346000	25.81816000
104.79999395	0.00000000	76.78395000	27.34990000
104.99999394	0.00000000	78.68478000	30.04429000
105.19999392	0.00000000	80.54871000	33.11393000
105.39999391	0.00000000	81.75443000	35.80217000
105.59999390	0.00000000	82.17889000	37.34006000
105.79999389	0.00000000	82.17889000	37.34006000
105.99999388	0.00000000	81.80363000	35.85138000
106.19999387	0.00000000	81.01624000	33.53223000
106.39999385	0.00000000	80.26574000	31.25000000
106.59999384	0.00000000	79.43528000	29.29995000
106.79999383	0.00000000	78.72785000	28.55561000
106.99999382	0.00000000	78.36491000	28.88779000
107.19999381	0.00000000	79.15231000	30.08735000
107.39999379	0.00000000	80.59792000	31.95128000
107.59999378	0.00000000	81.75443000	33.90133000
107.79999377	0.00000000	82.17889000	35.02091000
107.99999376	0.00000000	82.12967000	35.43307000
108.19999375	0.00000000	81.38533000	34.64567000
108.39999374	0.00000000	79.85359000	33.15699000
108.59999372	0.00000000	78.72785000	31.57603000
108.79999371	0.00000000	77.89738000	30.04429000
108.99999370	0.00000000	77.52214000	28.93085000
109.19999369	0.00000000	77.52214000	28.93085000
109.39999368	0.00000000	77.94660000	30.04429000
109.59999366	0.00000000	79.10310000	31.57603000
109.79999365	0.00000000	80.64099000	33.11393000
109.99999364	0.00000000	82.12967000	34.27042000
110.19999363	0.00000000	82.91708000	34.64567000
110.39999362	0.00000000	82.55412000	34.31963000
110.59999360	0.00000000	81.80363000	33.48917000
110.79999359	0.00000000	80.59792000	32.36343000
110.99999358	0.00000000	79.10310000	30.79478000
111.19999357	0.00000000	77.94660000	29.66904000
111.39999356	0.00000000	77.52214000	28.83858000
111.59999355	0.00000000	77.52214000	28.51255000
111.79999353	0.00000000	77.94660000	28.88779000
111.99999352	0.00000000	79.06004000	30.00123000
112.19999351	0.00000000	80.22269000	31.15772000
112.39999350	0.00000000	81.05930000	31.95128000
112.59999349	0.00000000	82.17889000	32.73868000
112.79999347	0.00000000	82.87401000	33.11393000
112.99999346	0.00000000	82.12967000	33.15699000
113.19999345	0.00000000	80.68405000	33.11393000
113.39999344	0.00000000	79.52755000	32.73868000
113.59999343	0.00000000	79.10310000	31.99434000
113.79999341	0.00000000	79.06004000	31.61909000
113.99999340	0.00000000	79.06004000	31.57603000
114.19999339	0.00000000	79.06004000	31.57603000
114.39999338	0.00000000	79.06004000	31.57603000
114.59999337	0.00000000	79.10310000	31.53297000
114.79999336	0.00000000	79.47834000	31.15772000
114.99999334	0.00000000	80.22269000	30.41954000
115.19999333	0.00000000	80.59792000	30.09350000
115.39999332	0.00000000	80.64099000	30.41954000
115.59999331	0.00000000	80.64099000	31.15772000
115.79999330	0.00000000	80.59792000	31.57603000
115.99999328	0.00000000	80.22269000	31.99434000
116.19999327	0.00000000	79.43528000	32.73868000
116.39999326	0.00000000	78.72785000	33.11393000
116.59999325	0.00000000	78.31569000	33.11393000
116.79999324	0.00000000	78.64173000	32.73868000
116.99999322	0.00000000	78.64173000	32.04355000
117.19999321	0.00000000	78.36491000	31.99434000
117.39999320	0.00000000	79.10310000	32.27116000
117.59999319	0.00000000	80.22269000	31.53297000
117.79999318	0.00000000	81.01624000	30.46260000
117.99999317	0.00000000	81.80363000	30.04429000
118.19999315	0.00000000	82.12967000	30.00123000
118.39999314	0.00000000	81.75443000	30.04429000
118.59999313	0.00000000	80.64099000	30.41954000
118.79999312	0.00000000	79.47834000	31.20078000
118.99999311	0.00000000	78.64173000	31.95128000
119.19999309	0.00000000	77.47908000	32.73868000
119.39999308	0.00000000	76.40871000	33.11393000
119.59999307	0.00000000	76.40871000	33.15699000
119.79999306	0.00000000	77.52214000	33.15699000
119.99999305	0.00000000	79.06004000	33.11393000
120.19999303	0.00000000	80.59792000	32.73868000
120.39999302	0.00000000	81.80363000	31.99434000
120.59999301	0.00000000	82.55412000	31.61909000
120.79999300	0.00000000	82.96629000	31.57603000
120.99999299	0.00000000	82.55412000	31.53297000
121.19999298	0.00000000	81.80363000	31.15772000
121.39999296	0.00000000	80.59792000	30.41954000
121.59999295	0.00000000	79.10310000	30.09350000
121.79999294	0.00000000	77.89738000	30.41954000
121.99999293	0.00000000	77.14690000	31.15772000
122.19999292	0.00000000	76.73474000	31.57603000
122.39999290	0.00000000	77.14690000	31.99434000
122.59999289	0.00000000	77.85432000	32.73868000
122.79999288	0.00000000	78.68478000	33.11393000
122.99999287	0.00000000	79.47834000	33.15699000
123.19999286	0.00000000	80.64099000	33.15699000
123.39999284	0.00000000	81.75443000	33.15699000
123.59999283	0.00000000	82.12967000	33.11393000
123.79999282	0.00000000	81.80363000	32.73868000
123.99999281	0.00000000	81.05930000	31.95128000
124.19999280	0.00000000	80.64099000	31.20078000
124.39999279	0.00000000	80.22269000	30.46260000
124.59999277	0.00000000	79.43528000	30.46260000
124.79999276	0.00000000	78.68478000	31.15772000
124.99999275	0.00000000	77.89738000	31.53297000
125.19999274	0.00000000	77.52214000	31.61909000
125.39999273	0.00000000	77.52214000	31.99434000
125.59999271	0.00000000	77.89738000	32.73868000
125.79999270	0.00000000	78.68478000	33.11393000
125.99999269	0.00000000	79.43528000	33.15699000
126.19999268	0.00000000	80.22269000	33.15699000
126.39999267	0.00000000	80.59792000	33.11393000
126.59999265	0.00000000	80.64099000	32.73868000
126.79999264	0.00000000	80.64099000	31.99434000
126.99999263	0.00000000	80.59792000	31.61909000
127.19999262	0.00000000	80.22269000	31.53297000
127.39999261	0.00000000	79.43528000	31.20078000
127.59999260	0.00000000	78.68478000	30.83784000
127.79999258	0.00000000	77.89738000	31.20078000
127.99999257	0.00000000	77.52214000	31.53297000
128.19999256	0.00000000	77.52214000	31.57603000
128.39999255	0.00000000	77.94660000	31.57603000
128.59999254	0.00000000	79.10310000	31.61909000
128.79999252	0.00000000	80.59792000	31.95128000
128.99999251	0.00000000	81.71136000	32.32037000
129.19999250	0.00000000	81.75443000	31.95128000
129.39999249	0.00000000	81.01624000	31.61909000
129.59999248	0.00000000	80.26574000	31.53297000
129.79999246	0.00000000	79.43528000	31.15772000
129.99999245	0.00000000	78.68478000	30.46260000
130.19999244	0.00000000	77.89738000	30.46260000
130.39999243	0.00000000	77.52214000	31.15772000
130.59999242	0.00000000	77.52214000	31.53297000
130.79999241	0.00000000	77.94660000	31.57603000
130.99999239	0.00000000	79.06004000	31.61909000
131.19999238	0.00000000	80.17347000	31.95128000
131.39999237	0.00000000	80.59792000	32.32037000
131.59999236	0.00000000	80.64099000	31.90822000
131.79999235	0.00000000	80.59792000	31.20078000
131.99999233	0.00000000	80.22269000	30.41954000
132.19999232	0.00000000	79.43528000	30.04429000
132.39999231	0.00000000	78.68478000	30.00123000
132.59999230	0.00000000	77.89738000	30.04429000
132.79999229	0.00000000	77.57135000	30.41954000
132.99999227	0.00000000	77.89738000	31.20078000
133.19999226	0.00000000	78.64173000	31.95128000
133.39999225	0.00000000	79.01697000	32.73868000
133.59999224	0.00000000	79.10310000	33.11393000
133.79999223	0.00000000	79.43528000	33.15699000
133.99999222	0.00000000	79.80437000	33.11393000
134.19999220	0.00000000	79.43528000	32.73868000
134.39999219	0.00000000	79.10310000	31.95128000
134.59999218	0.00000000	79.06004000	31.20078000
134.79999217	0.00000000	79.06004000	30.41954000
134.99999216	0.00000000	79.06004000	30.04429000
135.19999214	0.00000000	79.10310000	30.04429000
135.39999213	0.00000000	79.47834000	30.41954000
135.59999212	0.00000000	80.17347000	31.15772000
135.79999211	0.00000000	80.17347000	31.57603000
135.99999210	0.00000000	79.47834000	31.99434000
136.19999208	0.00000000	79.06004000	32.73868000
136.39999207	0.00000000	78.64173000	33.11393000
136.59999206	0.00000000	77.89738000	33.15699000
136.79999205	0.00000000	77.52214000	33.11393000
136.99999204	0.00000000	77.52214000	32.73868000
137.19999203	0.00000000	77.89738000	31.99434000
137.39999201	0.00000000	78.68478000	31.61909000
137.59999200	0.00000000	79.43528000	31.53297000
137.79999199	0.00000000	80.22269000	31.15772000
137.99999198	0.00000000	80.59792000	30.41954000
138.19999197	0.00000000	80.64099000	30.04429000
138.39999195	0.00000000	80.59792000	30.04429000
138.59999194	0.00000000	80.17347000	30.41954000
138.79999193	0.00000000	79.06004000	31.15772000
138.99999192	0.00000000	77.94660000	31.53297000
139.19999191	0.00000000	77.52214000	31.61909000
139.39999189	0.00000000	77.47908000	31.99434000
139.59999188	0.00000000	77.47908000	32.73868000
139.79999187	0.00000000	77.52214000	33.11393000
139.99999186	0.00000000	77.89738000	33.11393000
140.19999185	0.00000000	78.68478000	32.73868000
140.39999184	0.00000000	79.43528000	31.95128000
140.59999182	0.00000000	80.17347000	31.20078000
140.79999181	0.00000000	80.17347000	30.41954000
140.99999180	0.00000000	79.47834000	30.04429000
141.19999179	0.00000000	79.06004000	30.00123000
141.39999178	0.00000000	78.64173000	30.04429000
141.59999176	0.00000000	77.94660000	30.41954000
141.79999175	0.00000000	77.94660000	31.20078000
141.99999174	0.00000000	78.64173000	31.95128000
142.19999173	0.00000000	79.06004000	32.73868000
142.39999172	0.00000000	79.43528000	33.11393000
142.59999170	0.00000000	79.84743000	33.15699000
142.79999169	0.00000000	79.81052000	33.11393000
142.99999168	0.00000000	79.84743000	32.68946000
143.19999167	0.00000000	79.43528000	31.57603000
143.39999166	0.00000000	79.06004000	30.41954000
143.59999165	0.00000000	78.68478000	29.66904000
143.79999163	0.00000000	78.31569000	29.25689000
143.99999162	0.00000000	78.68478000	29.62598000
144.19999161	0.00000000	79.01697000	30.00123000
144.39999160	0.00000000	79.06004000	30.41954000
144.59999159	0.00000000	79.06004000	31.20078000
144.79999157	0.00000000	79.10310000	31.95128000
144.99999156	0.00000000	79.43528000	32.73868000
145.19999155	0.00000000	79.80437000	33.06471000
145.39999154	0.00000000	79.39222000	32.73868000
145.59999153	0.00000000	78.72785000	31.99434000
145.79999151	0.00000000	78.27264000	31.57603000
145.99999150	0.00000000	78.26648000	31.15772000
146.19999149	0.00000000	77.89738000	30.41954000
146.39999148	0.00000000	77.94660000	30.04429000
146.59999147	0.00000000	78.64173000	30.00123000
146.79999146	0.00000000	79.01697000	30.00123000
146.99999144	0.00000000	79.10310000	30.04429000
147.19999143	0.00000000	79.47834000	30.41954000
147.39999142	0.00000000	80.17347000	31.15772000
147.59999141	0.00000000	80.17347000	31.57603000
147.79999140	0.00000000	79.43528000	31.95128000
147.99999138	0.00000000	78.68478000	32.32037000
148.19999137	0.00000000	77.89738000	31.95128000
148.39999136	0.00000000	77.52214000	31.61909000
148.59999135	0.00000000	77.52214000	31.61909000
148.79999134	0.00000000	77.85432000	31.90822000
148.99999132	0.00000000	78.26648000	31.90207000
149.19999131	0.00000000	78.27264000	30.79478000
149.39999130	0.00000000	78.68478000	30.09350000
149.59999129	0.00000000	79.06004000	30.00123000
149.79999128	0.00000000	79.43528000	30.04429000
149.99999127	0.00000000	79.80437000	30.41954000
150.19999125	0.00000000	79.43528000	31.15772000
150.39999124	0.00000000	79.10310000	31.53297000
150.59999123	0.00000000	79.06004000	31.61909000
150.79999122	0.00000000	79.06004000	31.95128000
150.99999121	0.00000000	79.01697000	32.36343000
151.19999119	0.00000000	78.64173000	32.32653000
151.39999118	0.00000000	77.89738000	32.36343000
151.59999117	0.00000000	77.57135000	31.95128000
151.79999116	0.00000000	77.89738000	31.61909000
151.99999115	0.00000000	78.59251000	31.53297000
152.19999113	0.00000000	78.64173000	31.20078000
152.39999112	0.00000000	78.31569000	30.83784000
152.59999111	0.00000000	78.72785000	31.20078000
152.79999110	0.00000000	79.39222000	31.53297000
152.99999109	0.00000000	79.80437000	31.57603000
153.19999108	0.00000000	79.43528000	31.57603000
153.39999106	0.00000000	79.10310000	31.57603000
153.59999105	0.00000000	79.06004000	31.57603000
153.79999104	0.00000000	79.01697000	31.57603000
153.99999103	0.00000000	78.64173000	31.57603000
154.19999102	0.00000000	77.89738000	31.57603000
154.39999100	0.00000000	77.52214000	31.57603000
154.59999099	0.00000000	77.52214000	31.57603000
154.79999098	0.00000000	77.89738000	31.57603000
154.99999097	0.00000000	78.64173000	31.57603000
155.19999096	0.00000000	79.01697000	31.57603000
155.39999094	0.00000000	79.06004000	31.53297000
155.59999093	0.00000000	79.06004000	31.20078000
155.79999092	0.00000000	79.06004000	30.79478000
155.99999091	0.00000000	79.06004000	30.83169000
156.19999090	0.00000000	79.06004000	30.79478000
156.39999089	0.00000000	79.06004000	31.20078000
156.59999087	0.00000000	79.01697000	31.53297000
156.79999086	0.00000000	78.64173000	31.57603000
156.99999085	0.00000000	77.89738000	31.57603000
157.19999084	0.00000000	77.52214000	31.57603000
157.39999083	0.00000000	77.47908000	31.57603000
157.59999081	0.00000000	77.47908000	31.57603000
157.79999080	0.00000000	77.52214000	31.57603000
157.99999079	0.00000000	77.89738000	31.53297000
158.19999078	0.00000000	78.64173000	31.15772000
158.39999077	0.00000000	79.01697000	30.41954000
158.59999075	0.00000000	79.06004000	30.04429000
158.79999074	0.00000000	79.06004000	30.00123000
158.99999073	0.00000000	79.06004000	30.04429000
159.19999072	0.00000000	79.06004000	30.41954000
159.39999071	0.00000000	79.06004000	31.15772000
159.59999070	0.00000000	79.01697000	31.53297000
159.79999068	0.00000000	78.68478000	31.57603000
159.99999067	0.00000000	78.27264000	31.57603000
160.19999066	0.00000000	78.26648000	31.57603000
160.39999065	0.00000000	77.85432000	31.57603000
160.59999064	0.00000000	77.52214000	31.57603000
160.79999062	0.00000000	77.47908000	31.53297000
160.99999061	0.00000000	77.57135000	31.15772000
161.19999060	0.00000000	78.22957000	30.37647000
161.39999059	0.00000000	79.00467000	29.66904000
161.59999058	0.00000000	78.64788000	29.25689000
161.79999056	0.00000000	78.72785000	29.66904000
161.99999055	0.00000000	79.01697000	30.37647000
162.19999054	0.00000000	79.06004000	31.15772000
162.39999053	0.00000000	79.06004000	31.53297000
162.59999052	0.00000000	79.01697000	31.57603000
162.79999051	0.00000000	78.68478000	31.57603000
162.99999049	0.00000000	78.27264000	31.57603000
163.19999048	0.00000000	78.26648000	31.57603000
163.39999047	0.00000000	77.85432000	31.57603000
163.59999046	0.00000000	77.52214000	31.57603000
163.79999045	0.00000000	77.47908000	31.57603000
163.99999043	0.00000000	77.52214000	31.57603000
164.19999042	0.00000000	77.85432000	31.57603000
164.39999041	0.00000000	78.26648000	31.57603000
164.59999040	0.00000000	78.27264000	31.57603000
164.79999039	0.00000000	78.68478000	31.57603000
164.99999037	0.00000000	79.01697000	31.57603000
165.19999036	0.00000000	79.06004000	31.57603000
165.39999035	0.00000000	79.06004000	31.57603000
165.59999034	0.00000000	79.06004000	31.57603000
165.79999033	0.00000000	79.06004000	31.57603000
165.99999032	0.00000000	79.01697000	31.57603000
166.19999030	0.00000000	78.64173000	31.57603000
166.39999029	0.00000000	77.89738000	31.57603000
166.59999028	0.00000000	77.52214000	31.53297000
166.79999027	0.00000000	77.52214000	31.20078000
166.99999026	0.00000000	77.89738000	30.83784000
167.19999024	0.00000000	78.64173000	31.20078000
167.39999023	0.00000000	79.01697000	31.53297000
167.59999022	0.00000000	79.01697000	31.53297000
167.79999021	0.00000000	78.68478000	31.20078000
167.99999020	0.00000000	78.31569000	30.79478000
168.19999018	0.00000000	78.68478000	30.78248000
168.39999017	0.00000000	79.01697000	30.41954000
168.59999016	0.00000000	79.01697000	30.46260000
168.79999015	0.00000000	78.64173000	31.15772000
168.99999014	0.00000000	77.94660000	31.53297000
169.19999013	0.00000000	77.89738000	31.53297000
169.39999011	0.00000000	78.22342000	31.20078000
169.59999010	0.00000000	77.85432000	30.83784000
169.79999009	0.00000000	77.52214000	31.20078000
169.99999008	0.00000000	77.47908000	31.53297000
170.19999007	0.00000000	77.47908000	31.57603000
170.39999005	0.00000000	77.47908000	31.57603000
170.59999004	0.00000000	77.52214000	31.57603000
170.79999003	0.00000000	77.89738000	31.57603000
170.99999002	0.00000000	78.64173000	31.57603000
171.19999001	0.00000000	79.01697000	31.57603000
171.39998999	0.00000000	79.06004000	31.53297000
171.59998998	0.00000000	79.06004000	31.15772000
171.79998997	0.00000000	79.01697000	30.46260000
171.99998996	0.00000000	78.68478000	30.41954000
172.19998995	0.00000000	78.27264000	30.78248000
172.39998994	0.00000000	78.30954000	30.79478000
172.59998992	0.00000000	78.27264000	31.20078000
172.79998991	0.00000000	78.68478000	31.53297000
172.99998990	0.00000000	78.96776000	31.57603000
173.19998989	0.00000000	78.64173000	31.57603000
173.39998988	0.00000000	77.94660000	31.57603000
173.59998986	0.00000000	77.94660000	31.57603000
173.79998985	0.00000000	78.64173000	31.57603000
173.99998984	0.00000000	79.01697000	31.57603000
174.19998983	0.00000000	79.06004000	31.57603000
174.39998982	0.00000000	79.01697000	31.53297000
174.59998980	0.00000000	78.64173000	31.20078000
174.79998979	0.00000000	77.94660000	30.83784000
174.99998978	0.00000000	77.89738000	31.20078000
175.19998977	0.00000000	78.22342000	31.48376000
175.39998976	0.00000000	77.85432000	31.20078000
175.59998975	0.00000000	77.52214000	30.79478000
175.79998973	0.00000000	77.47908000	30.83169000
175.99998972	0.00000000	77.47908000	30.79478000
176.19998971	0.00000000	77.47908000	31.20078000
176.39998970	0.00000000	77.47908000	31.53297000
176.59998969	0.00000000	77.47908000	31.57603000
176.79998967	0.00000000	77.47908000	31.57603000
176.99998966	0.00000000	77.47908000	31.53297000
177.19998965	0.00000000	77.47908000	31.15772000
177.39998964	0.00000000	77.43602000	30.37647000
177.59998963	0.00000000	77.10384000	29.66904000
177.79998961	0.00000000	76.73474000	29.25689000
177.99998960	0.00000000	77.10384000	29.62598000
178.19998959	0.00000000	77.43602000	29.95817000
178.39998958	0.00000000	77.47908000	30.04429000
178.59998957	0.00000000	77.47908000	30.41954000
178.79998956	0.00000000	77.47908000	31.15772000
178.99998954	0.00000000	77.47908000	31.53297000
179.19998953	0.00000000	77.47908000	31.57603000
179.39998952	0.00000000	77.52214000	31.57603000
179.59998951	0.00000000	77.85432000	31.53297000
179.79998950	0.00000000	78.22342000	31.15772000
179.99998948	0.00000000	77.85432000	30.41954000
180.19998947	0.00000000	77.52214000	30.04429000
180.39998946	0.00000000	77.47908000	30.00123000
180.59998945	0.00000000	77.47908000	30.00123000
180.79998944	0.00000000	77.43602000	30.00123000
180.99998942	0.00000000	77.10384000	30.04429000
181.19998941	0.00000000	76.73474000	30.41954000
181.39998940	0.00000000	77.10384000	31.15772000
181.59998939	0.00000000	77.43602000	31.53297000
181.79998938	0.00000000	77.52214000	31.57603000
181.99998937	0.00000000	77.85432000	31.57603000
182.19998935	0.00000000	78.22342000	31.57603000
182.39998934	0.00000000	77.89738000	31.57603000
182.59998933	0.00000000	77.89738000	31.57603000
182.79998932	0.00000000	78.26648000	31.53297000
182.99998931	0.00000000	78.22957000	31.15772000
183.19998929	0.00000000	78.26648000	30.41954000
183.39998928	0.00000000	77.89738000	30.09350000
183.59998927	0.00000000	77.89738000	30.41954000
183.79998926	0.00000000	78.22342000	31.15772000
183.99998925	0.00000000	77.85432000	31.53297000
184.19998923	0.00000000	77.52214000	31.57603000
184.39998922	0.00000000	77.47908000	31.57603000
184.59998921	0.00000000	77.47908000	31.57603000
184.79998920	0.00000000	77.47908000	31.57603000
184.99998919	0.00000000	77.47908000	31.57603000
185.19998918	0.00000000	77.52214000	31.57603000
185.39998916	0.00000000	77.85432000	31.57603000
185.59998915	0.00000000	78.26648000	31.57603000
185.79998914	0.00000000	78.27264000	31.53297000
185.99998913	0.00000000	78.68478000	31.15772000
186.19998912	0.00000000	79.01697000	30.41954000
186.39998910	0.00000000	79.01697000	30.04429000
186.59998909	0.00000000	78.64173000	30.00123000
186.79998908	0.00000000	77.89738000	30.00123000
186.99998907	0.00000000	77.52214000	30.04429000
187.19998906	0.00000000	77.47908000	30.41954000
187.39998904	0.00000000	77.47908000	31.15772000
187.59998903	0.00000000	77.47908000	31.53297000
187.79998902	0.00000000	77.47908000	31.57603000
187.99998901	0.00000000	77.47908000	31.57603000
188.19998900	0.00000000	77.47908000	31.57603000
188.39998899	0.00000000	77.47908000	31.57603000
188.59998897	0.00000000	77.47908000	31.53297000
188.79998896	0.00000000	77.52214000	31.15772000
188.99998895	0.00000000	77.85432000	30.41954000
189.19998894	0.00000000	78.22342000	30.04429000
189.39998893	0.00000000	77.85432000	30.00123000
189.59998891	0.00000000	77.52214000	30.00123000
189.79998890	0.00000000	77.47908000	30.00123000
189.99998889	0.00000000	77.47908000	30.00123000
190.19998888	0.00000000	77.47908000	30.04429000
190.39998887	0.00000000	77.47908000	30.41954000
190.59998885	0.00000000	77.47908000	31.15772000
190.79998884	0.00000000	77.47908000	31.53297000
190.99998883	0.00000000	77.47908000	31.57603000
191.19998882	0.00000000	77.47908000	31.57603000
191.39998881	0.00000000	77.47908000	31.53297000
191.59998880	0.00000000	77.47908000	31.15772000
191.79998878	0.00000000	77.47908000	30.41954000
191.99998877	0.00000000	77.47908000	30.04429000
192.19998876	0.00000000	77.47908000	30.00123000
192.39998875	0.00000000	77.47908000	30.00123000
192.59998874	0.00000000	77.47908000	30.00123000
192.79998872	0.00000000	77.47908000	30.00123000
192.99998871	0.00000000	77.47908000	30.00123000
193.19998870	0.00000000	77.47908000	30.00123000
193.39998869	0.00000000	77.47908000	30.04429000
193.59998868	0.00000000	77.43602000	30.37647000
193.79998866	0.00000000	77.10384000	30.78248000
193.99998865	0.00000000	76.73474000	30.79478000
194.19998864	0.00000000	77.10384000	31.20078000
194.39998863	0.00000000	77.43602000	31.53297000
194.59998862	0.00000000	77.52214000	31.57603000
194.79998861	0.00000000	77.89738000	31.57603000
194.99998859	0.00000000	78.59251000	31.57603000
195.19998858	0.00000000	78.59251000	31.53297000
195.39998857	0.00000000	77.89738000	31.15772000
195.59998856	0.00000000	77.52214000	30.46260000
195.79998855	0.00000000	77.47908000	30.41954000
195.99998853	0.00000000	77.47908000	30.83169000
