Time	Channel A	Channel B	Channel C
(us)	(V)	(mV)	(mV)

-4.49999956	0.00000000	23.71432000	6.31151500
-4.29999957	0.00000000	23.71432000	6.31151500
-4.09999958	0.00000000	23.71432000	6.31151500
-3.89999959	0.00000000	23.71432000	6.31151500
-3.69999960	0.00000000	23.71432000	6.31151500
-3.49999962	0.00000000	23.71432000	6.31151500
-3.29999963	0.00000000	23.71432000	6.31151500
-3.09999964	0.00000000	23.71432000	6.31151500
-2.89999965	0.00000000	23.71432000	6.31151500
-2.69999966	0.00000000	23.71432000	6.31151500
-2.49999968	0.00000000	23.71432000	6.31151500
-2.29999969	0.00000000	23.71432000	6.31151500
-2.09999970	0.00000000	23.71432000	6.31151500
-1.89999971	0.00000000	23.71432000	6.31151500
-1.69999972	0.00000000	23.71432000	6.31151500
-1.49999973	0.00000000	23.71432000	6.31151500
-1.29999975	0.00000000	23.71432000	6.31151500
-1.09999976	0.00000000	23.71432000	6.31151500
-0.89999977	0.00000000	23.71432000	6.31151500
-0.69999978	0.00000000	23.71432000	6.31151500
-0.49999979	0.00000000	23.71432000	6.31151500
-0.29999981	0.31803640	23.71432000	6.31151500
-0.09999982	0.63668800	23.71432000	6.31151500
0.10000017	0.95533960	23.71432000	6.31151500
0.30000016	0.95533960	23.71432000	6.31151500
0.50000015	0.95533960	23.71432000	6.31151500
0.70000013	0.47736220	23.71432000	6.31151500
0.90000012	-0.31803640	23.71432000	6.31151500
1.10000011	-1.27399100	23.71432000	6.31151500
1.30000010	-2.22994600	23.71432000	6.31151500
1.50000009	-2.86724900	23.71432000	6.31151500
1.70000008	-2.54859700	23.71432000	6.31151500
1.90000006	-1.59264300	23.71432000	6.31151500
2.10000005	0.15871060	23.71432000	6.31151500
2.30000004	2.38927200	23.71432000	6.31151500
2.50000003	4.30056600	23.71432000	6.31151500
2.70000002	5.25652100	23.71432000	6.26845500
2.90000000	5.09719500	23.71432000	5.89320800
3.09999999	3.34522600	23.71432000	5.15501900
3.29999998	0.47736220	23.71432000	4.77977300
3.49999997	-3.02657500	23.71432000	4.77977300
3.69999996	-6.05315000	23.71432000	5.15501900
3.89999994	-7.80511800	23.71432000	5.89320800
4.09999993	-7.64579200	23.71432000	6.31151500
4.29999992	-5.57517200	23.71432000	6.72982200
4.49999991	-1.75196900	23.71432000	7.42495000
4.69999990	2.70792300	23.71432000	7.42495000
4.89999989	6.69045300	23.71432000	6.72982200
5.09999987	9.07972400	23.71432000	6.31151500
5.29999986	9.23905000	23.71432000	5.89320800
5.49999985	7.16781500	23.71432000	5.15501900
5.69999984	3.02657500	23.71432000	4.77977300
5.89999983	-1.59264300	23.71432000	4.77977300
6.09999981	-6.05315000	23.71432000	5.15501900
6.29999980	-8.92039900	23.71432000	5.89320800
6.49999979	-9.39837600	23.75738000	6.31151500
6.69999978	-7.64579200	24.08957000	6.68676100
6.89999977	-3.98191400	24.45866000	7.05585600
7.09999975	0.31803640	24.08957000	6.68676100
7.29999974	4.30056600	23.75738000	6.35457700
7.49999973	7.00848900	23.71432000	6.31151500
7.69999972	7.80511800	23.71432000	6.31151500
7.89999971	6.53112700	23.71432000	6.26845500
8.09999970	3.98191400	23.67126000	5.89320800
8.29999968	0.63668800	23.33907000	5.19808000
8.49999967	-2.38927200	22.96998000	5.19808000
8.69999966	-4.45989200	23.33907000	5.89320800
8.89999965	-5.25652100	23.67126000	6.26845500
9.09999964	-4.61921700	23.71432000	6.31151500
9.29999962	-3.02657500	23.71432000	6.31151500
9.49999961	-0.95533960	23.71432000	6.31151500
9.69999960	0.79601380	23.71432000	6.31151500
9.89999959	2.07062000	23.71432000	6.31151500
10.09999958	2.54859700	23.71432000	6.31151500
10.29999956	2.22994600	23.71432000	6.31151500
10.49999955	1.59264300	23.71432000	6.31151500
10.69999954	0.63668800	23.71432000	6.31151500
10.89999953	-0.15871060	23.71432000	6.31151500
11.09999952	-0.63668800	23.71432000	6.31151500
11.29999951	-0.95533960	23.71432000	6.31151500
11.49999949	-0.95533960	23.71432000	6.31151500
11.69999948	-0.79601380	23.71432000	6.31151500
11.89999947	-0.47736220	23.71432000	6.31151500
12.09999946	-0.15871060	23.71432000	6.31151500
12.29999945	-0.15871060	23.71432000	6.31151500
12.49999943	-0.15871060	23.71432000	6.31151500
12.69999942	0.00000000	23.71432000	6.31151500
12.89999941	0.00000000	23.71432000	6.31151500
13.09999940	0.00000000	23.71432000	6.31151500
13.29999939	0.00000000	23.71432000	6.31151500
13.49999937	0.00000000	23.71432000	6.31151500
13.69999936	0.00000000	23.71432000	6.26845500
13.89999935	0.00000000	23.71432000	5.93626900
14.09999934	0.00000000	23.71432000	5.57332700
14.29999933	-0.15871060	23.71432000	5.93626900
14.49999932	-0.15871060	23.71432000	6.26845500
14.69999930	0.00000000	23.71432000	6.31151500
14.89999929	0.00000000	23.71432000	6.31151500
15.09999928	0.00000000	23.71432000	6.31151500
15.29999927	0.00000000	23.67126000	6.31151500
15.49999926	0.00000000	23.33907000	6.31151500
15.69999924	0.00000000	22.92692000	6.31151500
15.89999923	0.00000000	22.92076000	6.31151500
16.09999922	0.00000000	22.55167000	6.31151500
16.29999921	-0.15871060	22.60088000	6.31151500
16.49999920	-0.15871060	23.24680000	6.26845500
16.69999919	0.00000000	23.29601000	5.93626900
16.89999917	0.00000000	23.01919000	5.57332700
17.09999916	0.00000000	23.75738000	5.93626900
17.29999915	0.00000000	24.82775000	6.26845500
17.49999914	0.00000000	25.25221000	6.31151500
17.69999913	0.00000000	25.25221000	6.31151500
17.89999911	0.00000000	24.82775000	6.31151500
18.09999910	0.00000000	23.67126000	6.31151500
18.29999909	0.00000000	22.13336000	6.31151500
18.49999908	0.00000000	20.55241000	6.31151500
18.69999907	0.00000000	19.01451000	6.31151500
18.89999905	0.00000000	17.90108000	6.31151500
19.09999904	0.00000000	17.90108000	6.31151500
19.29999903	0.00000000	19.06373000	6.31151500
19.49999902	0.00000000	21.06299000	6.31151500
19.69999901	0.00000000	24.22490000	6.31151500
19.89999900	0.00000000	28.41412000	6.31151500
20.09999898	0.00000000	32.22810000	6.31151500
20.29999897	0.00000000	34.18430000	6.31151500
20.49999896	0.00000000	34.14124000	6.31151500
20.69999895	0.00000000	31.71752000	6.31151500
20.89999894	0.00000000	26.27953000	6.31151500
21.09999892	0.00000000	18.92839000	6.31151500
21.29999891	0.00000000	11.20202000	6.31151500
21.49999890	0.00000000	4.73671200	6.31151500
21.69999889	0.00000000	2.08538400	6.31151500
21.89999888	0.00000000	4.45374000	6.31151500
22.09999886	0.00000000	11.43578000	6.26845500
22.29999885	0.00000000	22.31176000	5.93626900
22.49999884	0.00000000	34.69488000	5.57332700
22.69999883	0.00000000	46.23523000	5.93626900
22.89999882	0.00000000	53.86319000	6.26845500
23.09999881	0.00000000	54.56446000	6.31151500
23.29999879	0.00000000	47.95768000	6.31151500
23.49999878	0.00000000	34.75024000	6.35457700
23.69999877	0.00000000	17.39050000	6.72982200
23.89999876	0.00000000	-0.00615157	7.47416300
24.09999875	0.00000000	-13.45349000	7.80019600
24.29999873	0.00000000	-19.54970000	7.47416300
24.49999872	0.00000000	-15.60039000	6.68676100
24.69999871	0.00000000	-2.10383800	5.89320800
24.89999870	0.00000000	18.03642000	4.68750000
25.09999869	0.00000000	40.37278000	3.15575800
25.29999867	0.00000000	59.72564000	1.66707700
25.49999866	0.00000000	71.27214000	0.92888770
25.69999865	0.00000000	72.75467000	1.71013800
25.89999864	0.00000000	62.61687000	3.66633800
26.09999863	0.00000000	42.60580000	6.77903500
26.29999862	0.00000000	17.90108000	10.62992000
26.49999860	0.00000000	-5.68405400	14.07480000
26.69999859	0.00000000	-23.04380000	16.39395000
26.89999858	0.00000000	-30.01968000	16.71998000
27.09999857	0.00000000	-24.99385000	14.72072000
27.29999856	0.00000000	-9.54724300	10.03322000
27.49999854	0.00000000	13.25049000	3.06348400
27.69999853	0.00000000	37.95522000	-4.64443900
27.89999852	0.00000000	58.84596000	-11.52190000
28.09999851	0.00000000	71.59202000	-15.28666000
28.29999850	0.00000000	73.17297000	-14.12401000
28.49999848	0.00000000	63.54577000	-8.31692900
28.69999847	0.00000000	45.44168000	1.01501000
28.89999846	0.00000000	23.06225000	12.62918000
29.09999845	0.00000000	2.17150600	24.15723000
29.29999844	0.00000000	-13.03519000	32.60949000
29.49999843	0.00000000	-20.38632000	35.67913000
29.69999841	0.00000000	-18.47933000	32.52337000
29.89999840	0.00000000	-7.68946800	23.18528000
30.09999839	0.00000000	8.87672100	8.87672100
30.29999838	0.00000000	27.44217000	-7.29576700
30.49999837	0.00000000	43.72539000	-21.55512000
30.69999835	0.00000000	54.61368000	-30.38878000
30.89999834	0.00000000	58.51377000	-31.54527000
31.09999833	0.00000000	54.69980000	-24.58169000
31.29999832	0.00000000	44.69734000	-11.06053000
31.49999831	0.00000000	31.10851000	6.36072800
31.69999829	0.00000000	16.40625000	24.10802000
31.89999828	0.00000000	3.66633800	38.37352000
32.09999827	0.00000000	-4.06003900	45.71235000
32.29999826	0.00000000	-5.30880900	44.55585000
32.49999825	0.00000000	-0.33833660	35.30389000
32.69999824	0.00000000	8.87672100	19.83883000
32.89999822	0.00000000	20.17716000	1.71013800
33.09999821	0.00000000	31.39763000	-15.32972000
33.29999820	0.00000000	40.64960000	-27.69439000
33.49999819	0.00000000	45.26328000	-33.12623000
33.69999818	0.00000000	44.19291000	-30.38878000
33.89999816	0.00000000	38.46580000	-20.02337000
34.09999815	0.00000000	29.95201000	-4.55831700
34.29999814	0.00000000	20.68774000	12.45079000
34.49999813	0.00000000	12.54921000	27.92200000
34.69999812	0.00000000	7.56643700	38.28740000
34.89999810	0.00000000	6.77903500	41.06791000
35.09999809	0.00000000	10.59301000	36.09744000
35.29999808	0.00000000	17.43356000	25.27067000
35.49999807	0.00000000	24.78469000	10.58686000
35.69999806	0.00000000	30.97933000	-4.78592500
35.89999805	0.00000000	34.79330000	-16.77534000
36.09999803	0.00000000	34.83636000	-23.00074000
36.29999802	0.00000000	31.44069000	-22.58243000
36.49999801	0.00000000	26.40871000	-15.28666000
36.69999800	0.00000000	20.64468000	-3.06963600
36.89999799	0.00000000	15.66806000	9.99015700
37.09999797	0.00000000	13.33661000	20.44168000
37.29999796	0.00000000	13.66880000	26.24877000
37.49999795	0.00000000	16.40625000	26.24877000
37.69999794	0.00000000	20.97072000	20.53395000
37.89999793	0.00000000	25.99040000	10.96211000
38.09999791	0.00000000	29.85974000	0.63976370
38.29999790	0.00000000	32.17888000	-7.43725300
38.49999789	0.00000000	32.17888000	-10.87598000
38.69999788	0.00000000	29.90280000	-9.01205700
38.89999787	0.00000000	26.40871000	-2.46678100
39.09999786	0.00000000	22.13336000	6.68676100
39.29999784	0.00000000	17.90108000	15.88336000
39.49999783	0.00000000	14.82529000	21.97957000
39.69999782	0.00000000	13.61959000	23.13607000
39.89999781	0.00000000	14.36393000	18.90994000
40.09999780	0.00000000	16.32013000	10.49459000
40.29999778	0.00000000	19.43897000	0.51058070
40.49999777	0.00000000	23.29601000	-8.31692900
40.69999776	0.00000000	26.78395000	-13.61343000
40.89999775	0.00000000	29.52756000	-13.23819000
41.09999774	0.00000000	31.06545000	-7.16043300
41.29999772	0.00000000	31.06545000	2.04232300
41.49999771	0.00000000	29.52756000	12.07554000
41.69999770	0.00000000	26.83317000	20.52780000
41.89999769	0.00000000	23.71432000	25.13533000
42.09999768	0.00000000	20.59547000	24.76009000
42.29999767	0.00000000	17.85802000	19.41437000
42.49999765	0.00000000	15.94488000	10.96211000
42.69999764	0.00000000	15.15748000	1.71013800
42.89999763	0.00000000	15.94488000	-6.36687900
43.09999762	0.00000000	17.80881000	-10.96826000
43.29999761	0.00000000	20.13410000	-11.05438000
43.49999759	0.00000000	22.09030000	-7.24655500
43.69999758	0.00000000	23.71432000	-1.07037400
43.89999757	0.00000000	25.25221000	6.22539300
44.09999756	0.00000000	26.40871000	12.77067000
44.29999755	0.00000000	26.83317000	16.63386000
44.49999753	0.00000000	26.87623000	17.50738000
44.69999752	0.00000000	26.87623000	15.60654000
44.89999751	0.00000000	26.83317000	12.11860000
45.09999750	0.00000000	26.40871000	7.51722400
45.29999749	0.00000000	25.25221000	2.92199800
45.49999748	0.00000000	23.67126000	0.17839570
45.69999746	0.00000000	21.66585000	-1.06422200
45.89999745	0.00000000	18.92839000	-1.02116100
46.09999744	0.00000000	15.85261000	0.51058070
46.29999743	0.00000000	13.20128000	3.19881900
46.49999742	0.00000000	12.13091000	6.26845500
46.69999740	0.00000000	13.66880000	8.96284400
46.89999739	0.00000000	17.52584000	10.53765000
47.09999738	0.00000000	22.60088000	10.95595000
47.29999737	0.00000000	28.41412000	10.53765000
47.49999736	0.00000000	33.80905000	8.96284400
47.69999734	0.00000000	37.26009000	6.31151500
47.89999733	0.00000000	37.99828000	3.57406500
48.09999732	0.00000000	35.21161000	1.29183100
48.29999731	0.00000000	29.06619000	-0.23375980
48.49999730	0.00000000	20.92766000	0.13533460
48.69999729	0.00000000	12.87525000	1.62401600
48.89999727	0.00000000	6.69291300	3.61712600
49.09999726	0.00000000	4.40452700	6.36072800
49.29999725	0.00000000	6.31766700	9.42421200
49.49999724	0.00000000	12.17397000	12.07554000
49.69999723	0.00000000	21.01993000	13.18898000
49.89999721	0.00000000	30.60408000	12.07554000
50.09999720	0.00000000	37.95522000	9.38115100
50.29999719	0.00000000	41.44931000	5.89320800
50.49999718	0.00000000	40.65575000	2.04232300
50.69999717	0.00000000	35.25467000	-1.02116100
50.89999715	0.00000000	26.79011000	-2.60211600
51.09999714	0.00000000	17.56890000	-2.55905500
51.29999713	0.00000000	9.85482200	-0.60285430
51.49999712	0.00000000	5.98548200	3.24803100
51.69999711	0.00000000	6.36072800	7.80019600
51.89999710	0.00000000	10.96826000	11.70029000
52.09999708	0.00000000	18.63927000	13.98253000
52.29999707	0.00000000	26.69783000	14.39468000
52.49999706	0.00000000	33.25541000	12.45079000
52.69999705	0.00000000	36.33120000	9.00590400
52.89999704	0.00000000	35.21161000	4.77977300
53.09999702	0.00000000	30.60408000	0.97194880
53.29999701	0.00000000	23.71432000	-0.97810030
53.49999700	0.00000000	16.83071000	-1.02116100
53.69999699	0.00000000	12.17397000	0.51058070
53.89999698	0.00000000	10.59301000	3.19881900
54.09999696	0.00000000	12.17397000	6.26845500
54.29999695	0.00000000	16.78149000	8.91978400
54.49999694	0.00000000	23.24680000	10.07628000
54.69999693	0.00000000	29.01698000	9.33809000
54.89999692	0.00000000	32.51107000	7.47416300
55.09999691	0.00000000	33.29847000	5.15501900
55.29999689	0.00000000	30.97318000	3.24803100
55.49999688	0.00000000	26.40871000	2.12844500
55.69999687	0.00000000	21.01993000	2.54675200
55.89999686	0.00000000	16.36319000	4.82283400
56.09999685	0.00000000	13.29355000	7.84940900
56.29999683	0.00000000	12.54921000	10.49459000
56.49999682	0.00000000	14.87451000	11.65723000
56.69999681	0.00000000	19.38976000	10.86983000
56.89999680	0.00000000	24.40945000	8.54453700
57.09999679	0.00000000	28.22958000	4.64443900
57.29999677	0.00000000	30.27190000	0.13533460
57.49999676	0.00000000	30.23499000	-3.29724400
57.69999675	0.00000000	28.73400000	-4.09079700
57.89999674	0.00000000	25.62746000	-2.55905500
58.09999673	0.00000000	22.17643000	1.01501000
58.29999672	0.00000000	19.06373000	6.72982200
58.49999670	0.00000000	16.78149000	12.86294000
58.69999669	0.00000000	16.40625000	17.09523000
58.89999668	0.00000000	17.85802000	19.00221000
59.09999667	0.00000000	20.17716000	17.37205000
59.29999666	0.00000000	22.46555000	12.03248000
59.49999664	0.00000000	24.40945000	4.73671200
59.69999663	0.00000000	25.15994000	-2.55905500
59.89999662	0.00000000	24.87697000	-7.94783400
60.09999661	0.00000000	24.04650000	-9.85482200
60.29999660	0.00000000	22.92076000	-7.94783400
60.49999658	0.00000000	21.38902000	-2.55905500
60.69999657	0.00000000	20.68774000	4.77977300
60.89999656	0.00000000	20.97072000	12.49385000
61.09999655	0.00000000	21.75812000	19.00221000
61.29999654	0.00000000	22.55167000	22.06570000
61.49999653	0.00000000	23.67126000	20.90305000
61.69999651	0.00000000	24.40945000	15.92642000
61.89999650	0.00000000	24.04650000	8.22465500
62.09999649	0.00000000	23.29601000	0.13533460
62.29999648	0.00000000	22.09030000	-6.82824800
62.49999647	0.00000000	20.59547000	-11.01132000
62.69999645	0.00000000	19.43897000	-11.05438000
62.89999644	0.00000000	19.06373000	-7.20349400
63.09999643	0.00000000	19.43897000	-0.64591530
63.29999642	0.00000000	20.64468000	7.43110200
63.49999641	0.00000000	22.55167000	14.72687000
63.69999639	0.00000000	24.82775000	19.42052000
63.89999638	0.00000000	26.36565000	20.95226000
64.09999637	0.00000000	26.78395000	19.04527000
64.29999636	0.00000000	26.36565000	14.07480000
64.49999635	0.00000000	24.78469000	7.89247000
64.69999634	0.00000000	22.13336000	1.66707700
64.89999632	0.00000000	19.48204000	-3.72170300
65.09999631	0.00000000	17.90108000	-6.78518600
65.29999630	0.00000000	17.48277000	-6.87746000
65.49999629	0.00000000	17.90108000	-4.60137700
65.69999628	0.00000000	19.43897000	-1.11343500
65.89999626	0.00000000	21.71506000	3.20497000
66.09999625	0.00000000	23.62205000	7.80019600
66.29999624	0.00000000	24.82775000	11.70029000
66.49999623	0.00000000	25.15994000	14.03174000
66.69999622	0.00000000	24.40945000	14.85605000
66.89999620	0.00000000	22.50861000	14.07480000
67.09999619	0.00000000	20.59547000	12.21087000
67.29999618	0.00000000	19.06373000	9.79945900
67.49999617	0.00000000	18.36245000	7.05585600
67.69999616	0.00000000	19.52510000	3.57406500
67.89999615	0.00000000	22.13336000	0.46751960
68.09999613	0.00000000	24.82775000	-1.90698800
68.29999612	0.00000000	26.78395000	-3.80782500
68.49999611	0.00000000	27.90354000	-4.14000900
68.69999610	0.00000000	27.43602000	-2.60211600
68.89999609	0.00000000	24.74163000	0.51058070
69.09999607	0.00000000	20.55241000	4.77977300
69.29999606	0.00000000	16.32013000	9.43036400
69.49999605	0.00000000	13.24434000	13.69956000
69.69999604	0.00000000	12.08784000	16.72613000
69.89999603	0.00000000	13.29355000	17.50738000
70.09999601	0.00000000	16.73843000	15.56348000
70.29999600	0.00000000	21.80118000	11.74336000
70.49999599	0.00000000	27.15920000	6.68676100
70.69999598	0.00000000	31.80979000	1.66707700
70.89999597	0.00000000	34.09818000	-2.60211600
71.09999596	0.00000000	33.76599000	-5.24729300
71.29999594	0.00000000	30.97933000	-5.29650500
71.49999593	0.00000000	25.94734000	-2.97736200
71.69999592	0.00000000	19.38976000	0.87967510
71.89999591	0.00000000	13.29355000	5.89320800
72.09999590	0.00000000	9.38730200	10.45152000
72.29999588	0.00000000	8.59375000	13.18898000
72.49999587	0.00000000	10.50689000	13.61343000
72.69999586	0.00000000	14.78223000	12.11860000
72.89999585	0.00000000	20.59547000	9.42421200
73.09999584	0.00000000	26.78395000	6.36072800
73.29999582	0.00000000	32.13582000	3.66633800
73.49999581	0.00000000	34.83636000	2.12844500
73.69999580	0.00000000	34.14124000	2.08538400
73.89999579	0.00000000	31.06545000	3.19881900
74.09999578	0.00000000	26.40871000	4.68750000
74.29999577	0.00000000	21.01993000	5.85014700
74.49999575	0.00000000	16.36319000	6.21924200
74.69999574	0.00000000	13.24434000	5.80093500
74.89999573	0.00000000	12.08784000	4.26919300
75.09999572	0.00000000	13.24434000	2.04232300
75.29999571	0.00000000	16.32013000	0.55364170
75.49999569	0.00000000	20.50935000	0.55364170
75.69999568	0.00000000	24.36639000	2.12844500
75.89999567	0.00000000	26.74089000	5.19808000
76.09999566	0.00000000	27.90354000	9.00590400
76.29999565	0.00000000	27.52830000	12.11860000
76.49999563	0.00000000	25.67052000	14.03174000
76.69999562	0.00000000	23.75738000	14.35162000
76.89999561	0.00000000	22.17643000	11.98327000
77.09999560	0.00000000	21.01993000	7.42495000
77.29999559	0.00000000	20.59547000	2.04232300
77.49999558	0.00000000	20.55241000	-2.60211600
77.69999556	0.00000000	20.55241000	-5.71481200
77.89999555	0.00000000	20.55241000	-6.82824800
78.09999554	0.00000000	20.55241000	-5.24729300
78.29999553	0.00000000	20.50935000	-1.02116100
78.49999552	0.00000000	20.13410000	4.77977300
78.69999550	0.00000000	19.43897000	10.91289000
78.89999549	0.00000000	19.48204000	15.92642000
79.09999548	0.00000000	20.59547000	18.25787000
79.29999547	0.00000000	22.17643000	17.88263000
79.49999546	0.00000000	24.08957000	14.81299000
79.69999544	0.00000000	25.99040000	9.79945900
79.89999543	0.00000000	26.74089000	4.41067900
80.09999542	0.00000000	26.40871000	-0.64591530
80.29999541	0.00000000	25.20300000	-4.13385800
80.49999540	0.00000000	23.24680000	-5.71481200
80.69999539	0.00000000	20.55241000	-5.29650500
80.89999537	0.00000000	17.90108000	-2.60211600
81.09999536	0.00000000	16.36319000	1.57480300
81.29999535	0.00000000	16.32013000	5.85014700
81.49999534	0.00000000	17.48277000	9.38115100
81.69999533	0.00000000	19.48204000	12.11860000
81.89999531	0.00000000	22.55167000	13.65650000
82.09999530	0.00000000	25.94734000	13.69956000
82.29999529	0.00000000	27.86048000	12.53691000
82.49999528	0.00000000	27.94660000	10.58686000
82.69999527	0.00000000	26.78395000	7.84940900
82.89999525	0.00000000	24.82775000	4.73671200
83.09999524	0.00000000	22.17643000	1.62401600
83.29999523	0.00000000	19.85728000	-1.07037400
83.49999522	0.00000000	18.68848000	-2.60211600
83.69999521	0.00000000	18.27633000	-2.64517700
83.89999520	0.00000000	19.01451000	-1.43946800
84.09999518	0.00000000	20.13410000	0.88582670
84.29999517	0.00000000	20.97072000	4.40452700
84.49999516	0.00000000	22.09030000	8.26771600
84.69999515	0.00000000	22.82849000	12.11860000
84.89999514	0.00000000	22.50861000	14.76993000
85.09999512	0.00000000	22.17643000	15.18824000
85.29999511	0.00000000	22.13336000	13.65650000
85.49999510	0.00000000	22.13336000	10.53765000
85.69999509	0.00000000	22.13336000	6.26845500
85.89999508	0.00000000	22.17643000	1.62401600
86.09999506	0.00000000	22.55167000	-2.60211600
86.29999505	0.00000000	23.24680000	-5.24729300
86.49999504	0.00000000	23.20374000	-5.24729300
86.69999503	0.00000000	22.09030000	-2.60211600
86.89999502	0.00000000	20.59547000	1.62401600
87.09999501	0.00000000	19.43897000	6.31151500
87.29999499	0.00000000	19.01451000	10.91289000
87.49999498	0.00000000	19.01451000	14.34547000
87.69999497	0.00000000	19.43897000	15.14518000
87.89999496	0.00000000	20.59547000	13.65650000
88.09999495	0.00000000	22.13336000	10.53765000
88.29999493	0.00000000	23.67126000	6.26845500
88.49999492	0.00000000	24.82775000	1.66707700
88.69999491	0.00000000	25.20300000	-2.14074800
88.89999490	0.00000000	24.82775000	-3.67249000
89.09999489	0.00000000	23.67126000	-2.55905500
89.29999487	0.00000000	22.17643000	0.51058070
89.49999486	0.00000000	20.92766000	4.73671200
89.69999485	0.00000000	19.80192000	8.96284400
89.89999484	0.00000000	18.65157000	12.07554000
90.09999483	0.00000000	18.68848000	13.56422000
90.29999482	0.00000000	19.38976000	12.77067000
90.49999480	0.00000000	20.59547000	9.33809000
90.69999479	0.00000000	22.09030000	4.77977300
90.89999478	0.00000000	23.24680000	0.55364170
91.09999477	0.00000000	23.67126000	-2.14074800
91.29999476	0.00000000	23.67126000	-2.55905500
91.49999474	0.00000000	23.29601000	-1.02116100
91.69999473	0.00000000	22.55167000	2.08538400
91.89999472	0.00000000	22.17643000	6.31151500
92.09999471	0.00000000	22.13336000	10.49459000
92.29999470	0.00000000	22.13336000	13.18898000
92.49999468	0.00000000	22.09030000	13.56422000
92.69999467	0.00000000	21.71506000	11.65723000
92.89999466	0.00000000	20.97072000	7.80019600
93.09999465	0.00000000	20.55241000	3.24803100
93.29999464	0.00000000	20.13410000	-0.60285430
93.49999463	0.00000000	19.38976000	-2.55905500
93.69999461	0.00000000	19.06373000	-2.55905500
93.89999460	0.00000000	19.43897000	-0.60285430
94.09999459	0.00000000	20.59547000	3.24803100
94.29999458	0.00000000	22.17643000	7.80019600
94.49999457	0.00000000	24.08957000	11.61417000
94.69999455	0.00000000	25.99040000	13.18898000
94.89999454	0.00000000	26.74089000	12.40773000
95.09999453	0.00000000	26.36565000	9.75024500
95.29999452	0.00000000	24.82775000	5.53026500
95.49999451	0.00000000	22.50861000	1.71013800
95.69999449	0.00000000	20.13410000	-1.02116100
95.89999448	0.00000000	17.43356000	-2.13459600
96.09999447	0.00000000	15.15748000	-1.02116100
96.29999446	0.00000000	14.40699000	1.62401600
96.49999445	0.00000000	15.20054000	4.73671200
96.69999444	0.00000000	17.90108000	7.80019600
96.89999442	0.00000000	21.71506000	10.11934000
97.09999441	0.00000000	25.20300000	10.86983000
97.29999440	0.00000000	27.94660000	10.11934000
97.49999439	0.00000000	29.48450000	7.84940900
97.69999438	0.00000000	29.48450000	5.19808000
97.89999436	0.00000000	27.90354000	3.19881900
98.09999435	0.00000000	24.82775000	1.66707700
98.29999434	0.00000000	20.97072000	0.92888770
98.49999433	0.00000000	17.48277000	1.66707700
98.69999432	0.00000000	14.73917000	3.15575800
98.89999430	0.00000000	13.24434000	4.73671200
99.09999429	0.00000000	13.61959000	6.22539300
99.29999428	0.00000000	15.90182000	7.00664300
99.49999427	0.00000000	19.01451000	6.68676100
99.69999426	0.00000000	22.50861000	6.35457700
99.89999425	0.00000000	25.99040000	6.31151500
100.09999423	0.00000000	28.27879000	6.31151500
100.29999422	0.00000000	29.10925000	6.35457700
100.49999421	0.00000000	28.32185000	6.72982200
100.69999420	0.00000000	26.40871000	7.42495000
100.89999419	0.00000000	23.67126000	7.38188900
101.09999417	0.00000000	20.59547000	6.26845500
101.29999416	0.00000000	17.85802000	4.73671200
101.49999415	0.00000000	15.94488000	3.15575800
101.69999414	0.00000000	15.15748000	1.66707700
101.89999413	0.00000000	15.90182000	0.87967510
102.09999411	0.00000000	17.43356000	1.29183100
102.29999410	0.00000000	19.38976000	2.46063000
102.49999409	0.00000000	21.71506000	4.82283400
102.69999408	0.00000000	23.67126000	7.84940900
102.89999407	0.00000000	25.25221000	10.53765000
103.09999406	0.00000000	26.36565000	12.07554000
103.29999404	0.00000000	26.36565000	12.07554000
103.49999403	0.00000000	25.20300000	10.53765000
103.69999402	0.00000000	23.29601000	7.84940900
103.89999401	0.00000000	20.97072000	4.73671200
104.09999400	0.00000000	19.06373000	1.66707700
104.29999398	0.00000000	17.85802000	-0.64591530
104.49999397	0.00000000	17.48277000	-1.39640700
104.69999396	0.00000000	17.85802000	-0.64591530
104.89999395	0.00000000	19.01451000	1.66707700
105.09999394	0.00000000	20.55241000	4.73671200
105.29999392	0.00000000	22.09030000	7.80019600
105.49999391	0.00000000	23.24680000	10.07628000
105.69999390	0.00000000	23.62205000	10.49459000
105.89999389	0.00000000	23.29601000	9.38115100
106.09999388	0.00000000	22.50861000	7.47416300
106.29999387	0.00000000	21.71506000	5.15501900
106.49999385	0.00000000	20.55241000	3.19881900
106.69999384	0.00000000	19.43897000	1.66707700
106.89999383	0.00000000	19.06373000	0.92888770
107.09999382	0.00000000	19.43897000	1.71013800
107.29999381	0.00000000	20.55241000	3.53100400
107.49999379	0.00000000	21.71506000	5.47490100
107.69999378	0.00000000	22.46555000	6.64370100
107.89999377	0.00000000	22.87770000	7.42495000
108.09999376	0.00000000	22.46555000	7.38188900
108.29999375	0.00000000	21.71506000	6.26845500
108.49999374	0.00000000	20.55241000	4.73671200
108.69999372	0.00000000	19.43897000	3.19881900
108.89999371	0.00000000	19.01451000	2.08538400
109.09999370	0.00000000	19.01451000	2.08538400
109.29999369	0.00000000	19.43897000	3.19881900
109.49999368	0.00000000	20.59547000	4.73671200
109.69999366	0.00000000	22.09030000	6.26845500
109.89999365	0.00000000	23.24680000	7.42495000
110.09999364	0.00000000	23.67126000	7.80019600
110.29999363	0.00000000	23.67126000	7.47416300
110.49999362	0.00000000	23.24680000	6.68676100
110.69999360	0.00000000	22.13336000	5.89320800
110.89999359	0.00000000	20.97072000	4.68750000
111.09999358	0.00000000	20.17716000	3.24803100
111.29999357	0.00000000	19.38976000	2.46063000
111.49999356	0.00000000	19.01451000	2.78051200
111.69999355	0.00000000	19.01451000	3.15575800
111.89999353	0.00000000	19.43897000	3.62327700
112.09999352	0.00000000	20.55241000	4.73671200
112.29999351	0.00000000	21.66585000	5.85014700
112.49999350	0.00000000	22.13336000	6.31151500
112.69999349	0.00000000	22.50861000	6.68676100
112.89999347	0.00000000	22.87770000	7.00664300
113.09999346	0.00000000	22.46555000	6.31151500
113.29999345	0.00000000	21.75812000	5.57332700
113.49999344	0.00000000	20.97072000	5.51796200
113.69999343	0.00000000	20.59547000	5.11195900
113.89999341	0.00000000	20.55241000	4.77977300
114.09999340	0.00000000	20.55241000	4.73671200
114.29999339	0.00000000	20.55241000	4.73671200
114.49999338	0.00000000	20.55241000	4.69365100
114.69999337	0.00000000	20.59547000	4.31840500
114.89999336	0.00000000	20.97072000	3.57406500
115.09999334	0.00000000	21.71506000	3.19881900
115.29999333	0.00000000	22.09030000	3.19881900
115.49999332	0.00000000	22.13336000	3.57406500
115.69999331	0.00000000	22.09030000	4.36146600
115.89999330	0.00000000	21.71506000	5.11195900
116.09999328	0.00000000	20.97072000	5.89320800
116.29999327	0.00000000	20.55241000	6.31151500
116.49999326	0.00000000	20.17716000	6.68676100
116.69999325	0.00000000	19.80807000	7.05585600
116.89999324	0.00000000	20.17716000	6.64370100
117.09999322	0.00000000	20.55241000	5.93626900
117.29999321	0.00000000	20.97072000	5.11195900
117.49999320	0.00000000	21.75812000	4.36146600
117.69999319	0.00000000	22.50861000	3.57406500
117.89999318	0.00000000	23.29601000	3.19881900
118.09999317	0.00000000	23.62205000	3.15575800
118.29999315	0.00000000	23.29601000	3.19881900
118.49999314	0.00000000	22.50861000	3.57406500
118.69999313	0.00000000	21.71506000	4.36146600
118.89999312	0.00000000	20.50935000	5.11195900
119.09999311	0.00000000	19.06373000	5.89320800
119.29999309	0.00000000	18.22711000	6.26845500
119.49999308	0.00000000	18.22096000	6.31151500
119.69999307	0.00000000	18.22711000	6.31151500
119.89999306	0.00000000	19.06373000	6.31151500
120.09999305	0.00000000	20.55241000	6.26845500
120.29999303	0.00000000	22.09030000	5.89320800
120.49999302	0.00000000	23.24680000	5.15501900
120.69999301	0.00000000	23.67126000	4.77977300
120.89999300	0.00000000	23.67126000	4.69365100
121.09999299	0.00000000	23.24680000	4.31840500
121.29999298	0.00000000	22.09030000	3.57406500
121.49999296	0.00000000	20.59547000	3.19881900
121.69999295	0.00000000	19.38976000	3.19881900
121.89999294	0.00000000	18.63927000	3.57406500
122.09999293	0.00000000	18.22711000	4.31840500
122.29999292	0.00000000	18.63927000	4.73671200
122.49999290	0.00000000	19.34670000	5.15501900
122.69999289	0.00000000	20.17716000	5.89320800
122.89999288	0.00000000	20.92766000	6.26845500
123.09999287	0.00000000	21.75812000	6.31151500
123.29999286	0.00000000	22.50861000	6.26845500
123.49999284	0.00000000	23.29601000	5.89320800
123.69999283	0.00000000	23.62205000	5.11195900
123.89999282	0.00000000	23.29601000	4.36146600
124.09999281	0.00000000	22.50861000	3.57406500
124.29999280	0.00000000	21.75812000	3.19881900
124.49999279	0.00000000	20.92766000	3.19881900
124.69999277	0.00000000	20.17716000	3.57406500
124.89999276	0.00000000	19.38976000	4.31840500
125.09999275	0.00000000	19.01451000	4.69365100
125.29999274	0.00000000	18.97145000	4.77977300
125.49999273	0.00000000	19.01451000	5.15501900
125.69999271	0.00000000	19.38976000	5.89320800
125.89999270	0.00000000	20.17716000	6.26845500
126.09999269	0.00000000	20.92766000	6.31151500
126.29999268	0.00000000	21.75812000	6.26845500
126.49999267	0.00000000	22.50861000	5.89320800
126.69999265	0.00000000	23.24680000	5.15501900
126.89999264	0.00000000	23.20374000	4.77977300
127.09999263	0.00000000	22.13336000	4.73671200
127.29999262	0.00000000	20.97072000	4.73671200
127.49999261	0.00000000	20.17716000	4.73671200
127.69999260	0.00000000	19.38976000	4.73671200
127.89999258	0.00000000	19.01451000	4.73671200
128.09999257	0.00000000	19.01451000	4.73671200
128.29999256	0.00000000	19.38976000	4.73671200
128.49999255	0.00000000	20.17716000	4.73671200
128.69999254	0.00000000	20.92766000	4.73671200
128.89999252	0.00000000	21.75812000	4.73671200
129.09999251	0.00000000	22.46555000	4.73671200
129.29999250	0.00000000	22.87770000	4.73671200
129.49999249	0.00000000	22.46555000	4.73671200
129.69999248	0.00000000	21.71506000	4.73671200
129.89999246	0.00000000	20.55241000	4.73671200
130.09999245	0.00000000	19.43897000	4.73671200
130.29999244	0.00000000	19.01451000	4.73671200
130.49999243	0.00000000	19.01451000	4.73671200
130.69999242	0.00000000	19.38976000	4.73671200
130.89999241	0.00000000	20.17716000	4.73671200
131.09999239	0.00000000	20.92766000	4.73671200
131.29999238	0.00000000	21.71506000	4.73671200
131.49999237	0.00000000	22.09030000	4.73671200
131.69999236	0.00000000	22.13336000	4.69365100
131.89999235	0.00000000	22.09030000	4.31840500
132.09999233	0.00000000	21.71506000	3.57406500
132.29999232	0.00000000	20.92766000	3.19881900
132.49999231	0.00000000	20.17716000	3.19881900
132.69999230	0.00000000	19.38976000	3.57406500
132.89999229	0.00000000	19.06373000	4.36146600
133.09999227	0.00000000	19.38976000	5.11195900
133.29999226	0.00000000	20.17716000	5.89320800
133.49999225	0.00000000	20.92766000	6.26845500
133.69999224	0.00000000	21.66585000	6.31151500
133.89999223	0.00000000	21.66585000	6.31151500
134.09999222	0.00000000	20.97072000	6.26845500
134.29999220	0.00000000	20.59547000	5.85014700
134.49999219	0.00000000	20.55241000	4.73671200
134.69999218	0.00000000	20.55241000	3.62327700
134.89999217	0.00000000	20.55241000	3.19881900
135.09999216	0.00000000	20.59547000	3.15575800
135.29999214	0.00000000	20.97072000	3.19881900
135.49999213	0.00000000	21.71506000	3.57406500
135.69999212	0.00000000	22.04109000	4.36146600
135.89999211	0.00000000	21.71506000	5.11195900
136.09999210	0.00000000	20.92766000	5.89320800
136.29999208	0.00000000	20.17716000	6.26845500
136.49999207	0.00000000	19.38976000	6.31151500
136.69999206	0.00000000	19.06373000	6.31151500
136.89999205	0.00000000	19.38976000	6.26845500
137.09999204	0.00000000	20.13410000	5.89320800
137.29999203	0.00000000	20.55241000	5.15501900
137.49999201	0.00000000	20.97072000	4.77977300
137.69999200	0.00000000	21.71506000	4.69365100
137.89999199	0.00000000	22.09030000	4.31840500
138.09999198	0.00000000	22.13336000	3.57406500
138.29999197	0.00000000	22.09030000	3.19881900
138.49999195	0.00000000	21.71506000	3.19881900
138.69999194	0.00000000	20.92766000	3.57406500
138.89999193	0.00000000	20.17716000	4.31840500
139.09999192	0.00000000	19.38976000	4.73671200
139.29999191	0.00000000	19.06373000	5.15501900
139.49999189	0.00000000	19.38976000	5.89320800
139.69999188	0.00000000	20.17716000	6.26845500
139.89999187	0.00000000	20.92766000	6.31151500
140.09999186	0.00000000	21.71506000	6.26845500
140.29999185	0.00000000	22.09030000	5.85014700
140.49999184	0.00000000	22.09030000	4.73671200
140.69999182	0.00000000	21.71506000	3.62327700
140.89999181	0.00000000	20.97072000	3.19881900
141.09999180	0.00000000	20.59547000	3.15575800
141.29999179	0.00000000	20.55241000	3.15575800
141.49999178	0.00000000	20.55241000	3.19881900
141.69999176	0.00000000	20.55241000	3.62327700
141.89999175	0.00000000	20.55241000	4.73671200
142.09999174	0.00000000	20.55241000	5.85014700
142.29999173	0.00000000	20.55241000	6.26845500
142.49999172	0.00000000	20.59547000	6.31151500
142.69999170	0.00000000	20.92766000	6.26845500
142.89999169	0.00000000	21.29675000	5.89320800
143.09999168	0.00000000	20.92766000	5.11195900
143.29999167	0.00000000	20.59547000	4.36146600
143.49999166	0.00000000	20.55241000	3.57406500
143.69999165	0.00000000	20.55241000	3.19881900
143.89999163	0.00000000	20.55241000	3.15575800
144.09999162	0.00000000	20.55241000	3.19881900
144.29999161	0.00000000	20.55241000	3.57406500
144.49999160	0.00000000	20.55241000	4.36146600
144.69999159	0.00000000	20.59547000	5.11195900
144.89999157	0.00000000	20.92766000	5.89320800
145.09999156	0.00000000	21.29675000	6.26845500
145.29999155	0.00000000	20.92766000	6.26845500
145.49999154	0.00000000	20.55241000	5.89320800
145.69999153	0.00000000	20.13410000	5.15501900
145.89999151	0.00000000	19.38976000	4.73671200
146.09999150	0.00000000	19.06373000	4.31840500
146.29999149	0.00000000	19.38976000	3.57406500
146.49999148	0.00000000	20.13410000	3.24803100
146.69999147	0.00000000	20.55241000	3.57406500
146.89999146	0.00000000	20.92766000	4.31840500
147.09999144	0.00000000	21.33981000	4.69365100
147.29999143	0.00000000	21.30290000	4.73671200
147.49999142	0.00000000	21.33981000	4.73671200
147.69999141	0.00000000	20.92766000	4.77977300
147.89999140	0.00000000	20.55241000	5.15501900
148.09999138	0.00000000	20.13410000	5.85014700
148.29999137	0.00000000	19.43897000	5.85014700
148.49999136	0.00000000	19.38976000	5.15501900
148.69999135	0.00000000	19.75886000	4.77977300
148.89999134	0.00000000	19.76501000	4.73671200
149.09999132	0.00000000	20.17716000	4.73671200
149.29999131	0.00000000	20.50935000	4.73671200
149.49999130	0.00000000	20.59547000	4.73671200
149.69999129	0.00000000	20.97072000	4.73671200
149.89999128	0.00000000	21.66585000	4.73671200
150.09999127	0.00000000	21.66585000	4.73671200
150.29999125	0.00000000	20.97072000	4.77977300
150.49999124	0.00000000	20.59547000	5.15501900
150.69999123	0.00000000	20.50935000	5.89320800
150.89999122	0.00000000	20.17716000	6.26845500
151.09999121	0.00000000	19.80807000	6.31151500
151.29999119	0.00000000	20.17716000	6.26845500
151.49999118	0.00000000	20.50935000	5.89320800
151.69999117	0.00000000	20.55241000	5.15501900
151.89999116	0.00000000	20.55241000	4.73671200
152.09999115	0.00000000	20.55241000	4.31840500
152.29999113	0.00000000	20.55241000	3.62327700
152.49999112	0.00000000	20.55241000	3.62327700
152.69999111	0.00000000	20.55241000	4.31840500
152.89999110	0.00000000	20.55241000	4.69365100
153.09999109	0.00000000	20.55241000	4.73671200
153.29999108	0.00000000	20.55241000	4.73671200
153.49999106	0.00000000	20.50935000	4.73671200
153.69999105	0.00000000	20.17716000	4.73671200
153.89999104	0.00000000	19.76501000	4.73671200
154.09999103	0.00000000	19.75886000	4.73671200
154.29999102	0.00000000	19.34670000	4.73671200
154.49999100	0.00000000	19.06373000	4.73671200
154.69999099	0.00000000	19.38976000	4.73671200
154.89999098	0.00000000	20.13410000	4.73671200
155.09999097	0.00000000	20.50935000	4.73671200
155.29999096	0.00000000	20.55241000	4.73671200
155.49999094	0.00000000	20.55241000	4.69365100
155.69999093	0.00000000	20.55241000	4.36146600
155.89999092	0.00000000	20.55241000	3.99237200
156.09999091	0.00000000	20.55241000	4.36146600
156.29999090	0.00000000	20.55241000	4.69365100
156.49999089	0.00000000	20.50935000	4.73671200
156.69999087	0.00000000	20.13410000	4.73671200
156.89999086	0.00000000	19.38976000	4.77977300
157.09999085	0.00000000	19.01451000	5.15501900
157.29999084	0.00000000	18.97145000	5.85014700
157.49999083	0.00000000	18.97145000	5.85014700
157.69999081	0.00000000	19.01451000	5.15501900
157.89999080	0.00000000	19.38976000	4.77977300
158.09999079	0.00000000	20.13410000	4.69365100
158.29999078	0.00000000	20.50935000	4.36146600
158.49999077	0.00000000	20.55241000	3.99237200
158.69999075	0.00000000	20.55241000	4.36146600
158.89999074	0.00000000	20.55241000	4.69365100
159.09999073	0.00000000	20.55241000	4.73671200
159.29999072	0.00000000	20.55241000	4.73671200
159.49999071	0.00000000	20.55241000	4.77977300
159.69999070	0.00000000	20.50935000	5.15501900
159.89999068	0.00000000	20.13410000	5.85014700
160.09999067	0.00000000	19.38976000	5.85014700
160.29999066	0.00000000	19.01451000	5.15501900
160.49999065	0.00000000	18.97145000	4.77977300
160.69999064	0.00000000	19.01451000	4.73671200
160.89999062	0.00000000	19.38976000	4.73671200
161.09999061	0.00000000	20.13410000	4.73671200
161.29999060	0.00000000	20.50935000	4.69365100
161.49999059	0.00000000	20.55241000	4.36146600
161.69999058	0.00000000	20.55241000	3.94931100
161.89999056	0.00000000	20.55241000	3.98622000
162.09999055	0.00000000	20.55241000	3.94931100
162.29999054	0.00000000	20.55241000	4.36146600
162.49999053	0.00000000	20.55241000	4.69365100
162.69999052	0.00000000	20.50935000	4.77977300
162.89999051	0.00000000	20.17716000	5.11195900
163.09999049	0.00000000	19.76501000	5.47490100
163.29999048	0.00000000	19.75886000	5.11195900
163.49999047	0.00000000	19.34670000	4.77977300
163.69999046	0.00000000	19.01451000	4.73671200
163.89999045	0.00000000	18.97145000	4.73671200
164.09999043	0.00000000	19.01451000	4.73671200
164.29999042	0.00000000	19.38976000	4.73671200
164.49999041	0.00000000	20.13410000	4.73671200
164.69999040	0.00000000	20.50935000	4.73671200
164.89999039	0.00000000	20.55241000	4.73671200
165.09999037	0.00000000	20.55241000	4.73671200
165.29999036	0.00000000	20.55241000	4.73671200
165.49999035	0.00000000	20.55241000	4.73671200
165.69999034	0.00000000	20.50935000	4.73671200
165.89999033	0.00000000	20.13410000	4.73671200
166.09999032	0.00000000	19.38976000	4.73671200
166.29999030	0.00000000	19.01451000	4.73671200
166.49999029	0.00000000	18.97145000	4.73671200
166.69999028	0.00000000	18.97145000	4.73671200
166.89999027	0.00000000	18.97145000	4.73671200
167.09999026	0.00000000	18.97145000	4.73671200
167.29999024	0.00000000	19.01451000	4.73671200
167.49999023	0.00000000	19.38976000	4.73671200
167.69999022	0.00000000	20.13410000	4.73671200
167.89999021	0.00000000	20.50935000	4.73671200
168.09999020	0.00000000	20.55241000	4.73671200
168.29999018	0.00000000	20.55241000	4.73671200
168.49999017	0.00000000	20.50935000	4.69365100
168.69999016	0.00000000	20.17716000	4.36146600
168.89999015	0.00000000	19.80807000	3.99237200
169.09999014	0.00000000	20.17716000	4.36146600
169.29999013	0.00000000	20.46014000	4.69365100
169.49999011	0.00000000	20.13410000	4.73671200
169.69999010	0.00000000	19.38976000	4.73671200
169.89999009	0.00000000	19.01451000	4.73671200
170.09999008	0.00000000	18.97145000	4.73671200
170.29999007	0.00000000	19.01451000	4.73671200
170.49999005	0.00000000	19.38976000	4.73671200
170.69999004	0.00000000	20.13410000	4.69365100
170.89999003	0.00000000	20.50935000	4.36146600
171.09999002	0.00000000	20.55241000	3.99237200
171.29999001	0.00000000	20.55241000	4.36146600
171.49998999	0.00000000	20.55241000	4.69365100
171.69998998	0.00000000	20.55241000	4.73671200
171.89998997	0.00000000	20.55241000	4.73671200
172.09998996	0.00000000	20.50935000	4.73671200
172.29998995	0.00000000	20.17716000	4.73671200
172.49998994	0.00000000	19.76501000	4.73671200
172.69998992	0.00000000	19.75886000	4.73671200
172.89998991	0.00000000	19.34670000	4.73671200
173.09998990	0.00000000	19.06373000	4.73671200
173.29998989	0.00000000	19.38976000	4.73671200
173.49998988	0.00000000	20.13410000	4.73671200
173.69998986	0.00000000	20.50935000	4.73671200
173.89998985	0.00000000	20.55241000	4.73671200
174.09998984	0.00000000	20.55241000	4.73671200
174.29998983	0.00000000	20.50935000	4.73671200
174.49998982	0.00000000	20.17716000	4.73671200
174.69998980	0.00000000	19.80807000	4.73671200
174.89998979	0.00000000	20.13410000	4.69365100
175.09998978	0.00000000	20.08489000	4.36146600
175.29998977	0.00000000	19.43897000	3.99237200
175.49998976	0.00000000	19.38976000	4.36146600
175.69998975	0.00000000	19.75886000	4.69365100
175.89998973	0.00000000	19.76501000	4.73671200
176.09998972	0.00000000	20.17716000	4.73671200
176.29998971	0.00000000	20.50935000	4.73671200
176.49998970	0.00000000	20.55241000	4.73671200
176.69998969	0.00000000	20.55241000	4.73671200
176.89998967	0.00000000	20.50935000	4.73671200
177.09998966	0.00000000	20.17716000	4.69365100
177.29998965	0.00000000	19.76501000	4.31840500
177.49998964	0.00000000	19.80192000	3.62327700
177.69998963	0.00000000	19.72195000	3.62327700
177.89998961	0.00000000	19.75886000	4.31840500
178.09998960	0.00000000	19.34670000	4.69365100
178.29998959	0.00000000	19.01451000	4.73671200
178.49998958	0.00000000	19.01451000	4.73671200
178.69998957	0.00000000	19.34670000	4.73671200
178.89998956	0.00000000	19.75886000	4.73671200
179.09998954	0.00000000	19.76501000	4.73671200
179.29998953	0.00000000	20.17716000	4.73671200
179.49998952	0.00000000	20.50935000	4.69365100
179.69998951	0.00000000	20.55241000	4.36146600
179.89998950	0.00000000	20.55241000	3.94931100
180.09998948	0.00000000	20.50935000	3.98622000
180.29998947	0.00000000	20.17716000	3.94931100
180.49998946	0.00000000	19.76501000	4.31840500
180.69998945	0.00000000	19.75886000	4.31840500
180.89998944	0.00000000	19.34670000	3.99237200
181.09998942	0.00000000	19.01451000	4.36146600
181.29998941	0.00000000	18.97145000	4.69365100
181.49998940	0.00000000	19.01451000	4.73671200
181.69998939	0.00000000	19.34670000	4.73671200
181.89998938	0.00000000	19.75886000	4.73671200
182.09998937	0.00000000	19.76501000	4.73671200
182.29998935	0.00000000	20.17716000	4.73671200
182.49998934	0.00000000	20.50935000	4.73671200
182.69998933	0.00000000	20.50935000	4.73671200
182.89998932	0.00000000	20.17716000	4.69365100
183.09998931	0.00000000	19.80807000	4.31840500
183.29998929	0.00000000	20.17716000	3.57406500
183.49998928	0.00000000	20.46014000	3.19881900
183.69998927	0.00000000	20.13410000	3.19881900
183.89998926	0.00000000	19.43897000	3.57406500
184.09998925	0.00000000	19.38976000	4.31840500
184.29998923	0.00000000	19.71580000	4.69365100
184.49998922	0.00000000	19.34670000	4.73671200
184.69998921	0.00000000	19.01451000	4.73671200
184.89998920	0.00000000	18.97145000	4.73671200
185.09998919	0.00000000	19.01451000	4.73671200
185.29998918	0.00000000	19.34670000	4.73671200
185.49998916	0.00000000	19.71580000	4.73671200
185.69998915	0.00000000	19.38976000	4.73671200
185.89998914	0.00000000	19.38976000	4.69365100
186.09998913	0.00000000	19.75886000	4.31840500
186.29998912	0.00000000	19.76501000	3.57406500
186.49998910	0.00000000	20.17716000	3.19881900
186.69998909	0.00000000	20.46014000	3.19881900
186.89998908	0.00000000	20.13410000	3.57406500
187.09998907	0.00000000	19.38976000	4.31840500
187.29998906	0.00000000	19.06373000	4.69365100
187.49998904	0.00000000	19.34670000	4.77977300
187.69998903	0.00000000	19.71580000	5.11195900
187.89998902	0.00000000	19.34670000	5.47490100
188.09998901	0.00000000	19.01451000	5.11195900
188.29998900	0.00000000	18.97145000	4.77977300
188.49998899	0.00000000	18.97145000	4.69365100
188.69998897	0.00000000	19.01451000	4.31840500
188.89998896	0.00000000	19.38976000	3.57406500
189.09998895	0.00000000	20.13410000	3.19881900
189.29998894	0.00000000	20.50935000	3.15575800
189.49998893	0.00000000	20.50935000	3.19881900
189.69998891	0.00000000	20.13410000	3.57406500
189.89998890	0.00000000	19.38976000	4.31840500
190.09998889	0.00000000	19.01451000	4.69365100
190.29998888	0.00000000	18.97145000	4.73671200
190.49998887	0.00000000	18.97145000	4.73671200
190.69998885	0.00000000	18.97145000	4.73671200
190.89998884	0.00000000	18.97145000	4.73671200
191.09998883	0.00000000	18.97145000	4.73671200
191.29998882	0.00000000	19.01451000	4.73671200
191.49998881	0.00000000	19.34670000	4.73671200
191.69998880	0.00000000	19.71580000	4.73671200
191.89998878	0.00000000	19.38976000	4.73671200
192.09998877	0.00000000	19.43897000	4.73671200
192.29998876	0.00000000	20.13410000	4.69365100
192.49998875	0.00000000	20.46014000	4.31840500
192.69998874	0.00000000	20.13410000	3.57406500
192.89998872	0.00000000	19.38976000	3.24803100
193.09998871	0.00000000	19.01451000	3.57406500
193.29998870	0.00000000	18.97145000	4.31840500
193.49998869	0.00000000	18.97145000	4.69365100
193.69998868	0.00000000	18.97145000	4.73671200
193.89998866	0.00000000	18.97145000	4.73671200
194.09998865	0.00000000	19.01451000	4.73671200
194.29998864	0.00000000	19.38976000	4.73671200
194.49998863	0.00000000	20.13410000	4.73671200
194.69998862	0.00000000	20.50935000	4.73671200
194.89998861	0.00000000	20.55241000	4.73671200
195.09998859	0.00000000	20.50935000	4.73671200
195.29998858	0.00000000	20.13410000	4.69365100
195.49998857	0.00000000	19.38976000	4.36146600
195.69998856	0.00000000	19.01451000	3.94931100
195.89998855	0.00000000	18.97145000	3.98622000
196.09998853	0.00000000	18.97145000	3.94931100
